Data from 1963.PennyLincolnUp.Lamp.En5.5.200Scan.071719.P1._HRD10591_13-57-47-062.txt Node
Date: Thu Jul 18 13:57:47 EDT 2019
User: cochatt
Spectrometer: HR+D1059
Trigger mode: 1
Integration Time (sec): 1.000000E-1
Scans to average: 1
Electric dark correction enabled: true
Nonlinearity correction enabled: false
Boxcar width: 0
XAxis mode: Wavelengths
Number of Pixels in Spectrum: 2048
>>>>>Begin Spectral Data<<<<<
223.165	-16.25
223.4	-16.25
223.635	-16.25
223.869	-19.25
224.104	-14.25
224.338	-17.25
224.573	-12.25
224.808	-7.25
225.042	-16.25
225.277	-0.25
225.511	-8.25
225.746	3.75
225.98	-4.25
226.215	22.75
226.449	23.75
226.683	21.75
226.918	22.75
227.152	20.75
227.387	35.75
227.621	30.75
227.856	40.75
228.09	48.75
228.324	45.75
228.559	53.75
228.793	70.75
229.027	93.75
229.262	101.75
229.496	101.75
229.73	122.75
229.964	138.75
230.199	114.75
230.433	116.75
230.667	111.75
230.901	113.75
231.136	112.75
231.37	109.75
231.604	113.75
231.838	104.75
232.072	108.75
232.306	118.75
232.541	111.75
232.775	102.75
233.009	101.75
233.243	118.75
233.477	119.75
233.711	124.75
233.945	116.75
234.179	112.75
234.413	116.75
234.647	115.75
234.881	117.75
235.115	111.75
235.349	110.75
235.583	115.75
235.817	101.75
236.051	117.75
236.285	112.75
236.519	122.75
236.753	145.75
236.987	134.75
237.221	132.75
237.455	167.75
237.689	157.75
237.922	146.75
238.156	124.75
238.39	141.75
238.624	118.75
238.858	124.75
239.091	113.75
239.325	121.75
239.559	134.75
239.793	113.75
240.027	132.75
240.26	149.75
240.494	156.75
240.728	145.75
240.961	149.75
241.195	141.75
241.429	144.75
241.662	116.75
241.896	133.75
242.13	133.75
242.363	143.75
242.597	155.75
242.83	143.75
243.064	129.75
243.298	140.75
243.531	146.75
243.765	135.75
243.998	143.75
244.232	151.75
244.465	143.75
244.699	152.75
244.932	152.75
245.166	150.75
245.399	144.75
245.633	160.75
245.866	145.75
246.099	152.75
246.333	144.75
246.566	150.75
246.8	157.75
247.033	145.75
247.266	173.75
247.5	172.75
247.733	169.75
247.966	180.75
248.2	178.75
248.433	179.75
248.666	159.75
248.899	161.75
249.133	190.75
249.366	182.75
249.599	181.75
249.832	190.75
250.066	195.75
250.299	194.75
250.532	202.75
250.765	214.75
250.998	218.75
251.231	205.75
251.465	206.75
251.698	221.75
251.931	217.75
252.164	190.75
252.397	199.75
252.63	192.75
252.863	211.75
253.096	208.75
253.329	224.75
253.562	209.75
253.795	197.75
254.028	226.75
254.261	215.75
254.494	225.75
254.727	239.75
254.96	252.75
255.193	253.75
255.426	237.75
255.659	229.75
255.892	230.75
256.124	213.75
256.357	232.75
256.59	209.75
256.823	231.75
257.056	215.75
257.289	232.75
257.521	232.75
257.754	211.75
257.987	215.75
258.22	208.75
258.452	215.75
258.685	240.75
258.918	216.75
259.151	216.75
259.383	219.75
259.616	220.75
259.849	230.75
260.081	247.75
260.314	244.75
260.547	224.75
260.779	236.75
261.012	238.75
261.244	221.75
261.477	229.75
261.71	219.75
261.942	221.75
262.175	228.75
262.407	248.75
262.64	217.75
262.872	223.75
263.105	231.75
263.337	235.75
263.57	224.75
263.802	218.75
264.035	242.75
264.267	237.75
264.499	240.75
264.732	231.75
264.964	210.75
265.197	245.75
265.429	215.75
265.661	217.75
265.894	225.75
266.126	250.75
266.358	254.75
266.591	247.75
266.823	263.75
267.055	253.75
267.287	240.75
267.52	236.75
267.752	245.75
267.984	246.75
268.216	248.75
268.448	242.75
268.681	247.75
268.913	272.75
269.145	260.75
269.377	273.75
269.609	282.75
269.841	271.75
270.073	267.75
270.306	280.75
270.538	302.75
270.77	303.75
271.002	308.75
271.234	282.75
271.466	293.75
271.698	277.75
271.93	288.75
272.162	316.75
272.394	301.75
272.626	318.75
272.858	294.75
273.09	313.75
273.322	312.75
273.553	308.75
273.785	280.75
274.017	304.75
274.249	292.75
274.481	278.75
274.713	284.75
274.945	293.75
275.176	298.75
275.408	284.75
275.64	290.75
275.872	296.75
276.104	278.75
276.335	282.75
276.567	286.75
276.799	280.75
277.031	321.75
277.262	317.75
277.494	322.75
277.726	321.75
277.957	317.75
278.189	306.75
278.421	313.75
278.652	312.75
278.884	311.75
279.115	292.75
279.347	292.75
279.579	296.75
279.81	304.75
280.042	313.75
280.273	306.75
280.505	301.75
280.736	294.75
280.968	290.75
281.199	312.75
281.431	323.75
281.662	303.75
281.894	315.75
282.125	315.75
282.356	313.75
282.588	323.75
282.819	343.75
283.051	323.75
283.282	298.75
283.513	310.75
283.745	308.75
283.976	305.75
284.207	321.75
284.439	311.75
284.67	310.75
284.901	345.75
285.132	321.75
285.364	318.75
285.595	335.75
285.826	316.75
286.057	311.75
286.288	311.75
286.52	330.75
286.751	344.75
286.982	325.75
287.213	328.75
287.444	325.75
287.675	329.75
287.906	333.75
288.138	328.75
288.369	339.75
288.6	358.75
288.831	337.75
289.062	337.75
289.293	342.75
289.524	344.75
289.755	332.75
289.986	330.75
290.217	344.75
290.448	352.75
290.679	344.75
290.91	341.75
291.141	337.75
291.371	340.75
291.602	364.75
291.833	352.75
292.064	339.75
292.295	341.75
292.526	333.75
292.757	338.75
292.987	340.75
293.218	334.75
293.449	360.75
293.68	360.75
293.91	357.75
294.141	373.75
294.372	344.75
294.603	343.75
294.833	345.75
295.064	359.75
295.295	371.75
295.525	336.75
295.756	360.75
295.987	358.75
296.217	379.75
296.448	370.75
296.679	359.75
296.909	357.75
297.14	362.75
297.37	360.75
297.601	366.75
297.831	364.75
298.062	378.75
298.292	381.75
298.523	376.75
298.753	355.75
298.984	356.75
299.214	380.75
299.445	384.75
299.675	385.75
299.905	398.75
300.136	374.75
300.366	368.75
300.597	377.75
300.827	384.75
301.057	386.75
301.288	376.75
301.518	383.75
301.748	386.75
301.979	375.75
302.209	416.75
302.439	413.75
302.669	402.75
302.9	381.75
303.13	386.75
303.36	386.75
303.59	405.75
303.82	387.75
304.051	393.75
304.281	400.75
304.511	384.75
304.741	376.75
304.971	376.75
305.201	388.75
305.431	399.75
305.661	406.75
305.891	371.75
306.121	376.75
306.352	369.75
306.582	402.75
306.812	409.75
307.042	390.75
307.272	402.75
307.502	376.75
307.731	389.75
307.961	390.75
308.191	384.75
308.421	386.75
308.651	370.75
308.881	400.75
309.111	393.75
309.341	396.75
309.571	386.75
309.8	404.75
310.03	411.75
310.26	417.75
310.49	420.75
310.72	414.75
310.949	426.75
311.179	418.75
311.409	430.75
311.639	417.75
311.868	425.75
312.098	433.75
312.328	410.75
312.557	428.75
312.787	427.75
313.017	448.75
313.246	445.75
313.476	408.75
313.706	405.75
313.935	430.75
314.165	449.75
314.394	443.75
314.624	442.75
314.853	442.75
315.083	429.75
315.312	449.75
315.542	436.75
315.771	424.75
316.001	450.75
316.23	423.75
316.46	420.75
316.689	421.75
316.919	434.75
317.148	430.75
317.377	437.75
317.607	426.75
317.836	421.75
318.065	429.75
318.295	440.75
318.524	436.75
318.753	413.75
318.983	436.75
319.212	416.75
319.441	441.75
319.67	431.75
319.9	447.75
320.129	426.75
320.358	431.75
320.587	431.75
320.816	439.75
321.046	433.75
321.275	451.75
321.504	425.75
321.733	438.75
321.962	449.75
322.191	454.75
322.42	444.75
322.649	455.75
322.878	462.75
323.108	467.75
323.337	477.75
323.566	478.75
323.795	495.75
324.024	493.75
324.253	548.75
324.482	682.75
324.71	979.75
324.939	1383.75
325.168	1220.75
325.397	719.75
325.626	549.75
325.855	514.75
326.084	504.75
326.313	488.75
326.542	510.75
326.77	511.75
326.999	577.75
327.228	660.75
327.457	908.75
327.686	1074.75
327.914	799.75
328.143	602.75
328.372	564.75
328.6	549.75
328.829	510.75
329.058	532.75
329.287	536.75
329.515	534.75
329.744	528.75
329.972	530.75
330.201	532.75
330.43	530.75
330.658	548.75
330.887	576.75
331.115	568.75
331.344	551.75
331.572	526.75
331.801	547.75
332.03	522.75
332.258	538.75
332.486	547.75
332.715	539.75
332.943	562.75
333.172	582.75
333.4	591.75
333.629	579.75
333.857	602.75
334.085	621.75
334.314	612.75
334.542	616.75
334.771	617.75
334.999	596.75
335.227	590.75
335.455	568.75
335.684	566.75
335.912	558.75
336.14	558.75
336.369	554.75
336.597	540.75
336.825	558.75
337.053	556.75
337.281	521.75
337.51	535.75
337.738	546.75
337.966	510.75
338.194	536.75
338.422	512.75
338.65	524.75
338.878	522.75
339.106	501.75
339.334	537.75
339.562	517.75
339.79	515.75
340.018	515.75
340.246	509.75
340.474	520.75
340.702	492.75
340.93	501.75
341.158	488.75
341.386	506.75
341.614	487.75
341.842	497.75
342.07	479.75
342.298	504.75
342.526	473.75
342.754	500.75
342.981	489.75
343.209	518.75
343.437	526.75
343.665	535.75
343.893	562.75
344.12	567.75
344.348	568.75
344.576	557.75
344.804	521.75
345.031	512.75
345.259	510.75
345.487	494.75
345.714	501.75
345.942	496.75
346.17	508.75
346.397	485.75
346.625	481.75
346.853	465.75
347.08	450.75
347.308	467.75
347.535	477.75
347.763	486.75
347.99	485.75
348.218	484.75
348.445	479.75
348.673	467.75
348.9	493.75
349.128	457.75
349.355	448.75
349.583	464.75
349.81	468.75
350.037	462.75
350.265	484.75
350.492	475.75
350.72	481.75
350.947	480.75
351.174	490.75
351.402	473.75
351.629	466.75
351.856	473.75
352.083	471.75
352.311	496.75
352.538	465.75
352.765	477.75
352.992	484.75
353.22	456.75
353.447	467.75
353.674	487.75
353.901	482.75
354.128	462.75
354.355	447.75
354.583	462.75
354.81	465.75
355.037	479.75
355.264	476.75
355.491	441.75
355.718	462.75
355.945	427.75
356.172	454.75
356.399	462.75
356.626	461.75
356.853	463.75
357.08	445.75
357.307	436.75
357.534	484.75
357.761	473.75
357.988	488.75
358.215	450.75
358.441	472.75
358.668	462.75
358.895	450.75
359.122	463.75
359.349	469.75
359.576	475.75
359.802	474.75
360.029	477.75
360.256	486.75
360.483	473.75
360.709	477.75
360.936	457.75
361.163	463.75
361.39	495.75
361.616	472.75
361.843	476.75
362.07	472.75
362.296	467.75
362.523	475.75
362.749	474.75
362.976	494.75
363.203	455.75
363.429	468.75
363.656	461.75
363.882	485.75
364.109	466.75
364.335	469.75
364.562	469.75
364.788	465.75
365.015	471.75
365.241	476.75
365.468	472.75
365.694	483.75
365.92	479.75
366.147	471.75
366.373	483.75
366.599	452.75
366.826	470.75
367.052	472.75
367.278	467.75
367.505	452.75
367.731	482.75
367.957	453.75
368.184	489.75
368.41	482.75
368.636	478.75
368.862	478.75
369.089	500.75
369.315	485.75
369.541	476.75
369.767	489.75
369.993	471.75
370.219	471.75
370.445	502.75
370.672	492.75
370.898	487.75
371.124	482.75
371.35	505.75
371.576	508.75
371.802	496.75
372.028	478.75
372.254	495.75
372.48	487.75
372.706	513.75
372.932	518.75
373.158	505.75
373.384	520.75
373.61	492.75
373.835	499.75
374.061	496.75
374.287	492.75
374.513	519.75
374.739	521.75
374.965	535.75
375.191	526.75
375.416	540.75
375.642	518.75
375.868	519.75
376.094	512.75
376.319	506.75
376.545	489.75
376.771	487.75
376.997	471.75
377.222	493.75
377.448	521.75
377.674	513.75
377.899	487.75
378.125	503.75
378.35	480.75
378.576	496.75
378.802	485.75
379.027	484.75
379.253	493.75
379.478	494.75
379.704	509.75
379.929	500.75
380.155	490.75
380.38	491.75
380.606	476.75
380.831	488.75
381.057	481.75
381.282	473.75
381.507	488.75
381.733	479.75
381.958	511.75
382.184	509.75
382.409	500.75
382.634	508.75
382.86	514.75
383.085	544.75
383.31	533.75
383.535	534.75
383.761	516.75
383.986	557.75
384.211	562.75
384.436	579.75
384.662	547.75
384.887	563.75
385.112	547.75
385.337	557.75
385.562	576.75
385.787	591.75
386.013	599.75
386.238	587.75
386.463	570.75
386.688	565.75
386.913	578.75
387.138	550.75
387.363	566.75
387.588	593.75
387.813	586.75
388.038	582.75
388.263	584.75
388.488	591.75
388.713	552.75
388.938	544.75
389.163	553.75
389.387	560.75
389.612	558.75
389.837	549.75
390.062	576.75
390.287	547.75
390.512	562.75
390.736	563.75
390.961	582.75
391.186	560.75
391.411	601.75
391.636	614.75
391.86	623.75
392.085	612.75
392.31	620.75
392.534	611.75
392.759	610.75
392.984	585.75
393.208	611.75
393.433	589.75
393.658	605.75
393.882	578.75
394.107	593.75
394.331	594.75
394.556	604.75
394.78	608.75
395.005	607.75
395.229	601.75
395.454	630.75
395.678	608.75
395.903	626.75
396.127	636.75
396.352	615.75
396.576	602.75
396.801	608.75
397.025	601.75
397.249	610.75
397.474	616.75
397.698	623.75
397.922	622.75
398.147	600.75
398.371	656.75
398.595	651.75
398.82	673.75
399.044	723.75
399.268	734.75
399.492	828.75
399.717	917.75
399.941	910.75
400.165	903.75
400.389	846.75
400.613	752.75
400.837	743.75
401.062	697.75
401.286	704.75
401.51	674.75
401.734	704.75
401.958	695.75
402.182	694.75
402.406	717.75
402.63	718.75
402.854	717.75
403.078	716.75
403.302	709.75
403.526	743.75
403.75	750.75
403.974	766.75
404.198	733.75
404.422	756.75
404.645	758.75
404.869	730.75
405.093	807.75
405.317	788.75
405.541	804.75
405.765	761.75
405.988	741.75
406.212	758.75
406.436	740.75
406.66	773.75
406.883	770.75
407.107	831.75
407.331	822.75
407.555	923.75
407.778	926.75
408.002	866.75
408.226	818.75
408.449	800.75
408.673	772.75
408.896	781.75
409.12	818.75
409.344	791.75
409.567	745.75
409.791	756.75
410.014	729.75
410.238	744.75
410.461	738.75
410.685	711.75
410.908	705.75
411.132	723.75
411.355	769.75
411.578	721.75
411.802	721.75
412.025	714.75
412.249	717.75
412.472	728.75
412.695	730.75
412.919	750.75
413.142	700.75
413.365	677.75
413.589	687.75
413.812	676.75
414.035	682.75
414.258	676.75
414.482	684.75
414.705	659.75
414.928	702.75
415.151	687.75
415.374	712.75
415.597	678.75
415.821	660.75
416.044	674.75
416.267	677.75
416.49	676.75
416.713	661.75
416.936	670.75
417.159	675.75
417.382	654.75
417.605	665.75
417.828	661.75
418.051	697.75
418.274	702.75
418.497	688.75
418.72	686.75
418.943	661.75
419.166	707.75
419.389	751.75
419.611	754.75
419.834	721.75
420.057	713.75
420.28	687.75
420.503	705.75
420.726	704.75
420.948	703.75
421.171	704.75
421.394	725.75
421.617	707.75
421.839	695.75
422.062	681.75
422.285	694.75
422.507	736.75
422.73	770.75
422.953	769.75
423.175	722.75
423.398	706.75
423.621	708.75
423.843	707.75
424.066	694.75
424.288	696.75
424.511	709.75
424.733	745.75
424.956	825.75
425.178	764.75
425.401	755.75
425.623	761.75
425.846	720.75
426.068	692.75
426.291	687.75
426.513	671.75
426.735	673.75
426.958	706.75
427.18	745.75
427.402	858.75
427.625	930.75
427.847	790.75
428.069	726.75
428.292	685.75
428.514	656.75
428.736	656.75
428.958	647.75
429.181	628.75
429.403	636.75
429.625	665.75
429.847	660.75
430.069	707.75
430.292	698.75
430.514	632.75
430.736	617.75
430.958	618.75
431.18	602.75
431.402	622.75
431.624	593.75
431.846	616.75
432.068	624.75
432.29	633.75
432.512	600.75
432.734	588.75
432.956	610.75
433.178	625.75
433.4	612.75
433.622	630.75
433.844	617.75
434.066	614.75
434.287	624.75
434.509	651.75
434.731	643.75
434.953	686.75
435.175	684.75
435.397	688.75
435.618	677.75
435.84	688.75
436.062	718.75
436.284	775.75
436.505	717.75
436.727	673.75
436.949	650.75
437.17	603.75
437.392	624.75
437.614	629.75
437.835	648.75
438.057	705.75
438.278	766.75
438.5	770.75
438.721	814.75
438.943	795.75
439.165	662.75
439.386	664.75
439.608	643.75
439.829	650.75
440.05	677.75
440.272	710.75
440.493	690.75
440.715	640.75
440.936	654.75
441.158	644.75
441.379	630.75
441.6	692.75
441.822	694.75
442.043	709.75
442.264	776.75
442.486	773.75
442.707	735.75
442.928	686.75
443.149	700.75
443.371	721.75
443.592	742.75
443.813	835.75
444.034	861.75
444.255	784.75
444.476	737.75
444.698	763.75
444.919	780.75
445.14	884.75
445.361	799.75
445.582	732.75
445.803	756.75
446.024	783.75
446.245	776.75
446.466	757.75
446.687	693.75
446.908	688.75
447.129	634.75
447.35	629.75
447.571	616.75
447.792	596.75
448.013	611.75
448.234	611.75
448.455	641.75
448.675	711.75
448.896	776.75
449.117	705.75
449.338	690.75
449.559	741.75
449.779	809.75
450	708.75
450.221	640.75
450.442	617.75
450.662	600.75
450.883	578.75
451.104	596.75
451.324	592.75
451.545	591.75
451.766	571.75
451.986	577.75
452.207	553.75
452.428	582.75
452.648	559.75
452.869	564.75
453.089	567.75
453.31	584.75
453.53	547.75
453.751	549.75
453.971	548.75
454.192	576.75
454.412	560.75
454.633	557.75
454.853	543.75
455.073	553.75
455.294	576.75
455.514	580.75
455.734	569.75
455.955	548.75
456.175	545.75
456.395	513.75
456.616	534.75
456.836	538.75
457.056	540.75
457.276	523.75
457.497	526.75
457.717	548.75
457.937	555.75
458.157	552.75
458.377	552.75
458.598	590.75
458.818	609.75
459.038	654.75
459.258	669.75
459.478	660.75
459.698	616.75
459.918	640.75
460.138	620.75
460.358	680.75
460.578	695.75
460.798	690.75
461.018	710.75
461.238	674.75
461.458	686.75
461.678	688.75
461.898	701.75
462.118	688.75
462.338	722.75
462.558	750.75
462.777	761.75
462.997	768.75
463.217	826.75
463.437	868.75
463.657	777.75
463.876	776.75
464.096	779.75
464.316	755.75
464.536	770.75
464.755	763.75
464.975	743.75
465.195	748.75
465.414	730.75
465.634	679.75
465.854	650.75
466.073	647.75
466.293	635.75
466.512	631.75
466.732	612.75
466.951	604.75
467.171	596.75
467.391	594.75
467.61	609.75
467.829	616.75
468.049	579.75
468.268	591.75
468.488	578.75
468.707	579.75
468.927	580.75
469.146	560.75
469.365	581.75
469.585	600.75
469.804	581.75
470.023	615.75
470.243	628.75
470.462	603.75
470.681	656.75
470.901	610.75
471.12	625.75
471.339	612.75
471.558	603.75
471.777	596.75
471.997	606.75
472.216	590.75
472.435	615.75
472.654	582.75
472.873	597.75
473.092	597.75
473.311	576.75
473.53	574.75
473.749	591.75
473.968	630.75
474.187	681.75
474.406	660.75
474.625	631.75
474.844	573.75
475.063	559.75
475.282	560.75
475.501	586.75
475.72	610.75
475.939	599.75
476.158	572.75
476.377	612.75
476.596	599.75
476.814	605.75
477.033	614.75
477.252	658.75
477.471	670.75
477.69	637.75
477.908	661.75
478.127	681.75
478.346	697.75
478.564	685.75
478.783	705.75
479.002	718.75
479.22	708.75
479.439	670.75
479.658	710.75
479.876	742.75
480.095	727.75
480.313	775.75
480.532	794.75
480.751	745.75
480.969	732.75
481.188	774.75
481.406	797.75
481.624	738.75
481.843	709.75
482.061	704.75
482.28	686.75
482.498	687.75
482.717	687.75
482.935	706.75
483.153	669.75
483.372	689.75
483.59	667.75
483.808	703.75
484.027	698.75
484.245	679.75
484.463	702.75
484.681	691.75
484.9	696.75
485.118	696.75
485.336	705.75
485.554	700.75
485.772	739.75
485.99	735.75
486.209	735.75
486.427	707.75
486.645	768.75
486.863	717.75
487.081	726.75
487.299	741.75
487.517	733.75
487.735	722.75
487.953	745.75
488.171	713.75
488.389	712.75
488.607	749.75
488.825	735.75
489.043	732.75
489.261	744.75
489.479	748.75
489.696	764.75
489.914	718.75
490.132	719.75
490.35	747.75
490.568	766.75
490.786	764.75
491.003	786.75
491.221	765.75
491.439	777.75
491.657	786.75
491.874	800.75
492.092	803.75
492.31	774.75
492.527	812.75
492.745	815.75
492.963	787.75
493.18	818.75
493.398	844.75
493.615	855.75
493.833	851.75
494.05	826.75
494.268	865.75
494.485	839.75
494.703	840.75
494.92	845.75
495.138	832.75
495.355	839.75
495.573	819.75
495.79	838.75
496.008	847.75
496.225	805.75
496.442	839.75
496.66	860.75
496.877	898.75
497.094	868.75
497.312	864.75
497.529	901.75
497.746	920.75
497.963	909.75
498.181	967.75
498.398	988.75
498.615	1035.75
498.832	1094.75
499.049	1125.75
499.267	1196.75
499.484	1246.75
499.701	1345.75
499.918	1426.75
500.135	1570.75
500.352	1674.75
500.569	1745.75
500.786	1732.75
501.003	1679.75
501.22	1525.75
501.437	1473.75
501.654	1349.75
