Data from 1963.PennyLincolnUp.Lamp.En5.5.200Scan.071719.P1._HRD10591_13-59-51-063.txt Node
Date: Thu Jul 18 13:59:51 EDT 2019
User: cochatt
Spectrometer: HR+D1059
Trigger mode: 1
Integration Time (sec): 1.000000E-1
Scans to average: 1
Electric dark correction enabled: true
Nonlinearity correction enabled: false
Boxcar width: 0
XAxis mode: Wavelengths
Number of Pixels in Spectrum: 2048
>>>>>Begin Spectral Data<<<<<
223.165	-5.75
223.4	-5.75
223.635	-5.75
223.869	-17.75
224.104	-18.75
224.338	-14.75
224.573	-21.75
224.808	-5.75
225.042	-26.75
225.277	8.25
225.511	3.25
225.746	-3.75
225.98	3.25
226.215	23.25
226.449	19.25
226.683	16.25
226.918	27.25
227.152	14.25
227.387	29.25
227.621	32.25
227.856	35.25
228.09	44.25
228.324	53.25
228.559	57.25
228.793	71.25
229.027	99.25
229.262	109.25
229.496	117.25
229.73	147.25
229.964	147.25
230.199	126.25
230.433	105.25
230.667	109.25
230.901	128.25
231.136	110.25
231.37	117.25
231.604	117.25
231.838	123.25
232.072	124.25
232.306	115.25
232.541	119.25
232.775	112.25
233.009	134.25
233.243	133.25
233.477	132.25
233.711	124.25
233.945	115.25
234.179	123.25
234.413	126.25
234.647	118.25
234.881	123.25
235.115	126.25
235.349	113.25
235.583	125.25
235.817	115.25
236.051	124.25
236.285	138.25
236.519	131.25
236.753	124.25
236.987	129.25
237.221	157.25
237.455	211.25
237.689	183.25
237.922	140.25
238.156	139.25
238.39	156.25
238.624	138.25
238.858	140.25
239.091	133.25
239.325	141.25
239.559	139.25
239.793	144.25
240.027	135.25
240.26	140.25
240.494	160.25
240.728	163.25
240.961	161.25
241.195	131.25
241.429	142.25
241.662	140.25
241.896	127.25
242.13	143.25
242.363	151.25
242.597	168.25
242.83	137.25
243.064	166.25
243.298	153.25
243.531	162.25
243.765	162.25
243.998	134.25
244.232	148.25
244.465	163.25
244.699	152.25
244.932	170.25
245.166	159.25
245.399	143.25
245.633	154.25
245.866	157.25
246.099	173.25
246.333	156.25
246.566	162.25
246.8	167.25
247.033	182.25
247.266	177.25
247.5	172.25
247.733	176.25
247.966	182.25
248.2	191.25
248.433	181.25
248.666	179.25
248.899	202.25
249.133	217.25
249.366	210.25
249.599	196.25
249.832	199.25
250.066	205.25
250.299	164.25
250.532	198.25
250.765	204.25
250.998	224.25
251.231	233.25
251.465	226.25
251.698	203.25
251.931	200.25
252.164	207.25
252.397	203.25
252.63	200.25
252.863	221.25
253.096	233.25
253.329	236.25
253.562	237.25
253.795	212.25
254.028	211.25
254.261	218.25
254.494	235.25
254.727	237.25
254.96	264.25
255.193	273.25
255.426	247.25
255.659	242.25
255.892	226.25
256.124	213.25
256.357	269.25
256.59	235.25
256.823	243.25
257.056	235.25
257.289	226.25
257.521	215.25
257.754	237.25
257.987	244.25
258.22	222.25
258.452	243.25
258.685	246.25
258.918	227.25
259.151	233.25
259.383	227.25
259.616	251.25
259.849	248.25
260.081	245.25
260.314	245.25
260.547	275.25
260.779	274.25
261.012	263.25
261.244	256.25
261.477	238.25
261.71	235.25
261.942	248.25
262.175	245.25
262.407	242.25
262.64	251.25
262.872	232.25
263.105	238.25
263.337	223.25
263.57	247.25
263.802	255.25
264.035	258.25
264.267	240.25
264.499	241.25
264.732	248.25
264.964	249.25
265.197	231.25
265.429	241.25
265.661	241.25
265.894	226.25
266.126	265.25
266.358	236.25
266.591	267.25
266.823	257.25
267.055	261.25
267.287	277.25
267.52	262.25
267.752	268.25
267.984	267.25
268.216	257.25
268.448	267.25
268.681	259.25
268.913	278.25
269.145	286.25
269.377	289.25
269.609	311.25
269.841	290.25
270.073	298.25
270.306	316.25
270.538	341.25
270.77	328.25
271.002	309.25
271.234	329.25
271.466	313.25
271.698	308.25
271.93	326.25
272.162	318.25
272.394	331.25
272.626	323.25
272.858	322.25
273.09	302.25
273.322	303.25
273.553	299.25
273.785	300.25
274.017	291.25
274.249	293.25
274.481	305.25
274.713	297.25
274.945	297.25
275.176	315.25
275.408	309.25
275.64	302.25
275.872	286.25
276.104	296.25
276.335	300.25
276.567	292.25
276.799	313.25
277.031	333.25
277.262	349.25
277.494	334.25
277.726	353.25
277.957	322.25
278.189	329.25
278.421	311.25
278.652	309.25
278.884	317.25
279.115	310.25
279.347	320.25
279.579	300.25
279.81	316.25
280.042	300.25
280.273	305.25
280.505	303.25
280.736	308.25
280.968	299.25
281.199	297.25
281.431	311.25
281.662	324.25
281.894	325.25
282.125	319.25
282.356	361.25
282.588	367.25
282.819	338.25
283.051	322.25
283.282	334.25
283.513	335.25
283.745	349.25
283.976	331.25
284.207	338.25
284.439	344.25
284.67	337.25
284.901	340.25
285.132	331.25
285.364	348.25
285.595	331.25
285.826	351.25
286.057	339.25
286.288	336.25
286.52	335.25
286.751	344.25
286.982	330.25
287.213	334.25
287.444	351.25
287.675	343.25
287.906	356.25
288.138	349.25
288.369	342.25
288.6	368.25
288.831	358.25
289.062	345.25
289.293	373.25
289.524	344.25
289.755	332.25
289.986	345.25
290.217	345.25
290.448	367.25
290.679	367.25
290.91	345.25
291.141	347.25
291.371	361.25
291.602	375.25
291.833	359.25
292.064	365.25
292.295	357.25
292.526	375.25
292.757	366.25
292.987	370.25
293.218	341.25
293.449	365.25
293.68	366.25
293.91	359.25
294.141	337.25
294.372	352.25
294.603	343.25
294.833	365.25
295.064	363.25
295.295	358.25
295.525	360.25
295.756	378.25
295.987	377.25
296.217	405.25
296.448	392.25
296.679	379.25
296.909	381.25
297.14	366.25
297.37	384.25
297.601	374.25
297.831	365.25
298.062	377.25
298.292	385.25
298.523	393.25
298.753	381.25
298.984	377.25
299.214	386.25
299.445	385.25
299.675	377.25
299.905	372.25
300.136	365.25
300.366	377.25
300.597	381.25
300.827	391.25
301.057	398.25
301.288	400.25
301.518	411.25
301.748	413.25
301.979	390.25
302.209	399.25
302.439	422.25
302.669	404.25
302.9	401.25
303.13	382.25
303.36	411.25
303.59	390.25
303.82	399.25
304.051	393.25
304.281	398.25
304.511	387.25
304.741	403.25
304.971	397.25
305.201	403.25
305.431	390.25
305.661	407.25
305.891	437.25
306.121	404.25
306.352	414.25
306.582	399.25
306.812	387.25
307.042	400.25
307.272	387.25
307.502	407.25
307.731	417.25
307.961	385.25
308.191	397.25
308.421	426.25
308.651	410.25
308.881	422.25
309.111	417.25
309.341	418.25
309.571	407.25
309.8	417.25
310.03	419.25
310.26	426.25
310.49	434.25
310.72	436.25
310.949	428.25
311.179	441.25
311.409	442.25
311.639	428.25
311.868	437.25
312.098	410.25
312.328	453.25
312.557	470.25
312.787	455.25
313.017	449.25
313.246	452.25
313.476	422.25
313.706	453.25
313.935	465.25
314.165	465.25
314.394	466.25
314.624	459.25
314.853	465.25
315.083	454.25
315.312	450.25
315.542	450.25
315.771	433.25
316.001	429.25
316.23	450.25
316.46	458.25
316.689	440.25
316.919	451.25
317.148	454.25
317.377	447.25
317.607	431.25
317.836	448.25
318.065	455.25
318.295	440.25
318.524	449.25
318.753	452.25
318.983	440.25
319.212	428.25
319.441	461.25
319.67	463.25
319.9	454.25
320.129	445.25
320.358	435.25
320.587	433.25
320.816	456.25
321.046	471.25
321.275	459.25
321.504	460.25
321.733	477.25
321.962	459.25
322.191	477.25
322.42	477.25
322.649	486.25
322.878	494.25
323.108	509.25
323.337	492.25
323.566	517.25
323.795	531.25
324.024	568.25
324.253	621.25
324.482	807.25
324.71	1180.25
324.939	1659.25
325.168	1451.25
325.397	815.25
325.626	621.25
325.855	584.25
326.084	538.25
326.313	532.25
326.542	562.25
326.77	563.25
326.999	639.25
327.228	787.25
327.457	1079.25
327.686	1317.25
327.914	936.25
328.143	704.25
328.372	633.25
328.6	576.25
328.829	557.25
329.058	572.25
329.287	588.25
329.515	588.25
329.744	568.25
329.972	556.25
330.201	587.25
330.43	576.25
330.658	603.25
330.887	600.25
331.115	610.25
331.344	571.25
331.572	567.25
331.801	574.25
332.03	570.25
332.258	543.25
332.486	586.25
332.715	567.25
332.943	599.25
333.172	591.25
333.4	586.25
333.629	630.25
333.857	636.25
334.085	604.25
334.314	625.25
334.542	646.25
334.771	648.25
334.999	615.25
335.227	603.25
335.455	617.25
335.684	592.25
335.912	577.25
336.14	568.25
336.369	552.25
336.597	563.25
336.825	569.25
337.053	559.25
337.281	549.25
337.51	534.25
337.738	535.25
337.966	562.25
338.194	514.25
338.422	539.25
338.65	517.25
338.878	543.25
339.106	545.25
339.334	523.25
339.562	525.25
339.79	521.25
340.018	524.25
340.246	507.25
340.474	514.25
340.702	519.25
340.93	537.25
341.158	517.25
341.386	497.25
341.614	518.25
341.842	532.25
342.07	533.25
342.298	508.25
342.526	516.25
342.754	528.25
342.981	499.25
343.209	527.25
343.437	535.25
343.665	534.25
343.893	578.25
344.12	583.25
344.348	570.25
344.576	570.25
344.804	545.25
345.031	555.25
345.259	530.25
345.487	524.25
345.714	486.25
345.942	503.25
346.17	492.25
346.397	505.25
346.625	495.25
346.853	515.25
347.08	480.25
347.308	503.25
347.535	490.25
347.763	484.25
347.99	506.25
348.218	501.25
348.445	520.25
348.673	505.25
348.9	499.25
349.128	492.25
349.355	473.25
349.583	489.25
349.81	483.25
350.037	476.25
350.265	487.25
350.492	498.25
350.72	468.25
350.947	488.25
351.174	473.25
351.402	490.25
351.629	489.25
351.856	493.25
352.083	493.25
352.311	501.25
352.538	499.25
352.765	486.25
352.992	499.25
353.22	515.25
353.447	479.25
353.674	486.25
353.901	459.25
354.128	473.25
354.355	471.25
354.583	469.25
354.81	472.25
355.037	469.25
355.264	474.25
355.491	469.25
355.718	478.25
355.945	473.25
356.172	469.25
356.399	477.25
356.626	471.25
356.853	466.25
357.08	486.25
357.307	484.25
357.534	469.25
357.761	465.25
357.988	485.25
358.215	476.25
358.441	478.25
358.668	491.25
358.895	497.25
359.122	479.25
359.349	503.25
359.576	495.25
359.802	509.25
360.029	524.25
360.256	515.25
360.483	502.25
360.709	502.25
360.936	494.25
361.163	495.25
361.39	490.25
361.616	510.25
361.843	520.25
362.07	511.25
362.296	508.25
362.523	493.25
362.749	478.25
362.976	488.25
363.203	497.25
363.429	496.25
363.656	497.25
363.882	486.25
364.109	502.25
364.335	471.25
364.562	486.25
364.788	460.25
365.015	483.25
365.241	495.25
365.468	513.25
365.694	485.25
365.92	487.25
366.147	471.25
366.373	482.25
366.599	494.25
366.826	467.25
367.052	499.25
367.278	466.25
367.505	500.25
367.731	482.25
367.957	483.25
368.184	480.25
368.41	514.25
368.636	510.25
368.862	518.25
369.089	505.25
369.315	503.25
369.541	470.25
369.767	491.25
369.993	484.25
370.219	487.25
370.445	489.25
370.672	481.25
370.898	499.25
371.124	489.25
371.35	478.25
371.576	501.25
371.802	488.25
372.028	520.25
372.254	506.25
372.48	494.25
372.706	521.25
372.932	507.25
373.158	516.25
373.384	503.25
373.61	501.25
373.835	526.25
374.061	499.25
374.287	518.25
374.513	516.25
374.739	542.25
374.965	550.25
375.191	533.25
375.416	527.25
375.642	528.25
375.868	527.25
376.094	519.25
376.319	511.25
376.545	515.25
376.771	512.25
376.997	494.25
377.222	513.25
377.448	503.25
377.674	511.25
377.899	506.25
378.125	519.25
378.35	481.25
378.576	492.25
378.802	490.25
379.027	491.25
379.253	524.25
379.478	503.25
379.704	492.25
379.929	517.25
380.155	520.25
380.38	515.25
380.606	511.25
380.831	501.25
381.057	509.25
381.282	510.25
381.507	506.25
381.733	535.25
381.958	515.25
382.184	524.25
382.409	526.25
382.634	525.25
382.86	539.25
383.085	519.25
383.31	535.25
383.535	539.25
383.761	546.25
383.986	573.25
384.211	564.25
384.436	570.25
384.662	577.25
384.887	577.25
385.112	579.25
385.337	573.25
385.562	571.25
385.787	572.25
386.013	609.25
386.238	590.25
386.463	607.25
386.688	604.25
386.913	593.25
387.138	567.25
387.363	590.25
387.588	592.25
387.813	595.25
388.038	583.25
388.263	578.25
388.488	585.25
388.713	591.25
388.938	574.25
389.163	577.25
389.387	593.25
389.612	579.25
389.837	594.25
390.062	590.25
390.287	582.25
390.512	586.25
390.736	590.25
390.961	581.25
391.186	575.25
391.411	589.25
391.636	610.25
391.86	622.25
392.085	627.25
392.31	633.25
392.534	655.25
392.759	626.25
392.984	608.25
393.208	596.25
393.433	619.25
393.658	581.25
393.882	626.25
394.107	589.25
394.331	616.25
394.556	617.25
394.78	626.25
395.005	619.25
395.229	598.25
395.454	630.25
395.678	648.25
395.903	664.25
396.127	653.25
396.352	661.25
396.576	606.25
396.801	629.25
397.025	617.25
397.249	651.25
397.474	631.25
397.698	655.25
397.922	677.25
398.147	650.25
398.371	662.25
398.595	681.25
398.82	660.25
399.044	701.25
399.268	767.25
399.492	869.25
399.717	929.25
399.941	933.25
400.165	904.25
400.389	882.25
400.613	806.25
400.837	750.25
401.062	716.25
401.286	709.25
401.51	685.25
401.734	689.25
401.958	722.25
402.182	712.25
402.406	714.25
402.63	724.25
402.854	723.25
403.078	704.25
403.302	761.25
403.526	757.25
403.75	771.25
403.974	767.25
404.198	778.25
404.422	761.25
404.645	769.25
404.869	755.25
405.093	805.25
405.317	809.25
405.541	859.25
405.765	803.25
405.988	779.25
406.212	754.25
406.436	801.25
406.66	793.25
406.883	810.25
407.107	818.25
407.331	881.25
407.555	929.25
407.778	951.25
408.002	865.25
408.226	835.25
408.449	801.25
408.673	798.25
408.896	795.25
409.12	817.25
409.344	811.25
409.567	765.25
409.791	748.25
410.014	730.25
410.238	726.25
410.461	725.25
410.685	736.25
410.908	746.25
411.132	761.25
411.355	773.25
411.578	760.25
411.802	722.25
412.025	704.25
412.249	731.25
412.472	754.25
412.695	782.25
412.919	753.25
413.142	731.25
413.365	713.25
413.589	716.25
413.812	707.25
414.035	689.25
414.258	683.25
414.482	695.25
414.705	689.25
414.928	683.25
415.151	682.25
415.374	645.25
415.597	660.25
415.821	659.25
416.044	684.25
416.267	702.25
416.49	679.25
416.713	670.25
416.936	665.25
417.159	661.25
417.382	677.25
417.605	712.25
417.828	695.25
418.051	699.25
418.274	681.25
418.497	694.25
418.72	701.25
418.943	690.25
419.166	746.25
419.389	779.25
419.611	756.25
419.834	733.25
420.057	738.25
420.28	704.25
420.503	703.25
420.726	708.25
420.948	727.25
421.171	765.25
421.394	774.25
421.617	702.25
421.839	703.25
422.062	701.25
422.285	725.25
422.507	763.25
422.73	803.25
422.953	789.25
423.175	765.25
423.398	735.25
423.621	734.25
423.843	739.25
424.066	743.25
424.288	737.25
424.511	762.25
424.733	813.25
424.956	854.25
425.178	818.25
425.401	823.25
425.623	836.25
425.846	765.25
426.068	728.25
426.291	691.25
426.513	676.25
426.735	711.25
426.958	757.25
427.18	791.25
427.402	892.25
427.625	972.25
427.847	866.25
428.069	792.25
428.292	715.25
428.514	676.25
428.736	663.25
428.958	678.25
429.181	654.25
429.403	637.25
429.625	654.25
429.847	690.25
430.069	731.25
430.292	704.25
430.514	639.25
430.736	643.25
430.958	660.25
431.18	643.25
431.402	631.25
431.624	623.25
431.846	635.25
432.068	657.25
432.29	648.25
432.512	637.25
432.734	660.25
432.956	662.25
433.178	658.25
433.4	661.25
433.622	632.25
433.844	651.25
434.066	636.25
434.287	635.25
434.509	635.25
434.731	689.25
434.953	704.25
435.175	705.25
435.397	712.25
435.618	708.25
435.84	739.25
436.062	800.25
436.284	836.25
436.505	746.25
436.727	694.25
436.949	670.25
437.17	660.25
437.392	655.25
437.614	637.25
437.835	689.25
438.057	739.25
438.278	828.25
438.5	813.25
438.721	881.25
438.943	851.25
439.165	703.25
439.386	683.25
439.608	694.25
439.829	684.25
440.05	711.25
440.272	729.25
440.493	695.25
440.715	686.25
440.936	693.25
441.158	671.25
441.379	691.25
441.6	699.25
441.822	729.25
442.043	737.25
442.264	805.25
442.486	838.25
442.707	756.25
442.928	727.25
443.149	741.25
443.371	747.25
443.592	783.25
443.813	867.25
444.034	893.25
444.255	805.25
444.476	773.25
444.698	787.25
444.919	801.25
445.14	891.25
445.361	791.25
445.582	801.25
445.803	808.25
446.024	874.25
446.245	863.25
446.466	796.25
446.687	725.25
446.908	683.25
447.129	661.25
447.35	639.25
447.571	648.25
447.792	638.25
448.013	643.25
448.234	652.25
448.455	644.25
448.675	760.25
448.896	843.25
449.117	743.25
449.338	705.25
449.559	805.25
449.779	924.25
450	746.25
450.221	670.25
450.442	625.25
450.662	621.25
450.883	612.25
451.104	628.25
451.324	633.25
451.545	611.25
451.766	598.25
451.986	599.25
452.207	577.25
452.428	569.25
452.648	581.25
452.869	593.25
453.089	577.25
453.31	619.25
453.53	600.25
453.751	574.25
453.971	558.25
454.192	607.25
454.412	569.25
454.633	555.25
454.853	567.25
455.073	572.25
455.294	599.25
455.514	649.25
455.734	631.25
455.955	541.25
456.175	562.25
456.395	572.25
456.616	546.25
456.836	553.25
457.056	562.25
457.276	523.25
457.497	542.25
457.717	555.25
457.937	534.25
458.157	567.25
458.377	567.25
458.598	607.25
458.818	641.25
459.038	713.25
459.258	720.25
459.478	679.25
459.698	659.25
459.918	661.25
460.138	650.25
460.358	705.25
460.578	701.25
460.798	706.25
461.018	728.25
461.238	676.25
461.458	696.25
461.678	668.25
461.898	724.25
462.118	701.25
462.338	713.25
462.558	739.25
462.777	769.25
462.997	797.25
463.217	844.25
463.437	834.25
463.657	813.25
463.876	787.25
464.096	755.25
464.316	758.25
464.536	824.25
464.755	759.25
464.975	775.25
465.195	743.25
465.414	792.25
465.634	723.25
465.854	667.25
466.073	654.25
466.293	637.25
466.512	620.25
466.732	623.25
466.951	613.25
467.171	629.25
467.391	612.25
467.61	623.25
467.829	618.25
468.049	606.25
468.268	599.25
468.488	616.25
468.707	589.25
468.927	611.25
469.146	588.25
469.365	595.25
469.585	607.25
469.804	612.25
470.023	622.25
470.243	619.25
470.462	631.25
470.681	621.25
470.901	657.25
471.12	651.25
471.339	622.25
471.558	604.25
471.777	616.25
471.997	621.25
472.216	621.25
472.435	652.25
472.654	629.25
472.873	603.25
473.092	605.25
473.311	607.25
473.53	603.25
473.749	609.25
473.968	617.25
474.187	694.25
474.406	703.25
474.625	636.25
474.844	620.25
475.063	612.25
475.282	632.25
475.501	602.25
475.72	627.25
475.939	633.25
476.158	628.25
476.377	626.25
476.596	651.25
476.814	635.25
477.033	639.25
477.252	633.25
477.471	672.25
477.69	669.25
477.908	694.25
478.127	708.25
478.346	696.25
478.564	725.25
478.783	705.25
479.002	740.25
479.22	728.25
479.439	733.25
479.658	742.25
479.876	746.25
480.095	749.25
480.313	815.25
480.532	799.25
480.751	784.25
480.969	813.25
481.188	806.25
481.406	820.25
481.624	770.25
481.843	737.25
482.061	737.25
482.28	719.25
482.498	719.25
482.717	708.25
482.935	713.25
483.153	723.25
483.372	712.25
483.59	683.25
483.808	703.25
484.027	721.25
484.245	690.25
484.463	722.25
484.681	725.25
484.9	738.25
485.118	737.25
485.336	715.25
485.554	727.25
485.772	751.25
485.99	739.25
486.209	731.25
486.427	772.25
486.645	771.25
486.863	754.25
487.081	743.25
487.299	753.25
487.517	749.25
487.735	769.25
487.953	762.25
488.171	761.25
488.389	743.25
488.607	753.25
488.825	766.25
489.043	773.25
489.261	753.25
489.479	738.25
489.696	765.25
489.914	809.25
490.132	777.25
490.35	800.25
490.568	778.25
490.786	796.25
491.003	811.25
491.221	835.25
491.439	824.25
491.657	818.25
491.874	844.25
492.092	840.25
492.31	834.25
492.527	827.25
492.745	866.25
492.963	859.25
493.18	825.25
493.398	890.25
493.615	868.25
493.833	864.25
494.05	883.25
494.268	877.25
494.485	858.25
494.703	854.25
494.92	853.25
495.138	891.25
495.355	870.25
495.573	887.25
495.79	875.25
496.008	871.25
496.225	893.25
496.442	870.25
496.66	905.25
496.877	915.25
497.094	906.25
497.312	917.25
497.529	945.25
497.746	951.25
497.963	986.25
498.181	996.25
498.398	1010.25
498.615	1053.25
498.832	1104.25
499.049	1144.25
499.267	1198.25
499.484	1287.25
499.701	1377.25
499.918	1443.25
500.135	1599.25
500.352	1766.25
500.569	1775.25
500.786	1739.25
501.003	1693.25
501.22	1599.25
501.437	1423.25
501.654	1363.25
