Data from 1963.PennyLincolnUp.Lamp.En5.5.200Scan.071719.P1._HRD10591_13-58-40-063.txt Node
Date: Thu Jul 18 13:58:40 EDT 2019
User: cochatt
Spectrometer: HR+D1059
Trigger mode: 1
Integration Time (sec): 1.000000E-1
Scans to average: 1
Electric dark correction enabled: true
Nonlinearity correction enabled: false
Boxcar width: 0
XAxis mode: Wavelengths
Number of Pixels in Spectrum: 2048
>>>>>Begin Spectral Data<<<<<
223.165	-8.94
223.4	-8.94
223.635	-8.94
223.869	-12.94
224.104	-14.94
224.338	-5.94
224.573	-25.94
224.808	-12.94
225.042	-3.94
225.277	-5.94
225.511	-14.94
225.746	2.06
225.98	16.06
226.215	14.06
226.449	2.06
226.683	22.06
226.918	16.06
227.152	34.06
227.387	24.06
227.621	47.06
227.856	48.06
228.09	55.06
228.324	52.06
228.559	38.06
228.793	76.06
229.027	89.06
229.262	109.06
229.496	97.06
229.73	115.06
229.964	129.06
230.199	131.06
230.433	100.06
230.667	105.06
230.901	119.06
231.136	105.06
231.37	103.06
231.604	111.06
231.838	123.06
232.072	119.06
232.306	110.06
232.541	101.06
232.775	100.06
233.009	104.06
233.243	124.06
233.477	103.06
233.711	116.06
233.945	120.06
234.179	130.06
234.413	115.06
234.647	107.06
234.881	119.06
235.115	111.06
235.349	131.06
235.583	132.06
235.817	119.06
236.051	125.06
236.285	133.06
236.519	126.06
236.753	136.06
236.987	145.06
237.221	147.06
237.455	185.06
237.689	173.06
237.922	135.06
238.156	144.06
238.39	126.06
238.624	140.06
238.858	132.06
239.091	139.06
239.325	146.06
239.559	125.06
239.793	121.06
240.027	139.06
240.26	159.06
240.494	153.06
240.728	150.06
240.961	169.06
241.195	148.06
241.429	136.06
241.662	145.06
241.896	144.06
242.13	150.06
242.363	145.06
242.597	154.06
242.83	153.06
243.064	145.06
243.298	126.06
243.531	139.06
243.765	162.06
243.998	157.06
244.232	157.06
244.465	149.06
244.699	148.06
244.932	177.06
245.166	164.06
245.399	165.06
245.633	161.06
245.866	153.06
246.099	150.06
246.333	158.06
246.566	156.06
246.8	166.06
247.033	154.06
247.266	170.06
247.5	163.06
247.733	186.06
247.966	174.06
248.2	183.06
248.433	186.06
248.666	173.06
248.899	190.06
249.133	195.06
249.366	225.06
249.599	193.06
249.832	188.06
250.066	200.06
250.299	181.06
250.532	191.06
250.765	193.06
250.998	213.06
251.231	228.06
251.465	209.06
251.698	212.06
251.931	195.06
252.164	199.06
252.397	210.06
252.63	220.06
252.863	208.06
253.096	230.06
253.329	219.06
253.562	218.06
253.795	220.06
254.028	213.06
254.261	221.06
254.494	232.06
254.727	237.06
254.96	253.06
255.193	254.06
255.426	242.06
255.659	243.06
255.892	234.06
256.124	242.06
256.357	259.06
256.59	239.06
256.823	236.06
257.056	234.06
257.289	237.06
257.521	234.06
257.754	224.06
257.987	211.06
258.22	226.06
258.452	238.06
258.685	236.06
258.918	229.06
259.151	226.06
259.383	202.06
259.616	228.06
259.849	241.06
260.081	247.06
260.314	258.06
260.547	261.06
260.779	262.06
261.012	245.06
261.244	250.06
261.477	257.06
261.71	233.06
261.942	261.06
262.175	242.06
262.407	244.06
262.64	224.06
262.872	233.06
263.105	251.06
263.337	250.06
263.57	234.06
263.802	247.06
264.035	237.06
264.267	241.06
264.499	228.06
264.732	236.06
264.964	232.06
265.197	247.06
265.429	251.06
265.661	237.06
265.894	232.06
266.126	249.06
266.358	237.06
266.591	231.06
266.823	244.06
267.055	245.06
267.287	264.06
267.52	249.06
267.752	258.06
267.984	251.06
268.216	266.06
268.448	250.06
268.681	252.06
268.913	261.06
269.145	263.06
269.377	289.06
269.609	297.06
269.841	283.06
270.073	298.06
270.306	297.06
270.538	315.06
270.77	317.06
271.002	310.06
271.234	301.06
271.466	296.06
271.698	322.06
271.93	313.06
272.162	317.06
272.394	335.06
272.626	317.06
272.858	296.06
273.09	305.06
273.322	307.06
273.553	285.06
273.785	285.06
274.017	310.06
274.249	319.06
274.481	314.06
274.713	290.06
274.945	314.06
275.176	318.06
275.408	309.06
275.64	274.06
275.872	295.06
276.104	295.06
276.335	291.06
276.567	298.06
276.799	305.06
277.031	321.06
277.262	324.06
277.494	326.06
277.726	336.06
277.957	294.06
278.189	312.06
278.421	305.06
278.652	308.06
278.884	305.06
279.115	295.06
279.347	303.06
279.579	314.06
279.81	321.06
280.042	321.06
280.273	295.06
280.505	308.06
280.736	310.06
280.968	314.06
281.199	310.06
281.431	322.06
281.662	319.06
281.894	298.06
282.125	321.06
282.356	341.06
282.588	347.06
282.819	338.06
283.051	326.06
283.282	332.06
283.513	330.06
283.745	314.06
283.976	321.06
284.207	326.06
284.439	327.06
284.67	324.06
284.901	321.06
285.132	315.06
285.364	331.06
285.595	324.06
285.826	326.06
286.057	330.06
286.288	335.06
286.52	345.06
286.751	332.06
286.982	341.06
287.213	351.06
287.444	337.06
287.675	351.06
287.906	347.06
288.138	350.06
288.369	373.06
288.6	345.06
288.831	349.06
289.062	332.06
289.293	352.06
289.524	350.06
289.755	367.06
289.986	335.06
290.217	352.06
290.448	376.06
290.679	366.06
290.91	353.06
291.141	349.06
291.371	361.06
291.602	372.06
291.833	353.06
292.064	335.06
292.295	358.06
292.526	360.06
292.757	352.06
292.987	351.06
293.218	356.06
293.449	350.06
293.68	341.06
293.91	325.06
294.141	369.06
294.372	367.06
294.603	334.06
294.833	353.06
295.064	352.06
295.295	359.06
295.525	338.06
295.756	371.06
295.987	341.06
296.217	363.06
296.448	392.06
296.679	373.06
296.909	371.06
297.14	371.06
297.37	373.06
297.601	380.06
297.831	374.06
298.062	389.06
298.292	386.06
298.523	386.06
298.753	374.06
298.984	361.06
299.214	377.06
299.445	367.06
299.675	378.06
299.905	390.06
300.136	389.06
300.366	385.06
300.597	393.06
300.827	391.06
301.057	378.06
301.288	399.06
301.518	405.06
301.748	385.06
301.979	401.06
302.209	383.06
302.439	407.06
302.669	415.06
302.9	419.06
303.13	387.06
303.36	399.06
303.59	392.06
303.82	412.06
304.051	405.06
304.281	425.06
304.511	403.06
304.741	393.06
304.971	381.06
305.201	402.06
305.431	429.06
305.661	406.06
305.891	397.06
306.121	401.06
306.352	420.06
306.582	391.06
306.812	402.06
307.042	389.06
307.272	415.06
307.502	401.06
307.731	413.06
307.961	400.06
308.191	406.06
308.421	392.06
308.651	407.06
308.881	417.06
309.111	406.06
309.341	430.06
309.571	406.06
309.8	415.06
310.03	424.06
310.26	437.06
310.49	410.06
310.72	423.06
310.949	451.06
311.179	451.06
311.409	417.06
311.639	437.06
311.868	457.06
312.098	433.06
312.328	435.06
312.557	432.06
312.787	456.06
313.017	447.06
313.246	446.06
313.476	441.06
313.706	471.06
313.935	439.06
314.165	455.06
314.394	453.06
314.624	446.06
314.853	448.06
315.083	458.06
315.312	432.06
315.542	468.06
315.771	449.06
316.001	426.06
316.23	455.06
316.46	434.06
316.689	460.06
316.919	460.06
317.148	454.06
317.377	431.06
317.607	447.06
317.836	448.06
318.065	447.06
318.295	462.06
318.524	441.06
318.753	433.06
318.983	454.06
319.212	426.06
319.441	458.06
319.67	470.06
319.9	435.06
320.129	439.06
320.358	450.06
320.587	445.06
320.816	455.06
321.046	459.06
321.275	486.06
321.504	473.06
321.733	447.06
321.962	452.06
322.191	461.06
322.42	454.06
322.649	473.06
322.878	489.06
323.108	480.06
323.337	492.06
323.566	500.06
323.795	510.06
324.024	543.06
324.253	611.06
324.482	758.06
324.71	1093.06
324.939	1551.06
325.168	1389.06
325.397	775.06
325.626	590.06
325.855	529.06
326.084	528.06
326.313	526.06
326.542	528.06
326.77	551.06
326.999	589.06
327.228	773.06
327.457	1054.06
327.686	1241.06
327.914	889.06
328.143	651.06
328.372	601.06
328.6	569.06
328.829	558.06
329.058	574.06
329.287	591.06
329.515	573.06
329.744	525.06
329.972	544.06
330.201	567.06
330.43	541.06
330.658	596.06
330.887	591.06
331.115	583.06
331.344	553.06
331.572	574.06
331.801	561.06
332.03	552.06
332.258	554.06
332.486	555.06
332.715	551.06
332.943	583.06
333.172	585.06
333.4	608.06
333.629	601.06
333.857	630.06
334.085	614.06
334.314	625.06
334.542	646.06
334.771	652.06
334.999	617.06
335.227	587.06
335.455	596.06
335.684	566.06
335.912	595.06
336.14	581.06
336.369	545.06
336.597	571.06
336.825	591.06
337.053	543.06
337.281	558.06
337.51	542.06
337.738	545.06
337.966	551.06
338.194	549.06
338.422	536.06
338.65	527.06
338.878	524.06
339.106	523.06
339.334	527.06
339.562	505.06
339.79	509.06
340.018	517.06
340.246	517.06
340.474	511.06
340.702	498.06
340.93	514.06
341.158	517.06
341.386	507.06
341.614	490.06
341.842	508.06
342.07	500.06
342.298	498.06
342.526	503.06
342.754	518.06
342.981	523.06
343.209	510.06
343.437	538.06
343.665	558.06
343.893	575.06
344.12	563.06
344.348	569.06
344.576	533.06
344.804	535.06
345.031	546.06
345.259	531.06
345.487	526.06
345.714	528.06
345.942	521.06
346.17	482.06
346.397	496.06
346.625	470.06
346.853	500.06
347.08	490.06
347.308	511.06
347.535	497.06
347.763	490.06
347.99	497.06
348.218	497.06
348.445	500.06
348.673	482.06
348.9	493.06
349.128	493.06
349.355	463.06
349.583	468.06
349.81	494.06
350.037	474.06
350.265	476.06
350.492	488.06
350.72	516.06
350.947	466.06
351.174	498.06
351.402	498.06
351.629	478.06
351.856	482.06
352.083	493.06
352.311	483.06
352.538	505.06
352.765	499.06
352.992	468.06
353.22	497.06
353.447	501.06
353.674	490.06
353.901	474.06
354.128	488.06
354.355	484.06
354.583	478.06
354.81	473.06
355.037	472.06
355.264	469.06
355.491	482.06
355.718	470.06
355.945	473.06
356.172	480.06
356.399	468.06
356.626	455.06
356.853	501.06
357.08	474.06
357.307	481.06
357.534	489.06
357.761	462.06
357.988	489.06
358.215	475.06
358.441	498.06
358.668	463.06
358.895	481.06
359.122	488.06
359.349	491.06
359.576	493.06
359.802	503.06
360.029	491.06
360.256	524.06
360.483	521.06
360.709	493.06
360.936	484.06
361.163	496.06
361.39	482.06
361.616	490.06
361.843	463.06
362.07	483.06
362.296	492.06
362.523	482.06
362.749	500.06
362.976	494.06
363.203	489.06
363.429	491.06
363.656	469.06
363.882	473.06
364.109	490.06
364.335	480.06
364.562	468.06
364.788	496.06
365.015	479.06
365.241	477.06
365.468	479.06
365.694	486.06
365.92	489.06
366.147	482.06
366.373	489.06
366.599	484.06
366.826	490.06
367.052	465.06
367.278	476.06
367.505	477.06
367.731	486.06
367.957	464.06
368.184	489.06
368.41	493.06
368.636	485.06
368.862	463.06
369.089	495.06
369.315	515.06
369.541	503.06
369.767	501.06
369.993	496.06
370.219	489.06
370.445	500.06
370.672	502.06
370.898	484.06
371.124	505.06
371.35	508.06
371.576	511.06
371.802	510.06
372.028	510.06
372.254	509.06
372.48	520.06
372.706	523.06
372.932	526.06
373.158	521.06
373.384	515.06
373.61	501.06
373.835	503.06
374.061	495.06
374.287	496.06
374.513	516.06
374.739	521.06
374.965	548.06
375.191	517.06
375.416	529.06
375.642	519.06
375.868	541.06
376.094	529.06
376.319	516.06
376.545	521.06
376.771	549.06
376.997	517.06
377.222	512.06
377.448	498.06
377.674	524.06
377.899	490.06
378.125	523.06
378.35	503.06
378.576	504.06
378.802	522.06
379.027	500.06
379.253	516.06
379.478	511.06
379.704	490.06
379.929	487.06
380.155	531.06
380.38	511.06
380.606	505.06
380.831	497.06
381.057	521.06
381.282	517.06
381.507	498.06
381.733	505.06
381.958	514.06
382.184	515.06
382.409	509.06
382.634	526.06
382.86	528.06
383.085	532.06
383.31	529.06
383.535	534.06
383.761	559.06
383.986	549.06
384.211	549.06
384.436	544.06
384.662	560.06
384.887	578.06
385.112	575.06
385.337	568.06
385.562	561.06
385.787	565.06
386.013	602.06
386.238	585.06
386.463	600.06
386.688	577.06
386.913	579.06
387.138	592.06
387.363	572.06
387.588	574.06
387.813	568.06
388.038	561.06
388.263	580.06
388.488	583.06
388.713	587.06
388.938	602.06
389.163	584.06
389.387	596.06
389.612	595.06
389.837	571.06
390.062	580.06
390.287	582.06
390.512	577.06
390.736	593.06
390.961	582.06
391.186	576.06
391.411	625.06
391.636	593.06
391.86	605.06
392.085	630.06
392.31	615.06
392.534	634.06
392.759	601.06
392.984	610.06
393.208	612.06
393.433	598.06
393.658	607.06
393.882	602.06
394.107	599.06
394.331	596.06
394.556	590.06
394.78	602.06
395.005	609.06
395.229	602.06
395.454	616.06
395.678	625.06
395.903	616.06
396.127	639.06
396.352	621.06
396.576	649.06
396.801	639.06
397.025	628.06
397.249	612.06
397.474	629.06
397.698	650.06
397.922	659.06
398.147	644.06
398.371	695.06
398.595	669.06
398.82	706.06
399.044	727.06
399.268	750.06
399.492	831.06
399.717	931.06
399.941	952.06
400.165	860.06
400.389	848.06
400.613	799.06
400.837	725.06
401.062	699.06
401.286	696.06
401.51	725.06
401.734	702.06
401.958	718.06
402.182	683.06
402.406	730.06
402.63	731.06
402.854	731.06
403.078	769.06
403.302	763.06
403.526	730.06
403.75	745.06
403.974	758.06
404.198	775.06
404.422	750.06
404.645	759.06
404.869	770.06
405.093	778.06
405.317	806.06
405.541	830.06
405.765	782.06
405.988	765.06
406.212	794.06
406.436	794.06
406.66	793.06
406.883	785.06
407.107	850.06
407.331	873.06
407.555	923.06
407.778	925.06
408.002	855.06
408.226	817.06
408.449	838.06
408.673	824.06
408.896	816.06
409.12	853.06
409.344	814.06
409.567	778.06
409.791	736.06
410.014	738.06
410.238	704.06
410.461	735.06
410.685	745.06
410.908	739.06
411.132	795.06
411.355	750.06
411.578	758.06
411.802	739.06
412.025	744.06
412.249	744.06
412.472	749.06
412.695	765.06
412.919	758.06
413.142	736.06
413.365	712.06
413.589	673.06
413.812	693.06
414.035	680.06
414.258	681.06
414.482	689.06
414.705	691.06
414.928	705.06
415.151	699.06
415.374	689.06
415.597	699.06
415.821	662.06
416.044	673.06
416.267	679.06
416.49	677.06
416.713	689.06
416.936	678.06
417.159	675.06
417.382	644.06
417.605	693.06
417.828	682.06
418.051	697.06
418.274	703.06
418.497	678.06
418.72	692.06
418.943	710.06
419.166	715.06
419.389	783.06
419.611	758.06
419.834	756.06
420.057	719.06
420.28	705.06
420.503	695.06
420.726	681.06
420.948	723.06
421.171	744.06
421.394	745.06
421.617	693.06
421.839	707.06
422.062	702.06
422.285	702.06
422.507	738.06
422.73	790.06
422.953	787.06
423.175	739.06
423.398	714.06
423.621	739.06
423.843	778.06
424.066	753.06
424.288	714.06
424.511	756.06
424.733	785.06
424.956	786.06
425.178	792.06
425.401	793.06
425.623	789.06
425.846	783.06
426.068	706.06
426.291	702.06
426.513	706.06
426.735	697.06
426.958	729.06
427.18	776.06
427.402	866.06
427.625	934.06
427.847	847.06
428.069	745.06
428.292	712.06
428.514	714.06
428.736	659.06
428.958	675.06
429.181	650.06
429.403	649.06
429.625	655.06
429.847	678.06
430.069	697.06
430.292	701.06
430.514	655.06
430.736	669.06
430.958	647.06
431.18	633.06
431.402	643.06
431.624	640.06
431.846	630.06
432.068	617.06
432.29	653.06
432.512	628.06
432.734	657.06
432.956	640.06
433.178	631.06
433.4	641.06
433.622	618.06
433.844	637.06
434.066	645.06
434.287	637.06
434.509	647.06
434.731	658.06
434.953	696.06
435.175	711.06
435.397	733.06
435.618	686.06
435.84	733.06
436.062	776.06
436.284	825.06
436.505	732.06
436.727	687.06
436.949	681.06
437.17	676.06
437.392	671.06
437.614	658.06
437.835	694.06
438.057	729.06
438.278	798.06
438.5	785.06
438.721	880.06
438.943	852.06
439.165	756.06
439.386	673.06
439.608	670.06
439.829	682.06
440.05	695.06
440.272	734.06
440.493	699.06
440.715	672.06
440.936	681.06
441.158	668.06
441.379	701.06
441.6	710.06
441.822	728.06
442.043	743.06
442.264	785.06
442.486	802.06
442.707	748.06
442.928	730.06
443.149	727.06
443.371	756.06
443.592	771.06
443.813	823.06
444.034	873.06
444.255	801.06
444.476	779.06
444.698	774.06
444.919	806.06
445.14	883.06
445.361	810.06
445.582	769.06
445.803	789.06
446.024	848.06
446.245	842.06
446.466	762.06
446.687	713.06
446.908	711.06
447.129	650.06
447.35	620.06
447.571	643.06
447.792	657.06
448.013	611.06
448.234	645.06
448.455	676.06
448.675	750.06
448.896	860.06
449.117	725.06
449.338	698.06
449.559	758.06
449.779	852.06
450	721.06
450.221	663.06
450.442	628.06
450.662	586.06
450.883	617.06
451.104	653.06
451.324	633.06
451.545	591.06
451.766	585.06
451.986	580.06
452.207	574.06
452.428	568.06
452.648	583.06
452.869	553.06
453.089	601.06
453.31	596.06
453.53	603.06
453.751	583.06
453.971	574.06
454.192	578.06
454.412	562.06
454.633	570.06
454.853	555.06
455.073	579.06
455.294	575.06
455.514	639.06
455.734	629.06
455.955	577.06
456.175	571.06
456.395	558.06
456.616	545.06
456.836	552.06
457.056	527.06
457.276	532.06
457.497	562.06
457.717	537.06
457.937	561.06
458.157	567.06
458.377	570.06
458.598	592.06
458.818	635.06
459.038	681.06
459.258	732.06
459.478	670.06
459.698	655.06
459.918	660.06
460.138	687.06
460.358	697.06
460.578	693.06
460.798	708.06
461.018	727.06
461.238	712.06
461.458	692.06
461.678	711.06
461.898	718.06
462.118	734.06
462.338	725.06
462.558	729.06
462.777	780.06
462.997	832.06
463.217	880.06
463.437	859.06
463.657	802.06
463.876	794.06
464.096	767.06
464.316	773.06
464.536	788.06
464.755	772.06
464.975	745.06
465.195	759.06
465.414	778.06
465.634	697.06
465.854	666.06
466.073	635.06
466.293	611.06
466.512	607.06
466.732	619.06
466.951	601.06
467.171	613.06
467.391	608.06
467.61	606.06
467.829	621.06
468.049	627.06
468.268	633.06
468.488	586.06
468.707	589.06
468.927	595.06
469.146	584.06
469.365	585.06
469.585	602.06
469.804	615.06
470.023	646.06
470.243	635.06
470.462	641.06
470.681	638.06
470.901	641.06
471.12	645.06
471.339	630.06
471.558	616.06
471.777	626.06
471.997	618.06
472.216	600.06
472.435	631.06
472.654	614.06
472.873	604.06
473.092	599.06
473.311	618.06
473.53	608.06
473.749	581.06
473.968	615.06
474.187	678.06
474.406	713.06
474.625	663.06
474.844	629.06
475.063	598.06
475.282	612.06
475.501	632.06
475.72	603.06
475.939	606.06
476.158	635.06
476.377	609.06
476.596	632.06
476.814	627.06
477.033	641.06
477.252	673.06
477.471	663.06
477.69	666.06
477.908	668.06
478.127	695.06
478.346	689.06
478.564	718.06
478.783	707.06
479.002	730.06
479.22	734.06
479.439	728.06
479.658	731.06
479.876	734.06
480.095	745.06
480.313	777.06
480.532	811.06
480.751	798.06
480.969	777.06
481.188	815.06
481.406	837.06
481.624	757.06
481.843	723.06
482.061	737.06
482.28	694.06
482.498	707.06
482.717	698.06
482.935	707.06
483.153	710.06
483.372	705.06
483.59	701.06
483.808	706.06
484.027	710.06
484.245	711.06
484.463	742.06
484.681	735.06
484.9	744.06
485.118	730.06
485.336	730.06
485.554	724.06
485.772	734.06
485.99	742.06
486.209	743.06
486.427	733.06
486.645	743.06
486.863	743.06
487.081	732.06
487.299	777.06
487.517	752.06
487.735	768.06
487.953	758.06
488.171	746.06
488.389	759.06
488.607	765.06
488.825	740.06
489.043	758.06
489.261	756.06
489.479	785.06
489.696	782.06
489.914	758.06
490.132	758.06
490.35	774.06
490.568	750.06
490.786	786.06
491.003	822.06
491.221	820.06
491.439	809.06
491.657	815.06
491.874	823.06
492.092	823.06
492.31	832.06
492.527	817.06
492.745	843.06
492.963	843.06
493.18	853.06
493.398	861.06
493.615	850.06
493.833	848.06
494.05	864.06
494.268	832.06
494.485	868.06
494.703	852.06
494.92	879.06
495.138	873.06
495.355	861.06
495.573	856.06
495.79	872.06
496.008	878.06
496.225	883.06
496.442	881.06
496.66	900.06
496.877	898.06
497.094	883.06
497.312	911.06
497.529	944.06
497.746	950.06
497.963	953.06
498.181	984.06
498.398	1034.06
498.615	1035.06
498.832	1108.06
499.049	1132.06
499.267	1211.06
499.484	1281.06
499.701	1387.06
499.918	1467.06
500.135	1578.06
500.352	1736.06
500.569	1809.06
500.786	1774.06
501.003	1737.06
501.22	1610.06
501.437	1445.06
501.654	1366.06
