Data from 1963.PennyLincolnUp.Lamp.En5.5.200Scan.071719.P1._HRD10591_14-00-21-063.txt Node
Date: Thu Jul 18 14:00:21 EDT 2019
User: cochatt
Spectrometer: HR+D1059
Trigger mode: 1
Integration Time (sec): 1.000000E-1
Scans to average: 1
Electric dark correction enabled: true
Nonlinearity correction enabled: false
Boxcar width: 0
XAxis mode: Wavelengths
Number of Pixels in Spectrum: 2048
>>>>>Begin Spectral Data<<<<<
223.165	-22.75
223.4	-22.75
223.635	-22.75
223.869	-4.75
224.104	-22.75
224.338	-27.75
224.573	-15.75
224.808	-21.75
225.042	-15.75
225.277	7.25
225.511	17.25
225.746	3.25
225.98	1.25
226.215	24.25
226.449	12.25
226.683	11.25
226.918	24.25
227.152	30.25
227.387	39.25
227.621	25.25
227.856	45.25
228.09	43.25
228.324	45.25
228.559	59.25
228.793	64.25
229.027	100.25
229.262	102.25
229.496	111.25
229.73	135.25
229.964	161.25
230.199	118.25
230.433	112.25
230.667	121.25
230.901	128.25
231.136	130.25
231.37	127.25
231.604	93.25
231.838	99.25
232.072	97.25
232.306	116.25
232.541	141.25
232.775	133.25
233.009	120.25
233.243	115.25
233.477	125.25
233.711	114.25
233.945	114.25
234.179	119.25
234.413	118.25
234.647	124.25
234.881	128.25
235.115	126.25
235.349	125.25
235.583	131.25
235.817	124.25
236.051	128.25
236.285	122.25
236.519	134.25
236.753	134.25
236.987	135.25
237.221	161.25
237.455	217.25
237.689	181.25
237.922	151.25
238.156	147.25
238.39	140.25
238.624	134.25
238.858	128.25
239.091	147.25
239.325	141.25
239.559	132.25
239.793	126.25
240.027	140.25
240.26	140.25
240.494	158.25
240.728	169.25
240.961	146.25
241.195	170.25
241.429	152.25
241.662	160.25
241.896	137.25
242.13	152.25
242.363	128.25
242.597	148.25
242.83	160.25
243.064	154.25
243.298	163.25
243.531	156.25
243.765	152.25
243.998	153.25
244.232	155.25
244.465	166.25
244.699	167.25
244.932	165.25
245.166	163.25
245.399	173.25
245.633	169.25
245.866	179.25
246.099	193.25
246.333	163.25
246.566	179.25
246.8	174.25
247.033	168.25
247.266	181.25
247.5	172.25
247.733	178.25
247.966	186.25
248.2	188.25
248.433	181.25
248.666	174.25
248.899	186.25
249.133	208.25
249.366	227.25
249.599	211.25
249.832	205.25
250.066	200.25
250.299	200.25
250.532	211.25
250.765	217.25
250.998	241.25
251.231	245.25
251.465	215.25
251.698	233.25
251.931	224.25
252.164	193.25
252.397	213.25
252.63	214.25
252.863	220.25
253.096	245.25
253.329	258.25
253.562	251.25
253.795	241.25
254.028	246.25
254.261	231.25
254.494	241.25
254.727	268.25
254.96	279.25
255.193	268.25
255.426	266.25
255.659	249.25
255.892	261.25
256.124	258.25
256.357	248.25
256.59	240.25
256.823	229.25
257.056	252.25
257.289	249.25
257.521	225.25
257.754	245.25
257.987	247.25
258.22	241.25
258.452	213.25
258.685	237.25
258.918	226.25
259.151	233.25
259.383	240.25
259.616	236.25
259.849	242.25
260.081	258.25
260.314	274.25
260.547	270.25
260.779	267.25
261.012	270.25
261.244	250.25
261.477	229.25
261.71	225.25
261.942	236.25
262.175	260.25
262.407	267.25
262.64	256.25
262.872	240.25
263.105	235.25
263.337	236.25
263.57	234.25
263.802	245.25
264.035	226.25
264.267	258.25
264.499	255.25
264.732	269.25
264.964	256.25
265.197	245.25
265.429	254.25
265.661	238.25
265.894	233.25
266.126	257.25
266.358	236.25
266.591	250.25
266.823	258.25
267.055	264.25
267.287	257.25
267.52	267.25
267.752	250.25
267.984	256.25
268.216	262.25
268.448	279.25
268.681	279.25
268.913	288.25
269.145	295.25
269.377	322.25
269.609	326.25
269.841	333.25
270.073	310.25
270.306	313.25
270.538	326.25
270.77	343.25
271.002	322.25
271.234	316.25
271.466	331.25
271.698	340.25
271.93	331.25
272.162	330.25
272.394	341.25
272.626	333.25
272.858	322.25
273.09	329.25
273.322	309.25
273.553	318.25
273.785	323.25
274.017	300.25
274.249	303.25
274.481	312.25
274.713	305.25
274.945	321.25
275.176	315.25
275.408	306.25
275.64	290.25
275.872	313.25
276.104	308.25
276.335	302.25
276.567	320.25
276.799	334.25
277.031	338.25
277.262	339.25
277.494	348.25
277.726	341.25
277.957	334.25
278.189	340.25
278.421	340.25
278.652	323.25
278.884	315.25
279.115	316.25
279.347	309.25
279.579	314.25
279.81	324.25
280.042	333.25
280.273	314.25
280.505	331.25
280.736	326.25
280.968	326.25
281.199	323.25
281.431	332.25
281.662	314.25
281.894	316.25
282.125	329.25
282.356	337.25
282.588	363.25
282.819	351.25
283.051	358.25
283.282	337.25
283.513	330.25
283.745	323.25
283.976	329.25
284.207	350.25
284.439	353.25
284.67	374.25
284.901	349.25
285.132	329.25
285.364	354.25
285.595	352.25
285.826	334.25
286.057	341.25
286.288	356.25
286.52	342.25
286.751	335.25
286.982	341.25
287.213	349.25
287.444	348.25
287.675	351.25
287.906	372.25
288.138	368.25
288.369	354.25
288.6	360.25
288.831	364.25
289.062	359.25
289.293	352.25
289.524	377.25
289.755	356.25
289.986	378.25
290.217	378.25
290.448	380.25
290.679	363.25
290.91	357.25
291.141	371.25
291.371	388.25
291.602	353.25
291.833	361.25
292.064	361.25
292.295	360.25
292.526	360.25
292.757	373.25
292.987	384.25
293.218	366.25
293.449	360.25
293.68	360.25
293.91	354.25
294.141	376.25
294.372	357.25
294.603	380.25
294.833	377.25
295.064	372.25
295.295	395.25
295.525	394.25
295.756	368.25
295.987	361.25
296.217	382.25
296.448	395.25
296.679	379.25
296.909	399.25
297.14	379.25
297.37	398.25
297.601	402.25
297.831	385.25
298.062	376.25
298.292	406.25
298.523	399.25
298.753	392.25
298.984	395.25
299.214	384.25
299.445	390.25
299.675	383.25
299.905	394.25
300.136	396.25
300.366	407.25
300.597	406.25
300.827	386.25
301.057	424.25
301.288	429.25
301.518	406.25
301.748	404.25
301.979	413.25
302.209	427.25
302.439	420.25
302.669	426.25
302.9	441.25
303.13	412.25
303.36	414.25
303.59	407.25
303.82	437.25
304.051	444.25
304.281	418.25
304.511	436.25
304.741	419.25
304.971	416.25
305.201	420.25
305.431	403.25
305.661	411.25
305.891	414.25
306.121	394.25
306.352	404.25
306.582	414.25
306.812	408.25
307.042	399.25
307.272	423.25
307.502	439.25
307.731	424.25
307.961	420.25
308.191	446.25
308.421	432.25
308.651	405.25
308.881	412.25
309.111	417.25
309.341	411.25
309.571	419.25
309.8	428.25
310.03	437.25
310.26	432.25
310.49	435.25
310.72	448.25
310.949	476.25
311.179	463.25
311.409	442.25
311.639	443.25
311.868	464.25
312.098	469.25
312.328	464.25
312.557	459.25
312.787	483.25
313.017	475.25
313.246	471.25
313.476	473.25
313.706	457.25
313.935	471.25
314.165	465.25
314.394	492.25
314.624	481.25
314.853	460.25
315.083	457.25
315.312	446.25
315.542	452.25
315.771	464.25
316.001	458.25
316.23	457.25
316.46	444.25
316.689	461.25
316.919	459.25
317.148	497.25
317.377	455.25
317.607	486.25
317.836	489.25
318.065	465.25
318.295	475.25
318.524	451.25
318.753	453.25
318.983	463.25
319.212	470.25
319.441	496.25
319.67	484.25
319.9	470.25
320.129	465.25
320.358	473.25
320.587	466.25
320.816	479.25
321.046	488.25
321.275	476.25
321.504	487.25
321.733	467.25
321.962	488.25
322.191	504.25
322.42	518.25
322.649	500.25
322.878	514.25
323.108	524.25
323.337	510.25
323.566	547.25
323.795	552.25
324.024	570.25
324.253	670.25
324.482	877.25
324.71	1287.25
324.939	1818.25
325.168	1600.25
325.397	865.25
325.626	644.25
325.855	582.25
326.084	568.25
326.313	571.25
326.542	581.25
326.77	610.25
326.999	662.25
327.228	816.25
327.457	1208.25
327.686	1445.25
327.914	992.25
328.143	736.25
328.372	653.25
328.6	612.25
328.829	607.25
329.058	636.25
329.287	618.25
329.515	588.25
329.744	594.25
329.972	611.25
330.201	596.25
330.43	630.25
330.658	634.25
330.887	644.25
331.115	653.25
331.344	621.25
331.572	587.25
331.801	601.25
332.03	580.25
332.258	564.25
332.486	592.25
332.715	607.25
332.943	600.25
333.172	606.25
333.4	639.25
333.629	652.25
333.857	655.25
334.085	652.25
334.314	644.25
334.542	677.25
334.771	684.25
334.999	665.25
335.227	630.25
335.455	625.25
335.684	582.25
335.912	592.25
336.14	588.25
336.369	588.25
336.597	594.25
336.825	594.25
337.053	585.25
337.281	562.25
337.51	568.25
337.738	579.25
337.966	565.25
338.194	557.25
338.422	579.25
338.65	570.25
338.878	568.25
339.106	534.25
339.334	574.25
339.562	559.25
339.79	534.25
340.018	552.25
340.246	528.25
340.474	539.25
340.702	537.25
340.93	541.25
341.158	532.25
341.386	541.25
341.614	552.25
341.842	551.25
342.07	529.25
342.298	539.25
342.526	529.25
342.754	519.25
342.981	529.25
343.209	534.25
343.437	547.25
343.665	552.25
343.893	579.25
344.12	601.25
344.348	597.25
344.576	562.25
344.804	577.25
345.031	573.25
345.259	556.25
345.487	566.25
345.714	542.25
345.942	545.25
346.17	545.25
346.397	525.25
346.625	532.25
346.853	504.25
347.08	512.25
347.308	513.25
347.535	528.25
347.763	526.25
347.99	538.25
348.218	518.25
348.445	542.25
348.673	511.25
348.9	533.25
349.128	510.25
349.355	503.25
349.583	491.25
349.81	508.25
350.037	515.25
350.265	504.25
350.492	519.25
350.72	487.25
350.947	504.25
351.174	524.25
351.402	516.25
351.629	521.25
351.856	514.25
352.083	506.25
352.311	532.25
352.538	514.25
352.765	523.25
352.992	527.25
353.22	518.25
353.447	510.25
353.674	501.25
353.901	513.25
354.128	502.25
354.355	483.25
354.583	493.25
354.81	476.25
355.037	498.25
355.264	487.25
355.491	501.25
355.718	486.25
355.945	503.25
356.172	504.25
356.399	516.25
356.626	506.25
356.853	484.25
357.08	477.25
357.307	480.25
357.534	496.25
357.761	474.25
357.988	484.25
358.215	501.25
358.441	495.25
358.668	472.25
358.895	491.25
359.122	501.25
359.349	515.25
359.576	504.25
359.802	537.25
360.029	526.25
360.256	559.25
360.483	544.25
360.709	532.25
360.936	533.25
361.163	506.25
361.39	506.25
361.616	520.25
361.843	513.25
362.07	517.25
362.296	503.25
362.523	497.25
362.749	505.25
362.976	501.25
363.203	500.25
363.429	488.25
363.656	493.25
363.882	489.25
364.109	496.25
364.335	488.25
364.562	483.25
364.788	488.25
365.015	512.25
365.241	510.25
365.468	498.25
365.694	504.25
365.92	493.25
366.147	508.25
366.373	505.25
366.599	530.25
366.826	508.25
367.052	497.25
367.278	508.25
367.505	527.25
367.731	488.25
367.957	481.25
368.184	508.25
368.41	522.25
368.636	521.25
368.862	523.25
369.089	529.25
369.315	524.25
369.541	512.25
369.767	511.25
369.993	501.25
370.219	520.25
370.445	518.25
370.672	505.25
370.898	532.25
371.124	494.25
371.35	521.25
371.576	525.25
371.802	510.25
372.028	504.25
372.254	524.25
372.48	527.25
372.706	527.25
372.932	539.25
373.158	519.25
373.384	524.25
373.61	532.25
373.835	527.25
374.061	519.25
374.287	538.25
374.513	550.25
374.739	534.25
374.965	547.25
375.191	560.25
375.416	557.25
375.642	540.25
375.868	563.25
376.094	546.25
376.319	514.25
376.545	518.25
376.771	538.25
376.997	500.25
377.222	527.25
377.448	511.25
377.674	513.25
377.899	521.25
378.125	519.25
378.35	515.25
378.576	539.25
378.802	514.25
379.027	535.25
379.253	526.25
379.478	541.25
379.704	519.25
379.929	532.25
380.155	542.25
380.38	531.25
380.606	510.25
380.831	515.25
381.057	530.25
381.282	518.25
381.507	534.25
381.733	515.25
381.958	532.25
382.184	556.25
382.409	532.25
382.634	530.25
382.86	551.25
383.085	549.25
383.31	554.25
383.535	561.25
383.761	552.25
383.986	553.25
384.211	569.25
384.436	552.25
384.662	588.25
384.887	598.25
385.112	605.25
385.337	612.25
385.562	604.25
385.787	589.25
386.013	592.25
386.238	625.25
386.463	615.25
386.688	606.25
386.913	593.25
387.138	594.25
387.363	600.25
387.588	607.25
387.813	609.25
388.038	589.25
388.263	624.25
388.488	600.25
388.713	589.25
388.938	597.25
389.163	612.25
389.387	593.25
389.612	596.25
389.837	588.25
390.062	596.25
390.287	589.25
390.512	579.25
390.736	593.25
390.961	594.25
391.186	607.25
391.411	628.25
391.636	633.25
391.86	636.25
392.085	637.25
392.31	649.25
392.534	658.25
392.759	637.25
392.984	626.25
393.208	608.25
393.433	602.25
393.658	625.25
393.882	612.25
394.107	622.25
394.331	612.25
394.556	610.25
394.78	630.25
395.005	615.25
395.229	644.25
395.454	636.25
395.678	663.25
395.903	634.25
396.127	651.25
396.352	650.25
396.576	644.25
396.801	635.25
397.025	619.25
397.249	656.25
397.474	672.25
397.698	663.25
397.922	672.25
398.147	661.25
398.371	696.25
398.595	702.25
398.82	695.25
399.044	754.25
399.268	819.25
399.492	882.25
399.717	980.25
399.941	982.25
400.165	923.25
400.389	908.25
400.613	811.25
400.837	765.25
401.062	747.25
401.286	735.25
401.51	713.25
401.734	728.25
401.958	733.25
402.182	708.25
402.406	769.25
402.63	763.25
402.854	760.25
403.078	756.25
403.302	794.25
403.526	770.25
403.75	792.25
403.974	794.25
404.198	771.25
404.422	786.25
404.645	812.25
404.869	811.25
405.093	806.25
405.317	848.25
405.541	872.25
405.765	808.25
405.988	812.25
406.212	805.25
406.436	812.25
406.66	837.25
406.883	830.25
407.107	844.25
407.331	902.25
407.555	960.25
407.778	979.25
408.002	908.25
408.226	880.25
408.449	839.25
408.673	827.25
408.896	834.25
409.12	877.25
409.344	841.25
409.567	777.25
409.791	781.25
410.014	770.25
410.238	770.25
410.461	756.25
410.685	771.25
410.908	778.25
411.132	804.25
411.355	814.25
411.578	790.25
411.802	786.25
412.025	768.25
412.249	770.25
412.472	808.25
412.695	820.25
412.919	761.25
413.142	739.25
413.365	720.25
413.589	742.25
413.812	717.25
414.035	716.25
414.258	706.25
414.482	721.25
414.705	728.25
414.928	702.25
415.151	730.25
415.374	709.25
415.597	696.25
415.821	674.25
416.044	709.25
416.267	678.25
416.49	705.25
416.713	673.25
416.936	696.25
417.159	704.25
417.382	710.25
417.605	710.25
417.828	716.25
418.051	729.25
418.274	723.25
418.497	716.25
418.72	738.25
418.943	712.25
419.166	730.25
419.389	816.25
419.611	768.25
419.834	756.25
420.057	738.25
420.28	744.25
420.503	737.25
420.726	733.25
420.948	737.25
421.171	754.25
421.394	794.25
421.617	738.25
421.839	728.25
422.062	710.25
422.285	714.25
422.507	787.25
422.73	834.25
422.953	830.25
423.175	785.25
423.398	763.25
423.621	752.25
423.843	785.25
424.066	813.25
424.288	781.25
424.511	796.25
424.733	828.25
424.956	877.25
425.178	840.25
425.401	856.25
425.623	856.25
425.846	783.25
426.068	757.25
426.291	730.25
426.513	735.25
426.735	746.25
426.958	798.25
427.18	837.25
427.402	931.25
427.625	1012.25
427.847	920.25
428.069	803.25
428.292	771.25
428.514	724.25
428.736	701.25
428.958	675.25
429.181	683.25
429.403	662.25
429.625	698.25
429.847	694.25
430.069	760.25
430.292	727.25
430.514	680.25
430.736	692.25
430.958	646.25
431.18	651.25
431.402	661.25
431.624	651.25
431.846	670.25
432.068	655.25
432.29	660.25
432.512	652.25
432.734	653.25
432.956	671.25
433.178	672.25
433.4	678.25
433.622	670.25
433.844	665.25
434.066	657.25
434.287	657.25
434.509	682.25
434.731	712.25
434.953	729.25
435.175	715.25
435.397	735.25
435.618	758.25
435.84	764.25
436.062	829.25
436.284	835.25
436.505	762.25
436.727	717.25
436.949	714.25
437.17	691.25
437.392	662.25
437.614	668.25
437.835	718.25
438.057	795.25
438.278	873.25
438.5	856.25
438.721	934.25
438.943	908.25
439.165	724.25
439.386	685.25
439.608	697.25
439.829	708.25
440.05	741.25
440.272	759.25
440.493	759.25
440.715	704.25
440.936	700.25
441.158	700.25
441.379	709.25
441.6	727.25
441.822	750.25
442.043	776.25
442.264	812.25
442.486	866.25
442.707	772.25
442.928	753.25
443.149	758.25
443.371	778.25
443.592	802.25
443.813	883.25
444.034	932.25
444.255	883.25
444.476	808.25
444.698	823.25
444.919	824.25
445.14	897.25
445.361	838.25
445.582	800.25
445.803	816.25
446.024	893.25
446.245	902.25
446.466	811.25
446.687	759.25
446.908	707.25
447.129	681.25
447.35	657.25
447.571	659.25
447.792	659.25
448.013	657.25
448.234	667.25
448.455	707.25
448.675	796.25
448.896	878.25
449.117	794.25
449.338	755.25
449.559	824.25
449.779	935.25
450	752.25
450.221	686.25
450.442	646.25
450.662	640.25
450.883	657.25
451.104	677.25
451.324	641.25
451.545	625.25
451.766	636.25
451.986	597.25
452.207	600.25
452.428	629.25
452.648	606.25
452.869	613.25
453.089	605.25
453.31	621.25
453.53	584.25
453.751	595.25
453.971	627.25
454.192	604.25
454.412	597.25
454.633	587.25
454.853	605.25
455.073	605.25
455.294	627.25
455.514	660.25
455.734	660.25
455.955	602.25
456.175	578.25
456.395	526.25
456.616	569.25
456.836	568.25
457.056	570.25
457.276	561.25
457.497	568.25
457.717	587.25
457.937	600.25
458.157	594.25
458.377	577.25
458.598	605.25
458.818	696.25
459.038	730.25
459.258	753.25
459.478	696.25
459.698	664.25
459.918	672.25
460.138	701.25
460.358	721.25
460.578	707.25
460.798	744.25
461.018	728.25
461.238	710.25
461.458	708.25
461.678	719.25
461.898	696.25
462.118	733.25
462.338	773.25
462.558	766.25
462.777	774.25
462.997	841.25
463.217	869.25
463.437	871.25
463.657	849.25
463.876	813.25
464.096	825.25
464.316	819.25
464.536	803.25
464.755	805.25
464.975	795.25
465.195	761.25
465.414	806.25
465.634	746.25
465.854	712.25
466.073	668.25
466.293	660.25
466.512	664.25
466.732	658.25
466.951	629.25
467.171	628.25
467.391	625.25
467.61	627.25
467.829	627.25
468.049	614.25
468.268	643.25
468.488	606.25
468.707	629.25
468.927	625.25
469.146	610.25
469.365	627.25
469.585	619.25
469.804	611.25
470.023	636.25
470.243	678.25
470.462	644.25
470.681	666.25
470.901	690.25
471.12	663.25
471.339	653.25
471.558	654.25
471.777	624.25
471.997	630.25
472.216	638.25
472.435	662.25
472.654	651.25
472.873	614.25
473.092	606.25
473.311	613.25
473.53	626.25
473.749	610.25
473.968	656.25
474.187	750.25
474.406	726.25
474.625	675.25
474.844	648.25
475.063	629.25
475.282	623.25
475.501	622.25
475.72	643.25
475.939	615.25
476.158	653.25
476.377	640.25
476.596	633.25
476.814	638.25
477.033	672.25
477.252	680.25
477.471	683.25
477.69	690.25
477.908	716.25
478.127	719.25
478.346	724.25
478.564	717.25
478.783	733.25
479.002	763.25
479.22	764.25
479.439	745.25
479.658	763.25
479.876	782.25
480.095	776.25
480.313	812.25
480.532	842.25
480.751	808.25
480.969	816.25
481.188	856.25
481.406	890.25
481.624	796.25
481.843	735.25
482.061	760.25
482.28	735.25
482.498	732.25
482.717	731.25
482.935	701.25
483.153	722.25
483.372	701.25
483.59	756.25
483.808	728.25
484.027	739.25
484.245	736.25
484.463	748.25
484.681	754.25
484.9	756.25
485.118	740.25
485.336	768.25
485.554	754.25
485.772	758.25
485.99	778.25
486.209	745.25
486.427	772.25
486.645	778.25
486.863	789.25
487.081	780.25
487.299	780.25
487.517	744.25
487.735	752.25
487.953	756.25
488.171	768.25
488.389	785.25
488.607	743.25
488.825	787.25
489.043	770.25
489.261	792.25
489.479	796.25
489.696	797.25
489.914	766.25
490.132	814.25
490.35	826.25
490.568	816.25
490.786	810.25
491.003	834.25
491.221	835.25
491.439	872.25
491.657	867.25
491.874	845.25
492.092	868.25
492.31	890.25
492.527	870.25
492.745	885.25
492.963	869.25
493.18	876.25
493.398	904.25
493.615	897.25
493.833	892.25
494.05	899.25
494.268	909.25
494.485	923.25
494.703	896.25
494.92	898.25
495.138	907.25
495.355	918.25
495.573	912.25
495.79	911.25
496.008	930.25
496.225	906.25
496.442	924.25
496.66	929.25
496.877	930.25
497.094	930.25
497.312	941.25
497.529	958.25
497.746	997.25
497.963	1018.25
498.181	1060.25
498.398	1086.25
498.615	1116.25
498.832	1154.25
499.049	1208.25
499.267	1282.25
499.484	1328.25
499.701	1400.25
499.918	1526.25
500.135	1630.25
500.352	1762.25
500.569	1833.25
500.786	1821.25
501.003	1724.25
501.22	1644.25
501.437	1512.25
501.654	1429.25
