Data from 1963.PennyLincolnUp.Lamp.En5.5.200Scan.071719.P1._HRD10591_13-59-24-064.txt Node
Date: Thu Jul 18 13:59:24 EDT 2019
User: cochatt
Spectrometer: HR+D1059
Trigger mode: 1
Integration Time (sec): 1.000000E-1
Scans to average: 1
Electric dark correction enabled: true
Nonlinearity correction enabled: false
Boxcar width: 0
XAxis mode: Wavelengths
Number of Pixels in Spectrum: 2048
>>>>>Begin Spectral Data<<<<<
223.165	-19.19
223.4	-19.19
223.635	-19.19
223.869	-9.19
224.104	-25.19
224.338	-12.19
224.573	-11.19
224.808	-10.19
225.042	6.81
225.277	-5.19
225.511	-5.19
225.746	2.81
225.98	8.81
226.215	13.81
226.449	9.81
226.683	11.81
226.918	22.81
227.152	20.81
227.387	29.81
227.621	27.81
227.856	46.81
228.09	39.81
228.324	37.81
228.559	50.81
228.793	65.81
229.027	74.81
229.262	96.81
229.496	102.81
229.73	115.81
229.964	150.81
230.199	122.81
230.433	103.81
230.667	117.81
230.901	130.81
231.136	124.81
231.37	114.81
231.604	113.81
231.838	118.81
232.072	137.81
232.306	116.81
232.541	112.81
232.775	116.81
233.009	118.81
233.243	136.81
233.477	130.81
233.711	124.81
233.945	109.81
234.179	141.81
234.413	111.81
234.647	118.81
234.881	122.81
235.115	135.81
235.349	129.81
235.583	127.81
235.817	129.81
236.051	131.81
236.285	138.81
236.519	126.81
236.753	137.81
236.987	147.81
237.221	171.81
237.455	215.81
237.689	192.81
237.922	139.81
238.156	138.81
238.39	136.81
238.624	151.81
238.858	132.81
239.091	132.81
239.325	143.81
239.559	145.81
239.793	144.81
240.027	141.81
240.26	162.81
240.494	178.81
240.728	158.81
240.961	158.81
241.195	142.81
241.429	141.81
241.662	138.81
241.896	145.81
242.13	130.81
242.363	138.81
242.597	143.81
242.83	146.81
243.064	152.81
243.298	130.81
243.531	155.81
243.765	165.81
243.998	148.81
244.232	159.81
244.465	152.81
244.699	176.81
244.932	160.81
245.166	155.81
245.399	163.81
245.633	171.81
245.866	151.81
246.099	161.81
246.333	159.81
246.566	167.81
246.8	168.81
247.033	169.81
247.266	172.81
247.5	186.81
247.733	181.81
247.966	171.81
248.2	180.81
248.433	182.81
248.666	204.81
248.899	186.81
249.133	201.81
249.366	211.81
249.599	193.81
249.832	187.81
250.066	203.81
250.299	192.81
250.532	195.81
250.765	216.81
250.998	233.81
251.231	254.81
251.465	212.81
251.698	216.81
251.931	211.81
252.164	214.81
252.397	218.81
252.63	219.81
252.863	221.81
253.096	244.81
253.329	245.81
253.562	250.81
253.795	234.81
254.028	233.81
254.261	220.81
254.494	227.81
254.727	260.81
254.96	272.81
255.193	275.81
255.426	257.81
255.659	233.81
255.892	226.81
256.124	223.81
256.357	258.81
256.59	236.81
256.823	231.81
257.056	219.81
257.289	233.81
257.521	245.81
257.754	224.81
257.987	227.81
258.22	217.81
258.452	256.81
258.685	232.81
258.918	227.81
259.151	235.81
259.383	251.81
259.616	238.81
259.849	227.81
260.081	238.81
260.314	258.81
260.547	257.81
260.779	259.81
261.012	269.81
261.244	261.81
261.477	248.81
261.71	256.81
261.942	253.81
262.175	260.81
262.407	246.81
262.64	245.81
262.872	250.81
263.105	240.81
263.337	227.81
263.57	242.81
263.802	251.81
264.035	247.81
264.267	234.81
264.499	240.81
264.732	248.81
264.964	244.81
265.197	259.81
265.429	240.81
265.661	246.81
265.894	239.81
266.126	243.81
266.358	239.81
266.591	251.81
266.823	269.81
267.055	258.81
267.287	267.81
267.52	250.81
267.752	270.81
267.984	252.81
268.216	266.81
268.448	277.81
268.681	281.81
268.913	281.81
269.145	286.81
269.377	303.81
269.609	301.81
269.841	308.81
270.073	298.81
270.306	316.81
270.538	326.81
270.77	328.81
271.002	325.81
271.234	308.81
271.466	322.81
271.698	346.81
271.93	328.81
272.162	350.81
272.394	343.81
272.626	342.81
272.858	306.81
273.09	309.81
273.322	318.81
273.553	304.81
273.785	305.81
274.017	295.81
274.249	302.81
274.481	320.81
274.713	309.81
274.945	325.81
275.176	296.81
275.408	304.81
275.64	315.81
275.872	319.81
276.104	304.81
276.335	326.81
276.567	334.81
276.799	343.81
277.031	346.81
277.262	344.81
277.494	338.81
277.726	322.81
277.957	329.81
278.189	321.81
278.421	330.81
278.652	315.81
278.884	321.81
279.115	336.81
279.347	313.81
279.579	321.81
279.81	328.81
280.042	322.81
280.273	336.81
280.505	324.81
280.736	299.81
280.968	338.81
281.199	330.81
281.431	315.81
281.662	332.81
281.894	340.81
282.125	329.81
282.356	323.81
282.588	363.81
282.819	370.81
283.051	351.81
283.282	332.81
283.513	322.81
283.745	344.81
283.976	349.81
284.207	336.81
284.439	346.81
284.67	327.81
284.901	345.81
285.132	336.81
285.364	333.81
285.595	345.81
285.826	340.81
286.057	339.81
286.288	347.81
286.52	338.81
286.751	346.81
286.982	336.81
287.213	346.81
287.444	339.81
287.675	350.81
287.906	375.81
288.138	368.81
288.369	384.81
288.6	380.81
288.831	358.81
289.062	343.81
289.293	352.81
289.524	357.81
289.755	353.81
289.986	357.81
290.217	379.81
290.448	344.81
290.679	343.81
290.91	384.81
291.141	363.81
291.371	359.81
291.602	390.81
291.833	361.81
292.064	353.81
292.295	346.81
292.526	371.81
292.757	351.81
292.987	359.81
293.218	361.81
293.449	383.81
293.68	374.81
293.91	356.81
294.141	355.81
294.372	373.81
294.603	367.81
294.833	364.81
295.064	376.81
295.295	355.81
295.525	370.81
295.756	392.81
295.987	390.81
296.217	398.81
296.448	410.81
296.679	394.81
296.909	383.81
297.14	379.81
297.37	402.81
297.601	386.81
297.831	396.81
298.062	417.81
298.292	380.81
298.523	391.81
298.753	394.81
298.984	407.81
299.214	379.81
299.445	420.81
299.675	372.81
299.905	426.81
300.136	380.81
300.366	374.81
300.597	401.81
300.827	405.81
301.057	426.81
301.288	418.81
301.518	411.81
301.748	413.81
301.979	395.81
302.209	424.81
302.439	421.81
302.669	406.81
302.9	409.81
303.13	417.81
303.36	411.81
303.59	402.81
303.82	398.81
304.051	423.81
304.281	433.81
304.511	415.81
304.741	432.81
304.971	419.81
305.201	408.81
305.431	394.81
305.661	432.81
305.891	430.81
306.121	432.81
306.352	424.81
306.582	425.81
306.812	404.81
307.042	417.81
307.272	402.81
307.502	416.81
307.731	427.81
307.961	410.81
308.191	423.81
308.421	409.81
308.651	414.81
308.881	414.81
309.111	429.81
309.341	410.81
309.571	434.81
309.8	431.81
310.03	440.81
310.26	466.81
310.49	449.81
310.72	467.81
310.949	467.81
311.179	467.81
311.409	467.81
311.639	455.81
311.868	460.81
312.098	464.81
312.328	455.81
312.557	472.81
312.787	469.81
313.017	484.81
313.246	483.81
313.476	460.81
313.706	468.81
313.935	467.81
314.165	481.81
314.394	466.81
314.624	454.81
314.853	477.81
315.083	460.81
315.312	489.81
315.542	461.81
315.771	447.81
316.001	468.81
316.23	455.81
316.46	462.81
316.689	460.81
316.919	458.81
317.148	461.81
317.377	452.81
317.607	474.81
317.836	454.81
318.065	456.81
318.295	457.81
318.524	448.81
318.753	479.81
318.983	465.81
319.212	462.81
319.441	444.81
319.67	490.81
319.9	475.81
320.129	457.81
320.358	476.81
320.587	485.81
320.816	482.81
321.046	479.81
321.275	456.81
321.504	482.81
321.733	489.81
321.962	488.81
322.191	483.81
322.42	506.81
322.649	515.81
322.878	506.81
323.108	499.81
323.337	532.81
323.566	528.81
323.795	576.81
324.024	593.81
324.253	679.81
324.482	898.81
324.71	1276.81
324.939	1855.81
325.168	1588.81
325.397	908.81
325.626	660.81
325.855	593.81
326.084	563.81
326.313	559.81
326.542	549.81
326.77	598.81
326.999	646.81
327.228	855.81
327.457	1223.81
327.686	1450.81
327.914	1014.81
328.143	728.81
328.372	638.81
328.6	609.81
328.829	616.81
329.058	628.81
329.287	634.81
329.515	601.81
329.744	585.81
329.972	587.81
330.201	609.81
330.43	632.81
330.658	623.81
330.887	646.81
331.115	646.81
331.344	571.81
331.572	568.81
331.801	585.81
332.03	587.81
332.258	576.81
332.486	594.81
332.715	577.81
332.943	584.81
333.172	603.81
333.4	612.81
333.629	627.81
333.857	632.81
334.085	640.81
334.314	667.81
334.542	672.81
334.771	694.81
334.999	659.81
335.227	607.81
335.455	615.81
335.684	624.81
335.912	591.81
336.14	605.81
336.369	600.81
336.597	593.81
336.825	590.81
337.053	570.81
337.281	580.81
337.51	560.81
337.738	564.81
337.966	569.81
338.194	559.81
338.422	554.81
338.65	543.81
338.878	555.81
339.106	562.81
339.334	545.81
339.562	553.81
339.79	534.81
340.018	527.81
340.246	555.81
340.474	547.81
340.702	518.81
340.93	548.81
341.158	548.81
341.386	531.81
341.614	536.81
341.842	557.81
342.07	517.81
342.298	529.81
342.526	525.81
342.754	523.81
342.981	520.81
343.209	542.81
343.437	552.81
343.665	573.81
343.893	583.81
344.12	596.81
344.348	599.81
344.576	587.81
344.804	567.81
345.031	535.81
345.259	564.81
345.487	551.81
345.714	533.81
345.942	520.81
346.17	495.81
346.397	531.81
346.625	497.81
346.853	525.81
347.08	507.81
347.308	526.81
347.535	537.81
347.763	516.81
347.99	508.81
348.218	536.81
348.445	531.81
348.673	524.81
348.9	531.81
349.128	499.81
349.355	504.81
349.583	504.81
349.81	506.81
350.037	523.81
350.265	502.81
350.492	497.81
350.72	508.81
350.947	522.81
351.174	502.81
351.402	489.81
351.629	530.81
351.856	506.81
352.083	514.81
352.311	514.81
352.538	535.81
352.765	520.81
352.992	532.81
353.22	517.81
353.447	498.81
353.674	501.81
353.901	487.81
354.128	476.81
354.355	494.81
354.583	475.81
354.81	486.81
355.037	506.81
355.264	484.81
355.491	480.81
355.718	478.81
355.945	490.81
356.172	504.81
356.399	494.81
356.626	486.81
356.853	486.81
357.08	497.81
357.307	503.81
357.534	512.81
357.761	485.81
357.988	501.81
358.215	509.81
358.441	494.81
358.668	511.81
358.895	501.81
359.122	512.81
359.349	518.81
359.576	524.81
359.802	545.81
360.029	545.81
360.256	559.81
360.483	526.81
360.709	520.81
360.936	522.81
361.163	531.81
361.39	528.81
361.616	521.81
361.843	504.81
362.07	502.81
362.296	499.81
362.523	487.81
362.749	532.81
362.976	522.81
363.203	527.81
363.429	499.81
363.656	514.81
363.882	490.81
364.109	480.81
364.335	508.81
364.562	516.81
364.788	497.81
365.015	485.81
365.241	495.81
365.468	495.81
365.694	515.81
365.92	502.81
366.147	491.81
366.373	490.81
366.599	504.81
366.826	520.81
367.052	492.81
367.278	504.81
367.505	490.81
367.731	498.81
367.957	524.81
368.184	484.81
368.41	508.81
368.636	540.81
368.862	550.81
369.089	528.81
369.315	516.81
369.541	514.81
369.767	487.81
369.993	514.81
370.219	504.81
370.445	503.81
370.672	503.81
370.898	528.81
371.124	545.81
371.35	515.81
371.576	526.81
371.802	518.81
372.028	539.81
372.254	518.81
372.48	535.81
372.706	548.81
372.932	539.81
373.158	537.81
373.384	549.81
373.61	546.81
373.835	525.81
374.061	524.81
374.287	532.81
374.513	535.81
374.739	520.81
374.965	534.81
375.191	558.81
375.416	543.81
375.642	554.81
375.868	569.81
376.094	544.81
376.319	516.81
376.545	515.81
376.771	525.81
376.997	516.81
377.222	528.81
377.448	531.81
377.674	533.81
377.899	522.81
378.125	524.81
378.35	522.81
378.576	522.81
378.802	506.81
379.027	517.81
379.253	520.81
379.478	504.81
379.704	511.81
379.929	527.81
380.155	506.81
380.38	522.81
380.606	494.81
380.831	521.81
381.057	543.81
381.282	503.81
381.507	544.81
381.733	534.81
381.958	548.81
382.184	558.81
382.409	543.81
382.634	546.81
382.86	551.81
383.085	540.81
383.31	544.81
383.535	542.81
383.761	530.81
383.986	560.81
384.211	574.81
384.436	596.81
384.662	597.81
384.887	600.81
385.112	600.81
385.337	601.81
385.562	602.81
385.787	602.81
386.013	620.81
386.238	592.81
386.463	598.81
386.688	620.81
386.913	608.81
387.138	615.81
387.363	625.81
387.588	593.81
387.813	612.81
388.038	587.81
388.263	620.81
388.488	606.81
388.713	588.81
388.938	596.81
389.163	606.81
389.387	604.81
389.612	608.81
389.837	609.81
390.062	596.81
390.287	589.81
390.512	612.81
390.736	596.81
390.961	617.81
391.186	592.81
391.411	638.81
391.636	635.81
391.86	643.81
392.085	652.81
392.31	676.81
392.534	650.81
392.759	631.81
392.984	637.81
393.208	630.81
393.433	624.81
393.658	632.81
393.882	627.81
394.107	634.81
394.331	647.81
394.556	640.81
394.78	612.81
395.005	644.81
395.229	618.81
395.454	623.81
395.678	642.81
395.903	668.81
396.127	683.81
396.352	655.81
396.576	644.81
396.801	640.81
397.025	635.81
397.249	634.81
397.474	631.81
397.698	657.81
397.922	658.81
398.147	699.81
398.371	676.81
398.595	696.81
398.82	707.81
399.044	745.81
399.268	790.81
399.492	871.81
399.717	942.81
399.941	1009.81
400.165	955.81
400.389	908.81
400.613	806.81
400.837	776.81
401.062	741.81
401.286	719.81
401.51	719.81
401.734	705.81
401.958	730.81
402.182	759.81
402.406	752.81
402.63	752.81
402.854	738.81
403.078	750.81
403.302	785.81
403.526	785.81
403.75	815.81
403.974	801.81
404.198	790.81
404.422	806.81
404.645	811.81
404.869	794.81
405.093	827.81
405.317	846.81
405.541	859.81
405.765	817.81
405.988	798.81
406.212	799.81
406.436	800.81
406.66	815.81
406.883	826.81
407.107	884.81
407.331	908.81
407.555	978.81
407.778	987.81
408.002	895.81
408.226	852.81
408.449	841.81
408.673	822.81
408.896	846.81
409.12	858.81
409.344	835.81
409.567	805.81
409.791	768.81
410.014	768.81
410.238	735.81
410.461	755.81
410.685	738.81
410.908	768.81
411.132	776.81
411.355	825.81
411.578	803.81
411.802	752.81
412.025	737.81
412.249	760.81
412.472	764.81
412.695	794.81
412.919	816.81
413.142	736.81
413.365	728.81
413.589	771.81
413.812	739.81
414.035	725.81
414.258	704.81
414.482	703.81
414.705	721.81
414.928	723.81
415.151	709.81
415.374	742.81
415.597	730.81
415.821	703.81
416.044	696.81
416.267	713.81
416.49	695.81
416.713	704.81
416.936	692.81
417.159	707.81
417.382	704.81
417.605	759.81
417.828	734.81
418.051	732.81
418.274	755.81
418.497	710.81
418.72	702.81
418.943	706.81
419.166	766.81
419.389	783.81
419.611	784.81
419.834	763.81
420.057	734.81
420.28	730.81
420.503	722.81
420.726	731.81
420.948	738.81
421.171	777.81
421.394	799.81
421.617	737.81
421.839	723.81
422.062	736.81
422.285	723.81
422.507	795.81
422.73	853.81
422.953	835.81
423.175	770.81
423.398	781.81
423.621	755.81
423.843	778.81
424.066	784.81
424.288	792.81
424.511	803.81
424.733	822.81
424.956	892.81
425.178	871.81
425.401	859.81
425.623	886.81
425.846	802.81
426.068	745.81
426.291	750.81
426.513	746.81
426.735	727.81
426.958	764.81
427.18	818.81
427.402	977.81
427.625	1005.81
427.847	907.81
428.069	827.81
428.292	750.81
428.514	707.81
428.736	714.81
428.958	682.81
429.181	689.81
429.403	676.81
429.625	677.81
429.847	719.81
430.069	752.81
430.292	779.81
430.514	683.81
430.736	671.81
430.958	659.81
431.18	664.81
431.402	653.81
431.624	624.81
431.846	653.81
432.068	672.81
432.29	666.81
432.512	643.81
432.734	664.81
432.956	680.81
433.178	661.81
433.4	688.81
433.622	669.81
433.844	650.81
434.066	654.81
434.287	664.81
434.509	691.81
434.731	687.81
434.953	714.81
435.175	738.81
435.397	723.81
435.618	747.81
435.84	736.81
436.062	828.81
436.284	882.81
436.505	789.81
436.727	753.81
436.949	689.81
437.17	694.81
437.392	654.81
437.614	695.81
437.835	716.81
438.057	794.81
438.278	854.81
438.5	864.81
438.721	900.81
438.943	881.81
439.165	739.81
439.386	715.81
439.608	725.81
439.829	695.81
440.05	738.81
440.272	786.81
440.493	762.81
440.715	701.81
440.936	701.81
441.158	710.81
441.379	719.81
441.6	753.81
441.822	755.81
442.043	789.81
442.264	830.81
442.486	885.81
442.707	786.81
442.928	745.81
443.149	753.81
443.371	771.81
443.592	801.81
443.813	894.81
444.034	930.81
444.255	803.81
444.476	816.81
444.698	828.81
444.919	821.81
445.14	934.81
445.361	841.81
445.582	800.81
445.803	831.81
446.024	920.81
446.245	874.81
446.466	821.81
446.687	746.81
446.908	718.81
447.129	697.81
447.35	658.81
447.571	669.81
447.792	651.81
448.013	651.81
448.234	692.81
448.455	680.81
448.675	768.81
448.896	889.81
449.117	800.81
449.338	777.81
449.559	830.81
449.779	919.81
450	755.81
450.221	694.81
450.442	656.81
450.662	640.81
450.883	649.81
451.104	666.81
451.324	668.81
451.545	605.81
451.766	616.81
451.986	631.81
452.207	591.81
452.428	605.81
452.648	589.81
452.869	594.81
453.089	614.81
453.31	618.81
453.53	593.81
453.751	606.81
453.971	610.81
454.192	601.81
454.412	596.81
454.633	595.81
454.853	581.81
455.073	587.81
455.294	612.81
455.514	650.81
455.734	617.81
455.955	594.81
456.175	593.81
456.395	571.81
456.616	564.81
456.836	558.81
457.056	573.81
457.276	579.81
457.497	597.81
457.717	576.81
457.937	578.81
458.157	599.81
458.377	593.81
458.598	594.81
458.818	677.81
459.038	744.81
459.258	770.81
459.478	711.81
459.698	694.81
459.918	667.81
460.138	706.81
460.358	710.81
460.578	716.81
460.798	735.81
461.018	724.81
461.238	749.81
461.458	735.81
461.678	726.81
461.898	741.81
462.118	754.81
462.338	728.81
462.558	816.81
462.777	776.81
462.997	856.81
463.217	882.81
463.437	859.81
463.657	829.81
463.876	834.81
464.096	814.81
464.316	820.81
464.536	806.81
464.755	807.81
464.975	774.81
465.195	789.81
465.414	830.81
465.634	731.81
465.854	716.81
466.073	665.81
466.293	682.81
466.512	643.81
466.732	629.81
466.951	633.81
467.171	636.81
467.391	615.81
467.61	630.81
467.829	650.81
468.049	636.81
468.268	633.81
468.488	636.81
468.707	591.81
468.927	615.81
469.146	631.81
469.365	624.81
469.585	623.81
469.804	635.81
470.023	635.81
470.243	660.81
470.462	663.81
470.681	700.81
470.901	690.81
471.12	642.81
471.339	652.81
471.558	636.81
471.777	636.81
471.997	646.81
472.216	635.81
472.435	661.81
472.654	651.81
472.873	662.81
473.092	626.81
473.311	631.81
473.53	624.81
473.749	626.81
473.968	630.81
474.187	719.81
474.406	746.81
474.625	665.81
474.844	648.81
475.063	623.81
475.282	629.81
475.501	632.81
475.72	638.81
475.939	623.81
476.158	640.81
476.377	639.81
476.596	642.81
476.814	655.81
477.033	660.81
477.252	675.81
477.471	699.81
477.69	688.81
477.908	697.81
478.127	700.81
478.346	712.81
478.564	742.81
478.783	711.81
479.002	754.81
479.22	767.81
479.439	778.81
479.658	788.81
479.876	752.81
480.095	800.81
480.313	802.81
480.532	822.81
480.751	827.81
480.969	806.81
481.188	854.81
481.406	882.81
481.624	812.81
481.843	766.81
482.061	760.81
482.28	743.81
482.498	735.81
482.717	728.81
482.935	741.81
483.153	734.81
483.372	754.81
483.59	742.81
483.808	723.81
484.027	738.81
484.245	728.81
484.463	748.81
484.681	762.81
484.9	757.81
485.118	752.81
485.336	776.81
485.554	730.81
485.772	739.81
485.99	749.81
486.209	754.81
486.427	766.81
486.645	785.81
486.863	791.81
487.081	784.81
487.299	773.81
487.517	765.81
487.735	789.81
487.953	786.81
488.171	776.81
488.389	780.81
488.607	759.81
488.825	762.81
489.043	786.81
489.261	802.81
489.479	787.81
489.696	774.81
489.914	790.81
490.132	811.81
490.35	814.81
490.568	820.81
490.786	815.81
491.003	859.81
491.221	822.81
491.439	865.81
491.657	859.81
491.874	852.81
492.092	878.81
492.31	870.81
492.527	863.81
492.745	883.81
492.963	880.81
493.18	907.81
493.398	912.81
493.615	914.81
493.833	919.81
494.05	900.81
494.268	930.81
494.485	903.81
494.703	903.81
494.92	892.81
495.138	905.81
495.355	923.81
495.573	903.81
495.79	944.81
496.008	884.81
496.225	925.81
496.442	947.81
496.66	946.81
496.877	901.81
497.094	934.81
497.312	959.81
497.529	980.81
497.746	990.81
497.963	990.81
498.181	1041.81
498.398	1044.81
498.615	1096.81
498.832	1141.81
499.049	1198.81
499.267	1238.81
499.484	1323.81
499.701	1421.81
499.918	1506.81
500.135	1694.81
500.352	1774.81
500.569	1864.81
500.786	1859.81
501.003	1763.81
501.22	1652.81
501.437	1535.81
501.654	1435.81
