Data from 1963.PennyLincolnUp.Lamp.En5.5.200Scan.071719.P1._HRD10591_13-59-09-063.txt Node
Date: Thu Jul 18 13:59:09 EDT 2019
User: cochatt
Spectrometer: HR+D1059
Trigger mode: 1
Integration Time (sec): 1.000000E-1
Scans to average: 1
Electric dark correction enabled: true
Nonlinearity correction enabled: false
Boxcar width: 0
XAxis mode: Wavelengths
Number of Pixels in Spectrum: 2048
>>>>>Begin Spectral Data<<<<<
223.165	6.75
223.4	6.75
223.635	6.75
223.869	-8.25
224.104	-14.25
224.338	-17.25
224.573	-22.25
224.808	-14.25
225.042	-5.25
225.277	-17.25
225.511	0.75
225.746	7.75
225.98	-1.25
226.215	8.75
226.449	24.75
226.683	8.75
226.918	14.75
227.152	27.75
227.387	24.75
227.621	38.75
227.856	42.75
228.09	40.75
228.324	41.75
228.559	48.75
228.793	55.75
229.027	90.75
229.262	105.75
229.496	105.75
229.73	126.75
229.964	151.75
230.199	119.75
230.433	105.75
230.667	117.75
230.901	119.75
231.136	114.75
231.37	101.75
231.604	102.75
231.838	121.75
232.072	124.75
232.306	110.75
232.541	123.75
232.775	117.75
233.009	120.75
233.243	112.75
233.477	123.75
233.711	119.75
233.945	116.75
234.179	118.75
234.413	110.75
234.647	126.75
234.881	118.75
235.115	101.75
235.349	122.75
235.583	136.75
235.817	114.75
236.051	131.75
236.285	126.75
236.519	131.75
236.753	140.75
236.987	140.75
237.221	164.75
237.455	211.75
237.689	163.75
237.922	138.75
238.156	118.75
238.39	148.75
238.624	126.75
238.858	111.75
239.091	140.75
239.325	125.75
239.559	135.75
239.793	154.75
240.027	154.75
240.26	131.75
240.494	160.75
240.728	160.75
240.961	156.75
241.195	140.75
241.429	144.75
241.662	149.75
241.896	135.75
242.13	147.75
242.363	140.75
242.597	145.75
242.83	136.75
243.064	146.75
243.298	141.75
243.531	134.75
243.765	153.75
243.998	161.75
244.232	147.75
244.465	156.75
244.699	150.75
244.932	151.75
245.166	165.75
245.399	154.75
245.633	156.75
245.866	171.75
246.099	167.75
246.333	159.75
246.566	168.75
246.8	182.75
247.033	166.75
247.266	159.75
247.5	182.75
247.733	175.75
247.966	188.75
248.2	181.75
248.433	175.75
248.666	184.75
248.899	198.75
249.133	188.75
249.366	214.75
249.599	209.75
249.832	187.75
250.066	207.75
250.299	190.75
250.532	192.75
250.765	218.75
250.998	228.75
251.231	229.75
251.465	206.75
251.698	207.75
251.931	226.75
252.164	209.75
252.397	194.75
252.63	217.75
252.863	231.75
253.096	235.75
253.329	233.75
253.562	236.75
253.795	223.75
254.028	224.75
254.261	235.75
254.494	249.75
254.727	259.75
254.96	297.75
255.193	278.75
255.426	238.75
255.659	232.75
255.892	244.75
256.124	230.75
256.357	236.75
256.59	241.75
256.823	228.75
257.056	223.75
257.289	234.75
257.521	236.75
257.754	228.75
257.987	223.75
258.22	230.75
258.452	225.75
258.685	230.75
258.918	210.75
259.151	231.75
259.383	234.75
259.616	223.75
259.849	242.75
260.081	252.75
260.314	249.75
260.547	246.75
260.779	241.75
261.012	251.75
261.244	243.75
261.477	235.75
261.71	230.75
261.942	244.75
262.175	223.75
262.407	235.75
262.64	245.75
262.872	228.75
263.105	232.75
263.337	236.75
263.57	237.75
263.802	238.75
264.035	244.75
264.267	225.75
264.499	214.75
264.732	246.75
264.964	240.75
265.197	254.75
265.429	257.75
265.661	245.75
265.894	231.75
266.126	259.75
266.358	257.75
266.591	259.75
266.823	272.75
267.055	257.75
267.287	261.75
267.52	233.75
267.752	248.75
267.984	246.75
268.216	278.75
268.448	257.75
268.681	269.75
268.913	271.75
269.145	289.75
269.377	303.75
269.609	305.75
269.841	296.75
270.073	270.75
270.306	302.75
270.538	348.75
270.77	322.75
271.002	307.75
271.234	309.75
271.466	310.75
271.698	329.75
271.93	328.75
272.162	332.75
272.394	320.75
272.626	303.75
272.858	288.75
273.09	300.75
273.322	287.75
273.553	302.75
273.785	277.75
274.017	287.75
274.249	306.75
274.481	304.75
274.713	299.75
274.945	311.75
275.176	299.75
275.408	295.75
275.64	305.75
275.872	302.75
276.104	314.75
276.335	298.75
276.567	325.75
276.799	321.75
277.031	341.75
277.262	338.75
277.494	331.75
277.726	329.75
277.957	324.75
278.189	346.75
278.421	299.75
278.652	316.75
278.884	303.75
279.115	304.75
279.347	307.75
279.579	309.75
279.81	308.75
280.042	307.75
280.273	311.75
280.505	298.75
280.736	315.75
280.968	326.75
281.199	315.75
281.431	327.75
281.662	311.75
281.894	313.75
282.125	303.75
282.356	340.75
282.588	327.75
282.819	342.75
283.051	345.75
283.282	302.75
283.513	330.75
283.745	328.75
283.976	346.75
284.207	331.75
284.439	323.75
284.67	328.75
284.901	348.75
285.132	352.75
285.364	353.75
285.595	335.75
285.826	325.75
286.057	321.75
286.288	334.75
286.52	355.75
286.751	332.75
286.982	326.75
287.213	330.75
287.444	336.75
287.675	335.75
287.906	352.75
288.138	372.75
288.369	364.75
288.6	386.75
288.831	362.75
289.062	366.75
289.293	363.75
289.524	334.75
289.755	340.75
289.986	353.75
290.217	375.75
290.448	357.75
290.679	340.75
290.91	344.75
291.141	358.75
291.371	376.75
291.602	348.75
291.833	366.75
292.064	367.75
292.295	350.75
292.526	347.75
292.757	346.75
292.987	348.75
293.218	361.75
293.449	357.75
293.68	371.75
293.91	360.75
294.141	359.75
294.372	344.75
294.603	369.75
294.833	351.75
295.064	350.75
295.295	361.75
295.525	375.75
295.756	371.75
295.987	367.75
296.217	380.75
296.448	386.75
296.679	378.75
296.909	370.75
297.14	385.75
297.37	361.75
297.601	382.75
297.831	369.75
298.062	363.75
298.292	378.75
298.523	370.75
298.753	375.75
298.984	383.75
299.214	389.75
299.445	393.75
299.675	403.75
299.905	386.75
300.136	394.75
300.366	383.75
300.597	395.75
300.827	418.75
301.057	398.75
301.288	394.75
301.518	417.75
301.748	406.75
301.979	392.75
302.209	422.75
302.439	406.75
302.669	406.75
302.9	410.75
303.13	404.75
303.36	408.75
303.59	400.75
303.82	427.75
304.051	414.75
304.281	409.75
304.511	407.75
304.741	412.75
304.971	390.75
305.201	425.75
305.431	397.75
305.661	398.75
305.891	403.75
306.121	398.75
306.352	416.75
306.582	434.75
306.812	405.75
307.042	405.75
307.272	406.75
307.502	407.75
307.731	429.75
307.961	432.75
308.191	384.75
308.421	410.75
308.651	395.75
308.881	404.75
309.111	415.75
309.341	428.75
309.571	426.75
309.8	413.75
310.03	445.75
310.26	430.75
310.49	432.75
310.72	446.75
310.949	447.75
311.179	441.75
311.409	453.75
311.639	440.75
311.868	443.75
312.098	437.75
312.328	456.75
312.557	456.75
312.787	487.75
313.017	474.75
313.246	449.75
313.476	466.75
313.706	454.75
313.935	457.75
314.165	463.75
314.394	460.75
314.624	461.75
314.853	456.75
315.083	455.75
315.312	439.75
315.542	437.75
315.771	445.75
316.001	446.75
316.23	443.75
316.46	457.75
316.689	446.75
316.919	440.75
317.148	452.75
317.377	471.75
317.607	450.75
317.836	443.75
318.065	453.75
318.295	415.75
318.524	452.75
318.753	435.75
318.983	443.75
319.212	438.75
319.441	452.75
319.67	464.75
319.9	462.75
320.129	449.75
320.358	457.75
320.587	450.75
320.816	488.75
321.046	466.75
321.275	460.75
321.504	447.75
321.733	464.75
321.962	461.75
322.191	461.75
322.42	478.75
322.649	496.75
322.878	495.75
323.108	494.75
323.337	497.75
323.566	521.75
323.795	524.75
324.024	542.75
324.253	631.75
324.482	816.75
324.71	1175.75
324.939	1654.75
325.168	1451.75
325.397	808.75
325.626	615.75
325.855	550.75
326.084	548.75
326.313	542.75
326.542	531.75
326.77	561.75
326.999	609.75
327.228	764.75
327.457	1123.75
327.686	1354.75
327.914	939.75
328.143	690.75
328.372	636.75
328.6	592.75
328.829	566.75
329.058	581.75
329.287	592.75
329.515	552.75
329.744	549.75
329.972	564.75
330.201	559.75
330.43	589.75
330.658	613.75
330.887	636.75
331.115	634.75
331.344	582.75
331.572	552.75
331.801	570.75
332.03	563.75
332.258	564.75
332.486	557.75
332.715	567.75
332.943	587.75
333.172	583.75
333.4	612.75
333.629	619.75
333.857	620.75
334.085	630.75
334.314	633.75
334.542	655.75
334.771	675.75
334.999	633.75
335.227	598.75
335.455	601.75
335.684	594.75
335.912	587.75
336.14	565.75
336.369	555.75
336.597	583.75
336.825	566.75
337.053	574.75
337.281	552.75
337.51	560.75
337.738	563.75
337.966	533.75
338.194	555.75
338.422	548.75
338.65	532.75
338.878	546.75
339.106	528.75
339.334	518.75
339.562	534.75
339.79	530.75
340.018	518.75
340.246	506.75
340.474	518.75
340.702	506.75
340.93	517.75
341.158	517.75
341.386	542.75
341.614	525.75
341.842	546.75
342.07	515.75
342.298	516.75
342.526	523.75
342.754	520.75
342.981	513.75
343.209	521.75
343.437	531.75
343.665	574.75
343.893	582.75
344.12	583.75
344.348	575.75
344.576	560.75
344.804	577.75
345.031	531.75
345.259	537.75
345.487	509.75
345.714	523.75
345.942	488.75
346.17	506.75
346.397	526.75
346.625	490.75
346.853	508.75
347.08	495.75
347.308	497.75
347.535	488.75
347.763	500.75
347.99	490.75
348.218	500.75
348.445	500.75
348.673	515.75
348.9	512.75
349.128	505.75
349.355	485.75
349.583	496.75
349.81	475.75
350.037	506.75
350.265	472.75
350.492	498.75
350.72	478.75
350.947	487.75
351.174	504.75
351.402	476.75
351.629	483.75
351.856	488.75
352.083	500.75
352.311	482.75
352.538	504.75
352.765	519.75
352.992	506.75
353.22	504.75
353.447	508.75
353.674	497.75
353.901	485.75
354.128	473.75
354.355	495.75
354.583	491.75
354.81	466.75
355.037	472.75
355.264	471.75
355.491	489.75
355.718	478.75
355.945	466.75
356.172	463.75
356.399	468.75
356.626	474.75
356.853	479.75
357.08	479.75
357.307	486.75
357.534	490.75
357.761	483.75
357.988	476.75
358.215	467.75
358.441	479.75
358.668	464.75
358.895	463.75
359.122	476.75
359.349	487.75
359.576	482.75
359.802	518.75
360.029	548.75
360.256	533.75
360.483	538.75
360.709	495.75
360.936	510.75
361.163	485.75
361.39	502.75
361.616	524.75
361.843	494.75
362.07	491.75
362.296	506.75
362.523	483.75
362.749	494.75
362.976	500.75
363.203	499.75
363.429	495.75
363.656	505.75
363.882	514.75
364.109	484.75
364.335	504.75
364.562	497.75
364.788	477.75
365.015	496.75
365.241	493.75
365.468	493.75
365.694	495.75
365.92	497.75
366.147	472.75
366.373	482.75
366.599	467.75
366.826	470.75
367.052	482.75
367.278	474.75
367.505	493.75
367.731	484.75
367.957	492.75
368.184	487.75
368.41	491.75
368.636	498.75
368.862	502.75
369.089	495.75
369.315	511.75
369.541	505.75
369.767	483.75
369.993	488.75
370.219	497.75
370.445	478.75
370.672	516.75
370.898	487.75
371.124	494.75
371.35	490.75
371.576	506.75
371.802	509.75
372.028	505.75
372.254	527.75
372.48	507.75
372.706	515.75
372.932	531.75
373.158	527.75
373.384	535.75
373.61	511.75
373.835	518.75
374.061	502.75
374.287	512.75
374.513	529.75
374.739	542.75
374.965	556.75
375.191	555.75
375.416	561.75
375.642	550.75
375.868	519.75
376.094	508.75
376.319	505.75
376.545	509.75
376.771	516.75
376.997	513.75
377.222	518.75
377.448	523.75
377.674	518.75
377.899	506.75
378.125	519.75
378.35	526.75
378.576	501.75
378.802	484.75
379.027	524.75
379.253	520.75
379.478	516.75
379.704	507.75
379.929	508.75
380.155	503.75
380.38	501.75
380.606	523.75
380.831	508.75
381.057	535.75
381.282	501.75
381.507	482.75
381.733	496.75
381.958	494.75
382.184	523.75
382.409	527.75
382.634	552.75
382.86	533.75
383.085	532.75
383.31	520.75
383.535	550.75
383.761	555.75
383.986	555.75
384.211	537.75
384.436	542.75
384.662	570.75
384.887	575.75
385.112	567.75
385.337	575.75
385.562	578.75
385.787	584.75
386.013	577.75
386.238	564.75
386.463	569.75
386.688	599.75
386.913	582.75
387.138	573.75
387.363	596.75
387.588	582.75
387.813	593.75
388.038	586.75
388.263	590.75
388.488	606.75
388.713	582.75
388.938	598.75
389.163	580.75
389.387	575.75
389.612	571.75
389.837	580.75
390.062	587.75
390.287	559.75
390.512	594.75
390.736	570.75
390.961	584.75
391.186	572.75
391.411	622.75
391.636	627.75
391.86	624.75
392.085	642.75
392.31	639.75
392.534	635.75
392.759	625.75
392.984	625.75
393.208	600.75
393.433	602.75
393.658	617.75
393.882	610.75
394.107	605.75
394.331	625.75
394.556	607.75
394.78	614.75
395.005	623.75
395.229	634.75
395.454	652.75
395.678	610.75
395.903	617.75
396.127	652.75
396.352	647.75
396.576	610.75
396.801	609.75
397.025	614.75
397.249	605.75
397.474	644.75
397.698	650.75
397.922	649.75
398.147	688.75
398.371	668.75
398.595	668.75
398.82	708.75
399.044	748.75
399.268	793.75
399.492	831.75
399.717	926.75
399.941	962.75
400.165	908.75
400.389	865.75
400.613	784.75
400.837	762.75
401.062	731.75
401.286	717.75
401.51	706.75
401.734	708.75
401.958	716.75
402.182	719.75
402.406	746.75
402.63	752.75
402.854	722.75
403.078	744.75
403.302	750.75
403.526	762.75
403.75	784.75
403.974	776.75
404.198	793.75
404.422	774.75
404.645	762.75
404.869	770.75
405.093	799.75
405.317	843.75
405.541	852.75
405.765	781.75
405.988	791.75
406.212	757.75
406.436	785.75
406.66	830.75
406.883	755.75
407.107	824.75
407.331	874.75
407.555	952.75
407.778	942.75
408.002	891.75
408.226	812.75
408.449	821.75
408.673	784.75
408.896	806.75
409.12	835.75
409.344	786.75
409.567	801.75
409.791	768.75
410.014	752.75
410.238	717.75
410.461	741.75
410.685	726.75
410.908	779.75
411.132	779.75
411.355	791.75
411.578	776.75
411.802	712.75
412.025	758.75
412.249	748.75
412.472	747.75
412.695	775.75
412.919	755.75
413.142	728.75
413.365	720.75
413.589	711.75
413.812	699.75
414.035	714.75
414.258	696.75
414.482	711.75
414.705	708.75
414.928	664.75
415.151	700.75
415.374	725.75
415.597	718.75
415.821	683.75
416.044	681.75
416.267	686.75
416.49	678.75
416.713	676.75
416.936	674.75
417.159	688.75
417.382	688.75
417.605	702.75
417.828	714.75
418.051	716.75
418.274	699.75
418.497	691.75
418.72	701.75
418.943	712.75
419.166	759.75
419.389	797.75
419.611	755.75
419.834	736.75
420.057	726.75
420.28	737.75
420.503	725.75
420.726	729.75
420.948	727.75
421.171	751.75
421.394	757.75
421.617	698.75
421.839	712.75
422.062	731.75
422.285	710.75
422.507	755.75
422.73	806.75
422.953	819.75
423.175	770.75
423.398	743.75
423.621	746.75
423.843	777.75
424.066	757.75
424.288	741.75
424.511	748.75
424.733	819.75
424.956	840.75
425.178	828.75
425.401	819.75
425.623	830.75
425.846	745.75
426.068	743.75
426.291	707.75
426.513	688.75
426.735	741.75
426.958	738.75
427.18	809.75
427.402	918.75
427.625	983.75
427.847	867.75
428.069	760.75
428.292	716.75
428.514	684.75
428.736	679.75
428.958	670.75
429.181	652.75
429.403	664.75
429.625	680.75
429.847	673.75
430.069	733.75
430.292	709.75
430.514	648.75
430.736	666.75
430.958	662.75
431.18	644.75
431.402	639.75
431.624	626.75
431.846	645.75
432.068	631.75
432.29	642.75
432.512	643.75
432.734	665.75
432.956	653.75
433.178	641.75
433.4	638.75
433.622	635.75
433.844	642.75
434.066	647.75
434.287	665.75
434.509	695.75
434.731	690.75
434.953	689.75
435.175	727.75
435.397	711.75
435.618	731.75
435.84	728.75
436.062	815.75
436.284	844.75
436.505	791.75
436.727	708.75
436.949	676.75
437.17	673.75
437.392	656.75
437.614	659.75
437.835	663.75
438.057	750.75
438.278	848.75
438.5	819.75
438.721	871.75
438.943	882.75
439.165	754.75
439.386	670.75
439.608	686.75
439.829	685.75
440.05	698.75
440.272	727.75
440.493	750.75
440.715	704.75
440.936	656.75
441.158	685.75
441.379	673.75
441.6	711.75
441.822	750.75
442.043	768.75
442.264	819.75
442.486	832.75
442.707	772.75
442.928	729.75
443.149	756.75
443.371	758.75
443.592	789.75
443.813	890.75
444.034	910.75
444.255	816.75
444.476	802.75
444.698	816.75
444.919	819.75
445.14	910.75
445.361	835.75
445.582	804.75
445.803	807.75
446.024	848.75
446.245	870.75
446.466	838.75
446.687	736.75
446.908	698.75
447.129	644.75
447.35	648.75
447.571	670.75
447.792	644.75
448.013	651.75
448.234	667.75
448.455	697.75
448.675	772.75
448.896	856.75
449.117	782.75
449.338	721.75
449.559	814.75
449.779	912.75
450	765.75
450.221	675.75
450.442	666.75
450.662	632.75
450.883	622.75
451.104	653.75
451.324	617.75
451.545	611.75
451.766	597.75
451.986	590.75
452.207	585.75
452.428	605.75
452.648	593.75
452.869	592.75
453.089	594.75
453.31	582.75
453.53	603.75
453.751	581.75
453.971	595.75
454.192	595.75
454.412	608.75
454.633	572.75
454.853	576.75
455.073	566.75
455.294	586.75
455.514	631.75
455.734	639.75
455.955	580.75
456.175	546.75
456.395	552.75
456.616	549.75
456.836	576.75
457.056	580.75
457.276	563.75
457.497	544.75
457.717	573.75
457.937	565.75
458.157	561.75
458.377	580.75
458.598	574.75
458.818	626.75
459.038	699.75
459.258	740.75
459.478	680.75
459.698	665.75
459.918	671.75
460.138	667.75
460.358	690.75
460.578	711.75
460.798	705.75
461.018	735.75
461.238	700.75
461.458	720.75
461.678	699.75
461.898	698.75
462.118	697.75
462.338	752.75
462.558	771.75
462.777	778.75
462.997	806.75
463.217	852.75
463.437	883.75
463.657	841.75
463.876	794.75
464.096	782.75
464.316	807.75
464.536	777.75
464.755	810.75
464.975	746.75
465.195	769.75
465.414	794.75
465.634	713.75
465.854	668.75
466.073	672.75
466.293	652.75
466.512	633.75
466.732	633.75
466.951	626.75
467.171	620.75
467.391	638.75
467.61	617.75
467.829	636.75
468.049	616.75
468.268	604.75
468.488	608.75
468.707	573.75
468.927	614.75
469.146	600.75
469.365	582.75
469.585	595.75
469.804	594.75
470.023	641.75
470.243	644.75
470.462	669.75
470.681	661.75
470.901	664.75
471.12	662.75
471.339	632.75
471.558	615.75
471.777	618.75
471.997	633.75
472.216	636.75
472.435	654.75
472.654	642.75
472.873	614.75
473.092	610.75
473.311	608.75
473.53	609.75
473.749	618.75
473.968	632.75
474.187	729.75
474.406	726.75
474.625	646.75
474.844	621.75
475.063	610.75
475.282	615.75
475.501	612.75
475.72	610.75
475.939	620.75
476.158	651.75
476.377	640.75
476.596	617.75
476.814	615.75
477.033	633.75
477.252	652.75
477.471	672.75
477.69	679.75
477.908	686.75
478.127	697.75
478.346	688.75
478.564	702.75
478.783	729.75
479.002	739.75
479.22	760.75
479.439	752.75
479.658	746.75
479.876	737.75
480.095	766.75
480.313	808.75
480.532	813.75
480.751	789.75
480.969	796.75
481.188	844.75
481.406	870.75
481.624	790.75
481.843	769.75
482.061	745.75
482.28	721.75
482.498	724.75
482.717	728.75
482.935	709.75
483.153	706.75
483.372	716.75
483.59	751.75
483.808	728.75
484.027	722.75
484.245	723.75
484.463	716.75
484.681	751.75
484.9	723.75
485.118	756.75
485.336	731.75
485.554	734.75
485.772	736.75
485.99	731.75
486.209	759.75
486.427	769.75
486.645	751.75
486.863	751.75
487.081	772.75
487.299	775.75
487.517	758.75
487.735	764.75
487.953	767.75
488.171	763.75
488.389	747.75
488.607	768.75
488.825	777.75
489.043	774.75
489.261	752.75
489.479	762.75
489.696	772.75
489.914	783.75
490.132	785.75
490.35	767.75
490.568	812.75
490.786	797.75
491.003	792.75
491.221	839.75
491.439	818.75
491.657	818.75
491.874	834.75
492.092	837.75
492.31	826.75
492.527	835.75
492.745	859.75
492.963	845.75
493.18	874.75
493.398	887.75
493.615	885.75
493.833	901.75
494.05	864.75
494.268	882.75
494.485	874.75
494.703	876.75
494.92	883.75
495.138	882.75
495.355	884.75
495.573	887.75
495.79	906.75
496.008	896.75
496.225	874.75
496.442	882.75
496.66	906.75
496.877	895.75
497.094	929.75
497.312	922.75
497.529	951.75
497.746	960.75
497.963	969.75
498.181	1013.75
498.398	1049.75
498.615	1061.75
498.832	1112.75
499.049	1154.75
499.267	1244.75
499.484	1287.75
499.701	1366.75
499.918	1489.75
500.135	1650.75
500.352	1769.75
500.569	1827.75
500.786	1817.75
501.003	1743.75
501.22	1638.75
501.437	1482.75
501.654	1386.75
501.871	1336.75
