Data from 1963.PennyLincolnUp.Lamp.En5.5.200Scan.071719.P1._HRD10591_14-00-15-064.txt Node
Date: Thu Jul 18 14:00:15 EDT 2019
User: cochatt
Spectrometer: HR+D1059
Trigger mode: 1
Integration Time (sec): 1.000000E-1
Scans to average: 1
Electric dark correction enabled: true
Nonlinearity correction enabled: false
Boxcar width: 0
XAxis mode: Wavelengths
Number of Pixels in Spectrum: 2048
>>>>>Begin Spectral Data<<<<<
223.165	-22.38
223.4	-22.38
223.635	-22.38
223.869	-6.38
224.104	-8.38
224.338	-22.38
224.573	0.62
224.808	-15.38
225.042	-0.38
225.277	-1.38
225.511	-11.38
225.746	6.62
225.98	-3.38
226.215	10.62
226.449	9.62
226.683	21.62
226.918	20.62
227.152	21.62
227.387	34.62
227.621	29.62
227.856	54.62
228.09	49.62
228.324	41.62
228.559	53.62
228.793	60.62
229.027	100.62
229.262	114.62
229.496	120.62
229.73	141.62
229.964	158.62
230.199	138.62
230.433	133.62
230.667	116.62
230.901	114.62
231.136	127.62
231.37	119.62
231.604	117.62
231.838	128.62
232.072	121.62
232.306	116.62
232.541	126.62
232.775	124.62
233.009	118.62
233.243	126.62
233.477	134.62
233.711	148.62
233.945	131.62
234.179	120.62
234.413	136.62
234.647	137.62
234.881	127.62
235.115	132.62
235.349	116.62
235.583	143.62
235.817	134.62
236.051	130.62
236.285	133.62
236.519	142.62
236.753	127.62
236.987	141.62
237.221	184.62
237.455	224.62
237.689	200.62
237.922	159.62
238.156	154.62
238.39	134.62
238.624	153.62
238.858	140.62
239.091	139.62
239.325	132.62
239.559	153.62
239.793	142.62
240.027	149.62
240.26	155.62
240.494	163.62
240.728	155.62
240.961	170.62
241.195	154.62
241.429	160.62
241.662	159.62
241.896	149.62
242.13	150.62
242.363	157.62
242.597	157.62
242.83	153.62
243.064	143.62
243.298	169.62
243.531	165.62
243.765	139.62
243.998	176.62
244.232	166.62
244.465	154.62
244.699	169.62
244.932	158.62
245.166	171.62
245.399	164.62
245.633	171.62
245.866	182.62
246.099	180.62
246.333	170.62
246.566	175.62
246.8	180.62
247.033	180.62
247.266	173.62
247.5	179.62
247.733	190.62
247.966	196.62
248.2	205.62
248.433	200.62
248.666	189.62
248.899	209.62
249.133	223.62
249.366	208.62
249.599	213.62
249.832	194.62
250.066	209.62
250.299	202.62
250.532	231.62
250.765	229.62
250.998	232.62
251.231	242.62
251.465	247.62
251.698	230.62
251.931	227.62
252.164	218.62
252.397	223.62
252.63	229.62
252.863	223.62
253.096	228.62
253.329	251.62
253.562	248.62
253.795	231.62
254.028	231.62
254.261	239.62
254.494	245.62
254.727	274.62
254.96	297.62
255.193	306.62
255.426	250.62
255.659	251.62
255.892	245.62
256.124	244.62
256.357	271.62
256.59	269.62
256.823	252.62
257.056	228.62
257.289	231.62
257.521	222.62
257.754	240.62
257.987	231.62
258.22	208.62
258.452	226.62
258.685	244.62
258.918	237.62
259.151	242.62
259.383	252.62
259.616	237.62
259.849	248.62
260.081	256.62
260.314	288.62
260.547	281.62
260.779	284.62
261.012	255.62
261.244	265.62
261.477	252.62
261.71	261.62
261.942	259.62
262.175	254.62
262.407	262.62
262.64	252.62
262.872	252.62
263.105	243.62
263.337	247.62
263.57	252.62
263.802	246.62
264.035	245.62
264.267	245.62
264.499	254.62
264.732	252.62
264.964	245.62
265.197	240.62
265.429	270.62
265.661	244.62
265.894	248.62
266.126	266.62
266.358	243.62
266.591	247.62
266.823	258.62
267.055	261.62
267.287	290.62
267.52	276.62
267.752	272.62
267.984	269.62
268.216	280.62
268.448	282.62
268.681	280.62
268.913	294.62
269.145	298.62
269.377	318.62
269.609	308.62
269.841	325.62
270.073	324.62
270.306	329.62
270.538	334.62
270.77	346.62
271.002	326.62
271.234	329.62
271.466	328.62
271.698	347.62
271.93	334.62
272.162	335.62
272.394	328.62
272.626	349.62
272.858	325.62
273.09	326.62
273.322	320.62
273.553	306.62
273.785	323.62
274.017	315.62
274.249	311.62
274.481	300.62
274.713	310.62
274.945	310.62
275.176	313.62
275.408	296.62
275.64	314.62
275.872	318.62
276.104	318.62
276.335	321.62
276.567	310.62
276.799	333.62
277.031	341.62
277.262	362.62
277.494	347.62
277.726	344.62
277.957	340.62
278.189	319.62
278.421	326.62
278.652	318.62
278.884	331.62
279.115	318.62
279.347	318.62
279.579	327.62
279.81	310.62
280.042	319.62
280.273	328.62
280.505	327.62
280.736	328.62
280.968	331.62
281.199	298.62
281.431	325.62
281.662	328.62
281.894	332.62
282.125	342.62
282.356	329.62
282.588	327.62
282.819	349.62
283.051	351.62
283.282	339.62
283.513	340.62
283.745	348.62
283.976	349.62
284.207	364.62
284.439	363.62
284.67	336.62
284.901	330.62
285.132	330.62
285.364	338.62
285.595	335.62
285.826	340.62
286.057	356.62
286.288	341.62
286.52	362.62
286.751	354.62
286.982	344.62
287.213	359.62
287.444	366.62
287.675	368.62
287.906	371.62
288.138	380.62
288.369	366.62
288.6	384.62
288.831	358.62
289.062	356.62
289.293	368.62
289.524	378.62
289.755	372.62
289.986	354.62
290.217	370.62
290.448	380.62
290.679	379.62
290.91	370.62
291.141	366.62
291.371	382.62
291.602	377.62
291.833	367.62
292.064	368.62
292.295	364.62
292.526	388.62
292.757	366.62
292.987	359.62
293.218	364.62
293.449	367.62
293.68	371.62
293.91	374.62
294.141	366.62
294.372	366.62
294.603	358.62
294.833	376.62
295.064	378.62
295.295	368.62
295.525	348.62
295.756	372.62
295.987	390.62
296.217	410.62
296.448	402.62
296.679	391.62
296.909	394.62
297.14	372.62
297.37	382.62
297.601	392.62
297.831	392.62
298.062	371.62
298.292	382.62
298.523	395.62
298.753	410.62
298.984	380.62
299.214	389.62
299.445	400.62
299.675	402.62
299.905	424.62
300.136	383.62
300.366	400.62
300.597	396.62
300.827	420.62
301.057	415.62
301.288	409.62
301.518	427.62
301.748	418.62
301.979	430.62
302.209	431.62
302.439	428.62
302.669	427.62
302.9	424.62
303.13	408.62
303.36	443.62
303.59	432.62
303.82	439.62
304.051	430.62
304.281	437.62
304.511	409.62
304.741	409.62
304.971	441.62
305.201	419.62
305.431	419.62
305.661	411.62
305.891	420.62
306.121	419.62
306.352	401.62
306.582	422.62
306.812	424.62
307.042	405.62
307.272	426.62
307.502	421.62
307.731	417.62
307.961	419.62
308.191	431.62
308.421	423.62
308.651	427.62
308.881	418.62
309.111	422.62
309.341	448.62
309.571	441.62
309.8	447.62
310.03	441.62
310.26	437.62
310.49	458.62
310.72	452.62
310.949	464.62
311.179	464.62
311.409	484.62
311.639	466.62
311.868	464.62
312.098	472.62
312.328	452.62
312.557	473.62
312.787	498.62
313.017	485.62
313.246	479.62
313.476	450.62
313.706	458.62
313.935	469.62
314.165	490.62
314.394	495.62
314.624	495.62
314.853	490.62
315.083	479.62
315.312	472.62
315.542	457.62
315.771	464.62
316.001	446.62
316.23	443.62
316.46	470.62
316.689	450.62
316.919	476.62
317.148	484.62
317.377	486.62
317.607	482.62
317.836	466.62
318.065	457.62
318.295	473.62
318.524	481.62
318.753	447.62
318.983	470.62
319.212	455.62
319.441	483.62
319.67	485.62
319.9	474.62
320.129	468.62
320.358	466.62
320.587	474.62
320.816	454.62
321.046	489.62
321.275	509.62
321.504	461.62
321.733	495.62
321.962	496.62
322.191	492.62
322.42	504.62
322.649	495.62
322.878	522.62
323.108	524.62
323.337	546.62
323.566	534.62
323.795	568.62
324.024	598.62
324.253	666.62
324.482	885.62
324.71	1303.62
324.939	1829.62
325.168	1619.62
325.397	871.62
325.626	682.62
325.855	578.62
326.084	578.62
326.313	554.62
326.542	564.62
326.77	605.62
326.999	652.62
327.228	829.62
327.457	1206.62
327.686	1438.62
327.914	1006.62
328.143	731.62
328.372	654.62
328.6	630.62
328.829	600.62
329.058	612.62
329.287	623.62
329.515	614.62
329.744	591.62
329.972	575.62
330.201	561.62
330.43	614.62
330.658	638.62
330.887	681.62
331.115	664.62
331.344	599.62
331.572	590.62
331.801	576.62
332.03	601.62
332.258	593.62
332.486	589.62
332.715	585.62
332.943	629.62
333.172	630.62
333.4	633.62
333.629	646.62
333.857	650.62
334.085	641.62
334.314	678.62
334.542	697.62
334.771	690.62
334.999	654.62
335.227	643.62
335.455	605.62
335.684	606.62
335.912	582.62
336.14	595.62
336.369	573.62
336.597	578.62
336.825	620.62
337.053	566.62
337.281	587.62
337.51	582.62
337.738	578.62
337.966	540.62
338.194	553.62
338.422	568.62
338.65	565.62
338.878	568.62
339.106	558.62
339.334	555.62
339.562	572.62
339.79	552.62
340.018	566.62
340.246	536.62
340.474	536.62
340.702	544.62
340.93	534.62
341.158	535.62
341.386	540.62
341.614	556.62
341.842	554.62
342.07	542.62
342.298	526.62
342.526	542.62
342.754	528.62
342.981	524.62
343.209	529.62
343.437	540.62
343.665	568.62
343.893	568.62
344.12	618.62
344.348	587.62
344.576	583.62
344.804	572.62
345.031	557.62
345.259	555.62
345.487	538.62
345.714	536.62
345.942	505.62
346.17	526.62
346.397	519.62
346.625	502.62
346.853	530.62
347.08	507.62
347.308	539.62
347.535	520.62
347.763	522.62
347.99	507.62
348.218	538.62
348.445	512.62
348.673	512.62
348.9	519.62
349.128	525.62
349.355	507.62
349.583	517.62
349.81	509.62
350.037	519.62
350.265	495.62
350.492	513.62
350.72	510.62
350.947	503.62
351.174	521.62
351.402	534.62
351.629	499.62
351.856	506.62
352.083	516.62
352.311	513.62
352.538	530.62
352.765	549.62
352.992	531.62
353.22	501.62
353.447	520.62
353.674	514.62
353.901	505.62
354.128	491.62
354.355	491.62
354.583	507.62
354.81	516.62
355.037	501.62
355.264	510.62
355.491	502.62
355.718	516.62
355.945	488.62
356.172	479.62
356.399	485.62
356.626	493.62
356.853	481.62
357.08	500.62
357.307	502.62
357.534	490.62
357.761	495.62
357.988	506.62
358.215	489.62
358.441	482.62
358.668	501.62
358.895	496.62
359.122	536.62
359.349	504.62
359.576	502.62
359.802	523.62
360.029	551.62
360.256	536.62
360.483	535.62
360.709	493.62
360.936	510.62
361.163	522.62
361.39	538.62
361.616	526.62
361.843	519.62
362.07	508.62
362.296	518.62
362.523	516.62
362.749	522.62
362.976	532.62
363.203	503.62
363.429	504.62
363.656	504.62
363.882	484.62
364.109	499.62
364.335	502.62
364.562	492.62
364.788	503.62
365.015	489.62
365.241	480.62
365.468	521.62
365.694	520.62
365.92	504.62
366.147	517.62
366.373	514.62
366.599	501.62
366.826	508.62
367.052	494.62
367.278	505.62
367.505	500.62
367.731	516.62
367.957	499.62
368.184	507.62
368.41	511.62
368.636	511.62
368.862	524.62
369.089	511.62
369.315	508.62
369.541	500.62
369.767	532.62
369.993	530.62
370.219	518.62
370.445	511.62
370.672	510.62
370.898	517.62
371.124	530.62
371.35	532.62
371.576	534.62
371.802	521.62
372.028	507.62
372.254	507.62
372.48	536.62
372.706	532.62
372.932	532.62
373.158	524.62
373.384	528.62
373.61	539.62
373.835	527.62
374.061	541.62
374.287	556.62
374.513	532.62
374.739	564.62
374.965	556.62
375.191	579.62
375.416	575.62
375.642	560.62
375.868	548.62
376.094	544.62
376.319	536.62
376.545	547.62
376.771	521.62
376.997	539.62
377.222	503.62
377.448	553.62
377.674	537.62
377.899	518.62
378.125	521.62
378.35	532.62
378.576	520.62
378.802	489.62
379.027	539.62
379.253	524.62
379.478	520.62
379.704	503.62
379.929	536.62
380.155	525.62
380.38	520.62
380.606	533.62
380.831	517.62
381.057	523.62
381.282	533.62
381.507	524.62
381.733	532.62
381.958	550.62
382.184	514.62
382.409	526.62
382.634	567.62
382.86	535.62
383.085	565.62
383.31	553.62
383.535	536.62
383.761	563.62
383.986	568.62
384.211	587.62
384.436	573.62
384.662	574.62
384.887	583.62
385.112	601.62
385.337	594.62
385.562	582.62
385.787	606.62
386.013	632.62
386.238	632.62
386.463	621.62
386.688	615.62
386.913	628.62
387.138	617.62
387.363	610.62
387.588	597.62
387.813	605.62
388.038	601.62
388.263	588.62
388.488	597.62
388.713	610.62
388.938	594.62
389.163	591.62
389.387	604.62
389.612	592.62
389.837	591.62
390.062	599.62
390.287	609.62
390.512	592.62
390.736	620.62
390.961	602.62
391.186	612.62
391.411	648.62
391.636	652.62
391.86	655.62
392.085	661.62
392.31	666.62
392.534	639.62
392.759	642.62
392.984	640.62
393.208	655.62
393.433	637.62
393.658	628.62
393.882	602.62
394.107	611.62
394.331	634.62
394.556	600.62
394.78	646.62
395.005	612.62
395.229	623.62
395.454	652.62
395.678	639.62
395.903	659.62
396.127	697.62
396.352	662.62
396.576	634.62
396.801	635.62
397.025	637.62
397.249	631.62
397.474	657.62
397.698	662.62
397.922	694.62
398.147	677.62
398.371	674.62
398.595	676.62
398.82	712.62
399.044	760.62
399.268	794.62
399.492	864.62
399.717	959.62
399.941	978.62
400.165	926.62
400.389	901.62
400.613	803.62
400.837	769.62
401.062	729.62
401.286	743.62
401.51	717.62
401.734	731.62
401.958	743.62
402.182	747.62
402.406	717.62
402.63	767.62
402.854	722.62
403.078	778.62
403.302	772.62
403.526	784.62
403.75	777.62
403.974	790.62
404.198	780.62
404.422	805.62
404.645	800.62
404.869	796.62
405.093	794.62
405.317	838.62
405.541	875.62
405.765	852.62
405.988	796.62
406.212	805.62
406.436	846.62
406.66	861.62
406.883	834.62
407.107	856.62
407.331	882.62
407.555	976.62
407.778	988.62
408.002	882.62
408.226	848.62
408.449	860.62
408.673	818.62
408.896	822.62
409.12	870.62
409.344	840.62
409.567	794.62
409.791	793.62
410.014	795.62
410.238	761.62
410.461	760.62
410.685	779.62
410.908	783.62
411.132	798.62
411.355	828.62
411.578	800.62
411.802	737.62
412.025	756.62
412.249	780.62
412.472	802.62
412.695	789.62
412.919	818.62
413.142	759.62
413.365	748.62
413.589	714.62
413.812	711.62
414.035	705.62
414.258	700.62
414.482	680.62
414.705	695.62
414.928	717.62
415.151	729.62
415.374	742.62
415.597	706.62
415.821	699.62
416.044	714.62
416.267	715.62
416.49	696.62
416.713	710.62
416.936	714.62
417.159	700.62
417.382	726.62
417.605	713.62
417.828	719.62
418.051	754.62
418.274	728.62
418.497	731.62
418.72	733.62
418.943	757.62
419.166	764.62
419.389	827.62
419.611	797.62
419.834	776.62
420.057	760.62
420.28	739.62
420.503	743.62
420.726	720.62
420.948	741.62
421.171	766.62
421.394	766.62
421.617	782.62
421.839	727.62
422.062	728.62
422.285	728.62
422.507	795.62
422.73	858.62
422.953	834.62
423.175	776.62
423.398	759.62
423.621	782.62
423.843	822.62
424.066	776.62
424.288	798.62
424.511	806.62
424.733	831.62
424.956	901.62
425.178	856.62
425.401	868.62
425.623	876.62
425.846	787.62
426.068	712.62
426.291	740.62
426.513	735.62
426.735	747.62
426.958	783.62
427.18	810.62
427.402	946.62
427.625	1038.62
427.847	920.62
428.069	826.62
428.292	758.62
428.514	716.62
428.736	692.62
428.958	696.62
429.181	698.62
429.403	676.62
429.625	684.62
429.847	692.62
430.069	737.62
430.292	792.62
430.514	702.62
430.736	685.62
430.958	664.62
431.18	655.62
431.402	666.62
431.624	662.62
431.846	664.62
432.068	673.62
432.29	701.62
432.512	694.62
432.734	711.62
432.956	664.62
433.178	679.62
433.4	672.62
433.622	665.62
433.844	686.62
434.066	658.62
434.287	668.62
434.509	662.62
434.731	713.62
434.953	736.62
435.175	741.62
435.397	759.62
435.618	751.62
435.84	748.62
436.062	844.62
436.284	870.62
436.505	770.62
436.727	737.62
436.949	698.62
437.17	692.62
437.392	699.62
437.614	696.62
437.835	715.62
438.057	795.62
438.278	868.62
438.5	860.62
438.721	946.62
438.943	884.62
439.165	761.62
439.386	694.62
439.608	735.62
439.829	741.62
440.05	751.62
440.272	806.62
440.493	756.62
440.715	708.62
440.936	717.62
441.158	707.62
441.379	720.62
441.6	728.62
441.822	744.62
442.043	806.62
442.264	842.62
442.486	867.62
442.707	805.62
442.928	749.62
443.149	780.62
443.371	790.62
443.592	842.62
443.813	905.62
444.034	950.62
444.255	886.62
444.476	832.62
444.698	824.62
444.919	832.62
445.14	906.62
445.361	824.62
445.582	815.62
445.803	842.62
446.024	902.62
446.245	892.62
446.466	869.62
446.687	776.62
446.908	725.62
447.129	685.62
447.35	679.62
447.571	675.62
447.792	664.62
448.013	671.62
448.234	680.62
448.455	725.62
448.675	803.62
448.896	910.62
449.117	791.62
449.338	776.62
449.559	854.62
449.779	959.62
450	786.62
450.221	669.62
450.442	660.62
450.662	642.62
450.883	658.62
451.104	650.62
451.324	645.62
451.545	642.62
451.766	629.62
451.986	627.62
452.207	611.62
452.428	602.62
452.648	620.62
452.869	619.62
453.089	609.62
453.31	637.62
453.53	620.62
453.751	613.62
453.971	616.62
454.192	626.62
454.412	608.62
454.633	587.62
454.853	589.62
455.073	595.62
455.294	617.62
455.514	663.62
455.734	664.62
455.955	589.62
456.175	574.62
456.395	591.62
456.616	568.62
456.836	568.62
457.056	580.62
457.276	559.62
457.497	555.62
457.717	559.62
457.937	617.62
458.157	606.62
458.377	602.62
458.598	617.62
458.818	668.62
459.038	756.62
459.258	774.62
459.478	712.62
459.698	665.62
459.918	696.62
460.138	698.62
460.358	722.62
460.578	735.62
460.798	745.62
461.018	727.62
461.238	722.62
461.458	739.62
461.678	712.62
461.898	698.62
462.118	724.62
462.338	742.62
462.558	748.62
462.777	813.62
462.997	855.62
463.217	893.62
463.437	868.62
463.657	853.62
463.876	836.62
464.096	808.62
464.316	788.62
464.536	804.62
464.755	806.62
464.975	792.62
465.195	819.62
465.414	830.62
465.634	742.62
465.854	702.62
466.073	676.62
466.293	666.62
466.512	642.62
466.732	639.62
466.951	672.62
467.171	632.62
467.391	640.62
467.61	642.62
467.829	644.62
468.049	665.62
468.268	635.62
468.488	614.62
468.707	632.62
468.927	621.62
469.146	630.62
469.365	621.62
469.585	628.62
469.804	650.62
470.023	664.62
470.243	674.62
470.462	669.62
470.681	682.62
470.901	703.62
471.12	663.62
471.339	642.62
471.558	672.62
471.777	652.62
471.997	639.62
472.216	640.62
472.435	662.62
472.654	658.62
472.873	632.62
473.092	640.62
473.311	617.62
473.53	656.62
473.749	646.62
473.968	639.62
474.187	751.62
474.406	747.62
474.625	669.62
474.844	640.62
475.063	617.62
475.282	623.62
475.501	612.62
475.72	654.62
475.939	649.62
476.158	655.62
476.377	667.62
476.596	658.62
476.814	671.62
477.033	682.62
477.252	668.62
477.471	695.62
477.69	676.62
477.908	698.62
478.127	716.62
478.346	729.62
478.564	747.62
478.783	723.62
479.002	725.62
479.22	728.62
479.439	751.62
479.658	776.62
479.876	784.62
480.095	799.62
480.313	835.62
480.532	830.62
480.751	828.62
480.969	850.62
481.188	862.62
481.406	894.62
481.624	789.62
481.843	769.62
482.061	785.62
482.28	775.62
482.498	754.62
482.717	713.62
482.935	751.62
483.153	726.62
483.372	732.62
483.59	735.62
483.808	736.62
484.027	740.62
484.245	762.62
484.463	746.62
484.681	760.62
484.9	759.62
485.118	771.62
485.336	757.62
485.554	798.62
485.772	783.62
485.99	752.62
486.209	774.62
486.427	776.62
486.645	811.62
486.863	798.62
487.081	801.62
487.299	778.62
487.517	757.62
487.735	784.62
487.953	778.62
488.171	809.62
488.389	779.62
488.607	792.62
488.825	785.62
489.043	778.62
489.261	800.62
489.479	798.62
489.696	797.62
489.914	831.62
490.132	798.62
490.35	822.62
490.568	810.62
490.786	872.62
491.003	852.62
491.221	851.62
491.439	865.62
491.657	866.62
491.874	859.62
492.092	855.62
492.31	879.62
492.527	879.62
492.745	890.62
492.963	888.62
493.18	895.62
493.398	911.62
493.615	907.62
493.833	907.62
494.05	927.62
494.268	915.62
494.485	924.62
494.703	930.62
494.92	924.62
495.138	918.62
495.355	902.62
495.573	913.62
495.79	925.62
496.008	917.62
496.225	916.62
496.442	952.62
496.66	925.62
496.877	948.62
497.094	935.62
497.312	961.62
497.529	960.62
497.746	992.62
497.963	1016.62
498.181	1034.62
498.398	1074.62
498.615	1110.62
498.832	1187.62
499.049	1189.62
499.267	1259.62
499.484	1336.62
499.701	1434.62
499.918	1506.62
500.135	1661.62
500.352	1798.62
500.569	1851.62
500.786	1845.62
501.003	1714.62
501.22	1639.62
501.437	1528.62
501.654	1445.62
