Data from 1963.PennyLincolnUp.Lamp.En5.5.200Scan.071719.P1._HRD10591_14-00-29-064.txt Node
Date: Thu Jul 18 14:00:29 EDT 2019
User: cochatt
Spectrometer: HR+D1059
Trigger mode: 1
Integration Time (sec): 1.000000E-1
Scans to average: 1
Electric dark correction enabled: true
Nonlinearity correction enabled: false
Boxcar width: 0
XAxis mode: Wavelengths
Number of Pixels in Spectrum: 2048
>>>>>Begin Spectral Data<<<<<
223.165	-8.88
223.4	-8.88
223.635	-8.88
223.869	-29.88
224.104	-19.88
224.338	-24.88
224.573	-14.88
224.808	-12.88
225.042	3.12
225.277	-19.88
225.511	-7.88
225.746	-3.88
225.98	0.12
226.215	4.12
226.449	35.12
226.683	23.12
226.918	33.12
227.152	44.12
227.387	26.12
227.621	42.12
227.856	34.12
228.09	48.12
228.324	40.12
228.559	64.12
228.793	67.12
229.027	103.12
229.262	100.12
229.496	118.12
229.73	144.12
229.964	163.12
230.199	138.12
230.433	132.12
230.667	119.12
230.901	127.12
231.136	125.12
231.37	117.12
231.604	121.12
231.838	113.12
232.072	131.12
232.306	122.12
232.541	127.12
232.775	120.12
233.009	132.12
233.243	126.12
233.477	131.12
233.711	135.12
233.945	134.12
234.179	119.12
234.413	122.12
234.647	139.12
234.881	111.12
235.115	135.12
235.349	139.12
235.583	125.12
235.817	131.12
236.051	142.12
236.285	136.12
236.519	151.12
236.753	141.12
236.987	148.12
237.221	189.12
237.455	235.12
237.689	188.12
237.922	151.12
238.156	152.12
238.39	153.12
238.624	158.12
238.858	141.12
239.091	142.12
239.325	158.12
239.559	149.12
239.793	140.12
240.027	151.12
240.26	163.12
240.494	177.12
240.728	167.12
240.961	181.12
241.195	171.12
241.429	166.12
241.662	152.12
241.896	141.12
242.13	162.12
242.363	160.12
242.597	160.12
242.83	151.12
243.064	177.12
243.298	166.12
243.531	156.12
243.765	160.12
243.998	174.12
244.232	171.12
244.465	164.12
244.699	164.12
244.932	161.12
245.166	183.12
245.399	187.12
245.633	177.12
245.866	172.12
246.099	180.12
246.333	174.12
246.566	153.12
246.8	175.12
247.033	167.12
247.266	183.12
247.5	179.12
247.733	179.12
247.966	206.12
248.2	197.12
248.433	188.12
248.666	198.12
248.899	187.12
249.133	225.12
249.366	225.12
249.599	218.12
249.832	210.12
250.066	207.12
250.299	209.12
250.532	238.12
250.765	228.12
250.998	246.12
251.231	271.12
251.465	255.12
251.698	237.12
251.931	223.12
252.164	238.12
252.397	226.12
252.63	223.12
252.863	227.12
253.096	254.12
253.329	247.12
253.562	250.12
253.795	244.12
254.028	252.12
254.261	252.12
254.494	256.12
254.727	253.12
254.96	303.12
255.193	301.12
255.426	270.12
255.659	227.12
255.892	248.12
256.124	268.12
256.357	252.12
256.59	262.12
256.823	245.12
257.056	238.12
257.289	251.12
257.521	234.12
257.754	233.12
257.987	245.12
258.22	219.12
258.452	225.12
258.685	250.12
258.918	249.12
259.151	247.12
259.383	264.12
259.616	243.12
259.849	259.12
260.081	271.12
260.314	268.12
260.547	291.12
260.779	272.12
261.012	271.12
261.244	277.12
261.477	276.12
261.71	263.12
261.942	277.12
262.175	271.12
262.407	251.12
262.64	259.12
262.872	259.12
263.105	262.12
263.337	259.12
263.57	245.12
263.802	251.12
264.035	250.12
264.267	266.12
264.499	267.12
264.732	260.12
264.964	254.12
265.197	254.12
265.429	254.12
265.661	234.12
265.894	245.12
266.126	247.12
266.358	271.12
266.591	276.12
266.823	291.12
267.055	267.12
267.287	283.12
267.52	260.12
267.752	267.12
267.984	280.12
268.216	271.12
268.448	279.12
268.681	277.12
268.913	286.12
269.145	307.12
269.377	309.12
269.609	324.12
269.841	322.12
270.073	313.12
270.306	320.12
270.538	344.12
270.77	362.12
271.002	347.12
271.234	345.12
271.466	334.12
271.698	350.12
271.93	358.12
272.162	371.12
272.394	363.12
272.626	343.12
272.858	340.12
273.09	312.12
273.322	332.12
273.553	315.12
273.785	322.12
274.017	320.12
274.249	324.12
274.481	329.12
274.713	317.12
274.945	317.12
275.176	314.12
275.408	325.12
275.64	304.12
275.872	310.12
276.104	320.12
276.335	299.12
276.567	325.12
276.799	341.12
277.031	355.12
277.262	377.12
277.494	380.12
277.726	360.12
277.957	354.12
278.189	329.12
278.421	335.12
278.652	332.12
278.884	332.12
279.115	317.12
279.347	336.12
279.579	327.12
279.81	340.12
280.042	346.12
280.273	340.12
280.505	343.12
280.736	335.12
280.968	326.12
281.199	327.12
281.431	342.12
281.662	341.12
281.894	335.12
282.125	328.12
282.356	364.12
282.588	381.12
282.819	383.12
283.051	361.12
283.282	333.12
283.513	345.12
283.745	337.12
283.976	352.12
284.207	357.12
284.439	355.12
284.67	365.12
284.901	352.12
285.132	368.12
285.364	347.12
285.595	343.12
285.826	352.12
286.057	359.12
286.288	373.12
286.52	377.12
286.751	359.12
286.982	389.12
287.213	373.12
287.444	364.12
287.675	369.12
287.906	365.12
288.138	394.12
288.369	394.12
288.6	384.12
288.831	368.12
289.062	376.12
289.293	375.12
289.524	376.12
289.755	356.12
289.986	364.12
290.217	358.12
290.448	371.12
290.679	381.12
290.91	387.12
291.141	362.12
291.371	393.12
291.602	377.12
291.833	371.12
292.064	381.12
292.295	368.12
292.526	376.12
292.757	375.12
292.987	382.12
293.218	375.12
293.449	393.12
293.68	385.12
293.91	399.12
294.141	366.12
294.372	356.12
294.603	380.12
294.833	371.12
295.064	373.12
295.295	382.12
295.525	368.12
295.756	373.12
295.987	401.12
296.217	423.12
296.448	416.12
296.679	405.12
296.909	380.12
297.14	405.12
297.37	410.12
297.601	383.12
297.831	397.12
298.062	400.12
298.292	384.12
298.523	398.12
298.753	417.12
298.984	409.12
299.214	410.12
299.445	413.12
299.675	435.12
299.905	410.12
300.136	413.12
300.366	418.12
300.597	420.12
300.827	403.12
301.057	435.12
301.288	411.12
301.518	442.12
301.748	432.12
301.979	432.12
302.209	427.12
302.439	419.12
302.669	425.12
302.9	422.12
303.13	431.12
303.36	437.12
303.59	419.12
303.82	436.12
304.051	443.12
304.281	448.12
304.511	434.12
304.741	439.12
304.971	431.12
305.201	440.12
305.431	432.12
305.661	427.12
305.891	438.12
306.121	423.12
306.352	432.12
306.582	443.12
306.812	433.12
307.042	431.12
307.272	438.12
307.502	411.12
307.731	422.12
307.961	416.12
308.191	454.12
308.421	434.12
308.651	429.12
308.881	426.12
309.111	442.12
309.341	433.12
309.571	446.12
309.8	458.12
310.03	453.12
310.26	466.12
310.49	457.12
310.72	477.12
310.949	453.12
311.179	502.12
311.409	464.12
311.639	452.12
311.868	456.12
312.098	459.12
312.328	476.12
312.557	501.12
312.787	491.12
313.017	513.12
313.246	491.12
313.476	478.12
313.706	494.12
313.935	483.12
314.165	496.12
314.394	499.12
314.624	524.12
314.853	483.12
315.083	484.12
315.312	488.12
315.542	499.12
315.771	486.12
316.001	478.12
316.23	491.12
316.46	489.12
316.689	472.12
316.919	493.12
317.148	488.12
317.377	491.12
317.607	497.12
317.836	493.12
318.065	475.12
318.295	479.12
318.524	477.12
318.753	481.12
318.983	492.12
319.212	489.12
319.441	492.12
319.67	494.12
319.9	505.12
320.129	484.12
320.358	474.12
320.587	480.12
320.816	490.12
321.046	479.12
321.275	494.12
321.504	479.12
321.733	495.12
321.962	525.12
322.191	517.12
322.42	494.12
322.649	519.12
322.878	529.12
323.108	508.12
323.337	541.12
323.566	569.12
323.795	597.12
324.024	610.12
324.253	716.12
324.482	909.12
324.71	1311.12
324.939	1947.12
325.168	1667.12
325.397	911.12
325.626	681.12
325.855	613.12
326.084	593.12
326.313	583.12
326.542	580.12
326.77	623.12
326.999	685.12
327.228	854.12
327.457	1235.12
327.686	1554.12
327.914	1071.12
328.143	755.12
328.372	677.12
328.6	637.12
328.829	630.12
329.058	622.12
329.287	653.12
329.515	626.12
329.744	577.12
329.972	604.12
330.201	636.12
330.43	653.12
330.658	656.12
330.887	683.12
331.115	669.12
331.344	620.12
331.572	604.12
331.801	609.12
332.03	607.12
332.258	613.12
332.486	596.12
332.715	602.12
332.943	629.12
333.172	631.12
333.4	640.12
333.629	641.12
333.857	676.12
334.085	691.12
334.314	699.12
334.542	735.12
334.771	720.12
334.999	667.12
335.227	632.12
335.455	654.12
335.684	647.12
335.912	621.12
336.14	585.12
336.369	585.12
336.597	606.12
336.825	604.12
337.053	582.12
337.281	594.12
337.51	585.12
337.738	579.12
337.966	582.12
338.194	580.12
338.422	587.12
338.65	583.12
338.878	584.12
339.106	548.12
339.334	575.12
339.562	558.12
339.79	563.12
340.018	556.12
340.246	561.12
340.474	568.12
340.702	547.12
340.93	559.12
341.158	563.12
341.386	566.12
341.614	567.12
341.842	552.12
342.07	563.12
342.298	565.12
342.526	572.12
342.754	549.12
342.981	568.12
343.209	551.12
343.437	558.12
343.665	583.12
343.893	588.12
344.12	635.12
344.348	597.12
344.576	597.12
344.804	573.12
345.031	557.12
345.259	582.12
345.487	577.12
345.714	553.12
345.942	545.12
346.17	533.12
346.397	535.12
346.625	530.12
346.853	513.12
347.08	540.12
347.308	524.12
347.535	536.12
347.763	554.12
347.99	535.12
348.218	542.12
348.445	539.12
348.673	551.12
348.9	536.12
349.128	534.12
349.355	501.12
349.583	503.12
349.81	507.12
350.037	524.12
350.265	521.12
350.492	496.12
350.72	511.12
350.947	519.12
351.174	545.12
351.402	526.12
351.629	520.12
351.856	533.12
352.083	528.12
352.311	509.12
352.538	540.12
352.765	495.12
352.992	508.12
353.22	527.12
353.447	513.12
353.674	528.12
353.901	509.12
354.128	498.12
354.355	485.12
354.583	473.12
354.81	508.12
355.037	502.12
355.264	519.12
355.491	488.12
355.718	500.12
355.945	494.12
356.172	527.12
356.399	519.12
356.626	512.12
356.853	510.12
357.08	528.12
357.307	496.12
357.534	497.12
357.761	524.12
357.988	490.12
358.215	518.12
358.441	523.12
358.668	494.12
358.895	515.12
359.122	517.12
359.349	529.12
359.576	510.12
359.802	548.12
360.029	575.12
360.256	584.12
360.483	556.12
360.709	552.12
360.936	516.12
361.163	523.12
361.39	544.12
361.616	545.12
361.843	516.12
362.07	548.12
362.296	539.12
362.523	511.12
362.749	538.12
362.976	490.12
363.203	517.12
363.429	515.12
363.656	500.12
363.882	510.12
364.109	523.12
364.335	543.12
364.562	520.12
364.788	510.12
365.015	505.12
365.241	521.12
365.468	525.12
365.694	517.12
365.92	548.12
366.147	531.12
366.373	512.12
366.599	521.12
366.826	505.12
367.052	513.12
367.278	506.12
367.505	512.12
367.731	526.12
367.957	517.12
368.184	502.12
368.41	517.12
368.636	520.12
368.862	546.12
369.089	510.12
369.315	523.12
369.541	548.12
369.767	503.12
369.993	515.12
370.219	536.12
370.445	514.12
370.672	517.12
370.898	543.12
371.124	518.12
371.35	554.12
371.576	539.12
371.802	525.12
372.028	547.12
372.254	540.12
372.48	559.12
372.706	559.12
372.932	546.12
373.158	557.12
373.384	571.12
373.61	547.12
373.835	541.12
374.061	541.12
374.287	532.12
374.513	541.12
374.739	557.12
374.965	566.12
375.191	587.12
375.416	557.12
375.642	555.12
375.868	568.12
376.094	543.12
376.319	537.12
376.545	554.12
376.771	562.12
376.997	534.12
377.222	540.12
377.448	534.12
377.674	529.12
377.899	531.12
378.125	517.12
378.35	556.12
378.576	541.12
378.802	520.12
379.027	539.12
379.253	554.12
379.478	522.12
379.704	532.12
379.929	551.12
380.155	538.12
380.38	547.12
380.606	540.12
380.831	547.12
381.057	550.12
381.282	527.12
381.507	534.12
381.733	555.12
381.958	538.12
382.184	549.12
382.409	553.12
382.634	554.12
382.86	549.12
383.085	551.12
383.31	589.12
383.535	573.12
383.761	571.12
383.986	569.12
384.211	579.12
384.436	593.12
384.662	580.12
384.887	611.12
385.112	612.12
385.337	607.12
385.562	611.12
385.787	627.12
386.013	639.12
386.238	621.12
386.463	593.12
386.688	637.12
386.913	599.12
387.138	625.12
387.363	617.12
387.588	616.12
387.813	607.12
388.038	611.12
388.263	618.12
388.488	613.12
388.713	595.12
388.938	614.12
389.163	616.12
389.387	588.12
389.612	599.12
389.837	623.12
390.062	597.12
390.287	609.12
390.512	622.12
390.736	600.12
390.961	642.12
391.186	620.12
391.411	639.12
391.636	690.12
391.86	672.12
392.085	678.12
392.31	681.12
392.534	664.12
392.759	641.12
392.984	655.12
393.208	659.12
393.433	670.12
393.658	635.12
393.882	645.12
394.107	631.12
394.331	651.12
394.556	627.12
394.78	645.12
395.005	655.12
395.229	665.12
395.454	679.12
395.678	668.12
395.903	661.12
396.127	692.12
396.352	666.12
396.576	655.12
396.801	665.12
397.025	639.12
397.249	658.12
397.474	691.12
397.698	653.12
397.922	708.12
398.147	713.12
398.371	719.12
398.595	696.12
398.82	709.12
399.044	773.12
399.268	825.12
399.492	909.12
399.717	1012.12
399.941	1013.12
400.165	973.12
400.389	934.12
400.613	852.12
400.837	777.12
401.062	733.12
401.286	732.12
401.51	736.12
401.734	744.12
401.958	740.12
402.182	757.12
402.406	776.12
402.63	781.12
402.854	778.12
403.078	789.12
403.302	795.12
403.526	815.12
403.75	806.12
403.974	801.12
404.198	766.12
404.422	843.12
404.645	809.12
404.869	795.12
405.093	842.12
405.317	875.12
405.541	906.12
405.765	844.12
405.988	817.12
406.212	847.12
406.436	827.12
406.66	856.12
406.883	861.12
407.107	879.12
407.331	910.12
407.555	1000.12
407.778	1007.12
408.002	952.12
408.226	912.12
408.449	897.12
408.673	835.12
408.896	860.12
409.12	892.12
409.344	871.12
409.567	824.12
409.791	802.12
410.014	790.12
410.238	774.12
410.461	794.12
410.685	799.12
410.908	780.12
411.132	805.12
411.355	827.12
411.578	797.12
411.802	793.12
412.025	760.12
412.249	804.12
412.472	783.12
412.695	813.12
412.919	823.12
413.142	764.12
413.365	738.12
413.589	720.12
413.812	751.12
414.035	744.12
414.258	735.12
414.482	736.12
414.705	721.12
414.928	715.12
415.151	715.12
415.374	741.12
415.597	739.12
415.821	721.12
416.044	742.12
416.267	718.12
416.49	740.12
416.713	720.12
416.936	735.12
417.159	703.12
417.382	744.12
417.605	733.12
417.828	755.12
418.051	752.12
418.274	757.12
418.497	740.12
418.72	747.12
418.943	737.12
419.166	776.12
419.389	804.12
419.611	811.12
419.834	801.12
420.057	756.12
420.28	775.12
420.503	778.12
420.726	720.12
420.948	775.12
421.171	791.12
421.394	839.12
421.617	744.12
421.839	749.12
422.062	775.12
422.285	762.12
422.507	811.12
422.73	875.12
422.953	860.12
423.175	787.12
423.398	792.12
423.621	756.12
423.843	805.12
424.066	832.12
424.288	804.12
424.511	795.12
424.733	889.12
424.956	907.12
425.178	899.12
425.401	877.12
425.623	893.12
425.846	779.12
426.068	783.12
426.291	773.12
426.513	775.12
426.735	780.12
426.958	793.12
427.18	846.12
427.402	990.12
427.625	1069.12
427.847	969.12
428.069	875.12
428.292	768.12
428.514	728.12
428.736	720.12
428.958	670.12
429.181	684.12
429.403	701.12
429.625	705.12
429.847	728.12
430.069	791.12
430.292	779.12
430.514	703.12
430.736	701.12
430.958	672.12
431.18	688.12
431.402	699.12
431.624	671.12
431.846	690.12
432.068	683.12
432.29	699.12
432.512	675.12
432.734	673.12
432.956	675.12
433.178	695.12
433.4	684.12
433.622	707.12
433.844	698.12
434.066	685.12
434.287	689.12
434.509	702.12
434.731	709.12
434.953	755.12
435.175	769.12
435.397	808.12
435.618	756.12
435.84	793.12
436.062	831.12
436.284	919.12
436.505	794.12
436.727	734.12
436.949	734.12
437.17	723.12
437.392	716.12
437.614	705.12
437.835	721.12
438.057	811.12
438.278	896.12
438.5	892.12
438.721	940.12
438.943	926.12
439.165	788.12
439.386	730.12
439.608	755.12
439.829	742.12
440.05	750.12
440.272	783.12
440.493	774.12
440.715	745.12
440.936	725.12
441.158	730.12
441.379	718.12
441.6	751.12
441.822	762.12
442.043	797.12
442.264	867.12
442.486	919.12
442.707	809.12
442.928	762.12
443.149	784.12
443.371	814.12
443.592	849.12
443.813	895.12
444.034	973.12
444.255	851.12
444.476	825.12
444.698	847.12
444.919	853.12
445.14	910.12
445.361	878.12
445.582	843.12
445.803	882.12
446.024	956.12
446.245	918.12
446.466	851.12
446.687	772.12
446.908	748.12
447.129	719.12
447.35	683.12
447.571	691.12
447.792	661.12
448.013	679.12
448.234	692.12
448.455	716.12
448.675	850.12
448.896	921.12
449.117	811.12
449.338	797.12
449.559	890.12
449.779	976.12
450	797.12
450.221	730.12
450.442	697.12
450.662	661.12
450.883	640.12
451.104	666.12
451.324	678.12
451.545	657.12
451.766	651.12
451.986	627.12
452.207	632.12
452.428	609.12
452.648	616.12
452.869	632.12
453.089	618.12
453.31	641.12
453.53	633.12
453.751	625.12
453.971	621.12
454.192	615.12
454.412	614.12
454.633	616.12
454.853	600.12
455.073	597.12
455.294	631.12
455.514	680.12
455.734	679.12
455.955	612.12
456.175	627.12
456.395	598.12
456.616	585.12
456.836	586.12
457.056	592.12
457.276	572.12
457.497	581.12
457.717	584.12
457.937	591.12
458.157	612.12
458.377	604.12
458.598	645.12
458.818	705.12
459.038	762.12
459.258	803.12
459.478	727.12
459.698	698.12
459.918	684.12
460.138	713.12
460.358	746.12
460.578	752.12
460.798	748.12
461.018	755.12
461.238	717.12
461.458	733.12
461.678	728.12
461.898	760.12
462.118	758.12
462.338	775.12
462.558	780.12
462.777	811.12
462.997	855.12
463.217	926.12
463.437	886.12
463.657	857.12
463.876	829.12
464.096	814.12
464.316	833.12
464.536	864.12
464.755	832.12
464.975	806.12
465.195	823.12
465.414	828.12
465.634	759.12
465.854	743.12
466.073	701.12
466.293	673.12
466.512	688.12
466.732	659.12
466.951	655.12
467.171	648.12
467.391	684.12
467.61	676.12
467.829	666.12
468.049	651.12
468.268	653.12
468.488	649.12
468.707	633.12
468.927	611.12
469.146	626.12
469.365	647.12
469.585	644.12
469.804	665.12
470.023	698.12
470.243	683.12
470.462	694.12
470.681	697.12
470.901	703.12
471.12	677.12
471.339	671.12
471.558	644.12
471.777	647.12
471.997	646.12
472.216	657.12
472.435	712.12
472.654	670.12
472.873	655.12
473.092	654.12
473.311	629.12
473.53	640.12
473.749	649.12
473.968	697.12
474.187	774.12
474.406	752.12
474.625	667.12
474.844	671.12
475.063	651.12
475.282	654.12
475.501	665.12
475.72	663.12
475.939	647.12
476.158	670.12
476.377	655.12
476.596	642.12
476.814	663.12
477.033	675.12
477.252	679.12
477.471	679.12
477.69	718.12
477.908	749.12
478.127	734.12
478.346	726.12
478.564	759.12
478.783	784.12
479.002	759.12
479.22	785.12
479.439	791.12
479.658	808.12
479.876	810.12
480.095	795.12
480.313	832.12
480.532	845.12
480.751	835.12
480.969	834.12
481.188	886.12
481.406	903.12
481.624	806.12
481.843	781.12
482.061	760.12
482.28	777.12
482.498	757.12
482.717	762.12
482.935	760.12
483.153	760.12
483.372	750.12
483.59	755.12
483.808	744.12
484.027	764.12
484.245	747.12
484.463	752.12
484.681	782.12
484.9	799.12
485.118	780.12
485.336	783.12
485.554	800.12
485.772	784.12
485.99	795.12
486.209	801.12
486.427	770.12
486.645	781.12
486.863	817.12
487.081	803.12
487.299	819.12
487.517	823.12
487.735	793.12
487.953	797.12
488.171	805.12
488.389	797.12
488.607	799.12
488.825	828.12
489.043	804.12
489.261	819.12
489.479	793.12
489.696	819.12
489.914	832.12
490.132	837.12
490.35	814.12
490.568	849.12
490.786	875.12
491.003	855.12
491.221	895.12
491.439	893.12
491.657	911.12
491.874	899.12
492.092	891.12
492.31	909.12
492.527	923.12
492.745	933.12
492.963	927.12
493.18	919.12
493.398	927.12
493.615	951.12
493.833	916.12
494.05	923.12
494.268	958.12
494.485	949.12
494.703	905.12
494.92	969.12
495.138	928.12
495.355	936.12
495.573	962.12
495.79	937.12
496.008	919.12
496.225	936.12
496.442	920.12
496.66	943.12
496.877	971.12
497.094	972.12
497.312	1006.12
497.529	1006.12
497.746	1016.12
497.963	1025.12
498.181	1112.12
498.398	1089.12
498.615	1170.12
498.832	1209.12
499.049	1220.12
499.267	1288.12
499.484	1366.12
499.701	1465.12
499.918	1556.12
500.135	1692.12
500.352	1836.12
500.569	1887.12
500.786	1856.12
501.003	1813.12
501.22	1707.12
501.437	1568.12
501.654	1469.12
