Data from 1963.PennyLincolnUp.Lamp.En5.5.200Scan.071719.P1._HRD10591_13-59-16-063.txt Node
Date: Thu Jul 18 13:59:16 EDT 2019
User: cochatt
Spectrometer: HR+D1059
Trigger mode: 1
Integration Time (sec): 1.000000E-1
Scans to average: 1
Electric dark correction enabled: true
Nonlinearity correction enabled: false
Boxcar width: 0
XAxis mode: Wavelengths
Number of Pixels in Spectrum: 2048
>>>>>Begin Spectral Data<<<<<
223.165	-8.88
223.4	-8.88
223.635	-8.88
223.869	-16.88
224.104	-24.88
224.338	-19.88
224.573	-7.88
224.808	-11.88
225.042	-9.88
225.277	8.12
225.511	0.12
225.746	0.12
225.98	4.12
226.215	4.12
226.449	22.12
226.683	11.12
226.918	22.12
227.152	28.12
227.387	32.12
227.621	42.12
227.856	47.12
228.09	50.12
228.324	40.12
228.559	48.12
228.793	70.12
229.027	79.12
229.262	103.12
229.496	117.12
229.73	134.12
229.964	139.12
230.199	130.12
230.433	130.12
230.667	128.12
230.901	130.12
231.136	126.12
231.37	117.12
231.604	122.12
231.838	126.12
232.072	127.12
232.306	118.12
232.541	116.12
232.775	127.12
233.009	117.12
233.243	133.12
233.477	134.12
233.711	132.12
233.945	118.12
234.179	125.12
234.413	111.12
234.647	142.12
234.881	139.12
235.115	112.12
235.349	118.12
235.583	124.12
235.817	132.12
236.051	131.12
236.285	139.12
236.519	127.12
236.753	115.12
236.987	142.12
237.221	157.12
237.455	201.12
237.689	191.12
237.922	155.12
238.156	142.12
238.39	147.12
238.624	150.12
238.858	141.12
239.091	127.12
239.325	134.12
239.559	138.12
239.793	138.12
240.027	135.12
240.26	150.12
240.494	148.12
240.728	151.12
240.961	167.12
241.195	164.12
241.429	149.12
241.662	168.12
241.896	128.12
242.13	142.12
242.363	153.12
242.597	150.12
242.83	149.12
243.064	151.12
243.298	155.12
243.531	157.12
243.765	152.12
243.998	153.12
244.232	164.12
244.465	162.12
244.699	159.12
244.932	156.12
245.166	157.12
245.399	160.12
245.633	155.12
245.866	162.12
246.099	173.12
246.333	168.12
246.566	152.12
246.8	154.12
247.033	172.12
247.266	145.12
247.5	183.12
247.733	187.12
247.966	198.12
248.2	203.12
248.433	194.12
248.666	192.12
248.899	207.12
249.133	213.12
249.366	198.12
249.599	210.12
249.832	203.12
250.066	207.12
250.299	204.12
250.532	204.12
250.765	221.12
250.998	233.12
251.231	238.12
251.465	220.12
251.698	211.12
251.931	195.12
252.164	223.12
252.397	224.12
252.63	220.12
252.863	220.12
253.096	236.12
253.329	229.12
253.562	229.12
253.795	239.12
254.028	239.12
254.261	229.12
254.494	252.12
254.727	265.12
254.96	271.12
255.193	274.12
255.426	233.12
255.659	237.12
255.892	246.12
256.124	242.12
256.357	250.12
256.59	232.12
256.823	238.12
257.056	242.12
257.289	231.12
257.521	224.12
257.754	236.12
257.987	239.12
258.22	231.12
258.452	230.12
258.685	242.12
258.918	244.12
259.151	239.12
259.383	249.12
259.616	218.12
259.849	243.12
260.081	253.12
260.314	262.12
260.547	275.12
260.779	274.12
261.012	251.12
261.244	232.12
261.477	256.12
261.71	238.12
261.942	263.12
262.175	261.12
262.407	234.12
262.64	223.12
262.872	221.12
263.105	244.12
263.337	222.12
263.57	238.12
263.802	239.12
264.035	212.12
264.267	248.12
264.499	239.12
264.732	241.12
264.964	240.12
265.197	245.12
265.429	272.12
265.661	262.12
265.894	235.12
266.126	243.12
266.358	263.12
266.591	258.12
266.823	261.12
267.055	261.12
267.287	261.12
267.52	266.12
267.752	246.12
267.984	251.12
268.216	261.12
268.448	250.12
268.681	274.12
268.913	283.12
269.145	290.12
269.377	274.12
269.609	290.12
269.841	294.12
270.073	297.12
270.306	306.12
270.538	321.12
270.77	316.12
271.002	321.12
271.234	318.12
271.466	314.12
271.698	325.12
271.93	340.12
272.162	337.12
272.394	339.12
272.626	306.12
272.858	317.12
273.09	302.12
273.322	300.12
273.553	294.12
273.785	308.12
274.017	298.12
274.249	299.12
274.481	294.12
274.713	312.12
274.945	301.12
275.176	304.12
275.408	317.12
275.64	307.12
275.872	300.12
276.104	296.12
276.335	308.12
276.567	310.12
276.799	332.12
277.031	323.12
277.262	338.12
277.494	339.12
277.726	330.12
277.957	346.12
278.189	334.12
278.421	315.12
278.652	294.12
278.884	318.12
279.115	314.12
279.347	300.12
279.579	314.12
279.81	304.12
280.042	317.12
280.273	305.12
280.505	317.12
280.736	312.12
280.968	323.12
281.199	321.12
281.431	331.12
281.662	334.12
281.894	325.12
282.125	336.12
282.356	331.12
282.588	343.12
282.819	352.12
283.051	346.12
283.282	346.12
283.513	338.12
283.745	341.12
283.976	347.12
284.207	343.12
284.439	344.12
284.67	316.12
284.901	323.12
285.132	350.12
285.364	344.12
285.595	341.12
285.826	330.12
286.057	336.12
286.288	335.12
286.52	336.12
286.751	329.12
286.982	351.12
287.213	339.12
287.444	346.12
287.675	355.12
287.906	363.12
288.138	368.12
288.369	358.12
288.6	365.12
288.831	346.12
289.062	375.12
289.293	370.12
289.524	360.12
289.755	354.12
289.986	335.12
290.217	353.12
290.448	350.12
290.679	336.12
290.91	349.12
291.141	370.12
291.371	360.12
291.602	373.12
291.833	352.12
292.064	381.12
292.295	375.12
292.526	374.12
292.757	354.12
292.987	368.12
293.218	356.12
293.449	348.12
293.68	358.12
293.91	355.12
294.141	367.12
294.372	379.12
294.603	371.12
294.833	363.12
295.064	364.12
295.295	387.12
295.525	363.12
295.756	382.12
295.987	384.12
296.217	397.12
296.448	406.12
296.679	390.12
296.909	368.12
297.14	386.12
297.37	373.12
297.601	377.12
297.831	383.12
298.062	397.12
298.292	386.12
298.523	385.12
298.753	399.12
298.984	386.12
299.214	392.12
299.445	384.12
299.675	382.12
299.905	395.12
300.136	393.12
300.366	397.12
300.597	406.12
300.827	410.12
301.057	418.12
301.288	419.12
301.518	420.12
301.748	407.12
301.979	424.12
302.209	405.12
302.439	435.12
302.669	414.12
302.9	404.12
303.13	412.12
303.36	415.12
303.59	411.12
303.82	411.12
304.051	431.12
304.281	424.12
304.511	404.12
304.741	425.12
304.971	397.12
305.201	411.12
305.431	422.12
305.661	411.12
305.891	425.12
306.121	419.12
306.352	420.12
306.582	404.12
306.812	406.12
307.042	403.12
307.272	400.12
307.502	395.12
307.731	397.12
307.961	398.12
308.191	400.12
308.421	425.12
308.651	415.12
308.881	432.12
309.111	394.12
309.341	413.12
309.571	426.12
309.8	436.12
310.03	444.12
310.26	427.12
310.49	416.12
310.72	428.12
310.949	458.12
311.179	441.12
311.409	468.12
311.639	421.12
311.868	440.12
312.098	447.12
312.328	446.12
312.557	471.12
312.787	469.12
313.017	483.12
313.246	472.12
313.476	444.12
313.706	454.12
313.935	440.12
314.165	465.12
314.394	467.12
314.624	486.12
314.853	462.12
315.083	464.12
315.312	467.12
315.542	447.12
315.771	456.12
316.001	443.12
316.23	461.12
316.46	440.12
316.689	458.12
316.919	455.12
317.148	459.12
317.377	465.12
317.607	460.12
317.836	468.12
318.065	454.12
318.295	445.12
318.524	458.12
318.753	472.12
318.983	472.12
319.212	451.12
319.441	460.12
319.67	467.12
319.9	461.12
320.129	460.12
320.358	474.12
320.587	449.12
320.816	457.12
321.046	479.12
321.275	472.12
321.504	474.12
321.733	465.12
321.962	497.12
322.191	495.12
322.42	472.12
322.649	523.12
322.878	479.12
323.108	508.12
323.337	524.12
323.566	533.12
323.795	540.12
324.024	579.12
324.253	642.12
324.482	806.12
324.71	1180.12
324.939	1678.12
325.168	1499.12
325.397	805.12
325.626	642.12
325.855	583.12
326.084	556.12
326.313	532.12
326.542	564.12
326.77	605.12
326.999	642.12
327.228	804.12
327.457	1132.12
327.686	1387.12
327.914	926.12
328.143	655.12
328.372	627.12
328.6	602.12
328.829	583.12
329.058	594.12
329.287	607.12
329.515	603.12
329.744	568.12
329.972	579.12
330.201	586.12
330.43	616.12
330.658	635.12
330.887	656.12
331.115	633.12
331.344	582.12
331.572	564.12
331.801	589.12
332.03	571.12
332.258	573.12
332.486	550.12
332.715	589.12
332.943	579.12
333.172	613.12
333.4	616.12
333.629	646.12
333.857	643.12
334.085	642.12
334.314	642.12
334.542	665.12
334.771	681.12
334.999	630.12
335.227	599.12
335.455	607.12
335.684	596.12
335.912	616.12
336.14	578.12
336.369	563.12
336.597	573.12
336.825	558.12
337.053	554.12
337.281	570.12
337.51	562.12
337.738	573.12
337.966	565.12
338.194	559.12
338.422	552.12
338.65	550.12
338.878	537.12
339.106	552.12
339.334	542.12
339.562	560.12
339.79	523.12
340.018	515.12
340.246	542.12
340.474	512.12
340.702	529.12
340.93	536.12
341.158	534.12
341.386	537.12
341.614	519.12
341.842	538.12
342.07	532.12
342.298	491.12
342.526	525.12
342.754	492.12
342.981	509.12
343.209	515.12
343.437	554.12
343.665	564.12
343.893	574.12
344.12	593.12
344.348	570.12
344.576	562.12
344.804	554.12
345.031	568.12
345.259	525.12
345.487	532.12
345.714	546.12
345.942	543.12
346.17	516.12
346.397	503.12
346.625	505.12
346.853	519.12
347.08	524.12
347.308	492.12
347.535	497.12
347.763	497.12
347.99	514.12
348.218	501.12
348.445	498.12
348.673	508.12
348.9	512.12
349.128	512.12
349.355	505.12
349.583	499.12
349.81	503.12
350.037	483.12
350.265	488.12
350.492	482.12
350.72	489.12
350.947	489.12
351.174	493.12
351.402	525.12
351.629	489.12
351.856	488.12
352.083	503.12
352.311	509.12
352.538	515.12
352.765	504.12
352.992	481.12
353.22	499.12
353.447	495.12
353.674	507.12
353.901	486.12
354.128	468.12
354.355	491.12
354.583	489.12
354.81	473.12
355.037	510.12
355.264	499.12
355.491	480.12
355.718	518.12
355.945	504.12
356.172	474.12
356.399	458.12
356.626	479.12
356.853	479.12
357.08	494.12
357.307	504.12
357.534	490.12
357.761	480.12
357.988	468.12
358.215	500.12
358.441	471.12
358.668	478.12
358.895	475.12
359.122	480.12
359.349	477.12
359.576	495.12
359.802	527.12
360.029	524.12
360.256	537.12
360.483	530.12
360.709	517.12
360.936	507.12
361.163	535.12
361.39	509.12
361.616	525.12
361.843	488.12
362.07	490.12
362.296	493.12
362.523	511.12
362.749	500.12
362.976	491.12
363.203	490.12
363.429	473.12
363.656	493.12
363.882	506.12
364.109	475.12
364.335	488.12
364.562	485.12
364.788	500.12
365.015	498.12
365.241	493.12
365.468	488.12
365.694	493.12
365.92	506.12
366.147	501.12
366.373	488.12
366.599	490.12
366.826	517.12
367.052	503.12
367.278	492.12
367.505	475.12
367.731	481.12
367.957	501.12
368.184	511.12
368.41	514.12
368.636	517.12
368.862	526.12
369.089	520.12
369.315	493.12
369.541	498.12
369.767	505.12
369.993	514.12
370.219	538.12
370.445	511.12
370.672	509.12
370.898	520.12
371.124	525.12
371.35	504.12
371.576	496.12
371.802	512.12
372.028	514.12
372.254	507.12
372.48	525.12
372.706	527.12
372.932	541.12
373.158	555.12
373.384	522.12
373.61	526.12
373.835	502.12
374.061	514.12
374.287	520.12
374.513	523.12
374.739	525.12
374.965	552.12
375.191	554.12
375.416	545.12
375.642	526.12
375.868	523.12
376.094	524.12
376.319	539.12
376.545	525.12
376.771	536.12
376.997	522.12
377.222	520.12
377.448	521.12
377.674	500.12
377.899	527.12
378.125	516.12
378.35	500.12
378.576	518.12
378.802	494.12
379.027	505.12
379.253	514.12
379.478	514.12
379.704	494.12
379.929	502.12
380.155	529.12
380.38	514.12
380.606	543.12
380.831	506.12
381.057	505.12
381.282	520.12
381.507	503.12
381.733	503.12
381.958	527.12
382.184	521.12
382.409	534.12
382.634	546.12
382.86	542.12
383.085	547.12
383.31	541.12
383.535	567.12
383.761	547.12
383.986	564.12
384.211	569.12
384.436	584.12
384.662	576.12
384.887	586.12
385.112	578.12
385.337	588.12
385.562	583.12
385.787	606.12
386.013	609.12
386.238	592.12
386.463	579.12
386.688	559.12
386.913	612.12
387.138	591.12
387.363	602.12
387.588	589.12
387.813	612.12
388.038	611.12
388.263	596.12
388.488	629.12
388.713	606.12
388.938	605.12
389.163	597.12
389.387	595.12
389.612	573.12
389.837	580.12
390.062	572.12
390.287	591.12
390.512	583.12
390.736	596.12
390.961	591.12
391.186	608.12
391.411	620.12
391.636	614.12
391.86	632.12
392.085	636.12
392.31	628.12
392.534	628.12
392.759	613.12
392.984	632.12
393.208	604.12
393.433	616.12
393.658	622.12
393.882	618.12
394.107	606.12
394.331	602.12
394.556	613.12
394.78	603.12
395.005	615.12
395.229	634.12
395.454	655.12
395.678	642.12
395.903	645.12
396.127	660.12
396.352	644.12
396.576	642.12
396.801	611.12
397.025	647.12
397.249	651.12
397.474	657.12
397.698	627.12
397.922	639.12
398.147	661.12
398.371	656.12
398.595	698.12
398.82	714.12
399.044	739.12
399.268	772.12
399.492	867.12
399.717	963.12
399.941	944.12
400.165	927.12
400.389	899.12
400.613	803.12
400.837	752.12
401.062	727.12
401.286	730.12
401.51	698.12
401.734	708.12
401.958	751.12
402.182	718.12
402.406	717.12
402.63	743.12
402.854	745.12
403.078	741.12
403.302	775.12
403.526	770.12
403.75	765.12
403.974	779.12
404.198	777.12
404.422	761.12
404.645	794.12
404.869	743.12
405.093	803.12
405.317	857.12
405.541	851.12
405.765	809.12
405.988	766.12
406.212	790.12
406.436	793.12
406.66	811.12
406.883	812.12
407.107	843.12
407.331	892.12
407.555	948.12
407.778	959.12
408.002	882.12
408.226	860.12
408.449	865.12
408.673	834.12
408.896	814.12
409.12	850.12
409.344	831.12
409.567	804.12
409.791	749.12
410.014	750.12
410.238	748.12
410.461	758.12
410.685	732.12
410.908	771.12
411.132	786.12
411.355	822.12
411.578	785.12
411.802	729.12
412.025	739.12
412.249	772.12
412.472	776.12
412.695	802.12
412.919	783.12
413.142	731.12
413.365	724.12
413.589	731.12
413.812	729.12
414.035	708.12
414.258	708.12
414.482	693.12
414.705	725.12
414.928	693.12
415.151	709.12
415.374	700.12
415.597	690.12
415.821	679.12
416.044	720.12
416.267	706.12
416.49	692.12
416.713	688.12
416.936	688.12
417.159	700.12
417.382	709.12
417.605	705.12
417.828	690.12
418.051	735.12
418.274	695.12
418.497	676.12
418.72	724.12
418.943	697.12
419.166	733.12
419.389	805.12
419.611	773.12
419.834	764.12
420.057	740.12
420.28	714.12
420.503	716.12
420.726	703.12
420.948	743.12
421.171	766.12
421.394	762.12
421.617	740.12
421.839	728.12
422.062	707.12
422.285	726.12
422.507	771.12
422.73	820.12
422.953	814.12
423.175	747.12
423.398	750.12
423.621	746.12
423.843	768.12
424.066	778.12
424.288	766.12
424.511	756.12
424.733	814.12
424.956	862.12
425.178	838.12
425.401	844.12
425.623	836.12
425.846	773.12
426.068	731.12
426.291	702.12
426.513	696.12
426.735	717.12
426.958	756.12
427.18	813.12
427.402	900.12
427.625	987.12
427.847	860.12
428.069	783.12
428.292	713.12
428.514	682.12
428.736	667.12
428.958	685.12
429.181	670.12
429.403	664.12
429.625	666.12
429.847	694.12
430.069	730.12
430.292	732.12
430.514	687.12
430.736	682.12
430.958	644.12
431.18	632.12
431.402	649.12
431.624	640.12
431.846	664.12
432.068	673.12
432.29	637.12
432.512	651.12
432.734	655.12
432.956	667.12
433.178	628.12
433.4	652.12
433.622	638.12
433.844	658.12
434.066	648.12
434.287	657.12
434.509	685.12
434.731	691.12
434.953	709.12
435.175	729.12
435.397	730.12
435.618	724.12
435.84	748.12
436.062	806.12
436.284	870.12
436.505	773.12
436.727	710.12
436.949	679.12
437.17	657.12
437.392	648.12
437.614	682.12
437.835	664.12
438.057	731.12
438.278	847.12
438.5	840.12
438.721	909.12
438.943	890.12
439.165	747.12
439.386	694.12
439.608	690.12
439.829	705.12
440.05	725.12
440.272	779.12
440.493	718.12
440.715	687.12
440.936	700.12
441.158	678.12
441.379	704.12
441.6	740.12
441.822	736.12
442.043	774.12
442.264	838.12
442.486	842.12
442.707	779.12
442.928	729.12
443.149	750.12
443.371	771.12
443.592	815.12
443.813	864.12
444.034	908.12
444.255	844.12
444.476	804.12
444.698	770.12
444.919	836.12
445.14	925.12
445.361	847.12
445.582	780.12
445.803	820.12
446.024	907.12
446.245	856.12
446.466	834.12
446.687	731.12
446.908	709.12
447.129	694.12
447.35	672.12
447.571	662.12
447.792	645.12
448.013	659.12
448.234	642.12
448.455	698.12
448.675	772.12
448.896	862.12
449.117	759.12
449.338	728.12
449.559	820.12
449.779	908.12
450	737.12
450.221	678.12
450.442	644.12
450.662	635.12
450.883	638.12
451.104	632.12
451.324	622.12
451.545	615.12
451.766	606.12
451.986	579.12
452.207	587.12
452.428	575.12
452.648	608.12
452.869	604.12
453.089	615.12
453.31	605.12
453.53	597.12
453.751	593.12
453.971	584.12
454.192	607.12
454.412	586.12
454.633	587.12
454.853	575.12
455.073	575.12
455.294	596.12
455.514	663.12
455.734	646.12
455.955	589.12
456.175	574.12
456.395	574.12
456.616	568.12
456.836	546.12
457.056	585.12
457.276	567.12
457.497	558.12
457.717	548.12
457.937	553.12
458.157	585.12
458.377	584.12
458.598	609.12
458.818	665.12
459.038	725.12
459.258	747.12
459.478	689.12
459.698	654.12
459.918	667.12
460.138	664.12
460.358	684.12
460.578	719.12
460.798	742.12
461.018	714.12
461.238	711.12
461.458	707.12
461.678	678.12
461.898	736.12
462.118	740.12
462.338	741.12
462.558	749.12
462.777	795.12
462.997	837.12
463.217	862.12
463.437	858.12
463.657	824.12
463.876	799.12
464.096	794.12
464.316	771.12
464.536	779.12
464.755	768.12
464.975	760.12
465.195	755.12
465.414	797.12
465.634	719.12
465.854	686.12
466.073	678.12
466.293	648.12
466.512	650.12
466.732	631.12
466.951	609.12
467.171	623.12
467.391	624.12
467.61	635.12
467.829	625.12
468.049	634.12
468.268	641.12
468.488	622.12
468.707	623.12
468.927	620.12
469.146	607.12
469.365	604.12
469.585	615.12
469.804	635.12
470.023	625.12
470.243	652.12
470.462	669.12
470.681	660.12
470.901	648.12
471.12	654.12
471.339	640.12
471.558	637.12
471.777	648.12
471.997	645.12
472.216	655.12
472.435	673.12
472.654	650.12
472.873	606.12
473.092	604.12
473.311	594.12
473.53	611.12
473.749	630.12
473.968	630.12
474.187	720.12
474.406	738.12
474.625	649.12
474.844	630.12
475.063	607.12
475.282	604.12
475.501	610.12
475.72	621.12
475.939	654.12
476.158	646.12
476.377	664.12
476.596	656.12
476.814	647.12
477.033	655.12
477.252	682.12
477.471	663.12
477.69	680.12
477.908	690.12
478.127	697.12
478.346	711.12
478.564	739.12
478.783	726.12
479.002	743.12
479.22	747.12
479.439	763.12
479.658	758.12
479.876	750.12
480.095	764.12
480.313	836.12
480.532	810.12
480.751	810.12
480.969	801.12
481.188	821.12
481.406	873.12
481.624	790.12
481.843	757.12
482.061	716.12
482.28	734.12
482.498	714.12
482.717	719.12
482.935	718.12
483.153	726.12
483.372	714.12
483.59	720.12
483.808	714.12
484.027	720.12
484.245	717.12
484.463	730.12
484.681	730.12
484.9	737.12
485.118	736.12
485.336	741.12
485.554	738.12
485.772	754.12
485.99	749.12
486.209	756.12
486.427	756.12
486.645	747.12
486.863	778.12
487.081	767.12
487.299	763.12
487.517	738.12
487.735	758.12
487.953	785.12
488.171	777.12
488.389	771.12
488.607	733.12
488.825	741.12
489.043	760.12
489.261	751.12
489.479	766.12
489.696	764.12
489.914	775.12
490.132	789.12
490.35	788.12
490.568	768.12
490.786	803.12
491.003	812.12
491.221	808.12
491.439	810.12
491.657	815.12
491.874	848.12
492.092	849.12
492.31	847.12
492.527	865.12
492.745	873.12
492.963	858.12
493.18	870.12
493.398	853.12
493.615	884.12
493.833	878.12
494.05	882.12
494.268	888.12
494.485	871.12
494.703	879.12
494.92	871.12
495.138	893.12
495.355	896.12
495.573	903.12
495.79	899.12
496.008	891.12
496.225	914.12
496.442	895.12
496.66	918.12
496.877	910.12
497.094	936.12
497.312	927.12
497.529	971.12
497.746	950.12
497.963	998.12
498.181	1000.12
498.398	1050.12
498.615	1094.12
498.832	1116.12
499.049	1178.12
499.267	1212.12
499.484	1305.12
499.701	1399.12
499.918	1476.12
500.135	1620.12
500.352	1721.12
500.569	1824.12
500.786	1846.12
501.003	1786.12
501.22	1611.12
501.437	1477.12
501.654	1440.12
501.871	1346.12
