Data from 1963.PennyLincolnUp.Lamp.En5.5.200Scan.071719.P1._HRD10591_13-59-27-063.txt Node
Date: Thu Jul 18 13:59:27 EDT 2019
User: cochatt
Spectrometer: HR+D1059
Trigger mode: 1
Integration Time (sec): 1.000000E-1
Scans to average: 1
Electric dark correction enabled: true
Nonlinearity correction enabled: false
Boxcar width: 0
XAxis mode: Wavelengths
Number of Pixels in Spectrum: 2048
>>>>>Begin Spectral Data<<<<<
223.165	-13.06
223.4	-13.06
223.635	-13.06
223.869	-20.06
224.104	-11.06
224.338	-7.06
224.573	-14.06
224.808	-20.06
225.042	-4.06
225.277	-0.06
225.511	0.94
225.746	5.94
225.98	-6.06
226.215	12.94
226.449	19.94
226.683	18.94
226.918	22.94
227.152	13.94
227.387	31.94
227.621	27.94
227.856	28.94
228.09	27.94
228.324	50.94
228.559	56.94
228.793	81.94
229.027	87.94
229.262	99.94
229.496	121.94
229.73	112.94
229.964	130.94
230.199	111.94
230.433	112.94
230.667	116.94
230.901	109.94
231.136	104.94
231.37	98.94
231.604	123.94
231.838	116.94
232.072	127.94
232.306	111.94
232.541	118.94
232.775	124.94
233.009	117.94
233.243	123.94
233.477	118.94
233.711	117.94
233.945	119.94
234.179	128.94
234.413	116.94
234.647	103.94
234.881	125.94
235.115	133.94
235.349	119.94
235.583	123.94
235.817	122.94
236.051	136.94
236.285	143.94
236.519	127.94
236.753	128.94
236.987	143.94
237.221	169.94
237.455	184.94
237.689	188.94
237.922	141.94
238.156	149.94
238.39	133.94
238.624	136.94
238.858	136.94
239.091	140.94
239.325	124.94
239.559	129.94
239.793	135.94
240.027	145.94
240.26	156.94
240.494	167.94
240.728	153.94
240.961	147.94
241.195	155.94
241.429	139.94
241.662	154.94
241.896	137.94
242.13	131.94
242.363	140.94
242.597	138.94
242.83	144.94
243.064	149.94
243.298	139.94
243.531	147.94
243.765	160.94
243.998	151.94
244.232	151.94
244.465	163.94
244.699	148.94
244.932	157.94
245.166	156.94
245.399	168.94
245.633	159.94
245.866	157.94
246.099	153.94
246.333	170.94
246.566	161.94
246.8	166.94
247.033	173.94
247.266	153.94
247.5	179.94
247.733	171.94
247.966	174.94
248.2	171.94
248.433	197.94
248.666	184.94
248.899	188.94
249.133	220.94
249.366	216.94
249.599	198.94
249.832	192.94
250.066	200.94
250.299	198.94
250.532	204.94
250.765	210.94
250.998	248.94
251.231	240.94
251.465	221.94
251.698	211.94
251.931	213.94
252.164	227.94
252.397	212.94
252.63	223.94
252.863	231.94
253.096	224.94
253.329	236.94
253.562	242.94
253.795	225.94
254.028	219.94
254.261	235.94
254.494	239.94
254.727	264.94
254.96	276.94
255.193	262.94
255.426	236.94
255.659	243.94
255.892	246.94
256.124	257.94
256.357	261.94
256.59	236.94
256.823	234.94
257.056	225.94
257.289	229.94
257.521	232.94
257.754	239.94
257.987	230.94
258.22	227.94
258.452	220.94
258.685	224.94
258.918	219.94
259.151	234.94
259.383	235.94
259.616	239.94
259.849	243.94
260.081	253.94
260.314	255.94
260.547	259.94
260.779	262.94
261.012	254.94
261.244	251.94
261.477	273.94
261.71	245.94
261.942	239.94
262.175	256.94
262.407	250.94
262.64	224.94
262.872	240.94
263.105	243.94
263.337	236.94
263.57	245.94
263.802	243.94
264.035	243.94
264.267	242.94
264.499	247.94
264.732	239.94
264.964	237.94
265.197	247.94
265.429	249.94
265.661	222.94
265.894	241.94
266.126	255.94
266.358	247.94
266.591	244.94
266.823	263.94
267.055	251.94
267.287	245.94
267.52	256.94
267.752	259.94
267.984	284.94
268.216	259.94
268.448	267.94
268.681	279.94
268.913	283.94
269.145	289.94
269.377	296.94
269.609	295.94
269.841	291.94
270.073	285.94
270.306	310.94
270.538	337.94
270.77	323.94
271.002	328.94
271.234	310.94
271.466	314.94
271.698	322.94
271.93	339.94
272.162	331.94
272.394	325.94
272.626	310.94
272.858	317.94
273.09	317.94
273.322	307.94
273.553	294.94
273.785	301.94
274.017	275.94
274.249	290.94
274.481	289.94
274.713	281.94
274.945	284.94
275.176	310.94
275.408	317.94
275.64	307.94
275.872	305.94
276.104	312.94
276.335	313.94
276.567	317.94
276.799	312.94
277.031	319.94
277.262	340.94
277.494	340.94
277.726	329.94
277.957	323.94
278.189	312.94
278.421	290.94
278.652	305.94
278.884	301.94
279.115	312.94
279.347	321.94
279.579	303.94
279.81	308.94
280.042	328.94
280.273	322.94
280.505	318.94
280.736	307.94
280.968	321.94
281.199	328.94
281.431	321.94
281.662	319.94
281.894	315.94
282.125	322.94
282.356	341.94
282.588	340.94
282.819	340.94
283.051	330.94
283.282	330.94
283.513	341.94
283.745	319.94
283.976	326.94
284.207	334.94
284.439	334.94
284.67	333.94
284.901	345.94
285.132	334.94
285.364	326.94
285.595	347.94
285.826	328.94
286.057	328.94
286.288	345.94
286.52	356.94
286.751	344.94
286.982	348.94
287.213	332.94
287.444	346.94
287.675	336.94
287.906	362.94
288.138	349.94
288.369	357.94
288.6	369.94
288.831	337.94
289.062	370.94
289.293	339.94
289.524	356.94
289.755	359.94
289.986	356.94
290.217	357.94
290.448	356.94
290.679	363.94
290.91	352.94
291.141	362.94
291.371	354.94
291.602	358.94
291.833	361.94
292.064	364.94
292.295	356.94
292.526	353.94
292.757	348.94
292.987	361.94
293.218	357.94
293.449	352.94
293.68	353.94
293.91	373.94
294.141	373.94
294.372	363.94
294.603	356.94
294.833	380.94
295.064	381.94
295.295	362.94
295.525	353.94
295.756	363.94
295.987	362.94
296.217	394.94
296.448	389.94
296.679	377.94
296.909	385.94
297.14	381.94
297.37	383.94
297.601	375.94
297.831	377.94
298.062	380.94
298.292	395.94
298.523	376.94
298.753	378.94
298.984	405.94
299.214	383.94
299.445	397.94
299.675	380.94
299.905	404.94
300.136	396.94
300.366	401.94
300.597	395.94
300.827	396.94
301.057	403.94
301.288	409.94
301.518	421.94
301.748	411.94
301.979	407.94
302.209	389.94
302.439	418.94
302.669	403.94
302.9	398.94
303.13	413.94
303.36	416.94
303.59	420.94
303.82	419.94
304.051	411.94
304.281	417.94
304.511	416.94
304.741	400.94
304.971	408.94
305.201	392.94
305.431	420.94
305.661	403.94
305.891	402.94
306.121	407.94
306.352	396.94
306.582	413.94
306.812	417.94
307.042	427.94
307.272	416.94
307.502	388.94
307.731	392.94
307.961	426.94
308.191	406.94
308.421	419.94
308.651	434.94
308.881	413.94
309.111	436.94
309.341	433.94
309.571	417.94
309.8	428.94
310.03	437.94
310.26	450.94
310.49	442.94
310.72	452.94
310.949	440.94
311.179	445.94
311.409	436.94
311.639	445.94
311.868	433.94
312.098	431.94
312.328	450.94
312.557	446.94
312.787	468.94
313.017	449.94
313.246	459.94
313.476	432.94
313.706	450.94
313.935	461.94
314.165	469.94
314.394	465.94
314.624	454.94
314.853	473.94
315.083	457.94
315.312	470.94
315.542	453.94
315.771	429.94
316.001	454.94
316.23	456.94
316.46	457.94
316.689	470.94
316.919	467.94
317.148	474.94
317.377	469.94
317.607	476.94
317.836	470.94
318.065	446.94
318.295	455.94
318.524	480.94
318.753	461.94
318.983	477.94
319.212	442.94
319.441	460.94
319.67	472.94
319.9	453.94
320.129	467.94
320.358	447.94
320.587	462.94
320.816	480.94
321.046	474.94
321.275	473.94
321.504	451.94
321.733	456.94
321.962	455.94
322.191	470.94
322.42	492.94
322.649	482.94
322.878	479.94
323.108	489.94
323.337	499.94
323.566	503.94
323.795	544.94
324.024	543.94
324.253	622.94
324.482	795.94
324.71	1151.94
324.939	1608.94
325.168	1436.94
325.397	823.94
325.626	629.94
325.855	581.94
326.084	536.94
326.313	526.94
326.542	543.94
326.77	574.94
326.999	624.94
327.228	773.94
327.457	1082.94
327.686	1270.94
327.914	902.94
328.143	670.94
328.372	607.94
328.6	593.94
328.829	583.94
329.058	596.94
329.287	580.94
329.515	560.94
329.744	549.94
329.972	552.94
330.201	552.94
330.43	594.94
330.658	592.94
330.887	618.94
331.115	621.94
331.344	592.94
331.572	567.94
331.801	577.94
332.03	566.94
332.258	588.94
332.486	573.94
332.715	578.94
332.943	599.94
333.172	597.94
333.4	597.94
333.629	606.94
333.857	625.94
334.085	638.94
334.314	646.94
334.542	657.94
334.771	660.94
334.999	623.94
335.227	601.94
335.455	597.94
335.684	595.94
335.912	604.94
336.14	572.94
336.369	573.94
336.597	576.94
336.825	591.94
337.053	577.94
337.281	562.94
337.51	525.94
337.738	544.94
337.966	543.94
338.194	552.94
338.422	524.94
338.65	564.94
338.878	551.94
339.106	521.94
339.334	548.94
339.562	524.94
339.79	534.94
340.018	536.94
340.246	528.94
340.474	541.94
340.702	548.94
340.93	536.94
341.158	511.94
341.386	501.94
341.614	513.94
341.842	532.94
342.07	552.94
342.298	522.94
342.526	514.94
342.754	496.94
342.981	529.94
343.209	535.94
343.437	520.94
343.665	560.94
343.893	590.94
344.12	602.94
344.348	572.94
344.576	556.94
344.804	560.94
345.031	549.94
345.259	545.94
345.487	526.94
345.714	531.94
345.942	521.94
346.17	523.94
346.397	516.94
346.625	499.94
346.853	490.94
347.08	490.94
347.308	490.94
347.535	510.94
347.763	531.94
347.99	526.94
348.218	504.94
348.445	501.94
348.673	504.94
348.9	499.94
349.128	475.94
349.355	499.94
349.583	501.94
349.81	508.94
350.037	486.94
350.265	495.94
350.492	495.94
350.72	487.94
350.947	492.94
351.174	499.94
351.402	514.94
351.629	521.94
351.856	480.94
352.083	487.94
352.311	493.94
352.538	519.94
352.765	520.94
352.992	502.94
353.22	484.94
353.447	491.94
353.674	483.94
353.901	484.94
354.128	497.94
354.355	483.94
354.583	491.94
354.81	486.94
355.037	483.94
355.264	489.94
355.491	484.94
355.718	479.94
355.945	487.94
356.172	481.94
356.399	466.94
356.626	476.94
356.853	503.94
357.08	469.94
357.307	479.94
357.534	453.94
357.761	476.94
357.988	484.94
358.215	480.94
358.441	483.94
358.668	514.94
358.895	496.94
359.122	505.94
359.349	488.94
359.576	475.94
359.802	498.94
360.029	507.94
360.256	540.94
360.483	528.94
360.709	498.94
360.936	515.94
361.163	506.94
361.39	506.94
361.616	516.94
361.843	492.94
362.07	491.94
362.296	483.94
362.523	495.94
362.749	505.94
362.976	501.94
363.203	487.94
363.429	488.94
363.656	484.94
363.882	508.94
364.109	511.94
364.335	485.94
364.562	489.94
364.788	521.94
365.015	489.94
365.241	481.94
365.468	491.94
365.694	495.94
365.92	518.94
366.147	470.94
366.373	477.94
366.599	497.94
366.826	493.94
367.052	483.94
367.278	498.94
367.505	477.94
367.731	481.94
367.957	492.94
368.184	495.94
368.41	505.94
368.636	508.94
368.862	488.94
369.089	523.94
369.315	502.94
369.541	491.94
369.767	486.94
369.993	511.94
370.219	492.94
370.445	495.94
370.672	506.94
370.898	511.94
371.124	507.94
371.35	534.94
371.576	515.94
371.802	503.94
372.028	513.94
372.254	533.94
372.48	520.94
372.706	519.94
372.932	545.94
373.158	531.94
373.384	526.94
373.61	511.94
373.835	512.94
374.061	523.94
374.287	513.94
374.513	514.94
374.739	548.94
374.965	573.94
375.191	544.94
375.416	557.94
375.642	518.94
375.868	516.94
376.094	515.94
376.319	524.94
376.545	514.94
376.771	519.94
376.997	519.94
377.222	517.94
377.448	500.94
377.674	496.94
377.899	490.94
378.125	515.94
378.35	506.94
378.576	498.94
378.802	510.94
379.027	525.94
379.253	517.94
379.478	526.94
379.704	523.94
379.929	509.94
380.155	513.94
380.38	525.94
380.606	512.94
380.831	500.94
381.057	529.94
381.282	508.94
381.507	489.94
381.733	525.94
381.958	511.94
382.184	496.94
382.409	526.94
382.634	545.94
382.86	520.94
383.085	534.94
383.31	549.94
383.535	552.94
383.761	547.94
383.986	553.94
384.211	569.94
384.436	564.94
384.662	563.94
384.887	593.94
385.112	617.94
385.337	589.94
385.562	582.94
385.787	600.94
386.013	604.94
386.238	599.94
386.463	614.94
386.688	620.94
386.913	606.94
387.138	580.94
387.363	607.94
387.588	595.94
387.813	601.94
388.038	607.94
388.263	605.94
388.488	608.94
388.713	590.94
388.938	562.94
389.163	576.94
389.387	615.94
389.612	585.94
389.837	565.94
390.062	601.94
390.287	596.94
390.512	583.94
390.736	603.94
390.961	605.94
391.186	601.94
391.411	612.94
391.636	616.94
391.86	639.94
392.085	633.94
392.31	666.94
392.534	639.94
392.759	632.94
392.984	615.94
393.208	601.94
393.433	612.94
393.658	628.94
393.882	611.94
394.107	577.94
394.331	597.94
394.556	600.94
394.78	627.94
395.005	615.94
395.229	593.94
395.454	652.94
395.678	667.94
395.903	659.94
396.127	669.94
396.352	659.94
396.576	639.94
396.801	644.94
397.025	634.94
397.249	652.94
397.474	632.94
397.698	669.94
397.922	658.94
398.147	656.94
398.371	671.94
398.595	668.94
398.82	692.94
399.044	738.94
399.268	793.94
399.492	847.94
399.717	936.94
399.941	975.94
400.165	909.94
400.389	883.94
400.613	807.94
400.837	735.94
401.062	725.94
401.286	703.94
401.51	709.94
401.734	703.94
401.958	697.94
402.182	729.94
402.406	720.94
402.63	738.94
402.854	734.94
403.078	752.94
403.302	742.94
403.526	769.94
403.75	767.94
403.974	787.94
404.198	765.94
404.422	777.94
404.645	781.94
404.869	772.94
405.093	797.94
405.317	850.94
405.541	852.94
405.765	794.94
405.988	779.94
406.212	788.94
406.436	751.94
406.66	800.94
406.883	793.94
407.107	818.94
407.331	905.94
407.555	945.94
407.778	904.94
408.002	893.94
408.226	826.94
408.449	827.94
408.673	815.94
408.896	837.94
409.12	835.94
409.344	860.94
409.567	766.94
409.791	776.94
410.014	768.94
410.238	733.94
410.461	754.94
410.685	753.94
410.908	771.94
411.132	780.94
411.355	799.94
411.578	784.94
411.802	745.94
412.025	717.94
412.249	771.94
412.472	791.94
412.695	765.94
412.919	774.94
413.142	754.94
413.365	747.94
413.589	712.94
413.812	707.94
414.035	709.94
414.258	695.94
414.482	713.94
414.705	719.94
414.928	711.94
415.151	712.94
415.374	688.94
415.597	680.94
415.821	697.94
416.044	697.94
416.267	699.94
416.49	715.94
416.713	678.94
416.936	675.94
417.159	682.94
417.382	695.94
417.605	695.94
417.828	663.94
418.051	736.94
418.274	734.94
418.497	668.94
418.72	712.94
418.943	705.94
419.166	756.94
419.389	761.94
419.611	737.94
419.834	746.94
420.057	739.94
420.28	712.94
420.503	717.94
420.726	724.94
420.948	729.94
421.171	776.94
421.394	767.94
421.617	695.94
421.839	715.94
422.062	722.94
422.285	700.94
422.507	754.94
422.73	824.94
422.953	839.94
423.175	752.94
423.398	730.94
423.621	744.94
423.843	747.94
424.066	767.94
424.288	765.94
424.511	777.94
424.733	819.94
424.956	859.94
425.178	833.94
425.401	798.94
425.623	840.94
425.846	769.94
426.068	722.94
426.291	722.94
426.513	699.94
426.735	721.94
426.958	751.94
427.18	818.94
427.402	925.94
427.625	978.94
427.847	873.94
428.069	791.94
428.292	729.94
428.514	700.94
428.736	661.94
428.958	679.94
429.181	678.94
429.403	676.94
429.625	677.94
429.847	672.94
430.069	743.94
430.292	741.94
430.514	665.94
430.736	666.94
430.958	659.94
431.18	653.94
431.402	640.94
431.624	629.94
431.846	650.94
432.068	640.94
432.29	670.94
432.512	663.94
432.734	664.94
432.956	650.94
433.178	645.94
433.4	647.94
433.622	661.94
433.844	652.94
434.066	659.94
434.287	671.94
434.509	702.94
434.731	695.94
434.953	701.94
435.175	721.94
435.397	738.94
435.618	714.94
435.84	751.94
436.062	797.94
436.284	866.94
436.505	752.94
436.727	708.94
436.949	670.94
437.17	659.94
437.392	647.94
437.614	639.94
437.835	691.94
438.057	747.94
438.278	835.94
438.5	834.94
438.721	873.94
438.943	876.94
439.165	722.94
439.386	714.94
439.608	698.94
439.829	696.94
440.05	711.94
440.272	730.94
440.493	694.94
440.715	681.94
440.936	667.94
441.158	681.94
441.379	719.94
441.6	723.94
441.822	716.94
442.043	772.94
442.264	815.94
442.486	833.94
442.707	769.94
442.928	752.94
443.149	746.94
443.371	740.94
443.592	786.94
443.813	868.94
444.034	906.94
444.255	829.94
444.476	788.94
444.698	799.94
444.919	819.94
445.14	927.94
445.361	822.94
445.582	799.94
445.803	773.94
446.024	877.94
446.245	876.94
446.466	815.94
446.687	724.94
446.908	698.94
447.129	657.94
447.35	639.94
447.571	662.94
447.792	639.94
448.013	647.94
448.234	658.94
448.455	683.94
448.675	783.94
448.896	851.94
449.117	736.94
449.338	712.94
449.559	803.94
449.779	911.94
450	769.94
450.221	674.94
450.442	655.94
450.662	610.94
450.883	636.94
451.104	631.94
451.324	629.94
451.545	631.94
451.766	600.94
451.986	599.94
452.207	603.94
452.428	604.94
452.648	610.94
452.869	572.94
453.089	600.94
453.31	607.94
453.53	607.94
453.751	600.94
453.971	578.94
454.192	595.94
454.412	577.94
454.633	559.94
454.853	585.94
455.073	573.94
455.294	584.94
455.514	652.94
455.734	628.94
455.955	583.94
456.175	546.94
456.395	572.94
456.616	559.94
456.836	579.94
457.056	580.94
457.276	549.94
457.497	549.94
457.717	570.94
457.937	567.94
458.157	578.94
458.377	567.94
458.598	583.94
458.818	643.94
459.038	715.94
459.258	753.94
459.478	677.94
459.698	674.94
459.918	674.94
460.138	670.94
460.358	708.94
460.578	740.94
460.798	734.94
461.018	718.94
461.238	717.94
461.458	723.94
461.678	704.94
461.898	724.94
462.118	710.94
462.338	771.94
462.558	730.94
462.777	753.94
462.997	833.94
463.217	892.94
463.437	851.94
463.657	811.94
463.876	799.94
464.096	799.94
464.316	771.94
464.536	822.94
464.755	795.94
464.975	781.94
465.195	761.94
465.414	788.94
465.634	701.94
465.854	694.94
466.073	679.94
466.293	639.94
466.512	653.94
466.732	639.94
466.951	613.94
467.171	630.94
467.391	637.94
467.61	633.94
467.829	634.94
468.049	607.94
468.268	623.94
468.488	637.94
468.707	604.94
468.927	599.94
469.146	616.94
469.365	606.94
469.585	614.94
469.804	642.94
470.023	627.94
470.243	617.94
470.462	653.94
470.681	659.94
470.901	685.94
471.12	637.94
471.339	627.94
471.558	620.94
471.777	631.94
471.997	631.94
472.216	631.94
472.435	656.94
472.654	630.94
472.873	624.94
473.092	621.94
473.311	614.94
473.53	639.94
473.749	607.94
473.968	643.94
474.187	705.94
474.406	720.94
474.625	653.94
474.844	605.94
475.063	609.94
475.282	623.94
475.501	633.94
475.72	630.94
475.939	644.94
476.158	621.94
476.377	624.94
476.596	645.94
476.814	645.94
477.033	662.94
477.252	677.94
477.471	659.94
477.69	678.94
477.908	693.94
478.127	687.94
478.346	715.94
478.564	721.94
478.783	719.94
479.002	731.94
479.22	743.94
479.439	738.94
479.658	760.94
479.876	776.94
480.095	790.94
480.313	802.94
480.532	819.94
480.751	816.94
480.969	789.94
481.188	815.94
481.406	831.94
481.624	784.94
481.843	747.94
482.061	731.94
482.28	740.94
482.498	704.94
482.717	717.94
482.935	737.94
483.153	721.94
483.372	714.94
483.59	721.94
483.808	731.94
484.027	718.94
484.245	718.94
484.463	733.94
484.681	740.94
484.9	731.94
485.118	733.94
485.336	731.94
485.554	725.94
485.772	761.94
485.99	740.94
486.209	757.94
486.427	743.94
486.645	762.94
486.863	761.94
487.081	758.94
487.299	767.94
487.517	747.94
487.735	756.94
487.953	761.94
488.171	779.94
488.389	771.94
488.607	760.94
488.825	767.94
489.043	752.94
489.261	748.94
489.479	783.94
489.696	783.94
489.914	796.94
490.132	767.94
490.35	802.94
490.568	787.94
490.786	807.94
491.003	822.94
491.221	818.94
491.439	812.94
491.657	846.94
491.874	836.94
492.092	861.94
492.31	851.94
492.527	871.94
492.745	856.94
492.963	871.94
493.18	853.94
493.398	870.94
493.615	865.94
493.833	891.94
494.05	897.94
494.268	864.94
494.485	890.94
494.703	883.94
494.92	894.94
495.138	892.94
495.355	882.94
495.573	883.94
495.79	885.94
496.008	886.94
496.225	900.94
496.442	895.94
496.66	912.94
496.877	901.94
497.094	900.94
497.312	922.94
497.529	952.94
497.746	963.94
497.963	987.94
498.181	1003.94
498.398	1046.94
498.615	1081.94
498.832	1121.94
499.049	1189.94
499.267	1228.94
499.484	1336.94
499.701	1428.94
499.918	1487.94
500.135	1634.94
500.352	1754.94
500.569	1811.94
500.786	1830.94
501.003	1737.94
501.22	1590.94
501.437	1499.94
501.654	1419.94
