Data from 1963.PennyLincolnUp.Lamp.En5.5.200Scan.071719.P1._HRD10591_13-59-01-063.txt Node
Date: Thu Jul 18 13:59:01 EDT 2019
User: cochatt
Spectrometer: HR+D1059
Trigger mode: 1
Integration Time (sec): 1.000000E-1
Scans to average: 1
Electric dark correction enabled: true
Nonlinearity correction enabled: false
Boxcar width: 0
XAxis mode: Wavelengths
Number of Pixels in Spectrum: 2048
>>>>>Begin Spectral Data<<<<<
223.165	-19
223.4	-19
223.635	-19
223.869	-19
224.104	-22
224.338	-19
224.573	-18
224.808	7
225.042	-6
225.277	-12
225.511	-4
225.746	7
225.98	12
226.215	13
226.449	18
226.683	15
226.918	19
227.152	28
227.387	44
227.621	28
227.856	35
228.09	43
228.324	45
228.559	69
228.793	62
229.027	96
229.262	98
229.496	126
229.73	130
229.964	147
230.199	132
230.433	97
230.667	132
230.901	110
231.136	104
231.37	120
231.604	128
231.838	144
232.072	131
232.306	118
232.541	128
232.775	127
233.009	123
233.243	118
233.477	129
233.711	138
233.945	113
234.179	126
234.413	114
234.647	128
234.881	124
235.115	121
235.349	127
235.583	114
235.817	140
236.051	140
236.285	140
236.519	128
236.753	137
236.987	138
237.221	174
237.455	231
237.689	163
237.922	146
238.156	144
238.39	144
238.624	142
238.858	144
239.091	130
239.325	136
239.559	144
239.793	132
240.027	132
240.26	163
240.494	170
240.728	174
240.961	165
241.195	152
241.429	157
241.662	151
241.896	155
242.13	137
242.363	155
242.597	163
242.83	165
243.064	157
243.298	153
243.531	157
243.765	148
243.998	174
244.232	157
244.465	164
244.699	161
244.932	156
245.166	176
245.399	173
245.633	154
245.866	168
246.099	171
246.333	171
246.566	165
246.8	164
247.033	175
247.266	177
247.5	177
247.733	186
247.966	193
248.2	177
248.433	178
248.666	189
248.899	206
249.133	214
249.366	218
249.599	200
249.832	200
250.066	207
250.299	208
250.532	216
250.765	232
250.998	238
251.231	232
251.465	218
251.698	208
251.931	217
252.164	216
252.397	217
252.63	219
252.863	220
253.096	227
253.329	238
253.562	235
253.795	236
254.028	232
254.261	234
254.494	231
254.727	254
254.96	274
255.193	265
255.426	238
255.659	242
255.892	250
256.124	250
256.357	263
256.59	237
256.823	214
257.056	230
257.289	225
257.521	223
257.754	223
257.987	213
258.22	244
258.452	224
258.685	246
258.918	235
259.151	250
259.383	240
259.616	236
259.849	243
260.081	254
260.314	274
260.547	280
260.779	253
261.012	241
261.244	258
261.477	262
261.71	255
261.942	258
262.175	248
262.407	260
262.64	243
262.872	238
263.105	228
263.337	228
263.57	244
263.802	244
264.035	228
264.267	239
264.499	241
264.732	242
264.964	245
265.197	252
265.429	236
265.661	244
265.894	230
266.126	246
266.358	247
266.591	248
266.823	260
267.055	260
267.287	261
267.52	265
267.752	260
267.984	261
268.216	267
268.448	259
268.681	275
268.913	277
269.145	288
269.377	301
269.609	297
269.841	297
270.073	294
270.306	313
270.538	322
270.77	340
271.002	310
271.234	317
271.466	330
271.698	330
271.93	348
272.162	354
272.394	337
272.626	328
272.858	319
273.09	296
273.322	314
273.553	316
273.785	309
274.017	318
274.249	308
274.481	292
274.713	291
274.945	303
275.176	316
275.408	293
275.64	311
275.872	297
276.104	300
276.335	302
276.567	311
276.799	320
277.031	326
277.262	335
277.494	350
277.726	335
277.957	331
278.189	312
278.421	312
278.652	324
278.884	312
279.115	305
279.347	308
279.579	321
279.81	305
280.042	324
280.273	312
280.505	329
280.736	339
280.968	319
281.199	307
281.431	328
281.662	333
281.894	326
282.125	310
282.356	341
282.588	324
282.819	346
283.051	313
283.282	320
283.513	314
283.745	334
283.976	330
284.207	345
284.439	342
284.67	365
284.901	326
285.132	345
285.364	344
285.595	336
285.826	359
286.057	367
286.288	332
286.52	344
286.751	338
286.982	344
287.213	348
287.444	356
287.675	373
287.906	377
288.138	367
288.369	361
288.6	361
288.831	360
289.062	351
289.293	350
289.524	356
289.755	347
289.986	343
290.217	363
290.448	335
290.679	344
290.91	352
291.141	356
291.371	351
291.602	376
291.833	341
292.064	350
292.295	381
292.526	369
292.757	383
292.987	379
293.218	348
293.449	364
293.68	373
293.91	360
294.141	364
294.372	365
294.603	375
294.833	361
295.064	391
295.295	361
295.525	362
295.756	377
295.987	376
296.217	396
296.448	392
296.679	387
296.909	369
297.14	374
297.37	379
297.601	376
297.831	406
298.062	400
298.292	372
298.523	369
298.753	394
298.984	400
299.214	369
299.445	380
299.675	387
299.905	386
300.136	408
300.366	399
300.597	381
300.827	420
301.057	408
301.288	421
301.518	421
301.748	408
301.979	416
302.209	414
302.439	423
302.669	410
302.9	440
303.13	402
303.36	409
303.59	398
303.82	432
304.051	432
304.281	414
304.511	391
304.741	414
304.971	420
305.201	407
305.431	404
305.661	414
305.891	409
306.121	403
306.352	407
306.582	401
306.812	410
307.042	416
307.272	408
307.502	408
307.731	400
307.961	410
308.191	396
308.421	410
308.651	428
308.881	409
309.111	405
309.341	428
309.571	426
309.8	428
310.03	431
310.26	425
310.49	414
310.72	439
310.949	434
311.179	463
311.409	452
311.639	452
311.868	467
312.098	441
312.328	424
312.557	470
312.787	465
313.017	449
313.246	457
313.476	457
313.706	454
313.935	452
314.165	470
314.394	474
314.624	463
314.853	476
315.083	473
315.312	450
315.542	473
315.771	448
316.001	465
316.23	451
316.46	428
316.689	455
316.919	436
317.148	462
317.377	450
317.607	437
317.836	442
318.065	462
318.295	454
318.524	452
318.753	459
318.983	471
319.212	473
319.441	472
319.67	494
319.9	480
320.129	452
320.358	470
320.587	442
320.816	464
321.046	459
321.275	460
321.504	467
321.733	471
321.962	471
322.191	493
322.42	463
322.649	491
322.878	507
323.108	499
323.337	502
323.566	543
323.795	529
324.024	576
324.253	636
324.482	822
324.71	1168
324.939	1654
325.168	1466
325.397	816
325.626	608
325.855	557
326.084	552
326.313	546
326.542	547
326.77	570
326.999	626
327.228	812
327.457	1090
327.686	1302
327.914	922
328.143	671
328.372	629
328.6	608
328.829	578
329.058	598
329.287	598
329.515	560
329.744	558
329.972	568
330.201	574
330.43	594
330.658	617
330.887	629
331.115	629
331.344	580
331.572	544
331.801	560
332.03	569
332.258	566
332.486	581
332.715	568
332.943	582
333.172	586
333.4	600
333.629	596
333.857	640
334.085	632
334.314	637
334.542	661
334.771	671
334.999	654
335.227	608
335.455	587
335.684	586
335.912	607
336.14	568
336.369	552
336.597	582
336.825	587
337.053	559
337.281	557
337.51	536
337.738	534
337.966	564
338.194	557
338.422	542
338.65	548
338.878	522
339.106	556
339.334	542
339.562	540
339.79	526
340.018	498
340.246	525
340.474	512
340.702	536
340.93	536
341.158	536
341.386	521
341.614	543
341.842	541
342.07	523
342.298	520
342.526	510
342.754	513
342.981	507
343.209	531
343.437	529
343.665	560
343.893	592
344.12	591
344.348	598
344.576	556
344.804	568
345.031	570
345.259	548
345.487	552
345.714	526
345.942	510
346.17	513
346.397	499
346.625	525
346.853	512
347.08	479
347.308	510
347.535	520
347.763	532
347.99	516
348.218	525
348.445	501
348.673	501
348.9	484
349.128	481
349.355	503
349.583	515
349.81	492
350.037	474
350.265	489
350.492	464
350.72	500
350.947	491
351.174	503
351.402	509
351.629	520
351.856	512
352.083	497
352.311	503
352.538	500
352.765	495
352.992	504
353.22	493
353.447	493
353.674	505
353.901	481
354.128	503
354.355	502
354.583	482
354.81	483
355.037	471
355.264	486
355.491	486
355.718	474
355.945	490
356.172	477
356.399	478
356.626	477
356.853	501
357.08	485
357.307	500
357.534	471
357.761	497
357.988	501
358.215	473
358.441	474
358.668	477
358.895	502
359.122	498
359.349	512
359.576	506
359.802	485
360.029	526
360.256	546
360.483	511
360.709	516
360.936	493
361.163	515
361.39	531
361.616	522
361.843	485
362.07	497
362.296	494
362.523	504
362.749	490
362.976	507
363.203	496
363.429	509
363.656	488
363.882	480
364.109	480
364.335	466
364.562	498
364.788	504
365.015	474
365.241	476
365.468	495
365.694	490
365.92	500
366.147	498
366.373	504
366.599	516
366.826	484
367.052	487
367.278	504
367.505	476
367.731	510
367.957	488
368.184	503
368.41	504
368.636	507
368.862	510
369.089	501
369.315	504
369.541	515
369.767	522
369.993	514
370.219	520
370.445	496
370.672	489
370.898	504
371.124	513
371.35	509
371.576	549
371.802	517
372.028	506
372.254	508
372.48	503
372.706	535
372.932	527
373.158	505
373.384	536
373.61	524
373.835	526
374.061	522
374.287	534
374.513	529
374.739	540
374.965	534
375.191	562
375.416	543
375.642	524
375.868	537
376.094	523
376.319	516
376.545	519
376.771	519
376.997	511
377.222	510
377.448	535
377.674	529
377.899	520
378.125	499
378.35	528
378.576	508
378.802	517
379.027	508
379.253	513
379.478	519
379.704	489
379.929	488
380.155	515
380.38	518
380.606	511
380.831	525
381.057	524
381.282	509
381.507	537
381.733	522
381.958	495
382.184	507
382.409	522
382.634	518
382.86	537
383.085	536
383.31	544
383.535	537
383.761	528
383.986	536
384.211	586
384.436	564
384.662	570
384.887	596
385.112	596
385.337	593
385.562	604
385.787	600
386.013	602
386.238	599
386.463	604
386.688	585
386.913	598
387.138	596
387.363	593
387.588	570
387.813	582
388.038	593
388.263	590
388.488	598
388.713	590
388.938	616
389.163	572
389.387	601
389.612	588
389.837	581
390.062	562
390.287	586
390.512	576
390.736	592
390.961	584
391.186	592
391.411	606
391.636	619
391.86	634
392.085	638
392.31	661
392.534	615
392.759	605
392.984	592
393.208	613
393.433	601
393.658	590
393.882	625
394.107	597
394.331	632
394.556	595
394.78	612
395.005	636
395.229	627
395.454	635
395.678	649
395.903	648
396.127	659
396.352	647
396.576	630
396.801	642
397.025	625
397.249	636
397.474	662
397.698	638
397.922	654
398.147	653
398.371	693
398.595	677
398.82	695
399.044	708
399.268	812
399.492	845
399.717	936
399.941	977
400.165	946
400.389	898
400.613	804
400.837	738
401.062	724
401.286	702
401.51	710
401.734	726
401.958	711
402.182	722
402.406	719
402.63	753
402.854	737
403.078	737
403.302	753
403.526	786
403.75	794
403.974	783
404.198	771
404.422	760
404.645	797
404.869	779
405.093	830
405.317	843
405.541	848
405.765	782
405.988	778
406.212	769
406.436	796
406.66	838
406.883	800
407.107	837
407.331	898
407.555	933
407.778	934
408.002	907
408.226	838
408.449	814
408.673	776
408.896	828
409.12	855
409.344	834
409.567	774
409.791	783
410.014	759
410.238	725
410.461	741
410.685	757
410.908	746
411.132	782
411.355	785
411.578	786
411.802	732
412.025	741
412.249	750
412.472	775
412.695	799
412.919	764
413.142	726
413.365	728
413.589	735
413.812	694
414.035	710
414.258	717
414.482	687
414.705	725
414.928	690
415.151	712
415.374	689
415.597	690
415.821	686
416.044	698
416.267	702
416.49	702
416.713	673
416.936	716
417.159	710
417.382	677
417.605	710
417.828	692
418.051	711
418.274	732
418.497	734
418.72	723
418.943	718
419.166	742
419.389	772
419.611	790
419.834	749
420.057	738
420.28	742
420.503	702
420.726	711
420.948	709
421.171	770
421.394	776
421.617	723
421.839	703
422.062	721
422.285	726
422.507	746
422.73	840
422.953	813
423.175	756
423.398	738
423.621	746
423.843	780
424.066	785
424.288	749
424.511	779
424.733	792
424.956	874
425.178	827
425.401	834
425.623	820
425.846	756
426.068	728
426.291	700
426.513	722
426.735	737
426.958	756
427.18	843
427.402	902
427.625	993
427.847	855
428.069	780
428.292	737
428.514	682
428.736	668
428.958	678
429.181	673
429.403	660
429.625	664
429.847	697
430.069	732
430.292	751
430.514	664
430.736	651
430.958	644
431.18	663
431.402	639
431.624	634
431.846	657
432.068	654
432.29	657
432.512	663
432.734	656
432.956	649
433.178	644
433.4	669
433.622	635
433.844	642
434.066	649
434.287	672
434.509	659
434.731	681
434.953	717
435.175	701
435.397	734
435.618	710
435.84	749
436.062	811
436.284	860
436.505	749
436.727	694
436.949	670
437.17	661
437.392	679
437.614	661
437.835	680
438.057	743
438.278	860
438.5	828
438.721	872
438.943	839
439.165	744
439.386	699
439.608	708
439.829	698
440.05	682
440.272	725
440.493	730
440.715	679
440.936	672
441.158	692
441.379	708
441.6	708
441.822	739
442.043	768
442.264	828
442.486	850
442.707	767
442.928	740
443.149	756
443.371	738
443.592	791
443.813	860
444.034	926
444.255	841
444.476	794
444.698	800
444.919	819
445.14	932
445.361	862
445.582	774
445.803	789
446.024	863
446.245	878
446.466	806
446.687	727
446.908	699
447.129	661
447.35	654
447.571	651
447.792	633
448.013	615
448.234	652
448.455	700
448.675	784
448.896	858
449.117	740
449.338	720
449.559	815
449.779	911
450	743
450.221	695
450.442	640
450.662	634
450.883	640
451.104	626
451.324	641
451.545	602
451.766	614
451.986	604
452.207	600
452.428	564
452.648	562
452.869	566
453.089	574
453.31	606
453.53	597
453.751	565
453.971	585
454.192	583
454.412	601
454.633	593
454.853	574
455.073	588
455.294	579
455.514	661
455.734	624
455.955	573
456.175	554
456.395	566
456.616	559
456.836	576
457.056	556
457.276	566
457.497	576
457.717	564
457.937	576
458.157	578
458.377	583
458.598	613
458.818	635
459.038	700
459.258	736
459.478	676
459.698	670
459.918	682
460.138	690
460.358	699
460.578	702
460.798	727
461.018	728
461.238	716
461.458	698
461.678	706
461.898	742
462.118	744
462.338	742
462.558	757
462.777	803
462.997	822
463.217	859
463.437	884
463.657	838
463.876	810
464.096	807
464.316	790
464.536	816
464.755	792
464.975	761
465.195	752
465.414	784
465.634	728
465.854	698
466.073	675
466.293	674
466.512	641
466.732	637
466.951	640
467.171	617
467.391	642
467.61	634
467.829	629
468.049	646
468.268	638
468.488	610
468.707	609
468.927	609
469.146	593
469.365	617
469.585	605
469.804	631
470.023	624
470.243	631
470.462	645
470.681	637
470.901	668
471.12	648
471.339	623
471.558	640
471.777	628
471.997	607
472.216	628
472.435	656
472.654	646
472.873	621
473.092	623
473.311	613
473.53	613
473.749	625
473.968	655
474.187	705
474.406	716
474.625	653
474.844	617
475.063	609
475.282	608
475.501	642
475.72	636
475.939	630
476.158	655
476.377	638
476.596	653
476.814	652
477.033	636
477.252	661
477.471	689
477.69	658
477.908	693
478.127	704
478.346	673
478.564	714
478.783	719
479.002	769
479.22	734
479.439	736
479.658	754
479.876	740
480.095	786
480.313	811
480.532	807
480.751	806
480.969	811
481.188	829
481.406	834
481.624	776
481.843	758
482.061	762
482.28	711
482.498	718
482.717	714
482.935	705
483.153	720
483.372	716
483.59	724
483.808	730
484.027	713
484.245	721
484.463	719
484.681	754
484.9	735
485.118	747
485.336	746
485.554	742
485.772	740
485.99	745
486.209	763
486.427	748
486.645	753
486.863	769
487.081	766
487.299	749
487.517	759
487.735	780
487.953	766
488.171	771
488.389	756
488.607	768
488.825	774
489.043	740
489.261	761
489.479	780
489.696	735
489.914	781
490.132	778
490.35	821
490.568	802
490.786	798
491.003	814
491.221	839
491.439	815
491.657	844
491.874	836
492.092	862
492.31	861
492.527	848
492.745	887
492.963	868
493.18	869
493.398	877
493.615	890
493.833	900
494.05	909
494.268	891
494.485	893
494.703	878
494.92	885
495.138	892
495.355	879
495.573	891
495.79	884
496.008	883
496.225	901
496.442	900
496.66	929
496.877	886
497.094	908
497.312	933
497.529	913
497.746	921
497.963	982
498.181	1020
498.398	1038
498.615	1065
498.832	1123
499.049	1199
499.267	1228
499.484	1301
499.701	1400
499.918	1508
500.135	1631
500.352	1771
500.569	1834
500.786	1818
501.003	1735
501.22	1640
501.437	1491
501.654	1407
501.871	1338
502.088	1240
502.305	1191
502.522	1140
502.739	1081
502.956	1036
503.172	1020
503.389	1001
503.606	958
503.823	957
504.04	928
504.256	956
504.473	972
504.69	969
504.907	968
505.123	914
505.34	886
505.557	873
505.773	846
505.99	833
506.207	849
506.423	833
506.64	813
506.856	822
507.073	832
507.289	805
507.506	804
507.722	826
507.939	836
508.155	806
508.372	780
508.588	763
508.805	782
509.021	776
509.238	791
509.454	770
509.67	785
509.887	780
510.103	749
510.319	755
510.536	801
510.752	1201
510.968	1041
511.184	766
511.401	727
511.617	760
511.833	726
512.049	728
512.265	713
512.481	735
512.698	744
512.914	724
513.13	752
513.346	718
513.562	734
513.778	738
513.994	737
514.21	732
514.426	758
514.642	752
514.858	803
515.074	832
515.29	901
515.506	1212
515.721	1085
515.937	862
516.153	816
516.369	817
516.585	793
516.801	795
517.016	846
517.232	844
517.448	868
517.664	855
517.879	889
518.095	893
518.311	888
518.527	869
518.742	852
518.958	807
519.173	801
519.389	771
519.605	758
519.82	776
520.036	761
520.251	769
520.467	792
520.682	754
520.898	746
521.113	782
521.329	786
521.544	807
521.76	958
521.975	1430
522.19	1487
522.406	926
522.621	732
522.836	717
523.052	728
523.267	700
523.482	656
523.698	648
523.913	662
524.128	680
524.343	655
524.559	673
524.774	641
524.989	651
525.204	666
525.419	670
525.634	609
525.849	644
526.064	642
526.28	641
526.495	632
526.71	615
526.925	626
527.14	612
527.355	619
527.57	606
527.785	578
527.999	615
528.214	635
528.429	626
528.644	606
528.859	636
529.074	622
529.289	610
529.503	680
529.718	628
529.933	634
530.148	638
530.363	638
530.577	646
530.792	617
531.007	616
531.221	623
531.436	621
531.651	609
531.865	634
532.08	618
532.295	624
532.509	634
532.724	613
532.938	633
533.153	608
533.367	628
533.582	634
533.796	604
534.011	594
534.225	603
534.44	601
534.654	588
534.868	604
535.083	610
535.297	581
535.511	600
535.726	615
535.94	605
536.154	602
536.369	588
536.583	584
536.797	596
537.011	579
537.225	572
537.44	581
537.654	566
537.868	577
538.082	578
538.296	588
538.51	566
538.724	587
538.938	566
539.153	578
539.367	608
539.581	582
539.795	578
540.009	545
540.222	568
540.436	576
540.65	573
540.864	592
541.078	578
541.292	572
541.506	557
541.72	585
541.934	562
542.147	584
542.361	554
542.575	546
542.789	564
543.002	559
543.216	572
543.43	580
543.644	565
543.857	563
544.071	580
544.285	590
544.498	574
544.712	576
544.925	574
545.139	565
545.352	569
545.566	567
545.779	576
545.993	602
546.206	577
546.42	586
546.633	577
546.847	582
547.06	561
547.274	568
547.487	573
547.7	572
547.914	560
548.127	580
548.34	561
548.554	562
548.767	560
548.98	594
549.193	575
549.407	552
549.62	575
549.833	583
550.046	561
550.259	578
550.473	556
550.686	570
550.899	546
551.112	564
551.325	576
551.538	582
551.751	567
551.964	581
552.177	574
552.39	568
552.603	592
552.816	612
553.029	601
553.242	601
553.455	602
553.667	635
553.88	635
554.093	611
554.306	613
554.519	582
554.732	573
554.944	568
555.157	559
555.37	555
555.583	545
555.795	546
556.008	524
556.221	542
556.433	537
556.646	524
556.859	527
557.071	505
557.284	510
557.496	489
557.709	491
557.921	485
558.134	487
558.346	511
558.559	514
558.771	486
558.984	508
559.196	491
559.409	489
559.621	503
559.833	485
560.046	476
560.258	476
560.47	494
560.683	490
560.895	488
561.107	495
561.32	489
561.532	497
561.744	496
561.956	472
562.168	490
562.381	509
562.593	529
562.805	494
563.017	490
563.229	512
