Data from 1963.PennyLincolnUp.Lamp.En5.5.200Scan.071719.P1._HRD10591_13-57-57-063.txt Node
Date: Thu Jul 18 13:57:57 EDT 2019
User: cochatt
Spectrometer: HR+D1059
Trigger mode: 1
Integration Time (sec): 1.000000E-1
Scans to average: 1
Electric dark correction enabled: true
Nonlinearity correction enabled: false
Boxcar width: 0
XAxis mode: Wavelengths
Number of Pixels in Spectrum: 2048
>>>>>Begin Spectral Data<<<<<
223.165	-17.38
223.4	-17.38
223.635	-17.38
223.869	-22.38
224.104	-24.38
224.338	-30.38
224.573	-9.38
224.808	-6.38
225.042	-4.38
225.277	-5.38
225.511	-0.38
225.746	10.62
225.98	10.62
226.215	16.62
226.449	7.62
226.683	23.62
226.918	20.62
227.152	30.62
227.387	31.62
227.621	34.62
227.856	36.62
228.09	48.62
228.324	57.62
228.559	58.62
228.793	70.62
229.027	92.62
229.262	106.62
229.496	79.62
229.73	103.62
229.964	131.62
230.199	134.62
230.433	121.62
230.667	122.62
230.901	111.62
231.136	106.62
231.37	108.62
231.604	123.62
231.838	109.62
232.072	131.62
232.306	124.62
232.541	117.62
232.775	118.62
233.009	121.62
233.243	124.62
233.477	124.62
233.711	125.62
233.945	111.62
234.179	126.62
234.413	118.62
234.647	125.62
234.881	114.62
235.115	124.62
235.349	123.62
235.583	125.62
235.817	126.62
236.051	138.62
236.285	120.62
236.519	114.62
236.753	132.62
236.987	132.62
237.221	142.62
237.455	175.62
237.689	149.62
237.922	131.62
238.156	135.62
238.39	126.62
238.624	122.62
238.858	150.62
239.091	130.62
239.325	126.62
239.559	127.62
239.793	144.62
240.027	127.62
240.26	140.62
240.494	146.62
240.728	152.62
240.961	154.62
241.195	154.62
241.429	122.62
241.662	129.62
241.896	140.62
242.13	140.62
242.363	145.62
242.597	122.62
242.83	148.62
243.064	161.62
243.298	136.62
243.531	143.62
243.765	159.62
243.998	156.62
244.232	148.62
244.465	168.62
244.699	168.62
244.932	159.62
245.166	150.62
245.399	167.62
245.633	158.62
245.866	156.62
246.099	162.62
246.333	164.62
246.566	143.62
246.8	170.62
247.033	171.62
247.266	170.62
247.5	164.62
247.733	167.62
247.966	160.62
248.2	172.62
248.433	188.62
248.666	195.62
248.899	199.62
249.133	184.62
249.366	183.62
249.599	212.62
249.832	179.62
250.066	173.62
250.299	174.62
250.532	184.62
250.765	182.62
250.998	213.62
251.231	225.62
251.465	216.62
251.698	204.62
251.931	205.62
252.164	203.62
252.397	207.62
252.63	195.62
252.863	213.62
253.096	218.62
253.329	200.62
253.562	209.62
253.795	203.62
254.028	222.62
254.261	221.62
254.494	221.62
254.727	234.62
254.96	233.62
255.193	239.62
255.426	224.62
255.659	220.62
255.892	244.62
256.124	228.62
256.357	205.62
256.59	245.62
256.823	212.62
257.056	206.62
257.289	207.62
257.521	211.62
257.754	232.62
257.987	212.62
258.22	226.62
258.452	217.62
258.685	224.62
258.918	222.62
259.151	235.62
259.383	233.62
259.616	224.62
259.849	231.62
260.081	230.62
260.314	255.62
260.547	248.62
260.779	225.62
261.012	244.62
261.244	221.62
261.477	223.62
261.71	225.62
261.942	216.62
262.175	244.62
262.407	236.62
262.64	228.62
262.872	220.62
263.105	218.62
263.337	222.62
263.57	216.62
263.802	224.62
264.035	232.62
264.267	214.62
264.499	242.62
264.732	227.62
264.964	223.62
265.197	243.62
265.429	232.62
265.661	244.62
265.894	239.62
266.126	249.62
266.358	226.62
266.591	243.62
266.823	245.62
267.055	256.62
267.287	258.62
267.52	252.62
267.752	247.62
267.984	249.62
268.216	245.62
268.448	276.62
268.681	261.62
268.913	259.62
269.145	271.62
269.377	275.62
269.609	291.62
269.841	275.62
270.073	270.62
270.306	279.62
270.538	308.62
270.77	297.62
271.002	285.62
271.234	290.62
271.466	292.62
271.698	300.62
271.93	298.62
272.162	296.62
272.394	298.62
272.626	292.62
272.858	299.62
273.09	304.62
273.322	295.62
273.553	276.62
273.785	286.62
274.017	266.62
274.249	304.62
274.481	281.62
274.713	284.62
274.945	287.62
275.176	272.62
275.408	288.62
275.64	276.62
275.872	294.62
276.104	287.62
276.335	278.62
276.567	271.62
276.799	301.62
277.031	324.62
277.262	299.62
277.494	306.62
277.726	296.62
277.957	306.62
278.189	302.62
278.421	310.62
278.652	301.62
278.884	300.62
279.115	280.62
279.347	295.62
279.579	294.62
279.81	292.62
280.042	293.62
280.273	298.62
280.505	298.62
280.736	303.62
280.968	306.62
281.199	319.62
281.431	302.62
281.662	318.62
281.894	318.62
282.125	298.62
282.356	308.62
282.588	328.62
282.819	334.62
283.051	319.62
283.282	303.62
283.513	292.62
283.745	309.62
283.976	322.62
284.207	318.62
284.439	317.62
284.67	312.62
284.901	318.62
285.132	314.62
285.364	336.62
285.595	314.62
285.826	319.62
286.057	319.62
286.288	320.62
286.52	315.62
286.751	331.62
286.982	335.62
287.213	332.62
287.444	340.62
287.675	341.62
287.906	367.62
288.138	345.62
288.369	347.62
288.6	338.62
288.831	324.62
289.062	345.62
289.293	346.62
289.524	333.62
289.755	344.62
289.986	338.62
290.217	338.62
290.448	346.62
290.679	333.62
290.91	342.62
291.141	367.62
291.371	344.62
291.602	348.62
291.833	340.62
292.064	345.62
292.295	356.62
292.526	376.62
292.757	328.62
292.987	343.62
293.218	340.62
293.449	354.62
293.68	348.62
293.91	336.62
294.141	349.62
294.372	348.62
294.603	349.62
294.833	357.62
295.064	362.62
295.295	346.62
295.525	356.62
295.756	343.62
295.987	381.62
296.217	381.62
296.448	380.62
296.679	359.62
296.909	353.62
297.14	344.62
297.37	364.62
297.601	377.62
297.831	380.62
298.062	355.62
298.292	374.62
298.523	378.62
298.753	398.62
298.984	371.62
299.214	376.62
299.445	357.62
299.675	364.62
299.905	383.62
300.136	370.62
300.366	375.62
300.597	397.62
300.827	365.62
301.057	396.62
301.288	394.62
301.518	405.62
301.748	404.62
301.979	397.62
302.209	384.62
302.439	396.62
302.669	388.62
302.9	402.62
303.13	383.62
303.36	384.62
303.59	377.62
303.82	391.62
304.051	381.62
304.281	406.62
304.511	382.62
304.741	387.62
304.971	390.62
305.201	384.62
305.431	400.62
305.661	374.62
305.891	399.62
306.121	382.62
306.352	396.62
306.582	397.62
306.812	376.62
307.042	405.62
307.272	388.62
307.502	384.62
307.731	385.62
307.961	403.62
308.191	390.62
308.421	401.62
308.651	393.62
308.881	413.62
309.111	395.62
309.341	394.62
309.571	382.62
309.8	398.62
310.03	396.62
310.26	397.62
310.49	422.62
310.72	408.62
310.949	451.62
311.179	430.62
311.409	409.62
311.639	396.62
311.868	405.62
312.098	416.62
312.328	425.62
312.557	444.62
312.787	434.62
313.017	429.62
313.246	429.62
313.476	425.62
313.706	419.62
313.935	447.62
314.165	430.62
314.394	439.62
314.624	423.62
314.853	416.62
315.083	438.62
315.312	440.62
315.542	450.62
315.771	416.62
316.001	418.62
316.23	410.62
316.46	433.62
316.689	435.62
316.919	439.62
317.148	423.62
317.377	454.62
317.607	444.62
317.836	430.62
318.065	442.62
318.295	435.62
318.524	437.62
318.753	411.62
318.983	422.62
319.212	412.62
319.441	413.62
319.67	443.62
319.9	430.62
320.129	415.62
320.358	426.62
320.587	442.62
320.816	430.62
321.046	432.62
321.275	440.62
321.504	431.62
321.733	450.62
321.962	431.62
322.191	443.62
322.42	444.62
322.649	483.62
322.878	482.62
323.108	469.62
323.337	482.62
323.566	484.62
323.795	498.62
324.024	511.62
324.253	559.62
324.482	685.62
324.71	925.62
324.939	1302.62
325.168	1185.62
325.397	683.62
325.626	542.62
325.855	509.62
326.084	494.62
326.313	487.62
326.542	499.62
326.77	530.62
326.999	540.62
327.228	680.62
327.457	899.62
327.686	1065.62
327.914	783.62
328.143	597.62
328.372	551.62
328.6	551.62
328.829	533.62
329.058	537.62
329.287	540.62
329.515	527.62
329.744	520.62
329.972	505.62
330.201	517.62
330.43	559.62
330.658	582.62
330.887	566.62
331.115	579.62
331.344	531.62
331.572	526.62
331.801	532.62
332.03	518.62
332.258	527.62
332.486	521.62
332.715	539.62
332.943	518.62
333.172	585.62
333.4	549.62
333.629	578.62
333.857	602.62
334.085	589.62
334.314	588.62
334.542	608.62
334.771	637.62
334.999	599.62
335.227	567.62
335.455	565.62
335.684	575.62
335.912	542.62
336.14	547.62
336.369	557.62
336.597	553.62
336.825	527.62
337.053	552.62
337.281	530.62
337.51	514.62
337.738	512.62
337.966	526.62
338.194	529.62
338.422	512.62
338.65	519.62
338.878	488.62
339.106	498.62
339.334	511.62
339.562	493.62
339.79	493.62
340.018	527.62
340.246	485.62
340.474	505.62
340.702	490.62
340.93	484.62
341.158	504.62
341.386	491.62
341.614	510.62
341.842	500.62
342.07	488.62
342.298	484.62
342.526	496.62
342.754	484.62
342.981	499.62
343.209	482.62
343.437	523.62
343.665	538.62
343.893	552.62
344.12	566.62
344.348	588.62
344.576	520.62
344.804	533.62
345.031	523.62
345.259	521.62
345.487	506.62
345.714	495.62
345.942	461.62
346.17	494.62
346.397	485.62
346.625	474.62
346.853	476.62
347.08	488.62
347.308	461.62
347.535	483.62
347.763	475.62
347.99	477.62
348.218	486.62
348.445	479.62
348.673	483.62
348.9	478.62
349.128	476.62
349.355	485.62
349.583	460.62
349.81	464.62
350.037	475.62
350.265	470.62
350.492	460.62
350.72	448.62
350.947	476.62
351.174	481.62
351.402	476.62
351.629	470.62
351.856	478.62
352.083	451.62
352.311	468.62
352.538	455.62
352.765	452.62
352.992	459.62
353.22	472.62
353.447	473.62
353.674	455.62
353.901	461.62
354.128	450.62
354.355	438.62
354.583	470.62
354.81	460.62
355.037	457.62
355.264	463.62
355.491	448.62
355.718	468.62
355.945	459.62
356.172	474.62
356.399	461.62
356.626	467.62
356.853	450.62
357.08	458.62
357.307	468.62
357.534	452.62
357.761	451.62
357.988	488.62
358.215	452.62
358.441	461.62
358.668	467.62
358.895	460.62
359.122	447.62
359.349	444.62
359.576	462.62
359.802	480.62
360.029	498.62
360.256	508.62
360.483	460.62
360.709	470.62
360.936	483.62
361.163	479.62
361.39	476.62
361.616	443.62
361.843	461.62
362.07	482.62
362.296	484.62
362.523	477.62
362.749	479.62
362.976	472.62
363.203	440.62
363.429	471.62
363.656	450.62
363.882	474.62
364.109	460.62
364.335	469.62
364.562	466.62
364.788	464.62
365.015	467.62
365.241	445.62
365.468	470.62
365.694	466.62
365.92	454.62
366.147	452.62
366.373	472.62
366.599	464.62
366.826	447.62
367.052	451.62
367.278	461.62
367.505	459.62
367.731	473.62
367.957	476.62
368.184	456.62
368.41	480.62
368.636	476.62
368.862	459.62
369.089	468.62
369.315	483.62
369.541	480.62
369.767	478.62
369.993	456.62
370.219	462.62
370.445	479.62
370.672	475.62
370.898	469.62
371.124	470.62
371.35	487.62
371.576	479.62
371.802	472.62
372.028	483.62
372.254	496.62
372.48	495.62
372.706	496.62
372.932	510.62
373.158	517.62
373.384	520.62
373.61	507.62
373.835	516.62
374.061	506.62
374.287	507.62
374.513	495.62
374.739	522.62
374.965	529.62
375.191	528.62
375.416	530.62
375.642	520.62
375.868	524.62
376.094	495.62
376.319	474.62
376.545	502.62
376.771	490.62
376.997	490.62
377.222	485.62
377.448	500.62
377.674	490.62
377.899	498.62
378.125	487.62
378.35	478.62
378.576	504.62
378.802	488.62
379.027	477.62
379.253	483.62
379.478	487.62
379.704	471.62
379.929	483.62
380.155	488.62
380.38	489.62
380.606	500.62
380.831	476.62
381.057	495.62
381.282	490.62
381.507	508.62
381.733	504.62
381.958	502.62
382.184	500.62
382.409	498.62
382.634	501.62
382.86	514.62
383.085	504.62
383.31	501.62
383.535	516.62
383.761	528.62
383.986	540.62
384.211	523.62
384.436	556.62
384.662	562.62
384.887	571.62
385.112	559.62
385.337	570.62
385.562	554.62
385.787	553.62
386.013	582.62
386.238	560.62
386.463	575.62
386.688	590.62
386.913	567.62
387.138	583.62
387.363	573.62
387.588	543.62
387.813	553.62
388.038	569.62
388.263	551.62
388.488	550.62
388.713	552.62
388.938	565.62
389.163	544.62
389.387	557.62
389.612	558.62
389.837	567.62
390.062	547.62
390.287	570.62
390.512	546.62
390.736	565.62
390.961	572.62
391.186	560.62
391.411	560.62
391.636	583.62
391.86	620.62
392.085	600.62
392.31	600.62
392.534	612.62
392.759	592.62
392.984	598.62
393.208	613.62
393.433	606.62
393.658	602.62
393.882	586.62
394.107	578.62
394.331	582.62
394.556	589.62
394.78	584.62
395.005	586.62
395.229	600.62
395.454	610.62
395.678	609.62
395.903	637.62
396.127	604.62
396.352	619.62
396.576	604.62
396.801	572.62
397.025	603.62
397.249	613.62
397.474	646.62
397.698	613.62
397.922	638.62
398.147	626.62
398.371	636.62
398.595	661.62
398.82	654.62
399.044	692.62
399.268	759.62
399.492	814.62
399.717	880.62
399.941	917.62
400.165	914.62
400.389	822.62
400.613	782.62
400.837	715.62
401.062	692.62
401.286	709.62
401.51	665.62
401.734	676.62
401.958	679.62
402.182	673.62
402.406	698.62
402.63	723.62
402.854	717.62
403.078	723.62
403.302	699.62
403.526	735.62
403.75	728.62
403.974	743.62
404.198	741.62
404.422	769.62
404.645	750.62
404.869	742.62
405.093	735.62
405.317	780.62
405.541	794.62
405.765	762.62
405.988	721.62
406.212	762.62
406.436	756.62
406.66	774.62
406.883	780.62
407.107	797.62
407.331	845.62
407.555	888.62
407.778	885.62
408.002	842.62
408.226	785.62
408.449	795.62
408.673	746.62
408.896	794.62
409.12	778.62
409.344	763.62
409.567	717.62
409.791	762.62
410.014	755.62
410.238	714.62
410.461	724.62
410.685	706.62
410.908	719.62
411.132	717.62
411.355	749.62
411.578	741.62
411.802	674.62
412.025	707.62
412.249	707.62
412.472	719.62
412.695	717.62
412.919	721.62
413.142	690.62
413.365	678.62
413.589	677.62
413.812	680.62
414.035	679.62
414.258	675.62
414.482	696.62
414.705	650.62
414.928	652.62
415.151	672.62
415.374	660.62
415.597	687.62
415.821	662.62
416.044	662.62
416.267	659.62
416.49	678.62
416.713	677.62
416.936	658.62
417.159	650.62
417.382	662.62
417.605	677.62
417.828	685.62
418.051	662.62
418.274	700.62
418.497	670.62
418.72	683.62
418.943	681.62
419.166	704.62
419.389	727.62
419.611	739.62
419.834	711.62
420.057	711.62
420.28	687.62
420.503	703.62
420.726	678.62
420.948	682.62
421.171	698.62
421.394	728.62
421.617	679.62
421.839	668.62
422.062	692.62
422.285	667.62
422.507	699.62
422.73	782.62
422.953	768.62
423.175	718.62
423.398	734.62
423.621	689.62
423.843	725.62
424.066	719.62
424.288	712.62
424.511	707.62
424.733	746.62
424.956	820.62
425.178	754.62
425.401	773.62
425.623	763.62
425.846	708.62
426.068	671.62
426.291	664.62
426.513	675.62
426.735	666.62
426.958	698.62
427.18	736.62
427.402	818.62
427.625	873.62
427.847	776.62
428.069	719.62
428.292	691.62
428.514	629.62
428.736	620.62
428.958	627.62
429.181	608.62
429.403	607.62
429.625	639.62
429.847	643.62
430.069	679.62
430.292	687.62
430.514	634.62
430.736	630.62
430.958	600.62
431.18	602.62
431.402	606.62
431.624	614.62
431.846	608.62
432.068	622.62
432.29	618.62
432.512	602.62
432.734	609.62
432.956	598.62
433.178	596.62
433.4	604.62
433.622	610.62
433.844	613.62
434.066	636.62
434.287	620.62
434.509	631.62
434.731	675.62
434.953	664.62
435.175	665.62
435.397	669.62
435.618	676.62
435.84	702.62
436.062	751.62
436.284	780.62
436.505	719.62
436.727	656.62
436.949	644.62
437.17	604.62
437.392	624.62
437.614	634.62
437.835	621.62
438.057	694.62
438.278	778.62
438.5	772.62
438.721	787.62
438.943	779.62
439.165	671.62
439.386	655.62
439.608	676.62
439.829	634.62
440.05	664.62
440.272	679.62
440.493	645.62
440.715	662.62
440.936	626.62
441.158	643.62
441.379	650.62
441.6	671.62
441.822	698.62
442.043	737.62
442.264	743.62
442.486	764.62
442.707	708.62
442.928	682.62
443.149	676.62
443.371	707.62
443.592	742.62
443.813	780.62
444.034	822.62
444.255	754.62
444.476	771.62
444.698	763.62
444.919	762.62
445.14	874.62
445.361	785.62
445.582	723.62
445.803	755.62
446.024	794.62
446.245	809.62
446.466	727.62
446.687	678.62
446.908	663.62
447.129	633.62
447.35	640.62
447.571	618.62
447.792	594.62
448.013	585.62
448.234	603.62
448.455	656.62
448.675	701.62
448.896	768.62
449.117	706.62
449.338	670.62
449.559	704.62
449.779	794.62
450	679.62
450.221	642.62
450.442	615.62
450.662	599.62
450.883	607.62
451.104	595.62
451.324	579.62
451.545	570.62
451.766	562.62
451.986	563.62
452.207	548.62
452.428	545.62
452.648	576.62
452.869	552.62
453.089	557.62
453.31	547.62
453.53	557.62
453.751	546.62
453.971	564.62
454.192	575.62
454.412	551.62
454.633	554.62
454.853	552.62
455.073	552.62
455.294	549.62
455.514	578.62
455.734	588.62
455.955	552.62
456.175	537.62
456.395	518.62
456.616	509.62
456.836	538.62
457.056	518.62
457.276	520.62
457.497	545.62
457.717	519.62
457.937	515.62
458.157	543.62
458.377	543.62
458.598	590.62
458.818	602.62
459.038	657.62
459.258	694.62
459.478	655.62
459.698	616.62
459.918	644.62
460.138	654.62
460.358	676.62
460.578	655.62
460.798	676.62
461.018	674.62
461.238	681.62
461.458	677.62
461.678	691.62
461.898	694.62
462.118	691.62
462.338	711.62
462.558	738.62
462.777	733.62
462.997	779.62
463.217	828.62
463.437	830.62
463.657	780.62
463.876	766.62
464.096	763.62
464.316	748.62
464.536	761.62
464.755	734.62
464.975	746.62
465.195	729.62
465.414	717.62
465.634	670.62
465.854	642.62
466.073	632.62
466.293	632.62
466.512	604.62
466.732	584.62
466.951	600.62
467.171	599.62
467.391	582.62
467.61	594.62
467.829	591.62
468.049	588.62
468.268	588.62
468.488	578.62
468.707	571.62
468.927	568.62
469.146	568.62
469.365	599.62
469.585	575.62
469.804	594.62
470.023	595.62
470.243	607.62
470.462	640.62
470.681	631.62
470.901	614.62
471.12	616.62
471.339	590.62
471.558	607.62
471.777	590.62
471.997	590.62
472.216	602.62
472.435	604.62
472.654	622.62
472.873	569.62
473.092	597.62
473.311	570.62
473.53	574.62
473.749	583.62
473.968	580.62
474.187	633.62
474.406	664.62
474.625	594.62
474.844	592.62
475.063	589.62
475.282	596.62
475.501	576.62
475.72	582.62
475.939	578.62
476.158	575.62
476.377	604.62
476.596	603.62
476.814	580.62
477.033	610.62
477.252	631.62
477.471	638.62
477.69	651.62
477.908	672.62
478.127	681.62
478.346	671.62
478.564	667.62
478.783	666.62
479.002	719.62
479.22	706.62
479.439	708.62
479.658	701.62
479.876	718.62
480.095	739.62
480.313	763.62
480.532	762.62
480.751	744.62
480.969	726.62
481.188	800.62
481.406	812.62
481.624	725.62
481.843	701.62
482.061	684.62
482.28	684.62
482.498	688.62
482.717	692.62
482.935	698.62
483.153	663.62
483.372	687.62
483.59	679.62
483.808	679.62
484.027	673.62
484.245	673.62
484.463	708.62
484.681	683.62
484.9	661.62
485.118	701.62
485.336	710.62
485.554	719.62
485.772	712.62
485.99	712.62
486.209	686.62
486.427	716.62
486.645	699.62
486.863	690.62
487.081	724.62
487.299	726.62
487.517	710.62
487.735	717.62
487.953	710.62
488.171	718.62
488.389	723.62
488.607	714.62
488.825	715.62
489.043	710.62
489.261	705.62
489.479	738.62
489.696	729.62
489.914	733.62
490.132	729.62
490.35	786.62
490.568	738.62
490.786	736.62
491.003	778.62
491.221	745.62
491.439	763.62
491.657	735.62
491.874	764.62
492.092	780.62
492.31	794.62
492.527	765.62
492.745	787.62
492.963	840.62
493.18	796.62
493.398	808.62
493.615	821.62
493.833	814.62
494.05	828.62
494.268	825.62
494.485	829.62
494.703	840.62
494.92	840.62
495.138	839.62
495.355	818.62
495.573	844.62
495.79	854.62
496.008	811.62
496.225	831.62
496.442	839.62
496.66	870.62
496.877	858.62
497.094	871.62
497.312	890.62
497.529	888.62
497.746	882.62
497.963	930.62
498.181	934.62
498.398	955.62
498.615	999.62
498.832	1045.62
499.049	1096.62
499.267	1125.62
499.484	1232.62
499.701	1339.62
499.918	1367.62
500.135	1547.62
500.352	1688.62
500.569	1733.62
500.786	1747.62
501.003	1630.62
501.22	1550.62
501.437	1416.62
501.654	1305.62
501.871	1232.62
