Data from 1963.PennyLincolnUp.Lamp.En5.5.200Scan.071719.P1._HRD10591_13-58-44-063.txt Node
Date: Thu Jul 18 13:58:44 EDT 2019
User: cochatt
Spectrometer: HR+D1059
Trigger mode: 1
Integration Time (sec): 1.000000E-1
Scans to average: 1
Electric dark correction enabled: true
Nonlinearity correction enabled: false
Boxcar width: 0
XAxis mode: Wavelengths
Number of Pixels in Spectrum: 2048
>>>>>Begin Spectral Data<<<<<
223.165	-16.81
223.4	-16.81
223.635	-16.81
223.869	-22.81
224.104	-31.81
224.338	-10.81
224.573	-16.81
224.808	-12.81
225.042	2.19
225.277	-6.81
225.511	3.19
225.746	9.19
225.98	5.19
226.215	14.19
226.449	16.19
226.683	20.19
226.918	18.19
227.152	30.19
227.387	46.19
227.621	40.19
227.856	47.19
228.09	52.19
228.324	39.19
228.559	63.19
228.793	61.19
229.027	94.19
229.262	95.19
229.496	113.19
229.73	132.19
229.964	155.19
230.199	130.19
230.433	121.19
230.667	110.19
230.901	119.19
231.136	105.19
231.37	115.19
231.604	125.19
231.838	120.19
232.072	127.19
232.306	125.19
232.541	124.19
232.775	117.19
233.009	122.19
233.243	131.19
233.477	123.19
233.711	127.19
233.945	124.19
234.179	126.19
234.413	123.19
234.647	127.19
234.881	129.19
235.115	124.19
235.349	132.19
235.583	131.19
235.817	108.19
236.051	149.19
236.285	139.19
236.519	133.19
236.753	140.19
236.987	145.19
237.221	174.19
237.455	217.19
237.689	168.19
237.922	145.19
238.156	135.19
238.39	140.19
238.624	120.19
238.858	142.19
239.091	123.19
239.325	135.19
239.559	132.19
239.793	154.19
240.027	154.19
240.26	157.19
240.494	164.19
240.728	144.19
240.961	154.19
241.195	156.19
241.429	153.19
241.662	159.19
241.896	162.19
242.13	145.19
242.363	147.19
242.597	146.19
242.83	152.19
243.064	160.19
243.298	158.19
243.531	179.19
243.765	184.19
243.998	156.19
244.232	165.19
244.465	152.19
244.699	166.19
244.932	166.19
245.166	184.19
245.399	177.19
245.633	173.19
245.866	155.19
246.099	159.19
246.333	179.19
246.566	161.19
246.8	173.19
247.033	173.19
247.266	179.19
247.5	189.19
247.733	181.19
247.966	180.19
248.2	182.19
248.433	197.19
248.666	193.19
248.899	227.19
249.133	196.19
249.366	203.19
249.599	197.19
249.832	198.19
250.066	213.19
250.299	187.19
250.532	225.19
250.765	215.19
250.998	221.19
251.231	247.19
251.465	225.19
251.698	222.19
251.931	219.19
252.164	210.19
252.397	225.19
252.63	213.19
252.863	220.19
253.096	227.19
253.329	260.19
253.562	244.19
253.795	240.19
254.028	228.19
254.261	228.19
254.494	245.19
254.727	268.19
254.96	280.19
255.193	264.19
255.426	269.19
255.659	233.19
255.892	247.19
256.124	235.19
256.357	263.19
256.59	228.19
256.823	246.19
257.056	249.19
257.289	259.19
257.521	241.19
257.754	220.19
257.987	236.19
258.22	254.19
258.452	225.19
258.685	235.19
258.918	251.19
259.151	232.19
259.383	248.19
259.616	251.19
259.849	255.19
260.081	247.19
260.314	269.19
260.547	281.19
260.779	268.19
261.012	248.19
261.244	259.19
261.477	243.19
261.71	255.19
261.942	241.19
262.175	246.19
262.407	263.19
262.64	245.19
262.872	239.19
263.105	255.19
263.337	247.19
263.57	269.19
263.802	234.19
264.035	253.19
264.267	240.19
264.499	265.19
264.732	270.19
264.964	259.19
265.197	255.19
265.429	239.19
265.661	257.19
265.894	249.19
266.126	255.19
266.358	271.19
266.591	255.19
266.823	267.19
267.055	259.19
267.287	259.19
267.52	270.19
267.752	273.19
267.984	270.19
268.216	272.19
268.448	265.19
268.681	285.19
268.913	291.19
269.145	282.19
269.377	302.19
269.609	282.19
269.841	295.19
270.073	290.19
270.306	332.19
270.538	341.19
270.77	335.19
271.002	335.19
271.234	320.19
271.466	319.19
271.698	331.19
271.93	353.19
272.162	344.19
272.394	354.19
272.626	335.19
272.858	308.19
273.09	317.19
273.322	312.19
273.553	321.19
273.785	291.19
274.017	322.19
274.249	308.19
274.481	303.19
274.713	309.19
274.945	322.19
275.176	312.19
275.408	324.19
275.64	298.19
275.872	310.19
276.104	298.19
276.335	311.19
276.567	323.19
276.799	319.19
277.031	348.19
277.262	355.19
277.494	353.19
277.726	348.19
277.957	358.19
278.189	317.19
278.421	329.19
278.652	325.19
278.884	322.19
279.115	313.19
279.347	303.19
279.579	313.19
279.81	319.19
280.042	335.19
280.273	322.19
280.505	327.19
280.736	310.19
280.968	319.19
281.199	328.19
281.431	307.19
281.662	326.19
281.894	336.19
282.125	344.19
282.356	337.19
282.588	361.19
282.819	350.19
283.051	326.19
283.282	341.19
283.513	337.19
283.745	351.19
283.976	338.19
284.207	343.19
284.439	345.19
284.67	326.19
284.901	350.19
285.132	353.19
285.364	352.19
285.595	351.19
285.826	331.19
286.057	344.19
286.288	356.19
286.52	368.19
286.751	359.19
286.982	348.19
287.213	353.19
287.444	360.19
287.675	365.19
287.906	380.19
288.138	358.19
288.369	373.19
288.6	368.19
288.831	372.19
289.062	381.19
289.293	362.19
289.524	379.19
289.755	371.19
289.986	356.19
290.217	362.19
290.448	358.19
290.679	354.19
290.91	357.19
291.141	360.19
291.371	362.19
291.602	354.19
291.833	367.19
292.064	370.19
292.295	379.19
292.526	376.19
292.757	370.19
292.987	358.19
293.218	351.19
293.449	370.19
293.68	383.19
293.91	362.19
294.141	382.19
294.372	356.19
294.603	353.19
294.833	369.19
295.064	375.19
295.295	380.19
295.525	382.19
295.756	374.19
295.987	367.19
296.217	396.19
296.448	405.19
296.679	391.19
296.909	382.19
297.14	381.19
297.37	389.19
297.601	411.19
297.831	377.19
298.062	375.19
298.292	389.19
298.523	381.19
298.753	391.19
298.984	391.19
299.214	388.19
299.445	413.19
299.675	401.19
299.905	405.19
300.136	419.19
300.366	400.19
300.597	393.19
300.827	422.19
301.057	416.19
301.288	407.19
301.518	407.19
301.748	419.19
301.979	414.19
302.209	408.19
302.439	412.19
302.669	419.19
302.9	417.19
303.13	425.19
303.36	428.19
303.59	431.19
303.82	428.19
304.051	430.19
304.281	421.19
304.511	417.19
304.741	414.19
304.971	424.19
305.201	391.19
305.431	404.19
305.661	425.19
305.891	433.19
306.121	415.19
306.352	443.19
306.582	416.19
306.812	429.19
307.042	405.19
307.272	409.19
307.502	411.19
307.731	443.19
307.961	410.19
308.191	420.19
308.421	423.19
308.651	409.19
308.881	428.19
309.111	419.19
309.341	379.19
309.571	436.19
309.8	435.19
310.03	440.19
310.26	446.19
310.49	441.19
310.72	449.19
310.949	430.19
311.179	447.19
311.409	469.19
311.639	488.19
311.868	458.19
312.098	455.19
312.328	457.19
312.557	468.19
312.787	475.19
313.017	477.19
313.246	470.19
313.476	455.19
313.706	452.19
313.935	448.19
314.165	491.19
314.394	468.19
314.624	476.19
314.853	451.19
315.083	458.19
315.312	465.19
315.542	459.19
315.771	464.19
316.001	444.19
316.23	461.19
316.46	474.19
316.689	453.19
316.919	472.19
317.148	469.19
317.377	464.19
317.607	455.19
317.836	453.19
318.065	460.19
318.295	457.19
318.524	460.19
318.753	467.19
318.983	472.19
319.212	465.19
319.441	473.19
319.67	470.19
319.9	439.19
320.129	462.19
320.358	457.19
320.587	475.19
320.816	443.19
321.046	449.19
321.275	471.19
321.504	485.19
321.733	465.19
321.962	487.19
322.191	492.19
322.42	506.19
322.649	489.19
322.878	521.19
323.108	510.19
323.337	540.19
323.566	535.19
323.795	549.19
324.024	570.19
324.253	646.19
324.482	839.19
324.71	1183.19
324.939	1695.19
325.168	1479.19
325.397	837.19
325.626	626.19
325.855	568.19
326.084	573.19
326.313	554.19
326.542	549.19
326.77	569.19
326.999	635.19
327.228	780.19
327.457	1071.19
327.686	1322.19
327.914	940.19
328.143	677.19
328.372	638.19
328.6	612.19
328.829	586.19
329.058	589.19
329.287	603.19
329.515	598.19
329.744	561.19
329.972	551.19
330.201	579.19
330.43	607.19
330.658	637.19
330.887	619.19
331.115	613.19
331.344	615.19
331.572	574.19
331.801	574.19
332.03	604.19
332.258	584.19
332.486	588.19
332.715	573.19
332.943	599.19
333.172	607.19
333.4	617.19
333.629	625.19
333.857	653.19
334.085	662.19
334.314	639.19
334.542	676.19
334.771	690.19
334.999	669.19
335.227	616.19
335.455	621.19
335.684	606.19
335.912	593.19
336.14	576.19
336.369	597.19
336.597	582.19
336.825	584.19
337.053	585.19
337.281	597.19
337.51	581.19
337.738	571.19
337.966	562.19
338.194	568.19
338.422	562.19
338.65	579.19
338.878	559.19
339.106	553.19
339.334	536.19
339.562	537.19
339.79	543.19
340.018	545.19
340.246	535.19
340.474	537.19
340.702	553.19
340.93	514.19
341.158	523.19
341.386	551.19
341.614	530.19
341.842	530.19
342.07	542.19
342.298	530.19
342.526	541.19
342.754	534.19
342.981	530.19
343.209	539.19
343.437	542.19
343.665	554.19
343.893	597.19
344.12	604.19
344.348	595.19
344.576	580.19
344.804	567.19
345.031	554.19
345.259	567.19
345.487	559.19
345.714	525.19
345.942	509.19
346.17	533.19
346.397	501.19
346.625	522.19
346.853	516.19
347.08	510.19
347.308	520.19
347.535	523.19
347.763	539.19
347.99	515.19
348.218	520.19
348.445	526.19
348.673	529.19
348.9	536.19
349.128	508.19
349.355	504.19
349.583	513.19
349.81	527.19
350.037	502.19
350.265	515.19
350.492	507.19
350.72	497.19
350.947	501.19
351.174	519.19
351.402	504.19
351.629	499.19
351.856	519.19
352.083	507.19
352.311	505.19
352.538	524.19
352.765	526.19
352.992	500.19
353.22	496.19
353.447	528.19
353.674	511.19
353.901	504.19
354.128	477.19
354.355	510.19
354.583	488.19
354.81	487.19
355.037	506.19
355.264	505.19
355.491	484.19
355.718	515.19
355.945	478.19
356.172	491.19
356.399	508.19
356.626	491.19
356.853	487.19
357.08	499.19
357.307	504.19
357.534	491.19
357.761	480.19
357.988	490.19
358.215	483.19
358.441	517.19
358.668	493.19
358.895	496.19
359.122	474.19
359.349	502.19
359.576	531.19
359.802	534.19
360.029	536.19
360.256	550.19
360.483	513.19
360.709	523.19
360.936	510.19
361.163	517.19
361.39	525.19
361.616	525.19
361.843	491.19
362.07	511.19
362.296	536.19
362.523	529.19
362.749	533.19
362.976	510.19
363.203	503.19
363.429	528.19
363.656	509.19
363.882	475.19
364.109	523.19
364.335	492.19
364.562	511.19
364.788	512.19
365.015	496.19
365.241	517.19
365.468	508.19
365.694	523.19
365.92	510.19
366.147	501.19
366.373	494.19
366.599	485.19
366.826	494.19
367.052	485.19
367.278	498.19
367.505	511.19
367.731	501.19
367.957	506.19
368.184	515.19
368.41	495.19
368.636	511.19
368.862	535.19
369.089	534.19
369.315	515.19
369.541	493.19
369.767	516.19
369.993	523.19
370.219	517.19
370.445	512.19
370.672	528.19
370.898	506.19
371.124	511.19
371.35	529.19
371.576	513.19
371.802	522.19
372.028	524.19
372.254	510.19
372.48	517.19
372.706	543.19
372.932	527.19
373.158	538.19
373.384	545.19
373.61	534.19
373.835	540.19
374.061	535.19
374.287	519.19
374.513	512.19
374.739	547.19
374.965	563.19
375.191	558.19
375.416	572.19
375.642	547.19
375.868	553.19
376.094	513.19
376.319	529.19
376.545	521.19
376.771	520.19
376.997	534.19
377.222	539.19
377.448	533.19
377.674	504.19
377.899	519.19
378.125	523.19
378.35	533.19
378.576	515.19
378.802	518.19
379.027	494.19
379.253	530.19
379.478	538.19
379.704	500.19
379.929	512.19
380.155	552.19
380.38	523.19
380.606	525.19
380.831	536.19
381.057	539.19
381.282	521.19
381.507	525.19
381.733	530.19
381.958	523.19
382.184	527.19
382.409	517.19
382.634	539.19
382.86	535.19
383.085	554.19
383.31	532.19
383.535	560.19
383.761	540.19
383.986	601.19
384.211	571.19
384.436	566.19
384.662	577.19
384.887	605.19
385.112	582.19
385.337	618.19
385.562	599.19
385.787	606.19
386.013	607.19
386.238	616.19
386.463	619.19
386.688	616.19
386.913	600.19
387.138	602.19
387.363	591.19
387.588	600.19
387.813	574.19
388.038	619.19
388.263	588.19
388.488	608.19
388.713	588.19
388.938	565.19
389.163	595.19
389.387	592.19
389.612	592.19
389.837	596.19
390.062	582.19
390.287	567.19
390.512	596.19
390.736	593.19
390.961	592.19
391.186	614.19
391.411	611.19
391.636	629.19
391.86	629.19
392.085	629.19
392.31	652.19
392.534	633.19
392.759	633.19
392.984	627.19
393.208	624.19
393.433	626.19
393.658	605.19
393.882	623.19
394.107	619.19
394.331	641.19
394.556	601.19
394.78	615.19
395.005	640.19
395.229	623.19
395.454	652.19
395.678	658.19
395.903	678.19
396.127	672.19
396.352	652.19
396.576	640.19
396.801	624.19
397.025	628.19
397.249	635.19
397.474	639.19
397.698	654.19
397.922	663.19
398.147	667.19
398.371	680.19
398.595	688.19
398.82	720.19
399.044	739.19
399.268	791.19
399.492	865.19
399.717	967.19
399.941	963.19
400.165	948.19
400.389	881.19
400.613	825.19
400.837	778.19
401.062	745.19
401.286	729.19
401.51	710.19
401.734	722.19
401.958	719.19
402.182	725.19
402.406	743.19
402.63	763.19
402.854	768.19
403.078	755.19
403.302	778.19
403.526	783.19
403.75	803.19
403.974	804.19
404.198	791.19
404.422	781.19
404.645	801.19
404.869	791.19
405.093	810.19
405.317	857.19
405.541	857.19
405.765	834.19
405.988	795.19
406.212	810.19
406.436	796.19
406.66	845.19
406.883	806.19
407.107	831.19
407.331	899.19
407.555	943.19
407.778	973.19
408.002	897.19
408.226	839.19
408.449	832.19
408.673	818.19
408.896	823.19
409.12	887.19
409.344	843.19
409.567	768.19
409.791	769.19
410.014	768.19
410.238	757.19
410.461	770.19
410.685	759.19
410.908	783.19
411.132	776.19
411.355	783.19
411.578	795.19
411.802	764.19
412.025	755.19
412.249	749.19
412.472	769.19
412.695	803.19
412.919	774.19
413.142	752.19
413.365	741.19
413.589	728.19
413.812	718.19
414.035	734.19
414.258	705.19
414.482	725.19
414.705	743.19
414.928	714.19
415.151	717.19
415.374	735.19
415.597	701.19
415.821	708.19
416.044	705.19
416.267	715.19
416.49	708.19
416.713	710.19
416.936	698.19
417.159	697.19
417.382	696.19
417.605	708.19
417.828	721.19
418.051	725.19
418.274	727.19
418.497	708.19
418.72	713.19
418.943	717.19
419.166	746.19
419.389	789.19
419.611	748.19
419.834	740.19
420.057	741.19
420.28	745.19
420.503	732.19
420.726	740.19
420.948	736.19
421.171	749.19
421.394	805.19
421.617	748.19
421.839	718.19
422.062	737.19
422.285	713.19
422.507	773.19
422.73	869.19
422.953	832.19
423.175	782.19
423.398	749.19
423.621	748.19
423.843	767.19
424.066	803.19
424.288	777.19
424.511	783.19
424.733	817.19
424.956	867.19
425.178	835.19
425.401	861.19
425.623	862.19
425.846	778.19
426.068	729.19
426.291	732.19
426.513	751.19
426.735	714.19
426.958	761.19
427.18	810.19
427.402	945.19
427.625	996.19
427.847	848.19
428.069	814.19
428.292	740.19
428.514	695.19
428.736	672.19
428.958	664.19
429.181	664.19
429.403	645.19
429.625	666.19
429.847	691.19
430.069	727.19
430.292	759.19
430.514	676.19
430.736	679.19
430.958	665.19
431.18	662.19
431.402	651.19
431.624	641.19
431.846	636.19
432.068	639.19
432.29	666.19
432.512	649.19
432.734	673.19
432.956	659.19
433.178	669.19
433.4	673.19
433.622	675.19
433.844	653.19
434.066	659.19
434.287	670.19
434.509	695.19
434.731	685.19
434.953	738.19
435.175	751.19
435.397	733.19
435.618	728.19
435.84	761.19
436.062	799.19
436.284	877.19
436.505	776.19
436.727	716.19
436.949	695.19
437.17	679.19
437.392	681.19
437.614	661.19
437.835	675.19
438.057	753.19
438.278	837.19
438.5	824.19
438.721	915.19
438.943	919.19
439.165	746.19
439.386	698.19
439.608	695.19
439.829	678.19
440.05	741.19
440.272	756.19
440.493	727.19
440.715	693.19
440.936	712.19
441.158	707.19
441.379	721.19
441.6	719.19
441.822	735.19
442.043	780.19
442.264	839.19
442.486	860.19
442.707	786.19
442.928	771.19
443.149	758.19
443.371	784.19
443.592	791.19
443.813	877.19
444.034	942.19
444.255	827.19
444.476	815.19
444.698	844.19
444.919	830.19
445.14	933.19
445.361	823.19
445.582	808.19
445.803	808.19
446.024	873.19
446.245	868.19
446.466	826.19
446.687	730.19
446.908	722.19
447.129	689.19
447.35	676.19
447.571	656.19
447.792	639.19
448.013	669.19
448.234	663.19
448.455	711.19
448.675	808.19
448.896	880.19
449.117	809.19
449.338	743.19
449.559	829.19
449.779	919.19
450	746.19
450.221	688.19
450.442	659.19
450.662	636.19
450.883	663.19
451.104	633.19
451.324	622.19
451.545	597.19
451.766	613.19
451.986	636.19
452.207	581.19
452.428	588.19
452.648	608.19
452.869	630.19
453.089	609.19
453.31	635.19
453.53	635.19
453.751	593.19
453.971	589.19
454.192	604.19
454.412	578.19
454.633	585.19
454.853	596.19
455.073	590.19
455.294	588.19
455.514	637.19
455.734	647.19
455.955	600.19
456.175	559.19
456.395	569.19
456.616	567.19
456.836	573.19
457.056	572.19
457.276	575.19
457.497	575.19
457.717	596.19
457.937	599.19
458.157	587.19
458.377	591.19
458.598	623.19
458.818	663.19
459.038	731.19
459.258	749.19
459.478	707.19
459.698	681.19
459.918	666.19
460.138	694.19
460.358	727.19
460.578	721.19
460.798	730.19
461.018	754.19
461.238	745.19
461.458	725.19
461.678	723.19
461.898	700.19
462.118	714.19
462.338	775.19
462.558	772.19
462.777	792.19
462.997	835.19
463.217	869.19
463.437	884.19
463.657	852.19
463.876	799.19
464.096	805.19
464.316	807.19
464.536	820.19
464.755	789.19
464.975	781.19
465.195	781.19
465.414	811.19
465.634	724.19
465.854	719.19
466.073	680.19
466.293	654.19
466.512	643.19
466.732	636.19
466.951	620.19
467.171	613.19
467.391	659.19
467.61	669.19
467.829	653.19
468.049	623.19
468.268	627.19
468.488	621.19
468.707	599.19
468.927	608.19
469.146	600.19
469.365	629.19
469.585	616.19
469.804	645.19
470.023	651.19
470.243	643.19
470.462	647.19
470.681	644.19
470.901	681.19
471.12	660.19
471.339	639.19
471.558	641.19
471.777	640.19
471.997	647.19
472.216	651.19
472.435	644.19
472.654	646.19
472.873	617.19
473.092	633.19
473.311	631.19
473.53	614.19
473.749	622.19
473.968	632.19
474.187	689.19
474.406	735.19
474.625	669.19
474.844	627.19
475.063	629.19
475.282	618.19
475.501	663.19
475.72	638.19
475.939	608.19
476.158	637.19
476.377	653.19
476.596	650.19
476.814	637.19
477.033	686.19
477.252	657.19
477.471	676.19
477.69	679.19
477.908	704.19
478.127	719.19
478.346	685.19
478.564	743.19
478.783	740.19
479.002	746.19
479.22	732.19
479.439	764.19
479.658	774.19
479.876	756.19
480.095	777.19
480.313	839.19
480.532	825.19
480.751	816.19
480.969	819.19
481.188	832.19
481.406	840.19
481.624	802.19
481.843	761.19
482.061	736.19
482.28	751.19
482.498	723.19
482.717	767.19
482.935	751.19
483.153	729.19
483.372	714.19
483.59	697.19
483.808	716.19
484.027	739.19
484.245	717.19
484.463	736.19
484.681	761.19
484.9	749.19
485.118	745.19
485.336	763.19
485.554	758.19
485.772	770.19
485.99	799.19
486.209	757.19
486.427	776.19
486.645	783.19
486.863	784.19
487.081	785.19
487.299	773.19
487.517	770.19
487.735	777.19
487.953	775.19
488.171	764.19
488.389	785.19
488.607	789.19
488.825	775.19
489.043	769.19
489.261	766.19
489.479	775.19
489.696	791.19
489.914	791.19
490.132	824.19
490.35	799.19
490.568	800.19
490.786	845.19
491.003	833.19
491.221	843.19
491.439	839.19
491.657	856.19
491.874	863.19
492.092	856.19
492.31	853.19
492.527	867.19
492.745	869.19
492.963	902.19
493.18	889.19
493.398	885.19
493.615	870.19
493.833	875.19
494.05	900.19
494.268	894.19
494.485	878.19
494.703	900.19
494.92	868.19
495.138	881.19
495.355	919.19
495.573	900.19
495.79	911.19
496.008	929.19
496.225	905.19
496.442	899.19
496.66	911.19
496.877	914.19
497.094	959.19
497.312	922.19
497.529	967.19
497.746	969.19
497.963	997.19
498.181	1052.19
498.398	1061.19
498.615	1112.19
498.832	1129.19
499.049	1207.19
499.267	1228.19
499.484	1319.19
499.701	1415.19
499.918	1528.19
500.135	1649.19
500.352	1815.19
500.569	1839.19
500.786	1837.19
501.003	1729.19
501.22	1636.19
501.437	1501.19
501.654	1404.19
