Data from 1963.PennyLincolnUp.Lamp.En5.5.200Scan.071719.P1._HRD10591_13-57-19-063.txt Node
Date: Thu Jul 18 13:57:19 EDT 2019
User: cochatt
Spectrometer: HR+D1059
Trigger mode: 1
Integration Time (sec): 1.000000E-1
Scans to average: 1
Electric dark correction enabled: true
Nonlinearity correction enabled: false
Boxcar width: 0
XAxis mode: Wavelengths
Number of Pixels in Spectrum: 2048
>>>>>Begin Spectral Data<<<<<
223.165	-19.25
223.4	-19.25
223.635	-19.25
223.869	-13.25
224.104	-10.25
224.338	15.75
224.573	-19.25
224.808	-6.25
225.042	-7.25
225.277	-16.25
225.511	3.75
225.746	-8.25
225.98	11.75
226.215	-5.25
226.449	10.75
226.683	20.75
226.918	12.75
227.152	29.75
227.387	33.75
227.621	29.75
227.856	55.75
228.09	42.75
228.324	34.75
228.559	59.75
228.793	56.75
229.027	93.75
229.262	102.75
229.496	109.75
229.73	101.75
229.964	115.75
230.199	100.75
230.433	118.75
230.667	100.75
230.901	98.75
231.136	116.75
231.37	130.75
231.604	109.75
231.838	118.75
232.072	117.75
232.306	112.75
232.541	121.75
232.775	126.75
233.009	123.75
233.243	118.75
233.477	134.75
233.711	119.75
233.945	116.75
234.179	114.75
234.413	119.75
234.647	126.75
234.881	124.75
235.115	124.75
235.349	118.75
235.583	130.75
235.817	125.75
236.051	138.75
236.285	109.75
236.519	122.75
236.753	124.75
236.987	120.75
237.221	134.75
237.455	182.75
237.689	174.75
237.922	145.75
238.156	138.75
238.39	134.75
238.624	130.75
238.858	143.75
239.091	125.75
239.325	138.75
239.559	129.75
239.793	158.75
240.027	130.75
240.26	148.75
240.494	148.75
240.728	142.75
240.961	154.75
241.195	148.75
241.429	136.75
241.662	128.75
241.896	137.75
242.13	130.75
242.363	136.75
242.597	133.75
242.83	144.75
243.064	144.75
243.298	144.75
243.531	142.75
243.765	128.75
243.998	143.75
244.232	145.75
244.465	157.75
244.699	167.75
244.932	160.75
245.166	154.75
245.399	156.75
245.633	155.75
245.866	158.75
246.099	158.75
246.333	168.75
246.566	162.75
246.8	164.75
247.033	174.75
247.266	151.75
247.5	161.75
247.733	171.75
247.966	174.75
248.2	171.75
248.433	169.75
248.666	173.75
248.899	181.75
249.133	196.75
249.366	187.75
249.599	171.75
249.832	180.75
250.066	196.75
250.299	179.75
250.532	182.75
250.765	194.75
250.998	203.75
251.231	216.75
251.465	200.75
251.698	196.75
251.931	200.75
252.164	183.75
252.397	187.75
252.63	187.75
252.863	206.75
253.096	208.75
253.329	222.75
253.562	216.75
253.795	222.75
254.028	192.75
254.261	208.75
254.494	219.75
254.727	231.75
254.96	240.75
255.193	233.75
255.426	225.75
255.659	232.75
255.892	236.75
256.124	226.75
256.357	216.75
256.59	231.75
256.823	214.75
257.056	214.75
257.289	219.75
257.521	224.75
257.754	223.75
257.987	213.75
258.22	205.75
258.452	219.75
258.685	218.75
258.918	218.75
259.151	232.75
259.383	219.75
259.616	213.75
259.849	234.75
260.081	218.75
260.314	232.75
260.547	231.75
260.779	227.75
261.012	239.75
261.244	223.75
261.477	232.75
261.71	226.75
261.942	237.75
262.175	238.75
262.407	217.75
262.64	223.75
262.872	230.75
263.105	221.75
263.337	251.75
263.57	225.75
263.802	232.75
264.035	240.75
264.267	226.75
264.499	224.75
264.732	221.75
264.964	228.75
265.197	226.75
265.429	225.75
265.661	249.75
265.894	227.75
266.126	247.75
266.358	236.75
266.591	244.75
266.823	230.75
267.055	261.75
267.287	244.75
267.52	255.75
267.752	260.75
267.984	248.75
268.216	248.75
268.448	237.75
268.681	234.75
268.913	248.75
269.145	240.75
269.377	276.75
269.609	274.75
269.841	263.75
270.073	259.75
270.306	277.75
270.538	283.75
270.77	300.75
271.002	304.75
271.234	301.75
271.466	284.75
271.698	290.75
271.93	299.75
272.162	282.75
272.394	299.75
272.626	277.75
272.858	287.75
273.09	311.75
273.322	272.75
273.553	275.75
273.785	267.75
274.017	282.75
274.249	278.75
274.481	286.75
274.713	287.75
274.945	289.75
275.176	282.75
275.408	267.75
275.64	280.75
275.872	272.75
276.104	286.75
276.335	299.75
276.567	287.75
276.799	277.75
277.031	311.75
277.262	303.75
277.494	306.75
277.726	306.75
277.957	283.75
278.189	293.75
278.421	315.75
278.652	294.75
278.884	300.75
279.115	306.75
279.347	301.75
279.579	286.75
279.81	275.75
280.042	276.75
280.273	301.75
280.505	298.75
280.736	298.75
280.968	308.75
281.199	300.75
281.431	296.75
281.662	304.75
281.894	302.75
282.125	306.75
282.356	322.75
282.588	303.75
282.819	308.75
283.051	321.75
283.282	314.75
283.513	302.75
283.745	324.75
283.976	313.75
284.207	322.75
284.439	316.75
284.67	314.75
284.901	328.75
285.132	308.75
285.364	316.75
285.595	327.75
285.826	312.75
286.057	315.75
286.288	309.75
286.52	336.75
286.751	308.75
286.982	318.75
287.213	302.75
287.444	312.75
287.675	313.75
287.906	330.75
288.138	348.75
288.369	322.75
288.6	340.75
288.831	328.75
289.062	347.75
289.293	342.75
289.524	344.75
289.755	333.75
289.986	334.75
290.217	358.75
290.448	336.75
290.679	324.75
290.91	339.75
291.141	340.75
291.371	331.75
291.602	345.75
291.833	332.75
292.064	336.75
292.295	331.75
292.526	343.75
292.757	342.75
292.987	350.75
293.218	336.75
293.449	338.75
293.68	352.75
293.91	345.75
294.141	345.75
294.372	320.75
294.603	340.75
294.833	330.75
295.064	346.75
295.295	374.75
295.525	336.75
295.756	366.75
295.987	366.75
296.217	380.75
296.448	346.75
296.679	357.75
296.909	344.75
297.14	343.75
297.37	368.75
297.601	355.75
297.831	362.75
298.062	357.75
298.292	364.75
298.523	389.75
298.753	374.75
298.984	374.75
299.214	389.75
299.445	382.75
299.675	379.75
299.905	388.75
300.136	377.75
300.366	370.75
300.597	352.75
300.827	379.75
301.057	350.75
301.288	386.75
301.518	382.75
301.748	408.75
301.979	372.75
302.209	380.75
302.439	386.75
302.669	374.75
302.9	380.75
303.13	399.75
303.36	384.75
303.59	391.75
303.82	397.75
304.051	394.75
304.281	398.75
304.511	398.75
304.741	395.75
304.971	394.75
305.201	376.75
305.431	399.75
305.661	395.75
305.891	391.75
306.121	389.75
306.352	394.75
306.582	382.75
306.812	388.75
307.042	375.75
307.272	411.75
307.502	396.75
307.731	375.75
307.961	372.75
308.191	380.75
308.421	376.75
308.651	366.75
308.881	395.75
309.111	386.75
309.341	387.75
309.571	400.75
309.8	380.75
310.03	398.75
310.26	410.75
310.49	383.75
310.72	413.75
310.949	404.75
311.179	424.75
311.409	399.75
311.639	404.75
311.868	386.75
312.098	424.75
312.328	408.75
312.557	434.75
312.787	420.75
313.017	409.75
313.246	444.75
313.476	428.75
313.706	427.75
313.935	449.75
314.165	416.75
314.394	426.75
314.624	436.75
314.853	441.75
315.083	422.75
315.312	426.75
315.542	443.75
315.771	419.75
316.001	420.75
316.23	423.75
316.46	406.75
316.689	416.75
316.919	441.75
317.148	407.75
317.377	424.75
317.607	417.75
317.836	421.75
318.065	407.75
318.295	447.75
318.524	410.75
318.753	424.75
318.983	431.75
319.212	427.75
319.441	433.75
319.67	445.75
319.9	405.75
320.129	428.75
320.358	417.75
320.587	421.75
320.816	429.75
321.046	425.75
321.275	414.75
321.504	419.75
321.733	417.75
321.962	426.75
322.191	434.75
322.42	438.75
322.649	463.75
322.878	460.75
323.108	465.75
323.337	462.75
323.566	489.75
323.795	476.75
324.024	474.75
324.253	516.75
324.482	626.75
324.71	835.75
324.939	1158.75
325.168	1007.75
325.397	621.75
325.626	517.75
325.855	477.75
326.084	473.75
326.313	479.75
326.542	490.75
326.77	489.75
326.999	522.75
327.228	618.75
327.457	807.75
327.686	934.75
327.914	668.75
328.143	561.75
328.372	518.75
328.6	501.75
328.829	499.75
329.058	509.75
329.287	517.75
329.515	490.75
329.744	491.75
329.972	478.75
330.201	519.75
330.43	538.75
330.658	536.75
330.887	518.75
331.115	547.75
331.344	524.75
331.572	520.75
331.801	518.75
332.03	491.75
332.258	508.75
332.486	522.75
332.715	527.75
332.943	504.75
333.172	552.75
333.4	572.75
333.629	568.75
333.857	590.75
334.085	587.75
334.314	579.75
334.542	579.75
334.771	571.75
334.999	575.75
335.227	563.75
335.455	564.75
335.684	541.75
335.912	555.75
336.14	547.75
336.369	541.75
336.597	539.75
336.825	519.75
337.053	525.75
337.281	522.75
337.51	515.75
337.738	536.75
337.966	497.75
338.194	517.75
338.422	511.75
338.65	523.75
338.878	507.75
339.106	517.75
339.334	487.75
339.562	499.75
339.79	495.75
340.018	495.75
340.246	513.75
340.474	497.75
340.702	495.75
340.93	508.75
341.158	494.75
341.386	494.75
341.614	477.75
341.842	498.75
342.07	494.75
342.298	505.75
342.526	485.75
342.754	470.75
342.981	498.75
343.209	490.75
343.437	505.75
343.665	503.75
343.893	558.75
344.12	545.75
344.348	555.75
344.576	528.75
344.804	512.75
345.031	516.75
345.259	519.75
345.487	495.75
345.714	477.75
345.942	476.75
346.17	479.75
346.397	449.75
346.625	446.75
346.853	477.75
347.08	448.75
347.308	482.75
347.535	489.75
347.763	483.75
347.99	464.75
348.218	449.75
348.445	473.75
348.673	458.75
348.9	470.75
349.128	467.75
349.355	451.75
349.583	464.75
349.81	454.75
350.037	467.75
350.265	450.75
350.492	432.75
350.72	463.75
350.947	454.75
351.174	469.75
351.402	461.75
351.629	472.75
351.856	467.75
352.083	471.75
352.311	478.75
352.538	471.75
352.765	458.75
352.992	462.75
353.22	446.75
353.447	452.75
353.674	432.75
353.901	441.75
354.128	438.75
354.355	445.75
354.583	457.75
354.81	446.75
355.037	452.75
355.264	451.75
355.491	462.75
355.718	456.75
355.945	451.75
356.172	453.75
356.399	430.75
356.626	440.75
356.853	449.75
357.08	472.75
357.307	466.75
357.534	448.75
357.761	463.75
357.988	467.75
358.215	465.75
358.441	478.75
358.668	452.75
358.895	469.75
359.122	445.75
359.349	451.75
359.576	448.75
359.802	456.75
360.029	470.75
360.256	483.75
360.483	468.75
360.709	453.75
360.936	469.75
361.163	455.75
361.39	454.75
361.616	431.75
361.843	456.75
362.07	462.75
362.296	473.75
362.523	462.75
362.749	444.75
362.976	462.75
363.203	477.75
363.429	471.75
363.656	466.75
363.882	464.75
364.109	466.75
364.335	453.75
364.562	436.75
364.788	448.75
365.015	455.75
365.241	458.75
365.468	465.75
365.694	462.75
365.92	463.75
366.147	454.75
366.373	458.75
366.599	435.75
366.826	452.75
367.052	458.75
367.278	462.75
367.505	452.75
367.731	471.75
367.957	448.75
368.184	478.75
368.41	480.75
368.636	454.75
368.862	471.75
369.089	479.75
369.315	456.75
369.541	463.75
369.767	489.75
369.993	461.75
370.219	468.75
370.445	473.75
370.672	498.75
370.898	485.75
371.124	460.75
371.35	485.75
371.576	490.75
371.802	502.75
372.028	472.75
372.254	479.75
372.48	500.75
372.706	506.75
372.932	498.75
373.158	505.75
373.384	482.75
373.61	489.75
373.835	493.75
374.061	488.75
374.287	499.75
374.513	502.75
374.739	498.75
374.965	512.75
375.191	500.75
375.416	539.75
375.642	483.75
375.868	494.75
376.094	513.75
376.319	498.75
376.545	508.75
376.771	491.75
376.997	484.75
377.222	486.75
377.448	487.75
377.674	472.75
377.899	490.75
378.125	483.75
378.35	480.75
378.576	486.75
378.802	472.75
379.027	486.75
379.253	500.75
379.478	498.75
379.704	474.75
379.929	485.75
380.155	475.75
380.38	487.75
380.606	482.75
380.831	483.75
381.057	464.75
381.282	496.75
381.507	480.75
381.733	469.75
381.958	486.75
382.184	472.75
382.409	520.75
382.634	492.75
382.86	500.75
383.085	504.75
383.31	493.75
383.535	516.75
383.761	533.75
383.986	516.75
384.211	541.75
384.436	557.75
384.662	554.75
384.887	569.75
385.112	569.75
385.337	577.75
385.562	558.75
385.787	576.75
386.013	561.75
386.238	552.75
386.463	563.75
386.688	596.75
386.913	570.75
387.138	584.75
387.363	564.75
387.588	567.75
387.813	551.75
388.038	575.75
388.263	572.75
388.488	584.75
388.713	561.75
388.938	556.75
389.163	540.75
389.387	551.75
389.612	540.75
389.837	564.75
390.062	580.75
390.287	553.75
390.512	553.75
390.736	559.75
390.961	549.75
391.186	571.75
391.411	590.75
391.636	614.75
391.86	586.75
392.085	614.75
392.31	592.75
392.534	588.75
392.759	604.75
392.984	582.75
393.208	566.75
393.433	588.75
393.658	615.75
393.882	585.75
394.107	583.75
394.331	584.75
394.556	554.75
394.78	589.75
395.005	574.75
395.229	598.75
395.454	619.75
395.678	591.75
395.903	607.75
396.127	616.75
396.352	621.75
396.576	587.75
396.801	582.75
397.025	610.75
397.249	633.75
397.474	626.75
397.698	630.75
397.922	615.75
398.147	618.75
398.371	628.75
398.595	631.75
398.82	665.75
399.044	683.75
399.268	732.75
399.492	799.75
399.717	884.75
399.941	922.75
400.165	859.75
400.389	815.75
400.613	751.75
400.837	715.75
401.062	696.75
401.286	674.75
401.51	669.75
401.734	669.75
401.958	695.75
402.182	663.75
402.406	676.75
402.63	669.75
402.854	726.75
403.078	693.75
403.302	733.75
403.526	717.75
403.75	720.75
403.974	739.75
404.198	725.75
404.422	747.75
404.645	723.75
404.869	724.75
405.093	746.75
405.317	754.75
405.541	775.75
405.765	732.75
405.988	728.75
406.212	726.75
406.436	732.75
406.66	763.75
406.883	756.75
407.107	787.75
407.331	800.75
407.555	876.75
407.778	860.75
408.002	829.75
408.226	792.75
408.449	770.75
408.673	761.75
408.896	765.75
409.12	781.75
409.344	761.75
409.567	727.75
409.791	730.75
410.014	727.75
410.238	714.75
410.461	720.75
410.685	707.75
410.908	723.75
411.132	702.75
411.355	708.75
411.578	710.75
411.802	696.75
412.025	694.75
412.249	714.75
412.472	722.75
412.695	718.75
412.919	692.75
413.142	670.75
413.365	662.75
413.589	691.75
413.812	668.75
414.035	658.75
414.258	656.75
414.482	675.75
414.705	657.75
414.928	675.75
415.151	672.75
415.374	682.75
415.597	667.75
415.821	653.75
416.044	674.75
416.267	679.75
416.49	625.75
416.713	658.75
416.936	652.75
417.159	656.75
417.382	650.75
417.605	647.75
417.828	658.75
418.051	680.75
418.274	662.75
418.497	644.75
418.72	668.75
418.943	653.75
419.166	713.75
419.389	748.75
419.611	720.75
419.834	692.75
420.057	694.75
420.28	671.75
420.503	658.75
420.726	673.75
420.948	663.75
421.171	694.75
421.394	708.75
421.617	659.75
421.839	636.75
422.062	674.75
422.285	662.75
422.507	710.75
422.73	762.75
422.953	730.75
423.175	688.75
423.398	714.75
423.621	680.75
423.843	719.75
424.066	699.75
424.288	693.75
424.511	714.75
424.733	712.75
424.956	773.75
425.178	774.75
425.401	763.75
425.623	770.75
425.846	696.75
426.068	686.75
426.291	661.75
426.513	638.75
426.735	654.75
426.958	675.75
427.18	735.75
427.402	817.75
427.625	846.75
427.847	745.75
428.069	672.75
428.292	641.75
428.514	614.75
428.736	630.75
428.958	642.75
429.181	611.75
429.403	614.75
429.625	614.75
429.847	602.75
430.069	670.75
430.292	639.75
430.514	585.75
430.736	603.75
430.958	604.75
431.18	605.75
431.402	587.75
431.624	604.75
431.846	592.75
432.068	596.75
432.29	620.75
432.512	603.75
432.734	594.75
432.956	619.75
433.178	608.75
433.4	608.75
433.622	600.75
433.844	621.75
434.066	629.75
434.287	634.75
434.509	638.75
434.731	630.75
434.953	667.75
435.175	638.75
435.397	694.75
435.618	648.75
435.84	681.75
436.062	706.75
436.284	754.75
436.505	690.75
436.727	623.75
436.949	620.75
437.17	629.75
437.392	596.75
437.614	591.75
437.835	596.75
438.057	660.75
438.278	713.75
438.5	714.75
438.721	770.75
438.943	742.75
439.165	653.75
439.386	634.75
439.608	640.75
439.829	621.75
440.05	655.75
440.272	670.75
440.493	653.75
440.715	626.75
440.936	640.75
441.158	622.75
441.379	671.75
441.6	672.75
441.822	664.75
442.043	685.75
442.264	741.75
442.486	794.75
442.707	693.75
442.928	677.75
443.149	701.75
443.371	680.75
443.592	703.75
443.813	760.75
444.034	806.75
444.255	769.75
444.476	732.75
444.698	732.75
444.919	751.75
445.14	848.75
445.361	754.75
445.582	712.75
445.803	712.75
446.024	765.75
446.245	759.75
446.466	717.75
446.687	657.75
446.908	648.75
447.129	611.75
447.35	610.75
447.571	611.75
447.792	575.75
448.013	586.75
448.234	564.75
448.455	627.75
448.675	687.75
448.896	760.75
449.117	678.75
449.338	646.75
449.559	711.75
449.779	774.75
450	650.75
450.221	630.75
450.442	613.75
450.662	575.75
450.883	600.75
451.104	580.75
451.324	568.75
451.545	584.75
451.766	556.75
451.986	548.75
452.207	562.75
452.428	548.75
452.648	561.75
452.869	534.75
453.089	536.75
453.31	573.75
453.53	540.75
453.751	540.75
453.971	544.75
454.192	560.75
454.412	543.75
454.633	550.75
454.853	536.75
455.073	544.75
455.294	575.75
455.514	596.75
455.734	565.75
455.955	531.75
456.175	519.75
456.395	532.75
456.616	520.75
456.836	548.75
457.056	521.75
457.276	517.75
457.497	518.75
457.717	533.75
457.937	537.75
458.157	544.75
458.377	524.75
458.598	564.75
458.818	601.75
459.038	639.75
459.258	670.75
459.478	635.75
459.698	633.75
459.918	641.75
460.138	649.75
460.358	657.75
460.578	679.75
460.798	682.75
461.018	656.75
461.238	681.75
461.458	652.75
461.678	678.75
461.898	696.75
462.118	691.75
462.338	684.75
462.558	702.75
462.777	746.75
462.997	782.75
463.217	828.75
463.437	823.75
463.657	774.75
463.876	751.75
464.096	750.75
464.316	754.75
464.536	754.75
464.755	733.75
464.975	713.75
465.195	715.75
465.414	683.75
465.634	666.75
465.854	626.75
466.073	632.75
466.293	596.75
466.512	583.75
466.732	596.75
466.951	581.75
467.171	587.75
467.391	594.75
467.61	604.75
467.829	604.75
468.049	579.75
468.268	566.75
468.488	572.75
468.707	562.75
468.927	575.75
469.146	566.75
469.365	565.75
469.585	575.75
469.804	596.75
470.023	610.75
470.243	590.75
470.462	619.75
470.681	617.75
470.901	609.75
471.12	582.75
471.339	612.75
471.558	616.75
471.777	576.75
471.997	568.75
472.216	590.75
472.435	614.75
472.654	585.75
472.873	582.75
473.092	569.75
473.311	576.75
473.53	576.75
473.749	583.75
473.968	622.75
474.187	633.75
474.406	656.75
474.625	612.75
474.844	570.75
475.063	570.75
475.282	603.75
475.501	584.75
475.72	591.75
475.939	610.75
476.158	589.75
476.377	571.75
476.596	590.75
476.814	611.75
477.033	592.75
477.252	594.75
477.471	648.75
477.69	639.75
477.908	678.75
478.127	636.75
478.346	652.75
478.564	685.75
478.783	684.75
479.002	716.75
479.22	711.75
479.439	718.75
479.658	726.75
479.876	720.75
480.095	725.75
480.313	765.75
480.532	769.75
480.751	751.75
480.969	758.75
481.188	730.75
481.406	719.75
481.624	718.75
481.843	713.75
482.061	668.75
482.28	679.75
482.498	663.75
482.717	691.75
482.935	651.75
483.153	672.75
483.372	676.75
483.59	674.75
483.808	675.75
484.027	696.75
484.245	680.75
484.463	663.75
484.681	672.75
484.9	703.75
485.118	709.75
485.336	680.75
485.554	718.75
485.772	706.75
485.99	716.75
486.209	680.75
486.427	684.75
486.645	733.75
486.863	720.75
487.081	729.75
487.299	714.75
487.517	704.75
487.735	699.75
487.953	720.75
488.171	693.75
488.389	713.75
488.607	719.75
488.825	711.75
489.043	699.75
489.261	716.75
489.479	726.75
489.696	714.75
489.914	699.75
490.132	730.75
490.35	744.75
490.568	722.75
490.786	718.75
491.003	749.75
491.221	744.75
491.439	755.75
491.657	730.75
491.874	768.75
492.092	770.75
492.31	803.75
492.527	766.75
492.745	759.75
492.963	795.75
493.18	774.75
493.398	792.75
493.615	805.75
493.833	818.75
494.05	788.75
494.268	816.75
494.485	813.75
494.703	795.75
494.92	809.75
495.138	802.75
495.355	811.75
495.573	807.75
495.79	792.75
496.008	807.75
496.225	813.75
496.442	828.75
496.66	841.75
496.877	837.75
497.094	846.75
497.312	863.75
497.529	882.75
497.746	883.75
497.963	894.75
498.181	952.75
498.398	958.75
498.615	1000.75
498.832	1062.75
499.049	1114.75
499.267	1158.75
499.484	1215.75
499.701	1317.75
499.918	1383.75
500.135	1525.75
500.352	1678.75
500.569	1738.75
500.786	1729.75
501.003	1635.75
501.22	1494.75
501.437	1430.75
501.654	1315.75
501.871	1250.75
