Data from 1963.PennyLincolnUp.Lamp.En5.5.200Scan.071719.P1._HRD10591_13-58-04-063.txt Node
Date: Thu Jul 18 13:58:04 EDT 2019
User: cochatt
Spectrometer: HR+D1059
Trigger mode: 1
Integration Time (sec): 1.000000E-1
Scans to average: 1
Electric dark correction enabled: true
Nonlinearity correction enabled: false
Boxcar width: 0
XAxis mode: Wavelengths
Number of Pixels in Spectrum: 2048
>>>>>Begin Spectral Data<<<<<
223.165	-6.06
223.4	-6.06
223.635	-6.06
223.869	-15.06
224.104	-22.06
224.338	-16.06
224.573	-14.06
224.808	-25.06
225.042	-2.06
225.277	-2.06
225.511	-6.06
225.746	1.94
225.98	9.94
226.215	7.94
226.449	17.94
226.683	15.94
226.918	26.94
227.152	27.94
227.387	28.94
227.621	27.94
227.856	31.94
228.09	43.94
228.324	31.94
228.559	44.94
228.793	64.94
229.027	79.94
229.262	111.94
229.496	104.94
229.73	114.94
229.964	128.94
230.199	113.94
230.433	97.94
230.667	103.94
230.901	100.94
231.136	102.94
231.37	103.94
231.604	86.94
231.838	106.94
232.072	109.94
232.306	111.94
232.541	121.94
232.775	101.94
233.009	120.94
233.243	117.94
233.477	114.94
233.711	117.94
233.945	119.94
234.179	97.94
234.413	99.94
234.647	118.94
234.881	110.94
235.115	120.94
235.349	121.94
235.583	121.94
235.817	123.94
236.051	118.94
236.285	141.94
236.519	131.94
236.753	135.94
236.987	113.94
237.221	144.94
237.455	193.94
237.689	154.94
237.922	125.94
238.156	137.94
238.39	127.94
238.624	127.94
238.858	126.94
239.091	129.94
239.325	126.94
239.559	142.94
239.793	123.94
240.027	117.94
240.26	142.94
240.494	136.94
240.728	159.94
240.961	170.94
241.195	146.94
241.429	142.94
241.662	131.94
241.896	144.94
242.13	139.94
242.363	140.94
242.597	141.94
242.83	154.94
243.064	136.94
243.298	151.94
243.531	132.94
243.765	147.94
243.998	157.94
244.232	141.94
244.465	153.94
244.699	163.94
244.932	159.94
245.166	149.94
245.399	149.94
245.633	155.94
245.866	162.94
246.099	157.94
246.333	147.94
246.566	163.94
246.8	176.94
247.033	162.94
247.266	167.94
247.5	167.94
247.733	165.94
247.966	155.94
248.2	170.94
248.433	183.94
248.666	179.94
248.899	183.94
249.133	188.94
249.366	200.94
249.599	202.94
249.832	207.94
250.066	205.94
250.299	182.94
250.532	183.94
250.765	215.94
250.998	217.94
251.231	215.94
251.465	228.94
251.698	194.94
251.931	194.94
252.164	211.94
252.397	189.94
252.63	224.94
252.863	210.94
253.096	203.94
253.329	218.94
253.562	218.94
253.795	209.94
254.028	220.94
254.261	201.94
254.494	219.94
254.727	240.94
254.96	256.94
255.193	255.94
255.426	218.94
255.659	254.94
255.892	237.94
256.124	243.94
256.357	237.94
256.59	238.94
256.823	222.94
257.056	223.94
257.289	217.94
257.521	208.94
257.754	198.94
257.987	213.94
258.22	212.94
258.452	212.94
258.685	215.94
258.918	230.94
259.151	231.94
259.383	209.94
259.616	250.94
259.849	235.94
260.081	253.94
260.314	247.94
260.547	254.94
260.779	245.94
261.012	235.94
261.244	242.94
261.477	241.94
261.71	217.94
261.942	247.94
262.175	253.94
262.407	234.94
262.64	233.94
262.872	232.94
263.105	227.94
263.337	225.94
263.57	238.94
263.802	228.94
264.035	223.94
264.267	222.94
264.499	240.94
264.732	232.94
264.964	244.94
265.197	234.94
265.429	240.94
265.661	230.94
265.894	233.94
266.126	250.94
266.358	230.94
266.591	249.94
266.823	240.94
267.055	244.94
267.287	270.94
267.52	256.94
267.752	268.94
267.984	246.94
268.216	253.94
268.448	253.94
268.681	252.94
268.913	262.94
269.145	285.94
269.377	283.94
269.609	260.94
269.841	273.94
270.073	285.94
270.306	291.94
270.538	316.94
270.77	303.94
271.002	298.94
271.234	294.94
271.466	294.94
271.698	312.94
271.93	300.94
272.162	317.94
272.394	309.94
272.626	303.94
272.858	297.94
273.09	288.94
273.322	287.94
273.553	266.94
273.785	277.94
274.017	275.94
274.249	284.94
274.481	282.94
274.713	283.94
274.945	307.94
275.176	304.94
275.408	293.94
275.64	295.94
275.872	290.94
276.104	314.94
276.335	294.94
276.567	291.94
276.799	293.94
277.031	332.94
277.262	322.94
277.494	351.94
277.726	310.94
277.957	314.94
278.189	304.94
278.421	294.94
278.652	303.94
278.884	310.94
279.115	292.94
279.347	295.94
279.579	289.94
279.81	314.94
280.042	309.94
280.273	297.94
280.505	311.94
280.736	311.94
280.968	322.94
281.199	310.94
281.431	302.94
281.662	309.94
281.894	312.94
282.125	339.94
282.356	335.94
282.588	337.94
282.819	342.94
283.051	311.94
283.282	323.94
283.513	314.94
283.745	326.94
283.976	335.94
284.207	329.94
284.439	305.94
284.67	336.94
284.901	335.94
285.132	320.94
285.364	312.94
285.595	334.94
285.826	331.94
286.057	309.94
286.288	330.94
286.52	343.94
286.751	350.94
286.982	333.94
287.213	356.94
287.444	341.94
287.675	331.94
287.906	350.94
288.138	351.94
288.369	341.94
288.6	322.94
288.831	369.94
289.062	356.94
289.293	347.94
289.524	338.94
289.755	367.94
289.986	355.94
290.217	345.94
290.448	348.94
290.679	338.94
290.91	365.94
291.141	348.94
291.371	357.94
291.602	333.94
291.833	344.94
292.064	349.94
292.295	346.94
292.526	368.94
292.757	369.94
292.987	337.94
293.218	350.94
293.449	342.94
293.68	357.94
293.91	333.94
294.141	362.94
294.372	372.94
294.603	345.94
294.833	340.94
295.064	352.94
295.295	358.94
295.525	355.94
295.756	348.94
295.987	351.94
296.217	380.94
296.448	365.94
296.679	365.94
296.909	348.94
297.14	359.94
297.37	368.94
297.601	365.94
297.831	383.94
298.062	382.94
298.292	377.94
298.523	381.94
298.753	371.94
298.984	390.94
299.214	395.94
299.445	379.94
299.675	390.94
299.905	401.94
300.136	399.94
300.366	381.94
300.597	377.94
300.827	387.94
301.057	382.94
301.288	416.94
301.518	394.94
301.748	393.94
301.979	405.94
302.209	401.94
302.439	398.94
302.669	411.94
302.9	413.94
303.13	393.94
303.36	403.94
303.59	392.94
303.82	395.94
304.051	386.94
304.281	398.94
304.511	404.94
304.741	401.94
304.971	402.94
305.201	399.94
305.431	396.94
305.661	377.94
305.891	399.94
306.121	398.94
306.352	379.94
306.582	380.94
306.812	388.94
307.042	389.94
307.272	411.94
307.502	374.94
307.731	419.94
307.961	395.94
308.191	388.94
308.421	411.94
308.651	393.94
308.881	407.94
309.111	417.94
309.341	412.94
309.571	407.94
309.8	403.94
310.03	393.94
310.26	414.94
310.49	418.94
310.72	419.94
310.949	424.94
311.179	445.94
311.409	405.94
311.639	430.94
311.868	441.94
312.098	429.94
312.328	428.94
312.557	464.94
312.787	455.94
313.017	451.94
313.246	447.94
313.476	407.94
313.706	448.94
313.935	424.94
314.165	445.94
314.394	446.94
314.624	451.94
314.853	437.94
315.083	426.94
315.312	423.94
315.542	439.94
315.771	434.94
316.001	436.94
316.23	440.94
316.46	446.94
316.689	412.94
316.919	451.94
317.148	440.94
317.377	434.94
317.607	408.94
317.836	449.94
318.065	449.94
318.295	442.94
318.524	422.94
318.753	432.94
318.983	453.94
319.212	436.94
319.441	446.94
319.67	451.94
319.9	433.94
320.129	441.94
320.358	428.94
320.587	426.94
320.816	442.94
321.046	445.94
321.275	472.94
321.504	432.94
321.733	452.94
321.962	445.94
322.191	472.94
322.42	472.94
322.649	482.94
322.878	479.94
323.108	464.94
323.337	486.94
323.566	488.94
323.795	527.94
324.024	509.94
324.253	546.94
324.482	743.94
324.71	1037.94
324.939	1459.94
325.168	1299.94
325.397	750.94
325.626	586.94
325.855	533.94
326.084	495.94
326.313	508.94
326.542	515.94
326.77	525.94
326.999	594.94
327.228	726.94
327.457	987.94
327.686	1212.94
327.914	834.94
328.143	630.94
328.372	593.94
328.6	553.94
328.829	556.94
329.058	555.94
329.287	535.94
329.515	562.94
329.744	541.94
329.972	523.94
330.201	530.94
330.43	543.94
330.658	584.94
330.887	561.94
331.115	574.94
331.344	539.94
331.572	545.94
331.801	565.94
332.03	569.94
332.258	545.94
332.486	538.94
332.715	565.94
332.943	547.94
333.172	589.94
333.4	602.94
333.629	594.94
333.857	617.94
334.085	606.94
334.314	614.94
334.542	628.94
334.771	629.94
334.999	619.94
335.227	592.94
335.455	566.94
335.684	557.94
335.912	550.94
336.14	546.94
336.369	550.94
336.597	564.94
336.825	557.94
337.053	548.94
337.281	537.94
337.51	541.94
337.738	542.94
337.966	525.94
338.194	518.94
338.422	536.94
338.65	528.94
338.878	549.94
339.106	510.94
339.334	523.94
339.562	519.94
339.79	506.94
340.018	519.94
340.246	501.94
340.474	487.94
340.702	527.94
340.93	509.94
341.158	503.94
341.386	512.94
341.614	527.94
341.842	517.94
342.07	488.94
342.298	505.94
342.526	497.94
342.754	516.94
342.981	499.94
343.209	517.94
343.437	517.94
343.665	541.94
343.893	546.94
344.12	586.94
344.348	559.94
344.576	566.94
344.804	533.94
345.031	529.94
345.259	535.94
345.487	510.94
345.714	516.94
345.942	469.94
346.17	488.94
346.397	478.94
346.625	511.94
346.853	477.94
347.08	469.94
347.308	484.94
347.535	500.94
347.763	493.94
347.99	477.94
348.218	488.94
348.445	472.94
348.673	503.94
348.9	467.94
349.128	490.94
349.355	480.94
349.583	487.94
349.81	465.94
350.037	474.94
350.265	494.94
350.492	477.94
350.72	459.94
350.947	516.94
351.174	486.94
351.402	488.94
351.629	475.94
351.856	474.94
352.083	469.94
352.311	474.94
352.538	509.94
352.765	499.94
352.992	473.94
353.22	477.94
353.447	489.94
353.674	493.94
353.901	459.94
354.128	467.94
354.355	490.94
354.583	466.94
354.81	474.94
355.037	461.94
355.264	453.94
355.491	490.94
355.718	481.94
355.945	477.94
356.172	467.94
356.399	486.94
356.626	469.94
356.853	461.94
357.08	454.94
357.307	488.94
357.534	473.94
357.761	467.94
357.988	457.94
358.215	468.94
358.441	477.94
358.668	477.94
358.895	457.94
359.122	479.94
359.349	473.94
359.576	483.94
359.802	494.94
360.029	507.94
360.256	499.94
360.483	484.94
360.709	484.94
360.936	506.94
361.163	477.94
361.39	479.94
361.616	474.94
361.843	482.94
362.07	467.94
362.296	462.94
362.523	478.94
362.749	496.94
362.976	503.94
363.203	485.94
363.429	480.94
363.656	483.94
363.882	477.94
364.109	458.94
364.335	483.94
364.562	474.94
364.788	469.94
365.015	470.94
365.241	487.94
365.468	460.94
365.694	466.94
365.92	466.94
366.147	487.94
366.373	443.94
366.599	481.94
366.826	469.94
367.052	465.94
367.278	498.94
367.505	485.94
367.731	449.94
367.957	472.94
368.184	475.94
368.41	494.94
368.636	481.94
368.862	488.94
369.089	488.94
369.315	485.94
369.541	478.94
369.767	483.94
369.993	488.94
370.219	508.94
370.445	491.94
370.672	505.94
370.898	487.94
371.124	493.94
371.35	487.94
371.576	498.94
371.802	491.94
372.028	508.94
372.254	495.94
372.48	493.94
372.706	518.94
372.932	499.94
373.158	488.94
373.384	504.94
373.61	507.94
373.835	515.94
374.061	520.94
374.287	507.94
374.513	508.94
374.739	522.94
374.965	547.94
375.191	547.94
375.416	509.94
375.642	527.94
375.868	503.94
376.094	521.94
376.319	501.94
376.545	478.94
376.771	497.94
376.997	505.94
377.222	507.94
377.448	511.94
377.674	484.94
377.899	488.94
378.125	490.94
378.35	490.94
378.576	496.94
378.802	490.94
379.027	488.94
379.253	497.94
379.478	495.94
379.704	505.94
379.929	510.94
380.155	487.94
380.38	495.94
380.606	484.94
380.831	470.94
381.057	497.94
381.282	511.94
381.507	511.94
381.733	504.94
381.958	495.94
382.184	515.94
382.409	520.94
382.634	519.94
382.86	522.94
383.085	519.94
383.31	533.94
383.535	541.94
383.761	531.94
383.986	542.94
384.211	561.94
384.436	573.94
384.662	558.94
384.887	568.94
385.112	557.94
385.337	555.94
385.562	548.94
385.787	585.94
386.013	594.94
386.238	559.94
386.463	584.94
386.688	583.94
386.913	586.94
387.138	595.94
387.363	598.94
387.588	583.94
387.813	579.94
388.038	583.94
388.263	597.94
388.488	574.94
388.713	554.94
388.938	591.94
389.163	565.94
389.387	560.94
389.612	549.94
389.837	567.94
390.062	551.94
390.287	566.94
390.512	571.94
390.736	570.94
390.961	609.94
391.186	577.94
391.411	581.94
391.636	598.94
391.86	629.94
392.085	624.94
392.31	630.94
392.534	605.94
392.759	618.94
392.984	606.94
393.208	608.94
393.433	605.94
393.658	615.94
393.882	593.94
394.107	597.94
394.331	607.94
394.556	606.94
394.78	585.94
395.005	595.94
395.229	639.94
395.454	610.94
395.678	623.94
395.903	643.94
396.127	635.94
396.352	634.94
396.576	613.94
396.801	606.94
397.025	627.94
397.249	602.94
397.474	611.94
397.698	654.94
397.922	638.94
398.147	636.94
398.371	666.94
398.595	657.94
398.82	670.94
399.044	709.94
399.268	765.94
399.492	849.94
399.717	897.94
399.941	933.94
400.165	877.94
400.389	853.94
400.613	750.94
400.837	731.94
401.062	731.94
401.286	723.94
401.51	693.94
401.734	693.94
401.958	697.94
402.182	704.94
402.406	714.94
402.63	711.94
402.854	715.94
403.078	725.94
403.302	737.94
403.526	765.94
403.75	755.94
403.974	746.94
404.198	739.94
404.422	754.94
404.645	763.94
404.869	771.94
405.093	780.94
405.317	784.94
405.541	815.94
405.765	778.94
405.988	779.94
406.212	758.94
406.436	771.94
406.66	788.94
406.883	778.94
407.107	823.94
407.331	883.94
407.555	897.94
407.778	912.94
408.002	874.94
408.226	833.94
408.449	814.94
408.673	771.94
408.896	787.94
409.12	831.94
409.344	784.94
409.567	746.94
409.791	744.94
410.014	718.94
410.238	729.94
410.461	726.94
410.685	719.94
410.908	735.94
411.132	738.94
411.355	769.94
411.578	730.94
411.802	689.94
412.025	714.94
412.249	701.94
412.472	727.94
412.695	763.94
412.919	752.94
413.142	714.94
413.365	695.94
413.589	713.94
413.812	686.94
414.035	664.94
414.258	638.94
414.482	682.94
414.705	695.94
414.928	679.94
415.151	678.94
415.374	682.94
415.597	669.94
415.821	669.94
416.044	678.94
416.267	689.94
416.49	675.94
416.713	671.94
416.936	666.94
417.159	652.94
417.382	664.94
417.605	685.94
417.828	673.94
418.051	683.94
418.274	709.94
418.497	685.94
418.72	698.94
418.943	686.94
419.166	727.94
419.389	734.94
419.611	738.94
419.834	712.94
420.057	713.94
420.28	697.94
420.503	677.94
420.726	691.94
420.948	700.94
421.171	719.94
421.394	785.94
421.617	696.94
421.839	700.94
422.062	699.94
422.285	683.94
422.507	769.94
422.73	793.94
422.953	781.94
423.175	749.94
423.398	730.94
423.621	745.94
423.843	762.94
424.066	758.94
424.288	765.94
424.511	738.94
424.733	747.94
424.956	832.94
425.178	792.94
425.401	813.94
425.623	805.94
425.846	716.94
426.068	699.94
426.291	696.94
426.513	678.94
426.735	691.94
426.958	726.94
427.18	776.94
427.402	882.94
427.625	925.94
427.847	822.94
428.069	744.94
428.292	710.94
428.514	674.94
428.736	641.94
428.958	656.94
429.181	644.94
429.403	629.94
429.625	649.94
429.847	646.94
430.069	695.94
430.292	723.94
430.514	658.94
430.736	643.94
430.958	644.94
431.18	645.94
431.402	626.94
431.624	614.94
431.846	603.94
432.068	613.94
432.29	651.94
432.512	621.94
432.734	661.94
432.956	635.94
433.178	627.94
433.4	627.94
433.622	627.94
433.844	636.94
434.066	629.94
434.287	651.94
434.509	661.94
434.731	651.94
434.953	686.94
435.175	690.94
435.397	701.94
435.618	710.94
435.84	713.94
436.062	758.94
436.284	801.94
436.505	726.94
436.727	662.94
436.949	654.94
437.17	638.94
437.392	631.94
437.614	650.94
437.835	645.94
438.057	725.94
438.278	771.94
438.5	773.94
438.721	864.94
438.943	835.94
439.165	689.94
439.386	663.94
439.608	668.94
439.829	705.94
440.05	693.94
440.272	714.94
440.493	685.94
440.715	669.94
440.936	669.94
441.158	672.94
441.379	670.94
441.6	701.94
441.822	677.94
442.043	718.94
442.264	765.94
442.486	813.94
442.707	733.94
442.928	702.94
443.149	696.94
443.371	717.94
443.592	775.94
443.813	834.94
444.034	873.94
444.255	804.94
444.476	745.94
444.698	771.94
444.919	770.94
445.14	885.94
445.361	819.94
445.582	723.94
445.803	786.94
446.024	823.94
446.245	816.94
446.466	767.94
446.687	671.94
446.908	692.94
447.129	663.94
447.35	626.94
447.571	636.94
447.792	617.94
448.013	609.94
448.234	616.94
448.455	673.94
448.675	726.94
448.896	815.94
449.117	718.94
449.338	705.94
449.559	743.94
449.779	837.94
450	714.94
450.221	659.94
450.442	644.94
450.662	595.94
450.883	597.94
451.104	637.94
451.324	602.94
451.545	571.94
451.766	606.94
451.986	583.94
452.207	582.94
452.428	568.94
452.648	564.94
452.869	569.94
453.089	567.94
453.31	595.94
453.53	577.94
453.751	562.94
453.971	571.94
454.192	565.94
454.412	568.94
454.633	555.94
454.853	565.94
455.073	567.94
455.294	593.94
455.514	606.94
455.734	584.94
455.955	561.94
456.175	549.94
456.395	532.94
456.616	558.94
456.836	529.94
457.056	550.94
457.276	540.94
457.497	543.94
457.717	545.94
457.937	580.94
458.157	550.94
458.377	551.94
458.598	576.94
458.818	607.94
459.038	685.94
459.258	688.94
459.478	649.94
459.698	622.94
459.918	643.94
460.138	681.94
460.358	690.94
460.578	696.94
460.798	681.94
461.018	704.94
461.238	702.94
461.458	688.94
461.678	691.94
461.898	699.94
462.118	701.94
462.338	715.94
462.558	738.94
462.777	759.94
462.997	797.94
463.217	821.94
463.437	835.94
463.657	811.94
463.876	755.94
464.096	767.94
464.316	778.94
464.536	788.94
464.755	780.94
464.975	746.94
465.195	741.94
465.414	781.94
465.634	704.94
465.854	687.94
466.073	671.94
466.293	634.94
466.512	614.94
466.732	619.94
466.951	614.94
467.171	598.94
467.391	615.94
467.61	600.94
467.829	594.94
468.049	602.94
468.268	595.94
468.488	572.94
468.707	590.94
468.927	591.94
469.146	592.94
469.365	583.94
469.585	591.94
469.804	599.94
470.023	635.94
470.243	634.94
470.462	639.94
470.681	624.94
470.901	632.94
471.12	626.94
471.339	619.94
471.558	607.94
471.777	614.94
471.997	591.94
472.216	614.94
472.435	654.94
472.654	606.94
472.873	583.94
473.092	607.94
473.311	593.94
473.53	587.94
473.749	595.94
473.968	623.94
474.187	691.94
474.406	702.94
474.625	635.94
474.844	588.94
475.063	583.94
475.282	585.94
475.501	598.94
475.72	612.94
475.939	600.94
476.158	630.94
476.377	595.94
476.596	605.94
476.814	625.94
477.033	614.94
477.252	649.94
477.471	657.94
477.69	661.94
477.908	676.94
478.127	697.94
478.346	703.94
478.564	690.94
478.783	697.94
479.002	719.94
479.22	718.94
479.439	738.94
479.658	728.94
479.876	728.94
480.095	733.94
480.313	780.94
480.532	791.94
480.751	773.94
480.969	777.94
481.188	787.94
481.406	814.94
481.624	743.94
481.843	708.94
482.061	694.94
482.28	706.94
482.498	704.94
482.717	698.94
482.935	707.94
483.153	695.94
483.372	686.94
483.59	682.94
483.808	703.94
484.027	713.94
484.245	711.94
484.463	697.94
484.681	709.94
484.9	713.94
485.118	725.94
485.336	723.94
485.554	730.94
485.772	721.94
485.99	733.94
486.209	752.94
486.427	741.94
486.645	720.94
486.863	754.94
487.081	769.94
487.299	753.94
487.517	745.94
487.735	745.94
487.953	730.94
488.171	773.94
488.389	737.94
488.607	755.94
488.825	743.94
489.043	717.94
489.261	726.94
489.479	760.94
489.696	758.94
489.914	743.94
490.132	770.94
490.35	734.94
490.568	769.94
490.786	754.94
491.003	781.94
491.221	806.94
491.439	775.94
491.657	775.94
491.874	835.94
492.092	794.94
492.31	832.94
492.527	814.94
492.745	828.94
492.963	824.94
493.18	835.94
493.398	827.94
493.615	855.94
493.833	841.94
494.05	838.94
494.268	833.94
494.485	849.94
494.703	873.94
494.92	853.94
495.138	825.94
495.355	864.94
495.573	872.94
495.79	867.94
496.008	850.94
496.225	848.94
496.442	863.94
496.66	886.94
496.877	885.94
497.094	877.94
497.312	915.94
497.529	918.94
497.746	941.94
497.963	940.94
498.181	963.94
498.398	1001.94
498.615	1036.94
498.832	1072.94
499.049	1143.94
499.267	1196.94
499.484	1259.94
499.701	1368.94
499.918	1442.94
500.135	1607.94
500.352	1711.94
500.569	1781.94
500.786	1783.94
501.003	1714.94
501.22	1602.94
501.437	1444.94
501.654	1353.94
501.871	1293.94
