Data from 1963.PennyLincolnUp.Lamp.En5.5.200Scan.071719.P1._HRD10591_13-57-34-063.txt Node
Date: Thu Jul 18 13:57:34 EDT 2019
User: cochatt
Spectrometer: HR+D1059
Trigger mode: 1
Integration Time (sec): 1.000000E-1
Scans to average: 1
Electric dark correction enabled: true
Nonlinearity correction enabled: false
Boxcar width: 0
XAxis mode: Wavelengths
Number of Pixels in Spectrum: 2048
>>>>>Begin Spectral Data<<<<<
223.165	-18.81
223.4	-18.81
223.635	-18.81
223.869	-20.81
224.104	-34.81
224.338	-9.81
224.573	-18.81
224.808	-18.81
225.042	11.19
225.277	-4.81
225.511	0.19
225.746	3.19
225.98	-8.81
226.215	16.19
226.449	23.19
226.683	35.19
226.918	6.19
227.152	40.19
227.387	38.19
227.621	28.19
227.856	45.19
228.09	48.19
228.324	43.19
228.559	53.19
228.793	72.19
229.027	101.19
229.262	111.19
229.496	107.19
229.73	121.19
229.964	134.19
230.199	121.19
230.433	116.19
230.667	118.19
230.901	116.19
231.136	125.19
231.37	127.19
231.604	117.19
231.838	105.19
232.072	117.19
232.306	113.19
232.541	117.19
232.775	120.19
233.009	123.19
233.243	117.19
233.477	111.19
233.711	117.19
233.945	109.19
234.179	106.19
234.413	123.19
234.647	120.19
234.881	100.19
235.115	100.19
235.349	111.19
235.583	113.19
235.817	133.19
236.051	135.19
236.285	127.19
236.519	113.19
236.753	132.19
236.987	144.19
237.221	168.19
237.455	185.19
237.689	183.19
237.922	146.19
238.156	130.19
238.39	124.19
238.624	143.19
238.858	123.19
239.091	127.19
239.325	134.19
239.559	113.19
239.793	135.19
240.027	125.19
240.26	128.19
240.494	139.19
240.728	162.19
240.961	154.19
241.195	148.19
241.429	151.19
241.662	140.19
241.896	139.19
242.13	147.19
242.363	137.19
242.597	143.19
242.83	154.19
243.064	135.19
243.298	160.19
243.531	153.19
243.765	151.19
243.998	151.19
244.232	156.19
244.465	159.19
244.699	155.19
244.932	165.19
245.166	157.19
245.399	167.19
245.633	160.19
245.866	157.19
246.099	177.19
246.333	178.19
246.566	157.19
246.8	159.19
247.033	162.19
247.266	156.19
247.5	179.19
247.733	183.19
247.966	164.19
248.2	187.19
248.433	173.19
248.666	164.19
248.899	191.19
249.133	191.19
249.366	192.19
249.599	190.19
249.832	194.19
250.066	192.19
250.299	192.19
250.532	197.19
250.765	198.19
250.998	240.19
251.231	217.19
251.465	209.19
251.698	212.19
251.931	209.19
252.164	208.19
252.397	195.19
252.63	216.19
252.863	214.19
253.096	226.19
253.329	223.19
253.562	206.19
253.795	217.19
254.028	187.19
254.261	228.19
254.494	220.19
254.727	226.19
254.96	255.19
255.193	249.19
255.426	233.19
255.659	225.19
255.892	256.19
256.124	236.19
256.357	222.19
256.59	223.19
256.823	232.19
257.056	227.19
257.289	218.19
257.521	229.19
257.754	224.19
257.987	200.19
258.22	222.19
258.452	218.19
258.685	219.19
258.918	230.19
259.151	227.19
259.383	213.19
259.616	222.19
259.849	247.19
260.081	253.19
260.314	258.19
260.547	264.19
260.779	255.19
261.012	234.19
261.244	230.19
261.477	232.19
261.71	230.19
261.942	208.19
262.175	255.19
262.407	255.19
262.64	227.19
262.872	241.19
263.105	231.19
263.337	241.19
263.57	243.19
263.802	218.19
264.035	216.19
264.267	255.19
264.499	221.19
264.732	242.19
264.964	233.19
265.197	223.19
265.429	237.19
265.661	252.19
265.894	224.19
266.126	247.19
266.358	240.19
266.591	237.19
266.823	249.19
267.055	252.19
267.287	256.19
267.52	248.19
267.752	242.19
267.984	261.19
268.216	256.19
268.448	233.19
268.681	273.19
268.913	267.19
269.145	270.19
269.377	304.19
269.609	296.19
269.841	280.19
270.073	280.19
270.306	291.19
270.538	334.19
270.77	299.19
271.002	295.19
271.234	295.19
271.466	289.19
271.698	303.19
271.93	291.19
272.162	322.19
272.394	313.19
272.626	298.19
272.858	305.19
273.09	288.19
273.322	297.19
273.553	282.19
273.785	289.19
274.017	289.19
274.249	299.19
274.481	300.19
274.713	268.19
274.945	294.19
275.176	289.19
275.408	279.19
275.64	281.19
275.872	284.19
276.104	287.19
276.335	295.19
276.567	280.19
276.799	299.19
277.031	320.19
277.262	333.19
277.494	329.19
277.726	329.19
277.957	322.19
278.189	332.19
278.421	301.19
278.652	305.19
278.884	325.19
279.115	292.19
279.347	295.19
279.579	304.19
279.81	294.19
280.042	307.19
280.273	298.19
280.505	309.19
280.736	299.19
280.968	303.19
281.199	321.19
281.431	313.19
281.662	315.19
281.894	314.19
282.125	320.19
282.356	327.19
282.588	324.19
282.819	321.19
283.051	324.19
283.282	310.19
283.513	327.19
283.745	316.19
283.976	332.19
284.207	332.19
284.439	316.19
284.67	342.19
284.901	335.19
285.132	326.19
285.364	319.19
285.595	328.19
285.826	316.19
286.057	348.19
286.288	324.19
286.52	319.19
286.751	324.19
286.982	328.19
287.213	336.19
287.444	330.19
287.675	331.19
287.906	343.19
288.138	348.19
288.369	354.19
288.6	334.19
288.831	360.19
289.062	368.19
289.293	351.19
289.524	340.19
289.755	352.19
289.986	329.19
290.217	355.19
290.448	341.19
290.679	347.19
290.91	360.19
291.141	353.19
291.371	343.19
291.602	336.19
291.833	341.19
292.064	361.19
292.295	350.19
292.526	350.19
292.757	344.19
292.987	351.19
293.218	362.19
293.449	361.19
293.68	356.19
293.91	356.19
294.141	370.19
294.372	357.19
294.603	373.19
294.833	344.19
295.064	356.19
295.295	344.19
295.525	345.19
295.756	368.19
295.987	364.19
296.217	370.19
296.448	371.19
296.679	356.19
296.909	358.19
297.14	378.19
297.37	370.19
297.601	353.19
297.831	361.19
298.062	371.19
298.292	362.19
298.523	364.19
298.753	372.19
298.984	372.19
299.214	378.19
299.445	385.19
299.675	391.19
299.905	376.19
300.136	361.19
300.366	370.19
300.597	384.19
300.827	412.19
301.057	403.19
301.288	404.19
301.518	403.19
301.748	388.19
301.979	398.19
302.209	392.19
302.439	397.19
302.669	413.19
302.9	399.19
303.13	392.19
303.36	390.19
303.59	397.19
303.82	409.19
304.051	410.19
304.281	400.19
304.511	403.19
304.741	407.19
304.971	390.19
305.201	408.19
305.431	387.19
305.661	429.19
305.891	403.19
306.121	406.19
306.352	410.19
306.582	416.19
306.812	389.19
307.042	392.19
307.272	385.19
307.502	392.19
307.731	422.19
307.961	400.19
308.191	402.19
308.421	398.19
308.651	403.19
308.881	386.19
309.111	408.19
309.341	387.19
309.571	407.19
309.8	407.19
310.03	410.19
310.26	424.19
310.49	416.19
310.72	421.19
310.949	406.19
311.179	425.19
311.409	431.19
311.639	426.19
311.868	438.19
312.098	425.19
312.328	434.19
312.557	451.19
312.787	442.19
313.017	447.19
313.246	440.19
313.476	427.19
313.706	440.19
313.935	435.19
314.165	426.19
314.394	438.19
314.624	461.19
314.853	456.19
315.083	428.19
315.312	448.19
315.542	435.19
315.771	440.19
316.001	441.19
316.23	455.19
316.46	436.19
316.689	419.19
316.919	435.19
317.148	437.19
317.377	436.19
317.607	444.19
317.836	454.19
318.065	435.19
318.295	461.19
318.524	425.19
318.753	441.19
318.983	462.19
319.212	437.19
319.441	452.19
319.67	442.19
319.9	429.19
320.129	433.19
320.358	438.19
320.587	452.19
320.816	444.19
321.046	447.19
321.275	460.19
321.504	459.19
321.733	467.19
321.962	453.19
322.191	455.19
322.42	459.19
322.649	455.19
322.878	469.19
323.108	461.19
323.337	469.19
323.566	508.19
323.795	519.19
324.024	512.19
324.253	578.19
324.482	691.19
324.71	960.19
324.939	1322.19
325.168	1181.19
325.397	661.19
325.626	546.19
325.855	511.19
326.084	511.19
326.313	512.19
326.542	474.19
326.77	517.19
326.999	554.19
327.228	689.19
327.457	908.19
327.686	1124.19
327.914	777.19
328.143	617.19
328.372	559.19
328.6	548.19
328.829	543.19
329.058	528.19
329.287	539.19
329.515	521.19
329.744	518.19
329.972	540.19
330.201	532.19
330.43	535.19
330.658	566.19
330.887	562.19
331.115	564.19
331.344	544.19
331.572	526.19
331.801	528.19
332.03	539.19
332.258	538.19
332.486	540.19
332.715	547.19
332.943	547.19
333.172	563.19
333.4	570.19
333.629	601.19
333.857	612.19
334.085	581.19
334.314	604.19
334.542	612.19
334.771	652.19
334.999	602.19
335.227	593.19
335.455	577.19
335.684	566.19
335.912	566.19
336.14	546.19
336.369	555.19
336.597	554.19
336.825	548.19
337.053	569.19
337.281	559.19
337.51	533.19
337.738	532.19
337.966	525.19
338.194	553.19
338.422	523.19
338.65	522.19
338.878	526.19
339.106	529.19
339.334	519.19
339.562	509.19
339.79	502.19
340.018	502.19
340.246	522.19
340.474	510.19
340.702	512.19
340.93	510.19
341.158	512.19
341.386	491.19
341.614	519.19
341.842	499.19
342.07	504.19
342.298	505.19
342.526	502.19
342.754	495.19
342.981	504.19
343.209	506.19
343.437	526.19
343.665	532.19
343.893	562.19
344.12	571.19
344.348	564.19
344.576	538.19
344.804	559.19
345.031	533.19
345.259	522.19
345.487	522.19
345.714	476.19
345.942	495.19
346.17	488.19
346.397	481.19
346.625	470.19
346.853	496.19
347.08	482.19
347.308	465.19
347.535	490.19
347.763	500.19
347.99	511.19
348.218	499.19
348.445	490.19
348.673	487.19
348.9	481.19
349.128	481.19
349.355	485.19
349.583	474.19
349.81	454.19
350.037	469.19
350.265	473.19
350.492	480.19
350.72	477.19
350.947	479.19
351.174	486.19
351.402	504.19
351.629	479.19
351.856	474.19
352.083	469.19
352.311	469.19
352.538	485.19
352.765	497.19
352.992	468.19
353.22	463.19
353.447	466.19
353.674	472.19
353.901	472.19
354.128	473.19
354.355	458.19
354.583	471.19
354.81	473.19
355.037	482.19
355.264	467.19
355.491	469.19
355.718	471.19
355.945	477.19
356.172	475.19
356.399	471.19
356.626	468.19
356.853	441.19
357.08	478.19
357.307	488.19
357.534	493.19
357.761	472.19
357.988	474.19
358.215	486.19
358.441	456.19
358.668	467.19
358.895	471.19
359.122	470.19
359.349	484.19
359.576	487.19
359.802	474.19
360.029	479.19
360.256	513.19
360.483	491.19
360.709	462.19
360.936	492.19
361.163	495.19
361.39	472.19
361.616	485.19
361.843	488.19
362.07	493.19
362.296	482.19
362.523	488.19
362.749	483.19
362.976	504.19
363.203	480.19
363.429	467.19
363.656	465.19
363.882	487.19
364.109	480.19
364.335	478.19
364.562	473.19
364.788	491.19
365.015	462.19
365.241	452.19
365.468	469.19
365.694	483.19
365.92	483.19
366.147	447.19
366.373	478.19
366.599	444.19
366.826	484.19
367.052	467.19
367.278	459.19
367.505	461.19
367.731	473.19
367.957	483.19
368.184	482.19
368.41	468.19
368.636	486.19
368.862	508.19
369.089	486.19
369.315	496.19
369.541	485.19
369.767	493.19
369.993	488.19
370.219	482.19
370.445	485.19
370.672	493.19
370.898	478.19
371.124	491.19
371.35	496.19
371.576	502.19
371.802	493.19
372.028	487.19
372.254	494.19
372.48	509.19
372.706	492.19
372.932	518.19
373.158	506.19
373.384	528.19
373.61	509.19
373.835	495.19
374.061	489.19
374.287	507.19
374.513	497.19
374.739	520.19
374.965	515.19
375.191	552.19
375.416	542.19
375.642	532.19
375.868	517.19
376.094	516.19
376.319	533.19
376.545	507.19
376.771	513.19
376.997	507.19
377.222	509.19
377.448	476.19
377.674	503.19
377.899	508.19
378.125	493.19
378.35	522.19
378.576	492.19
378.802	488.19
379.027	477.19
379.253	462.19
379.478	499.19
379.704	505.19
379.929	522.19
380.155	505.19
380.38	505.19
380.606	511.19
380.831	524.19
381.057	513.19
381.282	515.19
381.507	471.19
381.733	515.19
381.958	511.19
382.184	507.19
382.409	521.19
382.634	523.19
382.86	539.19
383.085	522.19
383.31	520.19
383.535	520.19
383.761	529.19
383.986	531.19
384.211	563.19
384.436	571.19
384.662	594.19
384.887	579.19
385.112	557.19
385.337	591.19
385.562	569.19
385.787	585.19
386.013	576.19
386.238	581.19
386.463	587.19
386.688	560.19
386.913	573.19
387.138	583.19
387.363	579.19
387.588	576.19
387.813	549.19
388.038	572.19
388.263	556.19
388.488	585.19
388.713	579.19
388.938	584.19
389.163	551.19
389.387	588.19
389.612	568.19
389.837	584.19
390.062	567.19
390.287	592.19
390.512	545.19
390.736	581.19
390.961	585.19
391.186	561.19
391.411	578.19
391.636	595.19
391.86	594.19
392.085	629.19
392.31	634.19
392.534	617.19
392.759	622.19
392.984	601.19
393.208	598.19
393.433	632.19
393.658	617.19
393.882	578.19
394.107	594.19
394.331	574.19
394.556	607.19
394.78	606.19
395.005	589.19
395.229	603.19
395.454	629.19
395.678	626.19
395.903	653.19
396.127	614.19
396.352	619.19
396.576	608.19
396.801	591.19
397.025	617.19
397.249	636.19
397.474	612.19
397.698	616.19
397.922	638.19
398.147	641.19
398.371	644.19
398.595	661.19
398.82	667.19
399.044	707.19
399.268	761.19
399.492	818.19
399.717	896.19
399.941	915.19
400.165	899.19
400.389	825.19
400.613	782.19
400.837	719.19
401.062	715.19
401.286	699.19
401.51	684.19
401.734	693.19
401.958	693.19
402.182	711.19
402.406	699.19
402.63	707.19
402.854	728.19
403.078	747.19
403.302	732.19
403.526	743.19
403.75	750.19
403.974	780.19
404.198	738.19
404.422	746.19
404.645	756.19
404.869	747.19
405.093	758.19
405.317	783.19
405.541	834.19
405.765	751.19
405.988	729.19
406.212	773.19
406.436	769.19
406.66	779.19
406.883	758.19
407.107	830.19
407.331	854.19
407.555	904.19
407.778	910.19
408.002	851.19
408.226	819.19
408.449	805.19
408.673	787.19
408.896	806.19
409.12	811.19
409.344	807.19
409.567	736.19
409.791	738.19
410.014	721.19
410.238	737.19
410.461	722.19
410.685	739.19
410.908	713.19
411.132	744.19
411.355	759.19
411.578	753.19
411.802	707.19
412.025	718.19
412.249	751.19
412.472	755.19
412.695	730.19
412.919	755.19
413.142	729.19
413.365	687.19
413.589	707.19
413.812	695.19
414.035	685.19
414.258	659.19
414.482	679.19
414.705	705.19
414.928	699.19
415.151	675.19
415.374	687.19
415.597	673.19
415.821	687.19
416.044	658.19
416.267	659.19
416.49	676.19
416.713	649.19
416.936	675.19
417.159	674.19
417.382	668.19
417.605	678.19
417.828	684.19
418.051	703.19
418.274	698.19
418.497	681.19
418.72	689.19
418.943	680.19
419.166	701.19
419.389	757.19
419.611	758.19
419.834	725.19
420.057	683.19
420.28	714.19
420.503	700.19
420.726	687.19
420.948	705.19
421.171	720.19
421.394	714.19
421.617	707.19
421.839	675.19
422.062	697.19
422.285	672.19
422.507	745.19
422.73	759.19
422.953	788.19
423.175	740.19
423.398	734.19
423.621	714.19
423.843	724.19
424.066	738.19
424.288	743.19
424.511	737.19
424.733	786.19
424.956	836.19
425.178	800.19
425.401	777.19
425.623	782.19
425.846	712.19
426.068	728.19
426.291	676.19
426.513	663.19
426.735	706.19
426.958	715.19
427.18	754.19
427.402	851.19
427.625	896.19
427.847	779.19
428.069	755.19
428.292	683.19
428.514	667.19
428.736	639.19
428.958	653.19
429.181	626.19
429.403	626.19
429.625	632.19
429.847	644.19
430.069	693.19
430.292	699.19
430.514	644.19
430.736	641.19
430.958	624.19
431.18	606.19
431.402	621.19
431.624	633.19
431.846	607.19
432.068	635.19
432.29	618.19
432.512	648.19
432.734	652.19
432.956	623.19
433.178	635.19
433.4	637.19
433.622	643.19
433.844	642.19
434.066	627.19
434.287	641.19
434.509	657.19
434.731	642.19
434.953	660.19
435.175	688.19
435.397	677.19
435.618	682.19
435.84	737.19
436.062	746.19
436.284	806.19
436.505	705.19
436.727	629.19
436.949	642.19
437.17	639.19
437.392	644.19
437.614	649.19
437.835	647.19
438.057	682.19
438.278	770.19
438.5	772.19
438.721	824.19
438.943	805.19
439.165	700.19
439.386	655.19
439.608	628.19
439.829	654.19
440.05	681.19
440.272	714.19
440.493	674.19
440.715	653.19
440.936	646.19
441.158	649.19
441.379	658.19
441.6	692.19
441.822	688.19
442.043	715.19
442.264	778.19
442.486	782.19
442.707	730.19
442.928	711.19
443.149	703.19
443.371	695.19
443.592	737.19
443.813	823.19
444.034	873.19
444.255	769.19
444.476	734.19
444.698	763.19
444.919	763.19
445.14	891.19
445.361	804.19
445.582	725.19
445.803	733.19
446.024	825.19
446.245	801.19
446.466	770.19
446.687	681.19
446.908	669.19
447.129	632.19
447.35	637.19
447.571	629.19
447.792	625.19
448.013	608.19
448.234	627.19
448.455	649.19
448.675	713.19
448.896	800.19
449.117	699.19
449.338	682.19
449.559	769.19
449.779	835.19
450	708.19
450.221	607.19
450.442	608.19
450.662	631.19
450.883	604.19
451.104	612.19
451.324	585.19
451.545	585.19
451.766	572.19
451.986	564.19
452.207	569.19
452.428	548.19
452.648	568.19
452.869	575.19
453.089	573.19
453.31	571.19
453.53	579.19
453.751	587.19
453.971	572.19
454.192	581.19
454.412	560.19
454.633	561.19
454.853	575.19
455.073	568.19
455.294	585.19
455.514	611.19
455.734	612.19
455.955	556.19
456.175	532.19
456.395	533.19
456.616	525.19
456.836	541.19
457.056	537.19
457.276	515.19
457.497	556.19
457.717	528.19
457.937	533.19
458.157	567.19
458.377	550.19
458.598	564.19
458.818	609.19
459.038	648.19
459.258	684.19
459.478	640.19
459.698	637.19
459.918	619.19
460.138	634.19
460.358	701.19
460.578	699.19
460.798	690.19
461.018	674.19
461.238	683.19
461.458	690.19
461.678	706.19
461.898	683.19
462.118	673.19
462.338	744.19
462.558	753.19
462.777	761.19
462.997	801.19
463.217	836.19
463.437	833.19
463.657	820.19
463.876	755.19
464.096	751.19
464.316	773.19
464.536	765.19
464.755	756.19
464.975	730.19
465.195	735.19
465.414	737.19
465.634	683.19
465.854	675.19
466.073	644.19
466.293	636.19
466.512	610.19
466.732	611.19
466.951	609.19
467.171	581.19
467.391	606.19
467.61	609.19
467.829	603.19
468.049	618.19
468.268	600.19
468.488	584.19
468.707	589.19
468.927	600.19
469.146	578.19
469.365	595.19
469.585	600.19
469.804	597.19
470.023	618.19
470.243	619.19
470.462	617.19
470.681	628.19
470.901	634.19
471.12	627.19
471.339	617.19
471.558	591.19
471.777	610.19
471.997	601.19
472.216	615.19
472.435	626.19
472.654	627.19
472.873	615.19
473.092	616.19
473.311	605.19
473.53	587.19
473.749	593.19
473.968	595.19
474.187	671.19
474.406	688.19
474.625	636.19
474.844	612.19
475.063	613.19
475.282	595.19
475.501	579.19
475.72	607.19
475.939	602.19
476.158	608.19
476.377	614.19
476.596	618.19
476.814	628.19
477.033	633.19
477.252	668.19
477.471	617.19
477.69	659.19
477.908	654.19
478.127	682.19
478.346	697.19
478.564	718.19
478.783	713.19
479.002	713.19
479.22	716.19
479.439	714.19
479.658	712.19
479.876	710.19
480.095	745.19
480.313	777.19
480.532	758.19
480.751	790.19
480.969	757.19
481.188	781.19
481.406	769.19
481.624	755.19
481.843	721.19
482.061	713.19
482.28	699.19
482.498	685.19
482.717	682.19
482.935	687.19
483.153	701.19
483.372	714.19
483.59	717.19
483.808	715.19
484.027	694.19
484.245	709.19
484.463	710.19
484.681	699.19
484.9	704.19
485.118	703.19
485.336	730.19
485.554	756.19
485.772	738.19
485.99	723.19
486.209	710.19
486.427	729.19
486.645	751.19
486.863	739.19
487.081	710.19
487.299	741.19
487.517	715.19
487.735	739.19
487.953	742.19
488.171	732.19
488.389	753.19
488.607	712.19
488.825	728.19
489.043	721.19
489.261	751.19
489.479	730.19
489.696	746.19
489.914	759.19
490.132	763.19
490.35	762.19
490.568	777.19
490.786	768.19
491.003	789.19
491.221	772.19
491.439	800.19
491.657	811.19
491.874	816.19
492.092	806.19
492.31	801.19
492.527	815.19
492.745	815.19
492.963	824.19
493.18	807.19
493.398	811.19
493.615	844.19
493.833	834.19
494.05	832.19
494.268	841.19
494.485	817.19
494.703	833.19
494.92	840.19
495.138	834.19
495.355	837.19
495.573	847.19
495.79	863.19
496.008	871.19
496.225	867.19
496.442	858.19
496.66	848.19
496.877	889.19
497.094	872.19
497.312	884.19
497.529	887.19
497.746	941.19
497.963	933.19
498.181	978.19
498.398	1014.19
498.615	1018.19
498.832	1084.19
499.049	1141.19
499.267	1204.19
499.484	1268.19
499.701	1342.19
499.918	1429.19
500.135	1580.19
500.352	1746.19
500.569	1789.19
500.786	1764.19
501.003	1670.19
501.22	1580.19
501.437	1480.19
501.654	1355.19
