Data from 1963.PennyLincolnUp.Lamp.En5.5.200Scan.071719.P1._HRD10591_13-57-28-063.txt Node
Date: Thu Jul 18 13:57:28 EDT 2019
User: cochatt
Spectrometer: HR+D1059
Trigger mode: 1
Integration Time (sec): 1.000000E-1
Scans to average: 1
Electric dark correction enabled: true
Nonlinearity correction enabled: false
Boxcar width: 0
XAxis mode: Wavelengths
Number of Pixels in Spectrum: 2048
>>>>>Begin Spectral Data<<<<<
223.165	-22.25
223.4	-22.25
223.635	-22.25
223.869	-16.25
224.104	-12.25
224.338	-16.25
224.573	-8.25
224.808	-12.25
225.042	-11.25
225.277	-6.25
225.511	3.75
225.746	-3.25
225.98	-7.25
226.215	23.75
226.449	8.75
226.683	23.75
226.918	25.75
227.152	29.75
227.387	28.75
227.621	32.75
227.856	53.75
228.09	39.75
228.324	60.75
228.559	57.75
228.793	70.75
229.027	95.75
229.262	97.75
229.496	109.75
229.73	118.75
229.964	117.75
230.199	119.75
230.433	106.75
230.667	109.75
230.901	103.75
231.136	109.75
231.37	100.75
231.604	108.75
231.838	127.75
232.072	127.75
232.306	109.75
232.541	115.75
232.775	110.75
233.009	111.75
233.243	117.75
233.477	113.75
233.711	111.75
233.945	114.75
234.179	113.75
234.413	126.75
234.647	122.75
234.881	122.75
235.115	132.75
235.349	105.75
235.583	123.75
235.817	121.75
236.051	139.75
236.285	107.75
236.519	108.75
236.753	133.75
236.987	134.75
237.221	143.75
237.455	167.75
237.689	168.75
237.922	133.75
238.156	127.75
238.39	117.75
238.624	124.75
238.858	132.75
239.091	132.75
239.325	126.75
239.559	136.75
239.793	137.75
240.027	126.75
240.26	120.75
240.494	152.75
240.728	149.75
240.961	146.75
241.195	157.75
241.429	146.75
241.662	135.75
241.896	142.75
242.13	132.75
242.363	142.75
242.597	141.75
242.83	139.75
243.064	142.75
243.298	149.75
243.531	157.75
243.765	159.75
243.998	143.75
244.232	147.75
244.465	159.75
244.699	145.75
244.932	146.75
245.166	153.75
245.399	159.75
245.633	155.75
245.866	154.75
246.099	158.75
246.333	143.75
246.566	157.75
246.8	154.75
247.033	156.75
247.266	168.75
247.5	162.75
247.733	168.75
247.966	185.75
248.2	178.75
248.433	155.75
248.666	172.75
248.899	179.75
249.133	208.75
249.366	196.75
249.599	186.75
249.832	189.75
250.066	196.75
250.299	181.75
250.532	189.75
250.765	196.75
250.998	192.75
251.231	208.75
251.465	199.75
251.698	203.75
251.931	187.75
252.164	197.75
252.397	207.75
252.63	208.75
252.863	204.75
253.096	202.75
253.329	227.75
253.562	204.75
253.795	201.75
254.028	188.75
254.261	216.75
254.494	223.75
254.727	243.75
254.96	255.75
255.193	238.75
255.426	210.75
255.659	220.75
255.892	234.75
256.124	227.75
256.357	229.75
256.59	198.75
256.823	210.75
257.056	219.75
257.289	196.75
257.521	215.75
257.754	227.75
257.987	218.75
258.22	215.75
258.452	201.75
258.685	224.75
258.918	221.75
259.151	210.75
259.383	221.75
259.616	235.75
259.849	224.75
260.081	227.75
260.314	236.75
260.547	245.75
260.779	223.75
261.012	224.75
261.244	232.75
261.477	223.75
261.71	213.75
261.942	211.75
262.175	217.75
262.407	227.75
262.64	223.75
262.872	237.75
263.105	236.75
263.337	245.75
263.57	213.75
263.802	233.75
264.035	229.75
264.267	223.75
264.499	226.75
264.732	235.75
264.964	244.75
265.197	224.75
265.429	226.75
265.661	242.75
265.894	228.75
266.126	232.75
266.358	243.75
266.591	225.75
266.823	249.75
267.055	239.75
267.287	238.75
267.52	234.75
267.752	249.75
267.984	247.75
268.216	240.75
268.448	250.75
268.681	251.75
268.913	259.75
269.145	256.75
269.377	281.75
269.609	270.75
269.841	271.75
270.073	269.75
270.306	287.75
270.538	290.75
270.77	319.75
271.002	281.75
271.234	292.75
271.466	281.75
271.698	291.75
271.93	295.75
272.162	296.75
272.394	292.75
272.626	284.75
272.858	283.75
273.09	297.75
273.322	285.75
273.553	282.75
273.785	289.75
274.017	264.75
274.249	283.75
274.481	276.75
274.713	281.75
274.945	278.75
275.176	294.75
275.408	297.75
275.64	289.75
275.872	271.75
276.104	296.75
276.335	299.75
276.567	267.75
276.799	279.75
277.031	298.75
277.262	312.75
277.494	329.75
277.726	332.75
277.957	290.75
278.189	287.75
278.421	287.75
278.652	290.75
278.884	283.75
279.115	292.75
279.347	291.75
279.579	305.75
279.81	294.75
280.042	287.75
280.273	298.75
280.505	299.75
280.736	303.75
280.968	309.75
281.199	308.75
281.431	297.75
281.662	313.75
281.894	306.75
282.125	319.75
282.356	325.75
282.588	313.75
282.819	324.75
283.051	326.75
283.282	313.75
283.513	316.75
283.745	320.75
283.976	315.75
284.207	325.75
284.439	328.75
284.67	322.75
284.901	334.75
285.132	323.75
285.364	309.75
285.595	348.75
285.826	315.75
286.057	327.75
286.288	326.75
286.52	319.75
286.751	310.75
286.982	329.75
287.213	322.75
287.444	335.75
287.675	331.75
287.906	341.75
288.138	364.75
288.369	339.75
288.6	337.75
288.831	332.75
289.062	341.75
289.293	343.75
289.524	351.75
289.755	340.75
289.986	333.75
290.217	335.75
290.448	346.75
290.679	333.75
290.91	341.75
291.141	335.75
291.371	352.75
291.602	339.75
291.833	333.75
292.064	329.75
292.295	340.75
292.526	344.75
292.757	349.75
292.987	327.75
293.218	327.75
293.449	353.75
293.68	354.75
293.91	330.75
294.141	325.75
294.372	338.75
294.603	337.75
294.833	355.75
295.064	344.75
295.295	323.75
295.525	356.75
295.756	360.75
295.987	374.75
296.217	361.75
296.448	360.75
296.679	360.75
296.909	355.75
297.14	353.75
297.37	369.75
297.601	365.75
297.831	357.75
298.062	363.75
298.292	362.75
298.523	370.75
298.753	387.75
298.984	356.75
299.214	369.75
299.445	361.75
299.675	368.75
299.905	389.75
300.136	377.75
300.366	365.75
300.597	387.75
300.827	374.75
301.057	404.75
301.288	388.75
301.518	387.75
301.748	387.75
301.979	372.75
302.209	406.75
302.439	387.75
302.669	383.75
302.9	380.75
303.13	387.75
303.36	391.75
303.59	379.75
303.82	386.75
304.051	402.75
304.281	379.75
304.511	397.75
304.741	371.75
304.971	378.75
305.201	374.75
305.431	393.75
305.661	393.75
305.891	384.75
306.121	373.75
306.352	395.75
306.582	390.75
306.812	383.75
307.042	396.75
307.272	396.75
307.502	396.75
307.731	398.75
307.961	408.75
308.191	391.75
308.421	386.75
308.651	389.75
308.881	369.75
309.111	388.75
309.341	369.75
309.571	375.75
309.8	389.75
310.03	402.75
310.26	394.75
310.49	406.75
310.72	403.75
310.949	419.75
311.179	417.75
311.409	426.75
311.639	409.75
311.868	415.75
312.098	408.75
312.328	422.75
312.557	423.75
312.787	410.75
313.017	404.75
313.246	420.75
313.476	425.75
313.706	417.75
313.935	425.75
314.165	435.75
314.394	434.75
314.624	444.75
314.853	413.75
315.083	419.75
315.312	423.75
315.542	435.75
315.771	422.75
316.001	427.75
316.23	441.75
316.46	414.75
316.689	411.75
316.919	444.75
317.148	456.75
317.377	438.75
317.607	411.75
317.836	437.75
318.065	431.75
318.295	426.75
318.524	432.75
318.753	417.75
318.983	428.75
319.212	416.75
319.441	414.75
319.67	435.75
319.9	415.75
320.129	428.75
320.358	404.75
320.587	413.75
320.816	446.75
321.046	448.75
321.275	442.75
321.504	445.75
321.733	424.75
321.962	439.75
322.191	446.75
322.42	455.75
322.649	436.75
322.878	455.75
323.108	468.75
323.337	462.75
323.566	469.75
323.795	489.75
324.024	484.75
324.253	564.75
324.482	666.75
324.71	908.75
324.939	1213.75
325.168	1087.75
325.397	640.75
325.626	531.75
325.855	504.75
326.084	486.75
326.313	475.75
326.542	490.75
326.77	517.75
326.999	550.75
327.228	641.75
327.457	842.75
327.686	1012.75
327.914	735.75
328.143	595.75
328.372	557.75
328.6	525.75
328.829	503.75
329.058	511.75
329.287	523.75
329.515	508.75
329.744	475.75
329.972	497.75
330.201	524.75
330.43	521.75
330.658	538.75
330.887	563.75
331.115	563.75
331.344	540.75
331.572	504.75
331.801	498.75
332.03	534.75
332.258	520.75
332.486	511.75
332.715	540.75
332.943	561.75
333.172	553.75
333.4	559.75
333.629	588.75
333.857	600.75
334.085	576.75
334.314	584.75
334.542	589.75
334.771	629.75
334.999	566.75
335.227	573.75
335.455	559.75
335.684	542.75
335.912	553.75
336.14	547.75
336.369	535.75
336.597	548.75
336.825	553.75
337.053	513.75
337.281	514.75
337.51	533.75
337.738	547.75
337.966	514.75
338.194	518.75
338.422	504.75
338.65	519.75
338.878	491.75
339.106	508.75
339.334	521.75
339.562	512.75
339.79	515.75
340.018	520.75
340.246	505.75
340.474	491.75
340.702	482.75
340.93	501.75
341.158	495.75
341.386	477.75
341.614	483.75
341.842	491.75
342.07	493.75
342.298	492.75
342.526	488.75
342.754	504.75
342.981	481.75
343.209	509.75
343.437	489.75
343.665	535.75
343.893	534.75
344.12	569.75
344.348	572.75
344.576	508.75
344.804	515.75
345.031	511.75
345.259	520.75
345.487	469.75
345.714	449.75
345.942	477.75
346.17	499.75
346.397	465.75
346.625	470.75
346.853	479.75
347.08	480.75
347.308	490.75
347.535	477.75
347.763	489.75
347.99	460.75
348.218	456.75
348.445	479.75
348.673	472.75
348.9	462.75
349.128	487.75
349.355	475.75
349.583	480.75
349.81	445.75
350.037	455.75
350.265	460.75
350.492	458.75
350.72	460.75
350.947	463.75
351.174	467.75
351.402	482.75
351.629	451.75
351.856	435.75
352.083	435.75
352.311	483.75
352.538	458.75
352.765	456.75
352.992	461.75
353.22	445.75
353.447	427.75
353.674	476.75
353.901	459.75
354.128	457.75
354.355	441.75
354.583	453.75
354.81	441.75
355.037	462.75
355.264	449.75
355.491	456.75
355.718	449.75
355.945	475.75
356.172	461.75
356.399	458.75
356.626	456.75
356.853	462.75
357.08	448.75
357.307	451.75
357.534	477.75
357.761	456.75
357.988	444.75
358.215	452.75
358.441	435.75
358.668	443.75
358.895	443.75
359.122	451.75
359.349	473.75
359.576	495.75
359.802	477.75
360.029	491.75
360.256	480.75
360.483	471.75
360.709	489.75
360.936	479.75
361.163	468.75
361.39	456.75
361.616	450.75
361.843	493.75
362.07	451.75
362.296	475.75
362.523	448.75
362.749	476.75
362.976	461.75
363.203	469.75
363.429	463.75
363.656	468.75
363.882	456.75
364.109	443.75
364.335	480.75
364.562	453.75
364.788	455.75
365.015	463.75
365.241	458.75
365.468	455.75
365.694	474.75
365.92	488.75
366.147	467.75
366.373	443.75
366.599	460.75
366.826	484.75
367.052	459.75
367.278	449.75
367.505	450.75
367.731	488.75
367.957	441.75
368.184	452.75
368.41	489.75
368.636	465.75
368.862	471.75
369.089	474.75
369.315	457.75
369.541	476.75
369.767	459.75
369.993	470.75
370.219	479.75
370.445	477.75
370.672	499.75
370.898	470.75
371.124	484.75
371.35	504.75
371.576	488.75
371.802	503.75
372.028	505.75
372.254	499.75
372.48	477.75
372.706	501.75
372.932	535.75
373.158	488.75
373.384	493.75
373.61	500.75
373.835	488.75
374.061	488.75
374.287	480.75
374.513	504.75
374.739	508.75
374.965	540.75
375.191	529.75
375.416	529.75
375.642	522.75
375.868	516.75
376.094	488.75
376.319	483.75
376.545	490.75
376.771	482.75
376.997	484.75
377.222	483.75
377.448	486.75
377.674	488.75
377.899	479.75
378.125	484.75
378.35	531.75
378.576	473.75
378.802	482.75
379.027	476.75
379.253	491.75
379.478	507.75
379.704	497.75
379.929	497.75
380.155	471.75
380.38	481.75
380.606	481.75
380.831	498.75
381.057	516.75
381.282	488.75
381.507	503.75
381.733	500.75
381.958	491.75
382.184	486.75
382.409	500.75
382.634	487.75
382.86	507.75
383.085	511.75
383.31	537.75
383.535	537.75
383.761	523.75
383.986	527.75
384.211	545.75
384.436	546.75
384.662	550.75
384.887	552.75
385.112	554.75
385.337	564.75
385.562	569.75
385.787	560.75
386.013	595.75
386.238	566.75
386.463	554.75
386.688	557.75
386.913	531.75
387.138	580.75
387.363	575.75
387.588	580.75
387.813	577.75
388.038	588.75
388.263	568.75
388.488	543.75
388.713	566.75
388.938	567.75
389.163	554.75
389.387	556.75
389.612	543.75
389.837	549.75
390.062	540.75
390.287	558.75
390.512	563.75
390.736	563.75
390.961	575.75
391.186	583.75
391.411	576.75
391.636	596.75
391.86	589.75
392.085	604.75
392.31	621.75
392.534	614.75
392.759	585.75
392.984	568.75
393.208	602.75
393.433	599.75
393.658	607.75
393.882	590.75
394.107	587.75
394.331	573.75
394.556	577.75
394.78	599.75
395.005	596.75
395.229	584.75
395.454	590.75
395.678	611.75
395.903	613.75
396.127	615.75
396.352	613.75
396.576	600.75
396.801	612.75
397.025	605.75
397.249	606.75
397.474	609.75
397.698	603.75
397.922	651.75
398.147	647.75
398.371	633.75
398.595	640.75
398.82	651.75
399.044	688.75
399.268	744.75
399.492	817.75
399.717	897.75
399.941	920.75
400.165	891.75
400.389	778.75
400.613	749.75
400.837	722.75
401.062	685.75
401.286	653.75
401.51	665.75
401.734	675.75
401.958	666.75
402.182	687.75
402.406	663.75
402.63	690.75
402.854	684.75
403.078	699.75
403.302	730.75
403.526	707.75
403.75	742.75
403.974	722.75
404.198	737.75
404.422	753.75
404.645	719.75
404.869	732.75
405.093	756.75
405.317	776.75
405.541	801.75
405.765	748.75
405.988	721.75
406.212	723.75
406.436	744.75
406.66	758.75
406.883	775.75
407.107	802.75
407.331	827.75
407.555	889.75
407.778	851.75
408.002	825.75
408.226	788.75
408.449	785.75
408.673	760.75
408.896	777.75
409.12	786.75
409.344	771.75
409.567	739.75
409.791	720.75
410.014	735.75
410.238	724.75
410.461	740.75
410.685	711.75
410.908	712.75
411.132	721.75
411.355	721.75
411.578	754.75
411.802	730.75
412.025	691.75
412.249	708.75
412.472	718.75
412.695	731.75
412.919	730.75
413.142	695.75
413.365	695.75
413.589	672.75
413.812	677.75
414.035	627.75
414.258	649.75
414.482	663.75
414.705	663.75
414.928	677.75
415.151	695.75
415.374	678.75
415.597	676.75
415.821	656.75
416.044	669.75
416.267	661.75
416.49	649.75
416.713	651.75
416.936	657.75
417.159	657.75
417.382	658.75
417.605	654.75
417.828	671.75
418.051	681.75
418.274	658.75
418.497	670.75
418.72	660.75
418.943	667.75
419.166	709.75
419.389	738.75
419.611	736.75
419.834	693.75
420.057	665.75
420.28	695.75
420.503	689.75
420.726	657.75
420.948	659.75
421.171	689.75
421.394	723.75
421.617	700.75
421.839	655.75
422.062	652.75
422.285	674.75
422.507	740.75
422.73	785.75
422.953	737.75
423.175	691.75
423.398	703.75
423.621	699.75
423.843	717.75
424.066	715.75
424.288	697.75
424.511	729.75
424.733	749.75
424.956	776.75
425.178	759.75
425.401	751.75
425.623	756.75
425.846	705.75
426.068	686.75
426.291	685.75
426.513	664.75
426.735	691.75
426.958	705.75
427.18	730.75
427.402	825.75
427.625	868.75
427.847	771.75
428.069	696.75
428.292	655.75
428.514	636.75
428.736	639.75
428.958	643.75
429.181	630.75
429.403	611.75
429.625	630.75
429.847	641.75
430.069	658.75
430.292	689.75
430.514	618.75
430.736	623.75
430.958	611.75
431.18	609.75
431.402	618.75
431.624	629.75
431.846	597.75
432.068	596.75
432.29	615.75
432.512	620.75
432.734	611.75
432.956	620.75
433.178	611.75
433.4	621.75
433.622	617.75
433.844	613.75
434.066	617.75
434.287	634.75
434.509	646.75
434.731	660.75
434.953	691.75
435.175	667.75
435.397	711.75
435.618	677.75
435.84	667.75
436.062	739.75
436.284	772.75
436.505	673.75
436.727	659.75
436.949	625.75
437.17	624.75
437.392	614.75
437.614	615.75
437.835	619.75
438.057	681.75
438.278	708.75
438.5	755.75
438.721	803.75
438.943	781.75
439.165	652.75
439.386	646.75
439.608	635.75
439.829	643.75
440.05	657.75
440.272	677.75
440.493	666.75
440.715	630.75
440.936	635.75
441.158	639.75
441.379	628.75
441.6	655.75
441.822	682.75
442.043	717.75
442.264	736.75
442.486	771.75
442.707	700.75
442.928	679.75
443.149	675.75
443.371	684.75
443.592	696.75
443.813	789.75
444.034	839.75
444.255	782.75
444.476	730.75
444.698	748.75
444.919	748.75
445.14	868.75
445.361	781.75
445.582	705.75
445.803	712.75
446.024	759.75
446.245	801.75
446.466	727.75
446.687	653.75
446.908	647.75
447.129	606.75
447.35	602.75
447.571	615.75
447.792	577.75
448.013	598.75
448.234	608.75
448.455	630.75
448.675	687.75
448.896	775.75
449.117	695.75
449.338	668.75
449.559	709.75
449.779	787.75
450	679.75
450.221	604.75
450.442	589.75
450.662	593.75
450.883	581.75
451.104	594.75
451.324	598.75
451.545	570.75
451.766	585.75
451.986	549.75
452.207	548.75
452.428	570.75
452.648	575.75
452.869	546.75
453.089	564.75
453.31	565.75
453.53	569.75
453.751	539.75
453.971	539.75
454.192	574.75
454.412	573.75
454.633	517.75
454.853	532.75
455.073	529.75
455.294	548.75
455.514	579.75
455.734	571.75
455.955	547.75
456.175	525.75
456.395	533.75
456.616	518.75
456.836	543.75
457.056	528.75
457.276	555.75
457.497	529.75
457.717	522.75
457.937	557.75
458.157	548.75
458.377	554.75
458.598	551.75
458.818	602.75
459.038	653.75
459.258	671.75
459.478	628.75
459.698	617.75
459.918	609.75
460.138	647.75
460.358	670.75
460.578	693.75
460.798	674.75
461.018	687.75
461.238	693.75
461.458	665.75
461.678	680.75
461.898	714.75
462.118	689.75
462.338	697.75
462.558	714.75
462.777	755.75
462.997	793.75
463.217	794.75
463.437	838.75
463.657	757.75
463.876	774.75
464.096	742.75
464.316	759.75
464.536	743.75
464.755	727.75
464.975	709.75
465.195	714.75
465.414	714.75
465.634	677.75
465.854	655.75
466.073	639.75
466.293	599.75
466.512	602.75
466.732	574.75
466.951	577.75
467.171	567.75
467.391	599.75
467.61	588.75
467.829	605.75
468.049	587.75
468.268	571.75
468.488	582.75
468.707	554.75
468.927	567.75
469.146	579.75
469.365	584.75
469.585	568.75
469.804	577.75
470.023	604.75
470.243	587.75
470.462	627.75
470.681	625.75
470.901	622.75
471.12	587.75
471.339	618.75
471.558	604.75
471.777	602.75
471.997	574.75
472.216	602.75
472.435	594.75
472.654	594.75
472.873	562.75
473.092	577.75
473.311	568.75
473.53	567.75
473.749	586.75
473.968	601.75
474.187	665.75
474.406	667.75
474.625	631.75
474.844	594.75
475.063	566.75
475.282	587.75
475.501	591.75
475.72	588.75
475.939	599.75
476.158	621.75
476.377	591.75
476.596	611.75
476.814	615.75
477.033	601.75
477.252	615.75
477.471	620.75
477.69	652.75
477.908	661.75
478.127	677.75
478.346	667.75
478.564	668.75
478.783	675.75
479.002	699.75
479.22	697.75
479.439	685.75
479.658	704.75
479.876	724.75
480.095	735.75
480.313	768.75
480.532	751.75
480.751	746.75
480.969	744.75
481.188	752.75
481.406	787.75
481.624	723.75
481.843	700.75
482.061	678.75
482.28	685.75
482.498	680.75
482.717	670.75
482.935	664.75
483.153	676.75
483.372	677.75
483.59	703.75
483.808	676.75
484.027	666.75
484.245	685.75
484.463	674.75
484.681	694.75
484.9	655.75
485.118	715.75
485.336	695.75
485.554	688.75
485.772	695.75
485.99	713.75
486.209	708.75
486.427	701.75
486.645	712.75
486.863	725.75
487.081	725.75
487.299	722.75
487.517	724.75
487.735	727.75
487.953	701.75
488.171	712.75
488.389	705.75
488.607	703.75
488.825	721.75
489.043	712.75
489.261	710.75
489.479	725.75
489.696	741.75
489.914	735.75
490.132	691.75
490.35	739.75
490.568	724.75
490.786	724.75
491.003	759.75
491.221	759.75
491.439	761.75
491.657	777.75
491.874	798.75
492.092	771.75
492.31	791.75
492.527	786.75
492.745	779.75
492.963	795.75
493.18	793.75
493.398	831.75
493.615	823.75
493.833	809.75
494.05	796.75
494.268	799.75
494.485	817.75
494.703	848.75
494.92	834.75
495.138	812.75
495.355	821.75
495.573	830.75
495.79	817.75
496.008	811.75
496.225	840.75
496.442	831.75
496.66	858.75
496.877	841.75
497.094	844.75
497.312	853.75
497.529	880.75
497.746	905.75
497.963	934.75
498.181	973.75
498.398	966.75
498.615	1009.75
498.832	1033.75
499.049	1104.75
499.267	1157.75
499.484	1235.75
499.701	1314.75
499.918	1441.75
500.135	1502.75
500.352	1659.75
500.569	1740.75
500.786	1727.75
501.003	1652.75
501.22	1520.75
501.437	1403.75
501.654	1308.75
