Data from 1963.PennyLincolnUp.Lamp.En5.5.200Scan.071719.P1._HRD10591_13-58-54-063.txt Node
Date: Thu Jul 18 13:58:54 EDT 2019
User: cochatt
Spectrometer: HR+D1059
Trigger mode: 1
Integration Time (sec): 1.000000E-1
Scans to average: 1
Electric dark correction enabled: true
Nonlinearity correction enabled: false
Boxcar width: 0
XAxis mode: Wavelengths
Number of Pixels in Spectrum: 2048
>>>>>Begin Spectral Data<<<<<
223.165	-5.38
223.4	-5.38
223.635	-5.38
223.869	-17.38
224.104	-10.38
224.338	-11.38
224.573	-11.38
224.808	-18.38
225.042	-7.38
225.277	-5.38
225.511	-18.38
225.746	-0.38
225.98	-5.38
226.215	13.62
226.449	15.62
226.683	30.62
226.918	28.62
227.152	22.62
227.387	40.62
227.621	55.62
227.856	52.62
228.09	46.62
228.324	56.62
228.559	57.62
228.793	62.62
229.027	103.62
229.262	117.62
229.496	93.62
229.73	138.62
229.964	150.62
230.199	115.62
230.433	124.62
230.667	101.62
230.901	125.62
231.136	114.62
231.37	107.62
231.604	107.62
231.838	114.62
232.072	108.62
232.306	126.62
232.541	119.62
232.775	125.62
233.009	122.62
233.243	113.62
233.477	126.62
233.711	126.62
233.945	115.62
234.179	117.62
234.413	123.62
234.647	132.62
234.881	120.62
235.115	112.62
235.349	118.62
235.583	125.62
235.817	125.62
236.051	136.62
236.285	137.62
236.519	131.62
236.753	130.62
236.987	132.62
237.221	183.62
237.455	211.62
237.689	166.62
237.922	132.62
238.156	158.62
238.39	132.62
238.624	152.62
238.858	138.62
239.091	131.62
239.325	126.62
239.559	147.62
239.793	131.62
240.027	141.62
240.26	147.62
240.494	158.62
240.728	157.62
240.961	173.62
241.195	159.62
241.429	151.62
241.662	144.62
241.896	143.62
242.13	129.62
242.363	135.62
242.597	152.62
242.83	150.62
243.064	155.62
243.298	143.62
243.531	141.62
243.765	146.62
243.998	173.62
244.232	147.62
244.465	154.62
244.699	158.62
244.932	180.62
245.166	162.62
245.399	160.62
245.633	160.62
245.866	165.62
246.099	162.62
246.333	144.62
246.566	172.62
246.8	169.62
247.033	166.62
247.266	172.62
247.5	175.62
247.733	194.62
247.966	202.62
248.2	190.62
248.433	194.62
248.666	203.62
248.899	192.62
249.133	215.62
249.366	207.62
249.599	208.62
249.832	202.62
250.066	181.62
250.299	195.62
250.532	217.62
250.765	219.62
250.998	215.62
251.231	224.62
251.465	230.62
251.698	208.62
251.931	228.62
252.164	208.62
252.397	218.62
252.63	222.62
252.863	220.62
253.096	249.62
253.329	231.62
253.562	236.62
253.795	242.62
254.028	242.62
254.261	230.62
254.494	235.62
254.727	279.62
254.96	272.62
255.193	294.62
255.426	271.62
255.659	243.62
255.892	232.62
256.124	256.62
256.357	269.62
256.59	248.62
256.823	215.62
257.056	248.62
257.289	249.62
257.521	222.62
257.754	235.62
257.987	233.62
258.22	255.62
258.452	202.62
258.685	245.62
258.918	226.62
259.151	250.62
259.383	248.62
259.616	236.62
259.849	234.62
260.081	250.62
260.314	266.62
260.547	287.62
260.779	269.62
261.012	263.62
261.244	264.62
261.477	243.62
261.71	229.62
261.942	256.62
262.175	242.62
262.407	247.62
262.64	235.62
262.872	257.62
263.105	238.62
263.337	256.62
263.57	230.62
263.802	237.62
264.035	238.62
264.267	245.62
264.499	223.62
264.732	254.62
264.964	236.62
265.197	231.62
265.429	239.62
265.661	257.62
265.894	248.62
266.126	261.62
266.358	245.62
266.591	257.62
266.823	265.62
267.055	250.62
267.287	263.62
267.52	278.62
267.752	270.62
267.984	263.62
268.216	262.62
268.448	263.62
268.681	280.62
268.913	267.62
269.145	273.62
269.377	310.62
269.609	304.62
269.841	304.62
270.073	312.62
270.306	335.62
270.538	342.62
270.77	325.62
271.002	309.62
271.234	295.62
271.466	303.62
271.698	317.62
271.93	341.62
272.162	326.62
272.394	339.62
272.626	335.62
272.858	324.62
273.09	300.62
273.322	320.62
273.553	311.62
273.785	292.62
274.017	300.62
274.249	291.62
274.481	309.62
274.713	307.62
274.945	311.62
275.176	301.62
275.408	304.62
275.64	311.62
275.872	319.62
276.104	322.62
276.335	300.62
276.567	310.62
276.799	312.62
277.031	332.62
277.262	335.62
277.494	350.62
277.726	343.62
277.957	320.62
278.189	341.62
278.421	326.62
278.652	305.62
278.884	318.62
279.115	318.62
279.347	341.62
279.579	312.62
279.81	333.62
280.042	307.62
280.273	333.62
280.505	302.62
280.736	322.62
280.968	317.62
281.199	328.62
281.431	327.62
281.662	323.62
281.894	318.62
282.125	325.62
282.356	336.62
282.588	354.62
282.819	342.62
283.051	342.62
283.282	341.62
283.513	327.62
283.745	334.62
283.976	335.62
284.207	344.62
284.439	359.62
284.67	335.62
284.901	330.62
285.132	341.62
285.364	334.62
285.595	338.62
285.826	356.62
286.057	357.62
286.288	329.62
286.52	350.62
286.751	343.62
286.982	347.62
287.213	331.62
287.444	349.62
287.675	359.62
287.906	342.62
288.138	368.62
288.369	362.62
288.6	378.62
288.831	367.62
289.062	358.62
289.293	377.62
289.524	349.62
289.755	374.62
289.986	355.62
290.217	356.62
290.448	354.62
290.679	365.62
290.91	352.62
291.141	367.62
291.371	377.62
291.602	351.62
291.833	353.62
292.064	372.62
292.295	366.62
292.526	366.62
292.757	366.62
292.987	355.62
293.218	375.62
293.449	364.62
293.68	365.62
293.91	359.62
294.141	366.62
294.372	365.62
294.603	363.62
294.833	362.62
295.064	383.62
295.295	376.62
295.525	382.62
295.756	396.62
295.987	384.62
296.217	395.62
296.448	394.62
296.679	377.62
296.909	382.62
297.14	388.62
297.37	374.62
297.601	376.62
297.831	390.62
298.062	367.62
298.292	395.62
298.523	382.62
298.753	397.62
298.984	401.62
299.214	399.62
299.445	380.62
299.675	399.62
299.905	403.62
300.136	385.62
300.366	399.62
300.597	381.62
300.827	383.62
301.057	396.62
301.288	399.62
301.518	414.62
301.748	446.62
301.979	404.62
302.209	415.62
302.439	438.62
302.669	421.62
302.9	406.62
303.13	403.62
303.36	400.62
303.59	412.62
303.82	421.62
304.051	426.62
304.281	435.62
304.511	414.62
304.741	408.62
304.971	406.62
305.201	414.62
305.431	409.62
305.661	420.62
305.891	417.62
306.121	408.62
306.352	405.62
306.582	405.62
306.812	408.62
307.042	422.62
307.272	412.62
307.502	405.62
307.731	420.62
307.961	408.62
308.191	408.62
308.421	398.62
308.651	417.62
308.881	420.62
309.111	412.62
309.341	400.62
309.571	443.62
309.8	434.62
310.03	413.62
310.26	447.62
310.49	443.62
310.72	446.62
310.949	448.62
311.179	474.62
311.409	466.62
311.639	427.62
311.868	467.62
312.098	454.62
312.328	458.62
312.557	473.62
312.787	470.62
313.017	475.62
313.246	476.62
313.476	452.62
313.706	462.62
313.935	463.62
314.165	473.62
314.394	444.62
314.624	461.62
314.853	446.62
315.083	453.62
315.312	472.62
315.542	446.62
315.771	471.62
316.001	460.62
316.23	459.62
316.46	438.62
316.689	442.62
316.919	469.62
317.148	459.62
317.377	482.62
317.607	462.62
317.836	443.62
318.065	482.62
318.295	442.62
318.524	470.62
318.753	456.62
318.983	468.62
319.212	454.62
319.441	460.62
319.67	464.62
319.9	443.62
320.129	465.62
320.358	441.62
320.587	454.62
320.816	456.62
321.046	468.62
321.275	469.62
321.504	459.62
321.733	459.62
321.962	504.62
322.191	470.62
322.42	493.62
322.649	495.62
322.878	508.62
323.108	494.62
323.337	532.62
323.566	548.62
323.795	557.62
324.024	590.62
324.253	649.62
324.482	839.62
324.71	1201.62
324.939	1663.62
325.168	1495.62
325.397	821.62
325.626	636.62
325.855	542.62
326.084	548.62
326.313	525.62
326.542	546.62
326.77	553.62
326.999	647.62
327.228	759.62
327.457	1130.62
327.686	1321.62
327.914	950.62
328.143	668.62
328.372	632.62
328.6	597.62
328.829	578.62
329.058	609.62
329.287	594.62
329.515	568.62
329.744	575.62
329.972	563.62
330.201	575.62
330.43	606.62
330.658	632.62
330.887	613.62
331.115	628.62
331.344	574.62
331.572	568.62
331.801	575.62
332.03	596.62
332.258	576.62
332.486	570.62
332.715	562.62
332.943	558.62
333.172	586.62
333.4	620.62
333.629	619.62
333.857	662.62
334.085	640.62
334.314	657.62
334.542	656.62
334.771	700.62
334.999	617.62
335.227	631.62
335.455	606.62
335.684	584.62
335.912	568.62
336.14	583.62
336.369	597.62
336.597	596.62
336.825	583.62
337.053	594.62
337.281	574.62
337.51	570.62
337.738	524.62
337.966	555.62
338.194	526.62
338.422	566.62
338.65	547.62
338.878	580.62
339.106	542.62
339.334	560.62
339.562	566.62
339.79	546.62
340.018	526.62
340.246	534.62
340.474	546.62
340.702	540.62
340.93	542.62
341.158	518.62
341.386	535.62
341.614	544.62
341.842	536.62
342.07	527.62
342.298	517.62
342.526	533.62
342.754	511.62
342.981	491.62
343.209	528.62
343.437	552.62
343.665	569.62
343.893	564.62
344.12	584.62
344.348	583.62
344.576	566.62
344.804	572.62
345.031	557.62
345.259	564.62
345.487	536.62
345.714	550.62
345.942	534.62
346.17	526.62
346.397	510.62
346.625	507.62
346.853	495.62
347.08	496.62
347.308	498.62
347.535	527.62
347.763	510.62
347.99	512.62
348.218	493.62
348.445	522.62
348.673	503.62
348.9	520.62
349.128	527.62
349.355	508.62
349.583	513.62
349.81	502.62
350.037	493.62
350.265	498.62
350.492	488.62
350.72	502.62
350.947	510.62
351.174	493.62
351.402	492.62
351.629	491.62
351.856	498.62
352.083	528.62
352.311	527.62
352.538	516.62
352.765	534.62
352.992	508.62
353.22	516.62
353.447	519.62
353.674	501.62
353.901	507.62
354.128	480.62
354.355	494.62
354.583	492.62
354.81	469.62
355.037	496.62
355.264	454.62
355.491	484.62
355.718	496.62
355.945	500.62
356.172	491.62
356.399	480.62
356.626	499.62
356.853	502.62
357.08	491.62
357.307	483.62
357.534	515.62
357.761	493.62
357.988	501.62
358.215	507.62
358.441	489.62
358.668	520.62
358.895	498.62
359.122	516.62
359.349	513.62
359.576	503.62
359.802	527.62
360.029	528.62
360.256	533.62
360.483	524.62
360.709	512.62
360.936	527.62
361.163	480.62
361.39	510.62
361.616	508.62
361.843	487.62
362.07	507.62
362.296	501.62
362.523	504.62
362.749	502.62
362.976	531.62
363.203	509.62
363.429	491.62
363.656	486.62
363.882	492.62
364.109	478.62
364.335	478.62
364.562	507.62
364.788	484.62
365.015	487.62
365.241	484.62
365.468	485.62
365.694	507.62
365.92	506.62
366.147	498.62
366.373	483.62
366.599	479.62
366.826	515.62
367.052	482.62
367.278	499.62
367.505	494.62
367.731	473.62
367.957	501.62
368.184	507.62
368.41	514.62
368.636	517.62
368.862	512.62
369.089	526.62
369.315	510.62
369.541	492.62
369.767	508.62
369.993	518.62
370.219	514.62
370.445	503.62
370.672	504.62
370.898	495.62
371.124	514.62
371.35	518.62
371.576	524.62
371.802	520.62
372.028	489.62
372.254	522.62
372.48	509.62
372.706	539.62
372.932	510.62
373.158	538.62
373.384	509.62
373.61	522.62
373.835	538.62
374.061	525.62
374.287	519.62
374.513	509.62
374.739	517.62
374.965	550.62
375.191	562.62
375.416	551.62
375.642	547.62
375.868	548.62
376.094	560.62
376.319	541.62
376.545	533.62
376.771	514.62
376.997	534.62
377.222	526.62
377.448	535.62
377.674	528.62
377.899	492.62
378.125	518.62
378.35	519.62
378.576	525.62
378.802	518.62
379.027	518.62
379.253	520.62
379.478	521.62
379.704	520.62
379.929	496.62
380.155	530.62
380.38	522.62
380.606	513.62
380.831	514.62
381.057	507.62
381.282	536.62
381.507	525.62
381.733	528.62
381.958	522.62
382.184	521.62
382.409	526.62
382.634	531.62
382.86	534.62
383.085	546.62
383.31	542.62
383.535	543.62
383.761	544.62
383.986	568.62
384.211	558.62
384.436	574.62
384.662	575.62
384.887	586.62
385.112	602.62
385.337	606.62
385.562	594.62
385.787	608.62
386.013	608.62
386.238	604.62
386.463	595.62
386.688	611.62
386.913	600.62
387.138	617.62
387.363	592.62
387.588	592.62
387.813	598.62
388.038	587.62
388.263	594.62
388.488	596.62
388.713	608.62
388.938	586.62
389.163	596.62
389.387	571.62
389.612	598.62
389.837	591.62
390.062	592.62
390.287	597.62
390.512	600.62
390.736	608.62
390.961	603.62
391.186	602.62
391.411	620.62
391.636	647.62
391.86	623.62
392.085	642.62
392.31	648.62
392.534	631.62
392.759	618.62
392.984	630.62
393.208	620.62
393.433	598.62
393.658	621.62
393.882	612.62
394.107	584.62
394.331	615.62
394.556	604.62
394.78	634.62
395.005	613.62
395.229	630.62
395.454	638.62
395.678	646.62
395.903	656.62
396.127	642.62
396.352	658.62
396.576	642.62
396.801	653.62
397.025	639.62
397.249	647.62
397.474	641.62
397.698	660.62
397.922	655.62
398.147	663.62
398.371	681.62
398.595	694.62
398.82	699.62
399.044	747.62
399.268	812.62
399.492	857.62
399.717	952.62
399.941	966.62
400.165	942.62
400.389	897.62
400.613	809.62
400.837	747.62
401.062	735.62
401.286	740.62
401.51	718.62
401.734	701.62
401.958	707.62
402.182	726.62
402.406	720.62
402.63	759.62
402.854	741.62
403.078	740.62
403.302	748.62
403.526	761.62
403.75	778.62
403.974	773.62
404.198	803.62
404.422	811.62
404.645	766.62
404.869	789.62
405.093	783.62
405.317	841.62
405.541	854.62
405.765	818.62
405.988	792.62
406.212	794.62
406.436	815.62
406.66	830.62
406.883	859.62
407.107	818.62
407.331	916.62
407.555	950.62
407.778	932.62
408.002	893.62
408.226	884.62
408.449	829.62
408.673	804.62
408.896	831.62
409.12	844.62
409.344	834.62
409.567	758.62
409.791	783.62
410.014	759.62
410.238	739.62
410.461	757.62
410.685	779.62
410.908	776.62
411.132	790.62
411.355	808.62
411.578	767.62
411.802	748.62
412.025	743.62
412.249	750.62
412.472	791.62
412.695	820.62
412.919	777.62
413.142	750.62
413.365	740.62
413.589	712.62
413.812	737.62
414.035	708.62
414.258	717.62
414.482	719.62
414.705	711.62
414.928	718.62
415.151	711.62
415.374	692.62
415.597	689.62
415.821	692.62
416.044	681.62
416.267	706.62
416.49	687.62
416.713	699.62
416.936	700.62
417.159	691.62
417.382	696.62
417.605	699.62
417.828	732.62
418.051	710.62
418.274	709.62
418.497	718.62
418.72	719.62
418.943	714.62
419.166	739.62
419.389	784.62
419.611	790.62
419.834	763.62
420.057	746.62
420.28	770.62
420.503	735.62
420.726	716.62
420.948	730.62
421.171	723.62
421.394	774.62
421.617	742.62
421.839	712.62
422.062	719.62
422.285	741.62
422.507	792.62
422.73	838.62
422.953	822.62
423.175	736.62
423.398	719.62
423.621	742.62
423.843	788.62
424.066	769.62
424.288	761.62
424.511	770.62
424.733	819.62
424.956	875.62
425.178	836.62
425.401	842.62
425.623	860.62
425.846	775.62
426.068	732.62
426.291	734.62
426.513	715.62
426.735	738.62
426.958	740.62
427.18	812.62
427.402	921.62
427.625	997.62
427.847	876.62
428.069	788.62
428.292	749.62
428.514	687.62
428.736	693.62
428.958	676.62
429.181	661.62
429.403	674.62
429.625	680.62
429.847	698.62
430.069	734.62
430.292	758.62
430.514	662.62
430.736	678.62
430.958	691.62
431.18	642.62
431.402	661.62
431.624	663.62
431.846	670.62
432.068	662.62
432.29	675.62
432.512	644.62
432.734	674.62
432.956	646.62
433.178	682.62
433.4	640.62
433.622	653.62
433.844	653.62
434.066	648.62
434.287	660.62
434.509	674.62
434.731	692.62
434.953	702.62
435.175	731.62
435.397	758.62
435.618	735.62
435.84	743.62
436.062	810.62
436.284	848.62
436.505	748.62
436.727	723.62
436.949	662.62
437.17	649.62
437.392	672.62
437.614	655.62
437.835	684.62
438.057	767.62
438.278	855.62
438.5	827.62
438.721	886.62
438.943	854.62
439.165	744.62
439.386	701.62
439.608	690.62
439.829	704.62
440.05	718.62
440.272	769.62
440.493	752.62
440.715	703.62
440.936	676.62
441.158	679.62
441.379	716.62
441.6	708.62
441.822	746.62
442.043	757.62
442.264	814.62
442.486	837.62
442.707	766.62
442.928	751.62
443.149	762.62
443.371	778.62
443.592	812.62
443.813	862.62
444.034	942.62
444.255	807.62
444.476	788.62
444.698	804.62
444.919	824.62
445.14	901.62
445.361	839.62
445.582	811.62
445.803	801.62
446.024	887.62
446.245	903.62
446.466	798.62
446.687	712.62
446.908	719.62
447.129	695.62
447.35	674.62
447.571	671.62
447.792	660.62
448.013	678.62
448.234	666.62
448.455	678.62
448.675	786.62
448.896	892.62
449.117	790.62
449.338	722.62
449.559	817.62
449.779	920.62
450	778.62
450.221	698.62
450.442	655.62
450.662	645.62
450.883	615.62
451.104	629.62
451.324	634.62
451.545	626.62
451.766	618.62
451.986	613.62
452.207	596.62
452.428	606.62
452.648	593.62
452.869	594.62
453.089	592.62
453.31	596.62
453.53	626.62
453.751	598.62
453.971	598.62
454.192	584.62
454.412	611.62
454.633	606.62
454.853	587.62
455.073	569.62
455.294	596.62
455.514	648.62
455.734	636.62
455.955	580.62
456.175	600.62
456.395	594.62
456.616	556.62
456.836	582.62
457.056	580.62
457.276	577.62
457.497	580.62
457.717	565.62
457.937	582.62
458.157	586.62
458.377	591.62
458.598	631.62
458.818	651.62
459.038	718.62
459.258	761.62
459.478	701.62
459.698	673.62
459.918	670.62
460.138	668.62
460.358	700.62
460.578	719.62
460.798	742.62
461.018	726.62
461.238	692.62
461.458	729.62
461.678	733.62
461.898	713.62
462.118	731.62
462.338	734.62
462.558	779.62
462.777	772.62
462.997	834.62
463.217	906.62
463.437	872.62
463.657	847.62
463.876	790.62
464.096	809.62
464.316	790.62
464.536	791.62
464.755	815.62
464.975	759.62
465.195	767.62
465.414	819.62
465.634	714.62
465.854	704.62
466.073	671.62
466.293	646.62
466.512	639.62
466.732	633.62
466.951	623.62
467.171	636.62
467.391	626.62
467.61	623.62
467.829	629.62
468.049	639.62
468.268	633.62
468.488	610.62
468.707	596.62
468.927	597.62
469.146	619.62
469.365	607.62
469.585	609.62
469.804	620.62
470.023	655.62
470.243	668.62
470.462	654.62
470.681	650.62
470.901	665.62
471.12	661.62
471.339	640.62
471.558	634.62
471.777	649.62
471.997	627.62
472.216	626.62
472.435	631.62
472.654	651.62
472.873	626.62
473.092	631.62
473.311	617.62
473.53	628.62
473.749	624.62
473.968	619.62
474.187	719.62
474.406	710.62
474.625	638.62
474.844	629.62
475.063	621.62
475.282	632.62
475.501	639.62
475.72	632.62
475.939	654.62
476.158	633.62
476.377	642.62
476.596	643.62
476.814	641.62
477.033	651.62
477.252	688.62
477.471	668.62
477.69	680.62
477.908	675.62
478.127	717.62
478.346	743.62
478.564	724.62
478.783	735.62
479.002	751.62
479.22	728.62
479.439	747.62
479.658	758.62
479.876	784.62
480.095	771.62
480.313	815.62
480.532	808.62
480.751	806.62
480.969	787.62
481.188	832.62
481.406	828.62
481.624	778.62
481.843	721.62
482.061	727.62
482.28	749.62
482.498	728.62
482.717	701.62
482.935	743.62
483.153	738.62
483.372	717.62
483.59	730.62
483.808	719.62
484.027	714.62
484.245	723.62
484.463	719.62
484.681	760.62
484.9	721.62
485.118	736.62
485.336	750.62
485.554	751.62
485.772	756.62
485.99	734.62
486.209	750.62
486.427	768.62
486.645	785.62
486.863	757.62
487.081	751.62
487.299	786.62
487.517	786.62
487.735	751.62
487.953	765.62
488.171	773.62
488.389	743.62
488.607	760.62
488.825	765.62
489.043	762.62
489.261	778.62
489.479	777.62
489.696	794.62
489.914	785.62
490.132	790.62
490.35	810.62
490.568	806.62
490.786	816.62
491.003	832.62
491.221	816.62
491.439	836.62
491.657	857.62
491.874	826.62
492.092	873.62
492.31	847.62
492.527	890.62
492.745	874.62
492.963	885.62
493.18	900.62
493.398	892.62
493.615	899.62
493.833	895.62
494.05	913.62
494.268	894.62
494.485	866.62
494.703	861.62
494.92	871.62
495.138	900.62
495.355	911.62
495.573	895.62
495.79	909.62
496.008	899.62
496.225	911.62
496.442	905.62
496.66	888.62
496.877	918.62
497.094	924.62
497.312	963.62
497.529	932.62
497.746	971.62
497.963	1001.62
498.181	1021.62
498.398	1047.62
498.615	1098.62
498.832	1149.62
499.049	1175.62
499.267	1220.62
499.484	1334.62
499.701	1421.62
499.918	1496.62
500.135	1623.62
500.352	1800.62
500.569	1807.62
500.786	1808.62
501.003	1756.62
501.22	1638.62
501.437	1528.62
501.654	1404.62
