Data from 1963.PennyLincolnUp.Lamp.En5.5.200Scan.071719.P1._HRD10591_13-59-31-063.txt Node
Date: Thu Jul 18 13:59:31 EDT 2019
User: cochatt
Spectrometer: HR+D1059
Trigger mode: 1
Integration Time (sec): 1.000000E-1
Scans to average: 1
Electric dark correction enabled: true
Nonlinearity correction enabled: false
Boxcar width: 0
XAxis mode: Wavelengths
Number of Pixels in Spectrum: 2048
>>>>>Begin Spectral Data<<<<<
223.165	-18.38
223.4	-18.38
223.635	-18.38
223.869	-7.38
224.104	-9.38
224.338	-10.38
224.573	-21.38
224.808	-1.38
225.042	-17.38
225.277	1.62
225.511	-5.38
225.746	-2.38
225.98	2.62
226.215	14.62
226.449	18.62
226.683	17.62
226.918	11.62
227.152	26.62
227.387	40.62
227.621	37.62
227.856	30.62
228.09	45.62
228.324	45.62
228.559	54.62
228.793	79.62
229.027	93.62
229.262	114.62
229.496	126.62
229.73	120.62
229.964	145.62
230.199	112.62
230.433	124.62
230.667	118.62
230.901	120.62
231.136	117.62
231.37	128.62
231.604	124.62
231.838	123.62
232.072	115.62
232.306	125.62
232.541	113.62
232.775	119.62
233.009	106.62
233.243	134.62
233.477	130.62
233.711	141.62
233.945	132.62
234.179	124.62
234.413	125.62
234.647	129.62
234.881	114.62
235.115	133.62
235.349	128.62
235.583	150.62
235.817	128.62
236.051	131.62
236.285	138.62
236.519	141.62
236.753	124.62
236.987	152.62
237.221	160.62
237.455	199.62
237.689	177.62
237.922	141.62
238.156	132.62
238.39	144.62
238.624	125.62
238.858	133.62
239.091	136.62
239.325	133.62
239.559	158.62
239.793	134.62
240.027	140.62
240.26	162.62
240.494	164.62
240.728	160.62
240.961	151.62
241.195	149.62
241.429	157.62
241.662	138.62
241.896	142.62
242.13	154.62
242.363	154.62
242.597	158.62
242.83	161.62
243.064	168.62
243.298	150.62
243.531	157.62
243.765	146.62
243.998	147.62
244.232	148.62
244.465	148.62
244.699	165.62
244.932	162.62
245.166	165.62
245.399	167.62
245.633	161.62
245.866	163.62
246.099	172.62
246.333	180.62
246.566	180.62
246.8	191.62
247.033	169.62
247.266	156.62
247.5	182.62
247.733	188.62
247.966	188.62
248.2	195.62
248.433	172.62
248.666	193.62
248.899	210.62
249.133	198.62
249.366	217.62
249.599	218.62
249.832	191.62
250.066	216.62
250.299	198.62
250.532	218.62
250.765	218.62
250.998	241.62
251.231	241.62
251.465	231.62
251.698	220.62
251.931	212.62
252.164	210.62
252.397	202.62
252.63	221.62
252.863	205.62
253.096	241.62
253.329	242.62
253.562	236.62
253.795	226.62
254.028	224.62
254.261	226.62
254.494	243.62
254.727	258.62
254.96	290.62
255.193	285.62
255.426	264.62
255.659	256.62
255.892	261.62
256.124	248.62
256.357	260.62
256.59	243.62
256.823	229.62
257.056	234.62
257.289	221.62
257.521	240.62
257.754	258.62
257.987	217.62
258.22	234.62
258.452	226.62
258.685	240.62
258.918	237.62
259.151	240.62
259.383	258.62
259.616	242.62
259.849	239.62
260.081	247.62
260.314	277.62
260.547	281.62
260.779	250.62
261.012	261.62
261.244	252.62
261.477	249.62
261.71	246.62
261.942	253.62
262.175	270.62
262.407	274.62
262.64	248.62
262.872	228.62
263.105	237.62
263.337	250.62
263.57	243.62
263.802	235.62
264.035	228.62
264.267	245.62
264.499	258.62
264.732	236.62
264.964	246.62
265.197	258.62
265.429	244.62
265.661	249.62
265.894	243.62
266.126	261.62
266.358	268.62
266.591	258.62
266.823	264.62
267.055	265.62
267.287	260.62
267.52	262.62
267.752	268.62
267.984	270.62
268.216	264.62
268.448	261.62
268.681	264.62
268.913	295.62
269.145	293.62
269.377	299.62
269.609	296.62
269.841	288.62
270.073	293.62
270.306	323.62
270.538	336.62
270.77	347.62
271.002	336.62
271.234	318.62
271.466	324.62
271.698	337.62
271.93	325.62
272.162	349.62
272.394	359.62
272.626	332.62
272.858	313.62
273.09	308.62
273.322	315.62
273.553	308.62
273.785	317.62
274.017	288.62
274.249	322.62
274.481	324.62
274.713	311.62
274.945	320.62
275.176	310.62
275.408	294.62
275.64	323.62
275.872	316.62
276.104	313.62
276.335	311.62
276.567	317.62
276.799	312.62
277.031	354.62
277.262	331.62
277.494	333.62
277.726	324.62
277.957	357.62
278.189	338.62
278.421	325.62
278.652	319.62
278.884	323.62
279.115	313.62
279.347	335.62
279.579	325.62
279.81	319.62
280.042	343.62
280.273	333.62
280.505	321.62
280.736	314.62
280.968	321.62
281.199	322.62
281.431	337.62
281.662	318.62
281.894	322.62
282.125	330.62
282.356	333.62
282.588	361.62
282.819	373.62
283.051	342.62
283.282	330.62
283.513	322.62
283.745	331.62
283.976	329.62
284.207	337.62
284.439	366.62
284.67	327.62
284.901	337.62
285.132	338.62
285.364	346.62
285.595	334.62
285.826	328.62
286.057	354.62
286.288	348.62
286.52	352.62
286.751	329.62
286.982	357.62
287.213	360.62
287.444	376.62
287.675	362.62
287.906	361.62
288.138	344.62
288.369	361.62
288.6	349.62
288.831	353.62
289.062	363.62
289.293	355.62
289.524	349.62
289.755	356.62
289.986	364.62
290.217	375.62
290.448	372.62
290.679	355.62
290.91	368.62
291.141	355.62
291.371	349.62
291.602	370.62
291.833	376.62
292.064	375.62
292.295	355.62
292.526	350.62
292.757	344.62
292.987	372.62
293.218	382.62
293.449	377.62
293.68	369.62
293.91	384.62
294.141	350.62
294.372	372.62
294.603	378.62
294.833	378.62
295.064	389.62
295.295	380.62
295.525	386.62
295.756	376.62
295.987	379.62
296.217	404.62
296.448	423.62
296.679	384.62
296.909	354.62
297.14	394.62
297.37	376.62
297.601	397.62
297.831	395.62
298.062	398.62
298.292	394.62
298.523	425.62
298.753	398.62
298.984	398.62
299.214	405.62
299.445	405.62
299.675	378.62
299.905	401.62
300.136	409.62
300.366	395.62
300.597	413.62
300.827	399.62
301.057	427.62
301.288	434.62
301.518	433.62
301.748	411.62
301.979	438.62
302.209	428.62
302.439	420.62
302.669	395.62
302.9	406.62
303.13	406.62
303.36	435.62
303.59	418.62
303.82	445.62
304.051	434.62
304.281	426.62
304.511	414.62
304.741	421.62
304.971	418.62
305.201	456.62
305.431	429.62
305.661	404.62
305.891	420.62
306.121	419.62
306.352	449.62
306.582	432.62
306.812	426.62
307.042	430.62
307.272	426.62
307.502	431.62
307.731	434.62
307.961	418.62
308.191	427.62
308.421	424.62
308.651	415.62
308.881	422.62
309.111	423.62
309.341	420.62
309.571	419.62
309.8	419.62
310.03	442.62
310.26	455.62
310.49	437.62
310.72	448.62
310.949	475.62
311.179	450.62
311.409	462.62
311.639	460.62
311.868	448.62
312.098	468.62
312.328	467.62
312.557	477.62
312.787	472.62
313.017	475.62
313.246	465.62
313.476	464.62
313.706	459.62
313.935	473.62
314.165	489.62
314.394	493.62
314.624	469.62
314.853	470.62
315.083	466.62
315.312	449.62
315.542	456.62
315.771	481.62
316.001	468.62
316.23	460.62
316.46	473.62
316.689	473.62
316.919	468.62
317.148	468.62
317.377	498.62
317.607	465.62
317.836	482.62
318.065	458.62
318.295	458.62
318.524	461.62
318.753	480.62
318.983	460.62
319.212	469.62
319.441	471.62
319.67	497.62
319.9	460.62
320.129	468.62
320.358	470.62
320.587	502.62
320.816	470.62
321.046	478.62
321.275	470.62
321.504	486.62
321.733	498.62
321.962	494.62
322.191	480.62
322.42	492.62
322.649	501.62
322.878	514.62
323.108	520.62
323.337	523.62
323.566	542.62
323.795	567.62
324.024	578.62
324.253	662.62
324.482	857.62
324.71	1245.62
324.939	1795.62
325.168	1547.62
325.397	876.62
325.626	664.62
325.855	582.62
326.084	571.62
326.313	553.62
326.542	567.62
326.77	586.62
326.999	643.62
327.228	786.62
327.457	1170.62
327.686	1423.62
327.914	965.62
328.143	674.62
328.372	634.62
328.6	622.62
328.829	615.62
329.058	633.62
329.287	635.62
329.515	588.62
329.744	577.62
329.972	562.62
330.201	589.62
330.43	624.62
330.658	634.62
330.887	640.62
331.115	636.62
331.344	616.62
331.572	580.62
331.801	581.62
332.03	589.62
332.258	595.62
332.486	588.62
332.715	578.62
332.943	577.62
333.172	590.62
333.4	611.62
333.629	638.62
333.857	643.62
334.085	667.62
334.314	673.62
334.542	678.62
334.771	676.62
334.999	649.62
335.227	636.62
335.455	589.62
335.684	605.62
335.912	590.62
336.14	595.62
336.369	580.62
336.597	582.62
336.825	619.62
337.053	592.62
337.281	572.62
337.51	576.62
337.738	536.62
337.966	565.62
338.194	569.62
338.422	540.62
338.65	557.62
338.878	564.62
339.106	543.62
339.334	546.62
339.562	564.62
339.79	545.62
340.018	548.62
340.246	526.62
340.474	572.62
340.702	535.62
340.93	539.62
341.158	533.62
341.386	551.62
341.614	533.62
341.842	553.62
342.07	550.62
342.298	555.62
342.526	549.62
342.754	525.62
342.981	538.62
343.209	526.62
343.437	551.62
343.665	584.62
343.893	574.62
344.12	599.62
344.348	590.62
344.576	592.62
344.804	576.62
345.031	576.62
345.259	591.62
345.487	544.62
345.714	544.62
345.942	516.62
346.17	517.62
346.397	513.62
346.625	520.62
346.853	517.62
347.08	518.62
347.308	507.62
347.535	540.62
347.763	535.62
347.99	537.62
348.218	523.62
348.445	519.62
348.673	518.62
348.9	539.62
349.128	508.62
349.355	512.62
349.583	511.62
349.81	502.62
350.037	510.62
350.265	507.62
350.492	498.62
350.72	511.62
350.947	501.62
351.174	522.62
351.402	525.62
351.629	514.62
351.856	514.62
352.083	537.62
352.311	537.62
352.538	512.62
352.765	502.62
352.992	509.62
353.22	506.62
353.447	506.62
353.674	518.62
353.901	496.62
354.128	497.62
354.355	491.62
354.583	501.62
354.81	499.62
355.037	481.62
355.264	492.62
355.491	511.62
355.718	479.62
355.945	514.62
356.172	497.62
356.399	493.62
356.626	490.62
356.853	485.62
357.08	502.62
357.307	492.62
357.534	472.62
357.761	486.62
357.988	492.62
358.215	511.62
358.441	503.62
358.668	499.62
358.895	511.62
359.122	499.62
359.349	487.62
359.576	504.62
359.802	521.62
360.029	550.62
360.256	556.62
360.483	523.62
360.709	526.62
360.936	545.62
361.163	516.62
361.39	506.62
361.616	501.62
361.843	487.62
362.07	537.62
362.296	525.62
362.523	508.62
362.749	534.62
362.976	518.62
363.203	542.62
363.429	483.62
363.656	496.62
363.882	499.62
364.109	497.62
364.335	522.62
364.562	503.62
364.788	498.62
365.015	487.62
365.241	512.62
365.468	497.62
365.694	506.62
365.92	494.62
366.147	489.62
366.373	501.62
366.599	493.62
366.826	506.62
367.052	500.62
367.278	508.62
367.505	497.62
367.731	524.62
367.957	524.62
368.184	486.62
368.41	509.62
368.636	522.62
368.862	529.62
369.089	548.62
369.315	513.62
369.541	517.62
369.767	519.62
369.993	500.62
370.219	531.62
370.445	512.62
370.672	506.62
370.898	527.62
371.124	494.62
371.35	502.62
371.576	537.62
371.802	535.62
372.028	492.62
372.254	533.62
372.48	512.62
372.706	540.62
372.932	540.62
373.158	524.62
373.384	550.62
373.61	514.62
373.835	536.62
374.061	506.62
374.287	534.62
374.513	540.62
374.739	577.62
374.965	568.62
375.191	566.62
375.416	537.62
375.642	553.62
375.868	523.62
376.094	531.62
376.319	541.62
376.545	520.62
376.771	523.62
376.997	521.62
377.222	525.62
377.448	535.62
377.674	540.62
377.899	521.62
378.125	512.62
378.35	519.62
378.576	535.62
378.802	502.62
379.027	533.62
379.253	515.62
379.478	508.62
379.704	503.62
379.929	516.62
380.155	514.62
380.38	533.62
380.606	514.62
380.831	519.62
381.057	521.62
381.282	518.62
381.507	495.62
381.733	538.62
381.958	550.62
382.184	537.62
382.409	530.62
382.634	563.62
382.86	524.62
383.085	548.62
383.31	552.62
383.535	553.62
383.761	578.62
383.986	575.62
384.211	577.62
384.436	592.62
384.662	594.62
384.887	588.62
385.112	628.62
385.337	598.62
385.562	584.62
385.787	617.62
386.013	630.62
386.238	616.62
386.463	633.62
386.688	614.62
386.913	607.62
387.138	605.62
387.363	589.62
387.588	588.62
387.813	599.62
388.038	593.62
388.263	594.62
388.488	626.62
388.713	610.62
388.938	621.62
389.163	573.62
389.387	595.62
389.612	608.62
389.837	600.62
390.062	582.62
390.287	606.62
390.512	598.62
390.736	583.62
390.961	607.62
391.186	611.62
391.411	637.62
391.636	654.62
391.86	637.62
392.085	658.62
392.31	646.62
392.534	636.62
392.759	617.62
392.984	622.62
393.208	630.62
393.433	647.62
393.658	626.62
393.882	611.62
394.107	612.62
394.331	645.62
394.556	640.62
394.78	635.62
395.005	644.62
395.229	641.62
395.454	666.62
395.678	688.62
395.903	678.62
396.127	659.62
396.352	650.62
396.576	643.62
396.801	631.62
397.025	637.62
397.249	640.62
397.474	644.62
397.698	654.62
397.922	673.62
398.147	676.62
398.371	686.62
398.595	693.62
398.82	702.62
399.044	778.62
399.268	807.62
399.492	871.62
399.717	939.62
399.941	981.62
400.165	962.62
400.389	889.62
400.613	807.62
400.837	787.62
401.062	726.62
401.286	745.62
401.51	719.62
401.734	722.62
401.958	730.62
402.182	759.62
402.406	756.62
402.63	779.62
402.854	755.62
403.078	748.62
403.302	800.62
403.526	767.62
403.75	753.62
403.974	807.62
404.198	785.62
404.422	772.62
404.645	812.62
404.869	784.62
405.093	825.62
405.317	876.62
405.541	878.62
405.765	827.62
405.988	796.62
406.212	812.62
406.436	805.62
406.66	860.62
406.883	837.62
407.107	873.62
407.331	877.62
407.555	993.62
407.778	1001.62
408.002	906.62
408.226	839.62
408.449	847.62
408.673	826.62
408.896	854.62
409.12	881.62
409.344	852.62
409.567	787.62
409.791	788.62
410.014	809.62
410.238	767.62
410.461	786.62
410.685	769.62
410.908	778.62
411.132	803.62
411.355	810.62
411.578	818.62
411.802	770.62
412.025	746.62
412.249	761.62
412.472	780.62
412.695	788.62
412.919	780.62
413.142	734.62
413.365	729.62
413.589	739.62
413.812	720.62
414.035	718.62
414.258	700.62
414.482	742.62
414.705	703.62
414.928	730.62
415.151	718.62
415.374	713.62
415.597	720.62
415.821	710.62
416.044	704.62
416.267	690.62
416.49	703.62
416.713	721.62
416.936	731.62
417.159	707.62
417.382	690.62
417.605	699.62
417.828	717.62
418.051	736.62
418.274	746.62
418.497	715.62
418.72	746.62
418.943	711.62
419.166	753.62
419.389	812.62
419.611	775.62
419.834	758.62
420.057	760.62
420.28	738.62
420.503	728.62
420.726	702.62
420.948	745.62
421.171	740.62
421.394	803.62
421.617	737.62
421.839	741.62
422.062	708.62
422.285	749.62
422.507	792.62
422.73	820.62
422.953	845.62
423.175	776.62
423.398	770.62
423.621	761.62
423.843	804.62
424.066	796.62
424.288	784.62
424.511	774.62
424.733	838.62
424.956	889.62
425.178	898.62
425.401	843.62
425.623	889.62
425.846	790.62
426.068	782.62
426.291	747.62
426.513	735.62
426.735	709.62
426.958	764.62
427.18	846.62
427.402	914.62
427.625	972.62
427.847	908.62
428.069	806.62
428.292	749.62
428.514	722.62
428.736	704.62
428.958	697.62
429.181	666.62
429.403	672.62
429.625	688.62
429.847	673.62
430.069	782.62
430.292	764.62
430.514	680.62
430.736	694.62
430.958	656.62
431.18	643.62
431.402	667.62
431.624	620.62
431.846	674.62
432.068	668.62
432.29	679.62
432.512	654.62
432.734	686.62
432.956	693.62
433.178	677.62
433.4	669.62
433.622	653.62
433.844	668.62
434.066	680.62
434.287	651.62
434.509	704.62
434.731	720.62
434.953	709.62
435.175	731.62
435.397	756.62
435.618	754.62
435.84	759.62
436.062	826.62
436.284	866.62
436.505	745.62
436.727	733.62
436.949	679.62
437.17	676.62
437.392	664.62
437.614	706.62
437.835	690.62
438.057	779.62
438.278	841.62
438.5	842.62
438.721	913.62
438.943	888.62
439.165	759.62
439.386	705.62
439.608	711.62
439.829	716.62
440.05	744.62
440.272	771.62
440.493	721.62
440.715	720.62
440.936	734.62
441.158	721.62
441.379	692.62
441.6	723.62
441.822	753.62
442.043	784.62
442.264	858.62
442.486	836.62
442.707	813.62
442.928	745.62
443.149	759.62
443.371	780.62
443.592	818.62
443.813	904.62
444.034	924.62
444.255	872.62
444.476	826.62
444.698	822.62
444.919	849.62
445.14	964.62
445.361	864.62
445.582	809.62
445.803	796.62
446.024	898.62
446.245	884.62
446.466	837.62
446.687	718.62
446.908	718.62
447.129	697.62
447.35	688.62
447.571	677.62
447.792	659.62
448.013	665.62
448.234	681.62
448.455	715.62
448.675	804.62
448.896	885.62
449.117	757.62
449.338	736.62
449.559	851.62
449.779	937.62
450	778.62
450.221	695.62
450.442	670.62
450.662	661.62
450.883	634.62
451.104	653.62
451.324	661.62
451.545	606.62
451.766	610.62
451.986	594.62
452.207	587.62
452.428	592.62
452.648	615.62
452.869	600.62
453.089	601.62
453.31	624.62
453.53	612.62
453.751	594.62
453.971	618.62
454.192	607.62
454.412	613.62
454.633	618.62
454.853	576.62
455.073	601.62
455.294	647.62
455.514	670.62
455.734	655.62
455.955	601.62
456.175	564.62
456.395	591.62
456.616	578.62
456.836	569.62
457.056	572.62
457.276	541.62
457.497	572.62
457.717	557.62
457.937	579.62
458.157	589.62
458.377	591.62
458.598	624.62
458.818	649.62
459.038	726.62
459.258	755.62
459.478	696.62
459.698	675.62
459.918	691.62
460.138	688.62
460.358	721.62
460.578	738.62
460.798	739.62
461.018	735.62
461.238	733.62
461.458	731.62
461.678	707.62
461.898	722.62
462.118	725.62
462.338	765.62
462.558	782.62
462.777	774.62
462.997	834.62
463.217	880.62
463.437	936.62
463.657	865.62
463.876	839.62
464.096	795.62
464.316	782.62
464.536	839.62
464.755	822.62
464.975	789.62
465.195	806.62
465.414	794.62
465.634	722.62
465.854	718.62
466.073	678.62
466.293	649.62
466.512	654.62
466.732	654.62
466.951	620.62
467.171	637.62
467.391	654.62
467.61	646.62
467.829	631.62
468.049	640.62
468.268	635.62
468.488	615.62
468.707	608.62
468.927	610.62
469.146	616.62
469.365	604.62
469.585	610.62
469.804	653.62
470.023	674.62
470.243	645.62
470.462	659.62
470.681	654.62
470.901	652.62
471.12	635.62
471.339	653.62
471.558	658.62
471.777	654.62
471.997	647.62
472.216	614.62
472.435	669.62
472.654	640.62
472.873	616.62
473.092	608.62
473.311	619.62
473.53	607.62
473.749	635.62
473.968	635.62
474.187	714.62
474.406	741.62
474.625	673.62
474.844	638.62
475.063	648.62
475.282	626.62
475.501	636.62
475.72	637.62
475.939	620.62
476.158	628.62
476.377	645.62
476.596	666.62
476.814	639.62
477.033	663.62
477.252	680.62
477.471	677.62
477.69	693.62
477.908	703.62
478.127	725.62
478.346	705.62
478.564	737.62
478.783	764.62
479.002	756.62
479.22	748.62
479.439	765.62
479.658	770.62
479.876	774.62
480.095	819.62
480.313	850.62
480.532	820.62
480.751	817.62
480.969	804.62
481.188	834.62
481.406	851.62
481.624	818.62
481.843	770.62
482.061	768.62
482.28	753.62
482.498	718.62
482.717	722.62
482.935	700.62
483.153	716.62
483.372	732.62
483.59	723.62
483.808	738.62
484.027	733.62
484.245	746.62
484.463	745.62
484.681	738.62
484.9	780.62
485.118	772.62
485.336	753.62
485.554	773.62
485.772	774.62
485.99	770.62
486.209	790.62
486.427	777.62
486.645	764.62
486.863	787.62
487.081	792.62
487.299	803.62
487.517	798.62
487.735	794.62
487.953	785.62
488.171	805.62
488.389	788.62
488.607	782.62
488.825	769.62
489.043	782.62
489.261	801.62
489.479	778.62
489.696	806.62
489.914	822.62
490.132	818.62
490.35	788.62
490.568	817.62
490.786	822.62
491.003	812.62
491.221	845.62
491.439	837.62
491.657	858.62
491.874	877.62
492.092	884.62
492.31	867.62
492.527	872.62
492.745	885.62
492.963	912.62
493.18	917.62
493.398	869.62
493.615	891.62
493.833	904.62
494.05	899.62
494.268	899.62
494.485	912.62
494.703	908.62
494.92	903.62
495.138	901.62
495.355	911.62
495.573	892.62
495.79	900.62
496.008	922.62
496.225	931.62
496.442	935.62
496.66	914.62
496.877	910.62
497.094	945.62
497.312	922.62
497.529	995.62
497.746	999.62
497.963	1002.62
498.181	1056.62
498.398	1059.62
498.615	1085.62
498.832	1171.62
499.049	1205.62
499.267	1267.62
499.484	1330.62
499.701	1442.62
499.918	1517.62
500.135	1645.62
500.352	1786.62
500.569	1895.62
500.786	1882.62
501.003	1807.62
501.22	1620.62
501.437	1577.62
501.654	1454.62
