Data from 1963.PennyLincolnUp.Lamp.En5.5.200Scan.071719.P1._HRD10591_13-58-57-063.txt Node
Date: Thu Jul 18 13:58:57 EDT 2019
User: cochatt
Spectrometer: HR+D1059
Trigger mode: 1
Integration Time (sec): 1.000000E-1
Scans to average: 1
Electric dark correction enabled: true
Nonlinearity correction enabled: false
Boxcar width: 0
XAxis mode: Wavelengths
Number of Pixels in Spectrum: 2048
>>>>>Begin Spectral Data<<<<<
223.165	-10.81
223.4	-10.81
223.635	-10.81
223.869	-18.81
224.104	-20.81
224.338	-17.81
224.573	-21.81
224.808	-15.81
225.042	1.19
225.277	-5.81
225.511	-4.81
225.746	10.19
225.98	2.19
226.215	6.19
226.449	13.19
226.683	30.19
226.918	28.19
227.152	25.19
227.387	34.19
227.621	25.19
227.856	47.19
228.09	39.19
228.324	54.19
228.559	57.19
228.793	64.19
229.027	105.19
229.262	96.19
229.496	105.19
229.73	110.19
229.964	137.19
230.199	115.19
230.433	118.19
230.667	98.19
230.901	102.19
231.136	124.19
231.37	99.19
231.604	113.19
231.838	114.19
232.072	123.19
232.306	120.19
232.541	123.19
232.775	109.19
233.009	129.19
233.243	125.19
233.477	129.19
233.711	123.19
233.945	122.19
234.179	124.19
234.413	132.19
234.647	129.19
234.881	121.19
235.115	124.19
235.349	138.19
235.583	117.19
235.817	119.19
236.051	131.19
236.285	141.19
236.519	133.19
236.753	132.19
236.987	149.19
237.221	183.19
237.455	201.19
237.689	168.19
237.922	150.19
238.156	137.19
238.39	134.19
238.624	136.19
238.858	135.19
239.091	121.19
239.325	140.19
239.559	137.19
239.793	155.19
240.027	139.19
240.26	157.19
240.494	166.19
240.728	157.19
240.961	142.19
241.195	162.19
241.429	147.19
241.662	152.19
241.896	147.19
242.13	135.19
242.363	165.19
242.597	141.19
242.83	154.19
243.064	147.19
243.298	158.19
243.531	143.19
243.765	142.19
243.998	157.19
244.232	153.19
244.465	160.19
244.699	167.19
244.932	150.19
245.166	142.19
245.399	167.19
245.633	159.19
245.866	154.19
246.099	165.19
246.333	150.19
246.566	172.19
246.8	168.19
247.033	187.19
247.266	169.19
247.5	188.19
247.733	173.19
247.966	182.19
248.2	195.19
248.433	175.19
248.666	190.19
248.899	191.19
249.133	218.19
249.366	207.19
249.599	192.19
249.832	193.19
250.066	198.19
250.299	195.19
250.532	212.19
250.765	201.19
250.998	228.19
251.231	221.19
251.465	232.19
251.698	220.19
251.931	209.19
252.164	211.19
252.397	212.19
252.63	213.19
252.863	221.19
253.096	237.19
253.329	249.19
253.562	246.19
253.795	227.19
254.028	237.19
254.261	220.19
254.494	230.19
254.727	252.19
254.96	265.19
255.193	263.19
255.426	265.19
255.659	243.19
255.892	247.19
256.124	244.19
256.357	234.19
256.59	236.19
256.823	229.19
257.056	215.19
257.289	221.19
257.521	230.19
257.754	228.19
257.987	238.19
258.22	233.19
258.452	222.19
258.685	246.19
258.918	227.19
259.151	225.19
259.383	233.19
259.616	231.19
259.849	236.19
260.081	245.19
260.314	263.19
260.547	277.19
260.779	263.19
261.012	247.19
261.244	236.19
261.477	253.19
261.71	225.19
261.942	227.19
262.175	257.19
262.407	243.19
262.64	246.19
262.872	243.19
263.105	227.19
263.337	237.19
263.57	232.19
263.802	237.19
264.035	242.19
264.267	227.19
264.499	227.19
264.732	239.19
264.964	227.19
265.197	250.19
265.429	260.19
265.661	246.19
265.894	241.19
266.126	241.19
266.358	263.19
266.591	247.19
266.823	270.19
267.055	259.19
267.287	264.19
267.52	261.19
267.752	271.19
267.984	264.19
268.216	272.19
268.448	279.19
268.681	277.19
268.913	277.19
269.145	288.19
269.377	293.19
269.609	287.19
269.841	294.19
270.073	290.19
270.306	312.19
270.538	321.19
270.77	324.19
271.002	315.19
271.234	303.19
271.466	304.19
271.698	296.19
271.93	333.19
272.162	329.19
272.394	335.19
272.626	328.19
272.858	296.19
273.09	299.19
273.322	284.19
273.553	283.19
273.785	291.19
274.017	319.19
274.249	308.19
274.481	293.19
274.713	295.19
274.945	301.19
275.176	297.19
275.408	295.19
275.64	274.19
275.872	320.19
276.104	300.19
276.335	310.19
276.567	321.19
276.799	323.19
277.031	350.19
277.262	344.19
277.494	349.19
277.726	326.19
277.957	318.19
278.189	310.19
278.421	310.19
278.652	312.19
278.884	284.19
279.115	307.19
279.347	310.19
279.579	323.19
279.81	313.19
280.042	310.19
280.273	313.19
280.505	310.19
280.736	321.19
280.968	310.19
281.199	318.19
281.431	326.19
281.662	327.19
281.894	319.19
282.125	326.19
282.356	330.19
282.588	350.19
282.819	349.19
283.051	344.19
283.282	337.19
283.513	338.19
283.745	335.19
283.976	352.19
284.207	349.19
284.439	327.19
284.67	340.19
284.901	339.19
285.132	355.19
285.364	353.19
285.595	334.19
285.826	344.19
286.057	347.19
286.288	334.19
286.52	323.19
286.751	339.19
286.982	330.19
287.213	344.19
287.444	339.19
287.675	347.19
287.906	364.19
288.138	343.19
288.369	340.19
288.6	360.19
288.831	364.19
289.062	340.19
289.293	371.19
289.524	358.19
289.755	375.19
289.986	372.19
290.217	377.19
290.448	352.19
290.679	355.19
290.91	344.19
291.141	379.19
291.371	377.19
291.602	363.19
291.833	359.19
292.064	353.19
292.295	354.19
292.526	373.19
292.757	366.19
292.987	371.19
293.218	377.19
293.449	365.19
293.68	357.19
293.91	356.19
294.141	364.19
294.372	360.19
294.603	358.19
294.833	355.19
295.064	369.19
295.295	374.19
295.525	369.19
295.756	356.19
295.987	381.19
296.217	374.19
296.448	382.19
296.679	361.19
296.909	369.19
297.14	382.19
297.37	399.19
297.601	388.19
297.831	402.19
298.062	373.19
298.292	373.19
298.523	393.19
298.753	381.19
298.984	395.19
299.214	383.19
299.445	396.19
299.675	397.19
299.905	388.19
300.136	399.19
300.366	393.19
300.597	388.19
300.827	393.19
301.057	409.19
301.288	420.19
301.518	399.19
301.748	403.19
301.979	393.19
302.209	423.19
302.439	405.19
302.669	425.19
302.9	402.19
303.13	403.19
303.36	422.19
303.59	399.19
303.82	425.19
304.051	432.19
304.281	405.19
304.511	411.19
304.741	401.19
304.971	412.19
305.201	415.19
305.431	422.19
305.661	403.19
305.891	407.19
306.121	416.19
306.352	396.19
306.582	414.19
306.812	420.19
307.042	424.19
307.272	421.19
307.502	400.19
307.731	415.19
307.961	401.19
308.191	411.19
308.421	419.19
308.651	421.19
308.881	390.19
309.111	410.19
309.341	403.19
309.571	404.19
309.8	422.19
310.03	421.19
310.26	425.19
310.49	429.19
310.72	438.19
310.949	441.19
311.179	435.19
311.409	456.19
311.639	438.19
311.868	447.19
312.098	432.19
312.328	441.19
312.557	469.19
312.787	456.19
313.017	465.19
313.246	463.19
313.476	466.19
313.706	473.19
313.935	454.19
314.165	469.19
314.394	465.19
314.624	460.19
314.853	446.19
315.083	451.19
315.312	456.19
315.542	455.19
315.771	468.19
316.001	446.19
316.23	437.19
316.46	451.19
316.689	458.19
316.919	452.19
317.148	453.19
317.377	489.19
317.607	490.19
317.836	457.19
318.065	466.19
318.295	456.19
318.524	436.19
318.753	461.19
318.983	444.19
319.212	446.19
319.441	474.19
319.67	451.19
319.9	449.19
320.129	455.19
320.358	462.19
320.587	467.19
320.816	459.19
321.046	463.19
321.275	475.19
321.504	470.19
321.733	472.19
321.962	485.19
322.191	463.19
322.42	473.19
322.649	500.19
322.878	487.19
323.108	508.19
323.337	526.19
323.566	503.19
323.795	533.19
324.024	544.19
324.253	620.19
324.482	804.19
324.71	1139.19
324.939	1599.19
325.168	1400.19
325.397	788.19
325.626	617.19
325.855	542.19
326.084	539.19
326.313	556.19
326.542	554.19
326.77	573.19
326.999	619.19
327.228	771.19
327.457	1065.19
327.686	1281.19
327.914	923.19
328.143	675.19
328.372	595.19
328.6	607.19
328.829	566.19
329.058	588.19
329.287	618.19
329.515	575.19
329.744	557.19
329.972	552.19
330.201	582.19
330.43	611.19
330.658	604.19
330.887	613.19
331.115	603.19
331.344	595.19
331.572	562.19
331.801	570.19
332.03	573.19
332.258	586.19
332.486	566.19
332.715	583.19
332.943	604.19
333.172	578.19
333.4	616.19
333.629	652.19
333.857	642.19
334.085	629.19
334.314	643.19
334.542	652.19
334.771	646.19
334.999	610.19
335.227	629.19
335.455	601.19
335.684	599.19
335.912	587.19
336.14	583.19
336.369	585.19
336.597	582.19
336.825	557.19
337.053	561.19
337.281	562.19
337.51	541.19
337.738	555.19
337.966	551.19
338.194	538.19
338.422	538.19
338.65	538.19
338.878	515.19
339.106	537.19
339.334	533.19
339.562	548.19
339.79	531.19
340.018	542.19
340.246	550.19
340.474	533.19
340.702	534.19
340.93	526.19
341.158	529.19
341.386	536.19
341.614	550.19
341.842	537.19
342.07	526.19
342.298	525.19
342.526	528.19
342.754	520.19
342.981	545.19
343.209	514.19
343.437	528.19
343.665	555.19
343.893	584.19
344.12	613.19
344.348	585.19
344.576	551.19
344.804	549.19
345.031	541.19
345.259	553.19
345.487	545.19
345.714	545.19
345.942	506.19
346.17	531.19
346.397	507.19
346.625	519.19
346.853	503.19
347.08	488.19
347.308	511.19
347.535	503.19
347.763	511.19
347.99	506.19
348.218	505.19
348.445	520.19
348.673	502.19
348.9	518.19
349.128	516.19
349.355	490.19
349.583	512.19
349.81	509.19
350.037	500.19
350.265	506.19
350.492	483.19
350.72	491.19
350.947	484.19
351.174	495.19
351.402	510.19
351.629	502.19
351.856	497.19
352.083	504.19
352.311	501.19
352.538	512.19
352.765	506.19
352.992	489.19
353.22	518.19
353.447	498.19
353.674	489.19
353.901	503.19
354.128	476.19
354.355	486.19
354.583	482.19
354.81	475.19
355.037	489.19
355.264	473.19
355.491	483.19
355.718	486.19
355.945	487.19
356.172	496.19
356.399	481.19
356.626	484.19
356.853	481.19
357.08	482.19
357.307	468.19
357.534	486.19
357.761	515.19
357.988	489.19
358.215	503.19
358.441	472.19
358.668	488.19
358.895	509.19
359.122	484.19
359.349	490.19
359.576	506.19
359.802	539.19
360.029	520.19
360.256	531.19
360.483	524.19
360.709	501.19
360.936	496.19
361.163	502.19
361.39	506.19
361.616	512.19
361.843	488.19
362.07	503.19
362.296	506.19
362.523	487.19
362.749	495.19
362.976	489.19
363.203	519.19
363.429	493.19
363.656	479.19
363.882	484.19
364.109	494.19
364.335	502.19
364.562	481.19
364.788	499.19
365.015	505.19
365.241	499.19
365.468	504.19
365.694	495.19
365.92	504.19
366.147	497.19
366.373	475.19
366.599	505.19
366.826	479.19
367.052	467.19
367.278	487.19
367.505	514.19
367.731	501.19
367.957	462.19
368.184	504.19
368.41	537.19
368.636	502.19
368.862	508.19
369.089	517.19
369.315	519.19
369.541	527.19
369.767	496.19
369.993	489.19
370.219	502.19
370.445	507.19
370.672	493.19
370.898	502.19
371.124	517.19
371.35	524.19
371.576	541.19
371.802	541.19
372.028	491.19
372.254	498.19
372.48	512.19
372.706	515.19
372.932	538.19
373.158	541.19
373.384	515.19
373.61	524.19
373.835	519.19
374.061	513.19
374.287	528.19
374.513	518.19
374.739	533.19
374.965	537.19
375.191	550.19
375.416	561.19
375.642	532.19
375.868	543.19
376.094	518.19
376.319	524.19
376.545	523.19
376.771	529.19
376.997	545.19
377.222	532.19
377.448	509.19
377.674	520.19
377.899	498.19
378.125	501.19
378.35	514.19
378.576	514.19
378.802	510.19
379.027	518.19
379.253	515.19
379.478	497.19
379.704	500.19
379.929	518.19
380.155	527.19
380.38	509.19
380.606	522.19
380.831	507.19
381.057	518.19
381.282	511.19
381.507	509.19
381.733	506.19
381.958	521.19
382.184	515.19
382.409	524.19
382.634	543.19
382.86	552.19
383.085	545.19
383.31	552.19
383.535	541.19
383.761	561.19
383.986	567.19
384.211	562.19
384.436	548.19
384.662	579.19
384.887	605.19
385.112	577.19
385.337	577.19
385.562	594.19
385.787	607.19
386.013	607.19
386.238	602.19
386.463	599.19
386.688	639.19
386.913	597.19
387.138	610.19
387.363	583.19
387.588	602.19
387.813	603.19
388.038	602.19
388.263	586.19
388.488	599.19
388.713	587.19
388.938	582.19
389.163	597.19
389.387	585.19
389.612	597.19
389.837	591.19
390.062	590.19
390.287	584.19
390.512	580.19
390.736	589.19
390.961	603.19
391.186	617.19
391.411	620.19
391.636	618.19
391.86	638.19
392.085	633.19
392.31	640.19
392.534	639.19
392.759	639.19
392.984	622.19
393.208	641.19
393.433	635.19
393.658	631.19
393.882	595.19
394.107	625.19
394.331	632.19
394.556	610.19
394.78	623.19
395.005	595.19
395.229	620.19
395.454	633.19
395.678	637.19
395.903	664.19
396.127	661.19
396.352	662.19
396.576	615.19
396.801	619.19
397.025	628.19
397.249	664.19
397.474	642.19
397.698	660.19
397.922	647.19
398.147	653.19
398.371	675.19
398.595	698.19
398.82	720.19
399.044	727.19
399.268	773.19
399.492	873.19
399.717	950.19
399.941	957.19
400.165	936.19
400.389	891.19
400.613	807.19
400.837	743.19
401.062	759.19
401.286	723.19
401.51	714.19
401.734	722.19
401.958	756.19
402.182	719.19
402.406	735.19
402.63	766.19
402.854	744.19
403.078	737.19
403.302	754.19
403.526	746.19
403.75	778.19
403.974	769.19
404.198	760.19
404.422	793.19
404.645	803.19
404.869	795.19
405.093	809.19
405.317	822.19
405.541	861.19
405.765	805.19
405.988	790.19
406.212	789.19
406.436	791.19
406.66	797.19
406.883	803.19
407.107	862.19
407.331	884.19
407.555	983.19
407.778	961.19
408.002	894.19
408.226	828.19
408.449	830.19
408.673	807.19
408.896	819.19
409.12	853.19
409.344	809.19
409.567	789.19
409.791	772.19
410.014	771.19
410.238	726.19
410.461	756.19
410.685	750.19
410.908	787.19
411.132	794.19
411.355	784.19
411.578	772.19
411.802	753.19
412.025	743.19
412.249	725.19
412.472	776.19
412.695	776.19
412.919	754.19
413.142	715.19
413.365	732.19
413.589	715.19
413.812	722.19
414.035	697.19
414.258	730.19
414.482	713.19
414.705	693.19
414.928	699.19
415.151	707.19
415.374	726.19
415.597	698.19
415.821	675.19
416.044	691.19
416.267	717.19
416.49	686.19
416.713	694.19
416.936	715.19
417.159	709.19
417.382	712.19
417.605	716.19
417.828	698.19
418.051	734.19
418.274	733.19
418.497	696.19
418.72	719.19
418.943	710.19
419.166	755.19
419.389	771.19
419.611	778.19
419.834	766.19
420.057	739.19
420.28	707.19
420.503	711.19
420.726	728.19
420.948	717.19
421.171	743.19
421.394	783.19
421.617	705.19
421.839	705.19
422.062	724.19
422.285	737.19
422.507	751.19
422.73	822.19
422.953	815.19
423.175	751.19
423.398	764.19
423.621	744.19
423.843	762.19
424.066	756.19
424.288	746.19
424.511	777.19
424.733	819.19
424.956	854.19
425.178	833.19
425.401	847.19
425.623	844.19
425.846	741.19
426.068	742.19
426.291	724.19
426.513	737.19
426.735	755.19
426.958	761.19
427.18	820.19
427.402	915.19
427.625	971.19
427.847	871.19
428.069	777.19
428.292	721.19
428.514	681.19
428.736	683.19
428.958	667.19
429.181	666.19
429.403	658.19
429.625	682.19
429.847	689.19
430.069	731.19
430.292	720.19
430.514	665.19
430.736	643.19
430.958	684.19
431.18	637.19
431.402	613.19
431.624	630.19
431.846	648.19
432.068	655.19
432.29	658.19
432.512	641.19
432.734	654.19
432.956	668.19
433.178	656.19
433.4	666.19
433.622	663.19
433.844	663.19
434.066	639.19
434.287	643.19
434.509	677.19
434.731	706.19
434.953	725.19
435.175	716.19
435.397	723.19
435.618	732.19
435.84	740.19
436.062	799.19
436.284	851.19
436.505	741.19
436.727	682.19
436.949	665.19
437.17	655.19
437.392	675.19
437.614	684.19
437.835	685.19
438.057	755.19
438.278	843.19
438.5	826.19
438.721	872.19
438.943	866.19
439.165	735.19
439.386	668.19
439.608	679.19
439.829	711.19
440.05	725.19
440.272	775.19
440.493	712.19
440.715	695.19
440.936	676.19
441.158	682.19
441.379	683.19
441.6	729.19
441.822	745.19
442.043	735.19
442.264	825.19
442.486	853.19
442.707	776.19
442.928	735.19
443.149	753.19
443.371	787.19
443.592	781.19
443.813	858.19
444.034	896.19
444.255	836.19
444.476	799.19
444.698	800.19
444.919	806.19
445.14	916.19
445.361	818.19
445.582	779.19
445.803	819.19
446.024	872.19
446.245	877.19
446.466	801.19
446.687	737.19
446.908	685.19
447.129	679.19
447.35	643.19
447.571	666.19
447.792	645.19
448.013	643.19
448.234	658.19
448.455	701.19
448.675	780.19
448.896	868.19
449.117	770.19
449.338	718.19
449.559	820.19
449.779	909.19
450	746.19
450.221	691.19
450.442	634.19
450.662	625.19
450.883	621.19
451.104	635.19
451.324	635.19
451.545	597.19
451.766	590.19
451.986	606.19
452.207	591.19
452.428	597.19
452.648	606.19
452.869	573.19
453.089	609.19
453.31	601.19
453.53	601.19
453.751	603.19
453.971	604.19
454.192	599.19
454.412	569.19
454.633	571.19
454.853	566.19
455.073	581.19
455.294	591.19
455.514	651.19
455.734	637.19
455.955	585.19
456.175	550.19
456.395	561.19
456.616	558.19
456.836	579.19
457.056	573.19
457.276	556.19
457.497	557.19
457.717	556.19
457.937	574.19
458.157	601.19
458.377	577.19
458.598	574.19
458.818	632.19
459.038	701.19
459.258	711.19
459.478	684.19
459.698	683.19
459.918	680.19
460.138	682.19
460.358	700.19
460.578	687.19
460.798	712.19
461.018	737.19
461.238	733.19
461.458	706.19
461.678	707.19
461.898	708.19
462.118	732.19
462.338	745.19
462.558	759.19
462.777	801.19
462.997	837.19
463.217	850.19
463.437	892.19
463.657	835.19
463.876	799.19
464.096	814.19
464.316	768.19
464.536	812.19
464.755	787.19
464.975	773.19
465.195	777.19
465.414	794.19
465.634	713.19
465.854	717.19
466.073	644.19
466.293	647.19
466.512	647.19
466.732	622.19
466.951	620.19
467.171	612.19
467.391	636.19
467.61	638.19
467.829	627.19
468.049	628.19
468.268	618.19
468.488	607.19
468.707	597.19
468.927	607.19
469.146	603.19
469.365	611.19
469.585	627.19
469.804	625.19
470.023	644.19
470.243	638.19
470.462	658.19
470.681	663.19
470.901	647.19
471.12	673.19
471.339	651.19
471.558	628.19
471.777	651.19
471.997	638.19
472.216	624.19
472.435	629.19
472.654	631.19
472.873	622.19
473.092	615.19
473.311	601.19
473.53	593.19
473.749	611.19
473.968	639.19
474.187	705.19
474.406	725.19
474.625	645.19
474.844	621.19
475.063	610.19
475.282	588.19
475.501	613.19
475.72	627.19
475.939	645.19
476.158	643.19
476.377	653.19
476.596	645.19
476.814	655.19
477.033	634.19
477.252	660.19
477.471	663.19
477.69	658.19
477.908	716.19
478.127	705.19
478.346	700.19
478.564	692.19
478.783	736.19
479.002	739.19
479.22	755.19
479.439	764.19
479.658	755.19
479.876	760.19
480.095	765.19
480.313	828.19
480.532	813.19
480.751	790.19
480.969	775.19
481.188	839.19
481.406	846.19
481.624	760.19
481.843	737.19
482.061	729.19
482.28	708.19
482.498	726.19
482.717	721.19
482.935	736.19
483.153	724.19
483.372	705.19
483.59	734.19
483.808	739.19
484.027	710.19
484.245	720.19
484.463	728.19
484.681	707.19
484.9	729.19
485.118	735.19
485.336	733.19
485.554	734.19
485.772	743.19
485.99	751.19
486.209	739.19
486.427	782.19
486.645	760.19
486.863	771.19
487.081	769.19
487.299	767.19
487.517	772.19
487.735	753.19
487.953	750.19
488.171	759.19
488.389	783.19
488.607	750.19
488.825	753.19
489.043	753.19
489.261	778.19
489.479	763.19
489.696	796.19
489.914	771.19
490.132	782.19
490.35	780.19
490.568	794.19
490.786	793.19
491.003	839.19
491.221	843.19
491.439	853.19
491.657	814.19
491.874	827.19
492.092	820.19
492.31	852.19
492.527	855.19
492.745	842.19
492.963	885.19
493.18	871.19
493.398	887.19
493.615	893.19
493.833	891.19
494.05	867.19
494.268	899.19
494.485	881.19
494.703	891.19
494.92	904.19
495.138	903.19
495.355	887.19
495.573	892.19
495.79	891.19
496.008	893.19
496.225	889.19
496.442	912.19
496.66	901.19
496.877	915.19
497.094	919.19
497.312	924.19
497.529	936.19
497.746	979.19
497.963	967.19
498.181	994.19
498.398	1061.19
498.615	1101.19
498.832	1119.19
499.049	1189.19
499.267	1229.19
499.484	1341.19
499.701	1387.19
499.918	1493.19
500.135	1631.19
500.352	1766.19
500.569	1822.19
500.786	1852.19
501.003	1759.19
501.22	1621.19
501.437	1508.19
501.654	1420.19
