Data from 1963.PennyLincolnUp.Lamp.En5.5.200Scan.071719.P1._HRD10591_13-59-29-064.txt Node
Date: Thu Jul 18 13:59:29 EDT 2019
User: cochatt
Spectrometer: HR+D1059
Trigger mode: 1
Integration Time (sec): 1.000000E-1
Scans to average: 1
Electric dark correction enabled: true
Nonlinearity correction enabled: false
Boxcar width: 0
XAxis mode: Wavelengths
Number of Pixels in Spectrum: 2048
>>>>>Begin Spectral Data<<<<<
223.165	0.56
223.4	0.56
223.635	0.56
223.869	-10.44
224.104	-21.44
224.338	-3.44
224.573	-24.44
224.808	-14.44
225.042	-6.44
225.277	-19.44
225.511	3.56
225.746	2.56
225.98	11.56
226.215	8.56
226.449	9.56
226.683	12.56
226.918	27.56
227.152	23.56
227.387	38.56
227.621	36.56
227.856	40.56
228.09	33.56
228.324	45.56
228.559	67.56
228.793	77.56
229.027	114.56
229.262	121.56
229.496	112.56
229.73	141.56
229.964	145.56
230.199	128.56
230.433	127.56
230.667	113.56
230.901	108.56
231.136	125.56
231.37	118.56
231.604	110.56
231.838	128.56
232.072	120.56
232.306	131.56
232.541	135.56
232.775	119.56
233.009	133.56
233.243	134.56
233.477	117.56
233.711	128.56
233.945	128.56
234.179	133.56
234.413	134.56
234.647	135.56
234.881	129.56
235.115	125.56
235.349	146.56
235.583	141.56
235.817	143.56
236.051	132.56
236.285	135.56
236.519	124.56
236.753	123.56
236.987	140.56
237.221	185.56
237.455	227.56
237.689	199.56
237.922	128.56
238.156	165.56
238.39	159.56
238.624	141.56
238.858	155.56
239.091	140.56
239.325	132.56
239.559	140.56
239.793	155.56
240.027	161.56
240.26	148.56
240.494	161.56
240.728	151.56
240.961	147.56
241.195	163.56
241.429	164.56
241.662	156.56
241.896	163.56
242.13	168.56
242.363	164.56
242.597	139.56
242.83	156.56
243.064	171.56
243.298	167.56
243.531	154.56
243.765	161.56
243.998	171.56
244.232	180.56
244.465	164.56
244.699	151.56
244.932	156.56
245.166	175.56
245.399	165.56
245.633	164.56
245.866	179.56
246.099	154.56
246.333	179.56
246.566	176.56
246.8	185.56
247.033	177.56
247.266	176.56
247.5	174.56
247.733	188.56
247.966	200.56
248.2	184.56
248.433	185.56
248.666	184.56
248.899	223.56
249.133	218.56
249.366	219.56
249.599	215.56
249.832	219.56
250.066	206.56
250.299	192.56
250.532	215.56
250.765	237.56
250.998	250.56
251.231	244.56
251.465	219.56
251.698	220.56
251.931	232.56
252.164	200.56
252.397	219.56
252.63	223.56
252.863	212.56
253.096	219.56
253.329	238.56
253.562	235.56
253.795	231.56
254.028	244.56
254.261	234.56
254.494	258.56
254.727	264.56
254.96	282.56
255.193	293.56
255.426	253.56
255.659	239.56
255.892	245.56
256.124	239.56
256.357	259.56
256.59	247.56
256.823	223.56
257.056	258.56
257.289	235.56
257.521	220.56
257.754	239.56
257.987	224.56
258.22	236.56
258.452	231.56
258.685	247.56
258.918	227.56
259.151	245.56
259.383	256.56
259.616	247.56
259.849	246.56
260.081	249.56
260.314	273.56
260.547	261.56
260.779	272.56
261.012	246.56
261.244	249.56
261.477	267.56
261.71	247.56
261.942	226.56
262.175	261.56
262.407	263.56
262.64	251.56
262.872	262.56
263.105	248.56
263.337	259.56
263.57	249.56
263.802	247.56
264.035	250.56
264.267	240.56
264.499	258.56
264.732	255.56
264.964	239.56
265.197	260.56
265.429	241.56
265.661	250.56
265.894	252.56
266.126	269.56
266.358	254.56
266.591	253.56
266.823	295.56
267.055	276.56
267.287	280.56
267.52	299.56
267.752	259.56
267.984	288.56
268.216	271.56
268.448	279.56
268.681	270.56
268.913	287.56
269.145	303.56
269.377	310.56
269.609	297.56
269.841	311.56
270.073	298.56
270.306	331.56
270.538	352.56
270.77	348.56
271.002	331.56
271.234	307.56
271.466	325.56
271.698	320.56
271.93	325.56
272.162	327.56
272.394	335.56
272.626	348.56
272.858	317.56
273.09	326.56
273.322	301.56
273.553	315.56
273.785	313.56
274.017	299.56
274.249	313.56
274.481	320.56
274.713	312.56
274.945	314.56
275.176	323.56
275.408	312.56
275.64	327.56
275.872	294.56
276.104	317.56
276.335	302.56
276.567	312.56
276.799	332.56
277.031	332.56
277.262	355.56
277.494	347.56
277.726	358.56
277.957	343.56
278.189	323.56
278.421	318.56
278.652	332.56
278.884	340.56
279.115	332.56
279.347	330.56
279.579	320.56
279.81	334.56
280.042	313.56
280.273	336.56
280.505	333.56
280.736	331.56
280.968	323.56
281.199	334.56
281.431	342.56
281.662	338.56
281.894	328.56
282.125	334.56
282.356	345.56
282.588	347.56
282.819	364.56
283.051	339.56
283.282	332.56
283.513	330.56
283.745	354.56
283.976	351.56
284.207	341.56
284.439	364.56
284.67	321.56
284.901	342.56
285.132	351.56
285.364	356.56
285.595	354.56
285.826	343.56
286.057	341.56
286.288	333.56
286.52	378.56
286.751	351.56
286.982	349.56
287.213	349.56
287.444	363.56
287.675	374.56
287.906	375.56
288.138	348.56
288.369	361.56
288.6	383.56
288.831	366.56
289.062	389.56
289.293	366.56
289.524	381.56
289.755	369.56
289.986	360.56
290.217	352.56
290.448	361.56
290.679	378.56
290.91	381.56
291.141	395.56
291.371	367.56
291.602	371.56
291.833	373.56
292.064	355.56
292.295	387.56
292.526	373.56
292.757	366.56
292.987	349.56
293.218	360.56
293.449	367.56
293.68	366.56
293.91	374.56
294.141	355.56
294.372	376.56
294.603	357.56
294.833	390.56
295.064	393.56
295.295	394.56
295.525	380.56
295.756	376.56
295.987	397.56
296.217	387.56
296.448	411.56
296.679	381.56
296.909	405.56
297.14	391.56
297.37	390.56
297.601	392.56
297.831	399.56
298.062	395.56
298.292	377.56
298.523	415.56
298.753	407.56
298.984	410.56
299.214	410.56
299.445	411.56
299.675	408.56
299.905	419.56
300.136	411.56
300.366	408.56
300.597	401.56
300.827	391.56
301.057	403.56
301.288	429.56
301.518	438.56
301.748	417.56
301.979	435.56
302.209	420.56
302.439	402.56
302.669	416.56
302.9	416.56
303.13	420.56
303.36	430.56
303.59	425.56
303.82	424.56
304.051	432.56
304.281	436.56
304.511	429.56
304.741	425.56
304.971	409.56
305.201	428.56
305.431	415.56
305.661	418.56
305.891	430.56
306.121	410.56
306.352	447.56
306.582	435.56
306.812	428.56
307.042	428.56
307.272	415.56
307.502	416.56
307.731	420.56
307.961	429.56
308.191	438.56
308.421	441.56
308.651	422.56
308.881	391.56
309.111	428.56
309.341	416.56
309.571	422.56
309.8	429.56
310.03	438.56
310.26	447.56
310.49	444.56
310.72	439.56
310.949	456.56
311.179	468.56
311.409	440.56
311.639	470.56
311.868	461.56
312.098	467.56
312.328	450.56
312.557	465.56
312.787	477.56
313.017	494.56
313.246	490.56
313.476	464.56
313.706	447.56
313.935	478.56
314.165	475.56
314.394	472.56
314.624	483.56
314.853	489.56
315.083	482.56
315.312	477.56
315.542	473.56
315.771	462.56
316.001	464.56
316.23	476.56
316.46	463.56
316.689	468.56
316.919	469.56
317.148	476.56
317.377	478.56
317.607	472.56
317.836	460.56
318.065	453.56
318.295	463.56
318.524	472.56
318.753	460.56
318.983	471.56
319.212	469.56
319.441	466.56
319.67	471.56
319.9	465.56
320.129	448.56
320.358	471.56
320.587	468.56
320.816	470.56
321.046	466.56
321.275	504.56
321.504	481.56
321.733	478.56
321.962	470.56
322.191	503.56
322.42	509.56
322.649	535.56
322.878	528.56
323.108	548.56
323.337	529.56
323.566	541.56
323.795	561.56
324.024	589.56
324.253	663.56
324.482	864.56
324.71	1259.56
324.939	1783.56
325.168	1539.56
325.397	866.56
325.626	652.56
325.855	587.56
326.084	571.56
326.313	555.56
326.542	551.56
326.77	599.56
326.999	675.56
327.228	809.56
327.457	1169.56
327.686	1451.56
327.914	971.56
328.143	697.56
328.372	647.56
328.6	619.56
328.829	609.56
329.058	627.56
329.287	624.56
329.515	599.56
329.744	581.56
329.972	571.56
330.201	582.56
330.43	614.56
330.658	614.56
330.887	664.56
331.115	633.56
331.344	592.56
331.572	562.56
331.801	587.56
332.03	590.56
332.258	574.56
332.486	584.56
332.715	590.56
332.943	605.56
333.172	613.56
333.4	609.56
333.629	625.56
333.857	643.56
334.085	647.56
334.314	677.56
334.542	669.56
334.771	684.56
334.999	647.56
335.227	629.56
335.455	627.56
335.684	589.56
335.912	568.56
336.14	572.56
336.369	576.56
336.597	585.56
336.825	583.56
337.053	598.56
337.281	566.56
337.51	569.56
337.738	576.56
337.966	571.56
338.194	591.56
338.422	592.56
338.65	573.56
338.878	538.56
339.106	540.56
339.334	548.56
339.562	575.56
339.79	561.56
340.018	544.56
340.246	540.56
340.474	527.56
340.702	563.56
340.93	559.56
341.158	536.56
341.386	520.56
341.614	540.56
341.842	557.56
342.07	525.56
342.298	520.56
342.526	517.56
342.754	510.56
342.981	532.56
343.209	500.56
343.437	541.56
343.665	568.56
343.893	618.56
344.12	599.56
344.348	591.56
344.576	587.56
344.804	592.56
345.031	565.56
345.259	549.56
345.487	556.56
345.714	537.56
345.942	533.56
346.17	531.56
346.397	525.56
346.625	520.56
346.853	533.56
347.08	537.56
347.308	512.56
347.535	535.56
347.763	533.56
347.99	536.56
348.218	534.56
348.445	525.56
348.673	523.56
348.9	512.56
349.128	521.56
349.355	509.56
349.583	521.56
349.81	532.56
350.037	516.56
350.265	508.56
350.492	496.56
350.72	501.56
350.947	509.56
351.174	521.56
351.402	523.56
351.629	530.56
351.856	515.56
352.083	523.56
352.311	532.56
352.538	530.56
352.765	515.56
352.992	517.56
353.22	516.56
353.447	512.56
353.674	498.56
353.901	502.56
354.128	494.56
354.355	495.56
354.583	475.56
354.81	493.56
355.037	500.56
355.264	485.56
355.491	524.56
355.718	501.56
355.945	493.56
356.172	484.56
356.399	494.56
356.626	518.56
356.853	515.56
357.08	492.56
357.307	480.56
357.534	489.56
357.761	499.56
357.988	518.56
358.215	481.56
358.441	486.56
358.668	473.56
358.895	502.56
359.122	510.56
359.349	507.56
359.576	515.56
359.802	508.56
360.029	527.56
360.256	555.56
360.483	553.56
360.709	512.56
360.936	499.56
361.163	510.56
361.39	501.56
361.616	499.56
361.843	494.56
362.07	543.56
362.296	519.56
362.523	502.56
362.749	518.56
362.976	526.56
363.203	521.56
363.429	505.56
363.656	520.56
363.882	495.56
364.109	503.56
364.335	509.56
364.562	519.56
364.788	503.56
365.015	504.56
365.241	505.56
365.468	507.56
365.694	518.56
365.92	511.56
366.147	501.56
366.373	484.56
366.599	473.56
366.826	519.56
367.052	510.56
367.278	521.56
367.505	508.56
367.731	517.56
367.957	511.56
368.184	519.56
368.41	548.56
368.636	509.56
368.862	543.56
369.089	502.56
369.315	511.56
369.541	519.56
369.767	485.56
369.993	514.56
370.219	513.56
370.445	519.56
370.672	527.56
370.898	511.56
371.124	528.56
371.35	528.56
371.576	522.56
371.802	525.56
372.028	531.56
372.254	531.56
372.48	544.56
372.706	537.56
372.932	510.56
373.158	532.56
373.384	544.56
373.61	535.56
373.835	549.56
374.061	544.56
374.287	532.56
374.513	534.56
374.739	563.56
374.965	557.56
375.191	557.56
375.416	567.56
375.642	545.56
375.868	548.56
376.094	557.56
376.319	561.56
376.545	543.56
376.771	530.56
376.997	536.56
377.222	527.56
377.448	521.56
377.674	536.56
377.899	512.56
378.125	507.56
378.35	496.56
378.576	519.56
378.802	537.56
379.027	527.56
379.253	511.56
379.478	509.56
379.704	526.56
379.929	531.56
380.155	539.56
380.38	548.56
380.606	528.56
380.831	525.56
381.057	504.56
381.282	525.56
381.507	525.56
381.733	545.56
381.958	533.56
382.184	547.56
382.409	528.56
382.634	552.56
382.86	547.56
383.085	564.56
383.31	545.56
383.535	563.56
383.761	571.56
383.986	581.56
384.211	559.56
384.436	590.56
384.662	585.56
384.887	608.56
385.112	598.56
385.337	615.56
385.562	602.56
385.787	589.56
386.013	617.56
386.238	616.56
386.463	602.56
386.688	598.56
386.913	609.56
387.138	589.56
387.363	613.56
387.588	586.56
387.813	595.56
388.038	585.56
388.263	592.56
388.488	611.56
388.713	601.56
388.938	625.56
389.163	610.56
389.387	591.56
389.612	600.56
389.837	604.56
390.062	607.56
390.287	622.56
390.512	629.56
390.736	600.56
390.961	598.56
391.186	617.56
391.411	653.56
391.636	629.56
391.86	648.56
392.085	652.56
392.31	638.56
392.534	673.56
392.759	645.56
392.984	632.56
393.208	640.56
393.433	616.56
393.658	642.56
393.882	635.56
394.107	630.56
394.331	671.56
394.556	641.56
394.78	618.56
395.005	650.56
395.229	652.56
395.454	645.56
395.678	656.56
395.903	668.56
396.127	677.56
396.352	643.56
396.576	647.56
396.801	639.56
397.025	669.56
397.249	693.56
397.474	640.56
397.698	656.56
397.922	673.56
398.147	667.56
398.371	697.56
398.595	675.56
398.82	732.56
399.044	759.56
399.268	771.56
399.492	878.56
399.717	942.56
399.941	975.56
400.165	960.56
400.389	907.56
400.613	817.56
400.837	810.56
401.062	772.56
401.286	741.56
401.51	727.56
401.734	733.56
401.958	731.56
402.182	722.56
402.406	751.56
402.63	749.56
402.854	762.56
403.078	754.56
403.302	781.56
403.526	791.56
403.75	804.56
403.974	826.56
404.198	784.56
404.422	803.56
404.645	793.56
404.869	789.56
405.093	821.56
405.317	859.56
405.541	893.56
405.765	814.56
405.988	786.56
406.212	801.56
406.436	815.56
406.66	822.56
406.883	823.56
407.107	852.56
407.331	946.56
407.555	1001.56
407.778	973.56
408.002	908.56
408.226	856.56
408.449	831.56
408.673	855.56
408.896	855.56
409.12	880.56
409.344	854.56
409.567	801.56
409.791	761.56
410.014	772.56
410.238	768.56
410.461	781.56
410.685	776.56
410.908	771.56
411.132	799.56
411.355	781.56
411.578	793.56
411.802	750.56
412.025	734.56
412.249	758.56
412.472	813.56
412.695	802.56
412.919	805.56
413.142	749.56
413.365	742.56
413.589	760.56
413.812	743.56
414.035	714.56
414.258	722.56
414.482	723.56
414.705	734.56
414.928	702.56
415.151	714.56
415.374	721.56
415.597	716.56
415.821	711.56
416.044	711.56
416.267	741.56
416.49	711.56
416.713	682.56
416.936	699.56
417.159	699.56
417.382	714.56
417.605	721.56
417.828	721.56
418.051	766.56
418.274	727.56
418.497	704.56
418.72	706.56
418.943	717.56
419.166	778.56
419.389	796.56
419.611	805.56
419.834	751.56
420.057	744.56
420.28	724.56
420.503	755.56
420.726	746.56
420.948	757.56
421.171	792.56
421.394	790.56
421.617	775.56
421.839	716.56
422.062	720.56
422.285	745.56
422.507	775.56
422.73	862.56
422.953	848.56
423.175	800.56
423.398	779.56
423.621	781.56
423.843	807.56
424.066	797.56
424.288	811.56
424.511	808.56
424.733	827.56
424.956	895.56
425.178	856.56
425.401	856.56
425.623	847.56
425.846	800.56
426.068	752.56
426.291	752.56
426.513	727.56
426.735	728.56
426.958	755.56
427.18	840.56
427.402	940.56
427.625	1023.56
427.847	885.56
428.069	813.56
428.292	767.56
428.514	723.56
428.736	721.56
428.958	700.56
429.181	695.56
429.403	686.56
429.625	710.56
429.847	737.56
430.069	771.56
430.292	755.56
430.514	694.56
430.736	675.56
430.958	657.56
431.18	672.56
431.402	662.56
431.624	661.56
431.846	658.56
432.068	653.56
432.29	671.56
432.512	668.56
432.734	670.56
432.956	668.56
433.178	668.56
433.4	660.56
433.622	688.56
433.844	670.56
434.066	676.56
434.287	693.56
434.509	696.56
434.731	728.56
434.953	707.56
435.175	725.56
435.397	732.56
435.618	736.56
435.84	774.56
436.062	826.56
436.284	900.56
436.505	790.56
436.727	728.56
436.949	688.56
437.17	644.56
437.392	681.56
437.614	683.56
437.835	712.56
438.057	785.56
438.278	876.56
438.5	877.56
438.721	924.56
438.943	893.56
439.165	773.56
439.386	704.56
439.608	718.56
439.829	753.56
440.05	760.56
440.272	764.56
440.493	739.56
440.715	728.56
440.936	687.56
441.158	711.56
441.379	708.56
441.6	725.56
441.822	759.56
442.043	771.56
442.264	830.56
442.486	867.56
442.707	753.56
442.928	771.56
443.149	804.56
443.371	784.56
443.592	780.56
443.813	903.56
444.034	957.56
444.255	837.56
444.476	797.56
444.698	817.56
444.919	831.56
445.14	933.56
445.361	857.56
445.582	811.56
445.803	835.56
446.024	907.56
446.245	899.56
446.466	840.56
446.687	759.56
446.908	731.56
447.129	693.56
447.35	662.56
447.571	659.56
447.792	645.56
448.013	670.56
448.234	682.56
448.455	719.56
448.675	813.56
448.896	905.56
449.117	787.56
449.338	744.56
449.559	846.56
449.779	955.56
450	788.56
450.221	691.56
450.442	656.56
450.662	665.56
450.883	658.56
451.104	655.56
451.324	660.56
451.545	657.56
451.766	606.56
451.986	606.56
452.207	603.56
452.428	597.56
452.648	616.56
452.869	622.56
453.089	600.56
453.31	636.56
453.53	578.56
453.751	594.56
453.971	619.56
454.192	616.56
454.412	597.56
454.633	579.56
454.853	589.56
455.073	593.56
455.294	606.56
455.514	657.56
455.734	633.56
455.955	594.56
456.175	585.56
456.395	585.56
456.616	579.56
456.836	569.56
457.056	598.56
457.276	574.56
457.497	567.56
457.717	587.56
457.937	618.56
458.157	584.56
458.377	604.56
458.598	638.56
458.818	666.56
459.038	720.56
459.258	790.56
459.478	690.56
459.698	685.56
459.918	662.56
460.138	703.56
460.358	720.56
460.578	738.56
460.798	744.56
461.018	744.56
461.238	724.56
461.458	751.56
461.678	719.56
461.898	713.56
462.118	739.56
462.338	766.56
462.558	758.56
462.777	799.56
462.997	861.56
463.217	905.56
463.437	896.56
463.657	855.56
463.876	793.56
464.096	801.56
464.316	837.56
464.536	833.56
464.755	824.56
464.975	761.56
465.195	794.56
465.414	832.56
465.634	736.56
465.854	704.56
466.073	696.56
466.293	681.56
466.512	655.56
466.732	623.56
466.951	642.56
467.171	628.56
467.391	620.56
467.61	619.56
467.829	654.56
468.049	639.56
468.268	651.56
468.488	633.56
468.707	632.56
468.927	617.56
469.146	623.56
469.365	620.56
469.585	611.56
469.804	627.56
470.023	636.56
470.243	668.56
470.462	656.56
470.681	669.56
470.901	665.56
471.12	675.56
471.339	643.56
471.558	657.56
471.777	668.56
471.997	640.56
472.216	638.56
472.435	653.56
472.654	662.56
472.873	643.56
473.092	634.56
473.311	638.56
473.53	627.56
473.749	635.56
473.968	657.56
474.187	736.56
474.406	758.56
474.625	679.56
474.844	629.56
475.063	619.56
475.282	643.56
475.501	616.56
475.72	633.56
475.939	655.56
476.158	659.56
476.377	653.56
476.596	630.56
476.814	651.56
477.033	667.56
477.252	688.56
477.471	681.56
477.69	699.56
477.908	669.56
478.127	720.56
478.346	731.56
478.564	741.56
478.783	721.56
479.002	777.56
479.22	790.56
479.439	768.56
479.658	767.56
479.876	763.56
480.095	792.56
480.313	807.56
480.532	836.56
480.751	806.56
480.969	835.56
481.188	853.56
481.406	879.56
481.624	776.56
481.843	788.56
482.061	757.56
482.28	747.56
482.498	720.56
482.717	701.56
482.935	741.56
483.153	734.56
483.372	724.56
483.59	728.56
483.808	729.56
484.027	727.56
484.245	751.56
484.463	715.56
484.681	740.56
484.9	740.56
485.118	739.56
485.336	756.56
485.554	758.56
485.772	759.56
485.99	750.56
486.209	791.56
486.427	793.56
486.645	800.56
486.863	800.56
487.081	780.56
487.299	798.56
487.517	782.56
487.735	761.56
487.953	800.56
488.171	773.56
488.389	784.56
488.607	799.56
488.825	800.56
489.043	788.56
489.261	828.56
489.479	800.56
489.696	813.56
489.914	793.56
490.132	799.56
490.35	816.56
490.568	831.56
490.786	840.56
491.003	840.56
491.221	853.56
491.439	867.56
491.657	841.56
491.874	870.56
492.092	869.56
492.31	864.56
492.527	884.56
492.745	857.56
492.963	884.56
493.18	878.56
493.398	908.56
493.615	921.56
493.833	887.56
494.05	878.56
494.268	909.56
494.485	922.56
494.703	888.56
494.92	899.56
495.138	904.56
495.355	892.56
495.573	914.56
495.79	919.56
496.008	948.56
496.225	914.56
496.442	899.56
496.66	931.56
496.877	925.56
497.094	942.56
497.312	964.56
497.529	970.56
497.746	1005.56
497.963	1028.56
498.181	1045.56
498.398	1064.56
498.615	1113.56
498.832	1191.56
499.049	1205.56
499.267	1283.56
499.484	1338.56
499.701	1421.56
499.918	1523.56
500.135	1623.56
500.352	1811.56
500.569	1851.56
500.786	1829.56
501.003	1759.56
501.22	1667.56
501.437	1502.56
501.654	1425.56
