Data from 1963.PennyLincolnUp.Lamp.En5.5.200Scan.071719.P1._HRD10591_13-59-19-063.txt Node
Date: Thu Jul 18 13:59:19 EDT 2019
User: cochatt
Spectrometer: HR+D1059
Trigger mode: 1
Integration Time (sec): 1.000000E-1
Scans to average: 1
Electric dark correction enabled: true
Nonlinearity correction enabled: false
Boxcar width: 0
XAxis mode: Wavelengths
Number of Pixels in Spectrum: 2048
>>>>>Begin Spectral Data<<<<<
223.165	-23.94
223.4	-23.94
223.635	-23.94
223.869	-1.94
224.104	-16.94
224.338	-11.94
224.573	-4.94
224.808	8.06
225.042	-13.94
225.277	-8.94
225.511	-16.94
225.746	6.06
225.98	3.06
226.215	3.06
226.449	11.06
226.683	17.06
226.918	18.06
227.152	33.06
227.387	41.06
227.621	29.06
227.856	39.06
228.09	55.06
228.324	52.06
228.559	63.06
228.793	73.06
229.027	83.06
229.262	112.06
229.496	110.06
229.73	134.06
229.964	134.06
230.199	129.06
230.433	126.06
230.667	119.06
230.901	119.06
231.136	116.06
231.37	115.06
231.604	132.06
231.838	118.06
232.072	117.06
232.306	120.06
232.541	131.06
232.775	137.06
233.009	116.06
233.243	120.06
233.477	128.06
233.711	120.06
233.945	134.06
234.179	120.06
234.413	112.06
234.647	123.06
234.881	128.06
235.115	139.06
235.349	130.06
235.583	127.06
235.817	128.06
236.051	131.06
236.285	117.06
236.519	131.06
236.753	130.06
236.987	141.06
237.221	168.06
237.455	193.06
237.689	172.06
237.922	137.06
238.156	140.06
238.39	128.06
238.624	135.06
238.858	146.06
239.091	131.06
239.325	135.06
239.559	129.06
239.793	138.06
240.027	150.06
240.26	157.06
240.494	156.06
240.728	156.06
240.961	157.06
241.195	138.06
241.429	143.06
241.662	154.06
241.896	167.06
242.13	153.06
242.363	156.06
242.597	151.06
242.83	155.06
243.064	164.06
243.298	140.06
243.531	159.06
243.765	156.06
243.998	168.06
244.232	174.06
244.465	166.06
244.699	170.06
244.932	156.06
245.166	171.06
245.399	158.06
245.633	177.06
245.866	166.06
246.099	169.06
246.333	152.06
246.566	171.06
246.8	163.06
247.033	183.06
247.266	190.06
247.5	175.06
247.733	167.06
247.966	189.06
248.2	193.06
248.433	185.06
248.666	180.06
248.899	198.06
249.133	206.06
249.366	229.06
249.599	209.06
249.832	209.06
250.066	214.06
250.299	200.06
250.532	216.06
250.765	231.06
250.998	221.06
251.231	227.06
251.465	219.06
251.698	216.06
251.931	230.06
252.164	222.06
252.397	201.06
252.63	220.06
252.863	227.06
253.096	233.06
253.329	236.06
253.562	234.06
253.795	233.06
254.028	224.06
254.261	234.06
254.494	237.06
254.727	246.06
254.96	265.06
255.193	276.06
255.426	272.06
255.659	238.06
255.892	233.06
256.124	263.06
256.357	260.06
256.59	237.06
256.823	240.06
257.056	247.06
257.289	228.06
257.521	229.06
257.754	237.06
257.987	214.06
258.22	237.06
258.452	225.06
258.685	231.06
258.918	221.06
259.151	242.06
259.383	245.06
259.616	245.06
259.849	229.06
260.081	259.06
260.314	262.06
260.547	268.06
260.779	249.06
261.012	263.06
261.244	257.06
261.477	261.06
261.71	259.06
261.942	238.06
262.175	268.06
262.407	255.06
262.64	245.06
262.872	249.06
263.105	248.06
263.337	253.06
263.57	246.06
263.802	225.06
264.035	234.06
264.267	235.06
264.499	236.06
264.732	260.06
264.964	260.06
265.197	272.06
265.429	261.06
265.661	240.06
265.894	253.06
266.126	246.06
266.358	245.06
266.591	261.06
266.823	252.06
267.055	256.06
267.287	273.06
267.52	259.06
267.752	260.06
267.984	264.06
268.216	273.06
268.448	257.06
268.681	245.06
268.913	286.06
269.145	272.06
269.377	308.06
269.609	301.06
269.841	312.06
270.073	297.06
270.306	305.06
270.538	320.06
270.77	331.06
271.002	330.06
271.234	326.06
271.466	327.06
271.698	326.06
271.93	313.06
272.162	343.06
272.394	324.06
272.626	330.06
272.858	319.06
273.09	309.06
273.322	306.06
273.553	295.06
273.785	293.06
274.017	300.06
274.249	319.06
274.481	301.06
274.713	321.06
274.945	318.06
275.176	310.06
275.408	309.06
275.64	309.06
275.872	329.06
276.104	318.06
276.335	311.06
276.567	307.06
276.799	319.06
277.031	329.06
277.262	343.06
277.494	358.06
277.726	335.06
277.957	337.06
278.189	327.06
278.421	326.06
278.652	302.06
278.884	327.06
279.115	325.06
279.347	311.06
279.579	331.06
279.81	312.06
280.042	313.06
280.273	319.06
280.505	318.06
280.736	315.06
280.968	320.06
281.199	330.06
281.431	311.06
281.662	317.06
281.894	331.06
282.125	352.06
282.356	323.06
282.588	335.06
282.819	358.06
283.051	313.06
283.282	316.06
283.513	332.06
283.745	346.06
283.976	332.06
284.207	333.06
284.439	356.06
284.67	332.06
284.901	353.06
285.132	340.06
285.364	347.06
285.595	353.06
285.826	348.06
286.057	347.06
286.288	338.06
286.52	334.06
286.751	358.06
286.982	349.06
287.213	344.06
287.444	349.06
287.675	362.06
287.906	357.06
288.138	353.06
288.369	356.06
288.6	371.06
288.831	375.06
289.062	351.06
289.293	371.06
289.524	358.06
289.755	371.06
289.986	360.06
290.217	349.06
290.448	375.06
290.679	356.06
290.91	365.06
291.141	359.06
291.371	347.06
291.602	339.06
291.833	367.06
292.064	363.06
292.295	359.06
292.526	362.06
292.757	381.06
292.987	387.06
293.218	375.06
293.449	363.06
293.68	371.06
293.91	380.06
294.141	368.06
294.372	375.06
294.603	379.06
294.833	377.06
295.064	359.06
295.295	368.06
295.525	391.06
295.756	368.06
295.987	387.06
296.217	397.06
296.448	392.06
296.679	395.06
296.909	387.06
297.14	384.06
297.37	408.06
297.601	376.06
297.831	381.06
298.062	397.06
298.292	391.06
298.523	388.06
298.753	398.06
298.984	393.06
299.214	400.06
299.445	400.06
299.675	396.06
299.905	388.06
300.136	394.06
300.366	389.06
300.597	407.06
300.827	427.06
301.057	407.06
301.288	418.06
301.518	418.06
301.748	404.06
301.979	419.06
302.209	413.06
302.439	425.06
302.669	424.06
302.9	419.06
303.13	426.06
303.36	409.06
303.59	432.06
303.82	424.06
304.051	420.06
304.281	440.06
304.511	416.06
304.741	417.06
304.971	406.06
305.201	414.06
305.431	408.06
305.661	408.06
305.891	408.06
306.121	428.06
306.352	414.06
306.582	412.06
306.812	398.06
307.042	401.06
307.272	405.06
307.502	398.06
307.731	421.06
307.961	414.06
308.191	417.06
308.421	407.06
308.651	415.06
308.881	411.06
309.111	419.06
309.341	415.06
309.571	447.06
309.8	432.06
310.03	448.06
310.26	441.06
310.49	439.06
310.72	458.06
310.949	454.06
311.179	468.06
311.409	456.06
311.639	458.06
311.868	454.06
312.098	444.06
312.328	436.06
312.557	479.06
312.787	470.06
313.017	476.06
313.246	472.06
313.476	454.06
313.706	467.06
313.935	463.06
314.165	473.06
314.394	466.06
314.624	507.06
314.853	477.06
315.083	464.06
315.312	469.06
315.542	461.06
315.771	455.06
316.001	443.06
316.23	448.06
316.46	465.06
316.689	452.06
316.919	461.06
317.148	477.06
317.377	461.06
317.607	448.06
317.836	481.06
318.065	466.06
318.295	464.06
318.524	459.06
318.753	440.06
318.983	466.06
319.212	459.06
319.441	469.06
319.67	460.06
319.9	471.06
320.129	471.06
320.358	467.06
320.587	464.06
320.816	459.06
321.046	484.06
321.275	474.06
321.504	471.06
321.733	479.06
321.962	471.06
322.191	461.06
322.42	486.06
322.649	511.06
322.878	509.06
323.108	520.06
323.337	521.06
323.566	536.06
323.795	538.06
324.024	582.06
324.253	639.06
324.482	821.06
324.71	1189.06
324.939	1683.06
325.168	1487.06
325.397	834.06
325.626	644.06
325.855	599.06
326.084	549.06
326.313	558.06
326.542	560.06
326.77	588.06
326.999	647.06
327.228	789.06
327.457	1140.06
327.686	1344.06
327.914	966.06
328.143	703.06
328.372	619.06
328.6	615.06
328.829	595.06
329.058	590.06
329.287	629.06
329.515	592.06
329.744	573.06
329.972	572.06
330.201	577.06
330.43	609.06
330.658	625.06
330.887	650.06
331.115	652.06
331.344	595.06
331.572	602.06
331.801	582.06
332.03	567.06
332.258	581.06
332.486	587.06
332.715	594.06
332.943	592.06
333.172	589.06
333.4	616.06
333.629	622.06
333.857	615.06
334.085	635.06
334.314	675.06
334.542	663.06
334.771	675.06
334.999	637.06
335.227	637.06
335.455	599.06
335.684	589.06
335.912	603.06
336.14	597.06
336.369	598.06
336.597	545.06
336.825	579.06
337.053	567.06
337.281	572.06
337.51	551.06
337.738	567.06
337.966	575.06
338.194	577.06
338.422	557.06
338.65	575.06
338.878	547.06
339.106	548.06
339.334	555.06
339.562	556.06
339.79	544.06
340.018	541.06
340.246	524.06
340.474	542.06
340.702	540.06
340.93	540.06
341.158	535.06
341.386	557.06
341.614	509.06
341.842	541.06
342.07	542.06
342.298	540.06
342.526	531.06
342.754	513.06
342.981	516.06
343.209	522.06
343.437	558.06
343.665	543.06
343.893	607.06
344.12	601.06
344.348	591.06
344.576	577.06
344.804	590.06
345.031	569.06
345.259	581.06
345.487	532.06
345.714	537.06
345.942	516.06
346.17	529.06
346.397	511.06
346.625	530.06
346.853	520.06
347.08	515.06
347.308	502.06
347.535	523.06
347.763	536.06
347.99	517.06
348.218	533.06
348.445	508.06
348.673	521.06
348.9	504.06
349.128	519.06
349.355	508.06
349.583	491.06
349.81	512.06
350.037	526.06
350.265	507.06
350.492	511.06
350.72	495.06
350.947	499.06
351.174	501.06
351.402	523.06
351.629	499.06
351.856	528.06
352.083	512.06
352.311	549.06
352.538	533.06
352.765	517.06
352.992	501.06
353.22	530.06
353.447	478.06
353.674	511.06
353.901	500.06
354.128	488.06
354.355	511.06
354.583	491.06
354.81	485.06
355.037	493.06
355.264	493.06
355.491	501.06
355.718	470.06
355.945	477.06
356.172	489.06
356.399	501.06
356.626	503.06
356.853	491.06
357.08	479.06
357.307	489.06
357.534	467.06
357.761	489.06
357.988	496.06
358.215	485.06
358.441	472.06
358.668	482.06
358.895	493.06
359.122	494.06
359.349	489.06
359.576	528.06
359.802	520.06
360.029	536.06
360.256	542.06
360.483	537.06
360.709	518.06
360.936	518.06
361.163	520.06
361.39	533.06
361.616	501.06
361.843	488.06
362.07	496.06
362.296	533.06
362.523	518.06
362.749	497.06
362.976	506.06
363.203	515.06
363.429	496.06
363.656	523.06
363.882	505.06
364.109	480.06
364.335	509.06
364.562	499.06
364.788	497.06
365.015	489.06
365.241	484.06
365.468	522.06
365.694	494.06
365.92	483.06
366.147	493.06
366.373	509.06
366.599	504.06
366.826	486.06
367.052	495.06
367.278	502.06
367.505	494.06
367.731	482.06
367.957	508.06
368.184	477.06
368.41	517.06
368.636	548.06
368.862	539.06
369.089	518.06
369.315	496.06
369.541	513.06
369.767	529.06
369.993	523.06
370.219	500.06
370.445	506.06
370.672	515.06
370.898	518.06
371.124	516.06
371.35	508.06
371.576	526.06
371.802	520.06
372.028	523.06
372.254	512.06
372.48	533.06
372.706	550.06
372.932	544.06
373.158	535.06
373.384	525.06
373.61	533.06
373.835	528.06
374.061	517.06
374.287	535.06
374.513	546.06
374.739	556.06
374.965	553.06
375.191	556.06
375.416	568.06
375.642	543.06
375.868	545.06
376.094	539.06
376.319	535.06
376.545	534.06
376.771	517.06
376.997	508.06
377.222	506.06
377.448	521.06
377.674	525.06
377.899	526.06
378.125	505.06
378.35	534.06
378.576	511.06
378.802	516.06
379.027	496.06
379.253	523.06
379.478	525.06
379.704	536.06
379.929	513.06
380.155	506.06
380.38	521.06
380.606	523.06
380.831	539.06
381.057	536.06
381.282	523.06
381.507	521.06
381.733	534.06
381.958	533.06
382.184	520.06
382.409	505.06
382.634	532.06
382.86	542.06
383.085	551.06
383.31	563.06
383.535	548.06
383.761	571.06
383.986	564.06
384.211	568.06
384.436	586.06
384.662	582.06
384.887	597.06
385.112	589.06
385.337	602.06
385.562	576.06
385.787	606.06
386.013	612.06
386.238	606.06
386.463	588.06
386.688	600.06
386.913	585.06
387.138	587.06
387.363	613.06
387.588	584.06
387.813	615.06
388.038	586.06
388.263	598.06
388.488	629.06
388.713	603.06
388.938	586.06
389.163	595.06
389.387	593.06
389.612	597.06
389.837	583.06
390.062	592.06
390.287	589.06
390.512	572.06
390.736	610.06
390.961	617.06
391.186	615.06
391.411	617.06
391.636	643.06
391.86	649.06
392.085	641.06
392.31	638.06
392.534	634.06
392.759	635.06
392.984	645.06
393.208	621.06
393.433	618.06
393.658	630.06
393.882	612.06
394.107	621.06
394.331	609.06
394.556	603.06
394.78	636.06
395.005	613.06
395.229	629.06
395.454	660.06
395.678	658.06
395.903	669.06
396.127	685.06
396.352	653.06
396.576	629.06
396.801	654.06
397.025	638.06
397.249	661.06
397.474	650.06
397.698	630.06
397.922	684.06
398.147	703.06
398.371	699.06
398.595	698.06
398.82	723.06
399.044	751.06
399.268	814.06
399.492	872.06
399.717	943.06
399.941	959.06
400.165	945.06
400.389	888.06
400.613	813.06
400.837	775.06
401.062	739.06
401.286	751.06
401.51	725.06
401.734	732.06
401.958	723.06
402.182	717.06
402.406	752.06
402.63	759.06
402.854	749.06
403.078	730.06
403.302	796.06
403.526	780.06
403.75	779.06
403.974	777.06
404.198	782.06
404.422	789.06
404.645	800.06
404.869	798.06
405.093	814.06
405.317	836.06
405.541	846.06
405.765	827.06
405.988	790.06
406.212	786.06
406.436	795.06
406.66	805.06
406.883	804.06
407.107	840.06
407.331	902.06
407.555	967.06
407.778	980.06
408.002	895.06
408.226	862.06
408.449	846.06
408.673	826.06
408.896	825.06
409.12	864.06
409.344	841.06
409.567	786.06
409.791	785.06
410.014	757.06
410.238	753.06
410.461	761.06
410.685	769.06
410.908	759.06
411.132	795.06
411.355	798.06
411.578	805.06
411.802	746.06
412.025	738.06
412.249	764.06
412.472	761.06
412.695	805.06
412.919	784.06
413.142	762.06
413.365	732.06
413.589	739.06
413.812	718.06
414.035	695.06
414.258	734.06
414.482	698.06
414.705	688.06
414.928	726.06
415.151	703.06
415.374	694.06
415.597	709.06
415.821	709.06
416.044	715.06
416.267	711.06
416.49	695.06
416.713	705.06
416.936	709.06
417.159	685.06
417.382	699.06
417.605	679.06
417.828	716.06
418.051	718.06
418.274	707.06
418.497	719.06
418.72	712.06
418.943	755.06
419.166	740.06
419.389	798.06
419.611	778.06
419.834	770.06
420.057	766.06
420.28	744.06
420.503	743.06
420.726	724.06
420.948	723.06
421.171	756.06
421.394	780.06
421.617	721.06
421.839	713.06
422.062	736.06
422.285	699.06
422.507	807.06
422.73	855.06
422.953	839.06
423.175	784.06
423.398	752.06
423.621	731.06
423.843	785.06
424.066	764.06
424.288	785.06
424.511	793.06
424.733	837.06
424.956	903.06
425.178	843.06
425.401	825.06
425.623	865.06
425.846	777.06
426.068	745.06
426.291	727.06
426.513	721.06
426.735	732.06
426.958	740.06
427.18	812.06
427.402	912.06
427.625	986.06
427.847	855.06
428.069	812.06
428.292	748.06
428.514	714.06
428.736	699.06
428.958	664.06
429.181	675.06
429.403	667.06
429.625	677.06
429.847	712.06
430.069	759.06
430.292	765.06
430.514	679.06
430.736	699.06
430.958	665.06
431.18	634.06
431.402	667.06
431.624	661.06
431.846	668.06
432.068	658.06
432.29	671.06
432.512	637.06
432.734	649.06
432.956	663.06
433.178	678.06
433.4	658.06
433.622	655.06
433.844	655.06
434.066	649.06
434.287	669.06
434.509	679.06
434.731	693.06
434.953	704.06
435.175	726.06
435.397	770.06
435.618	747.06
435.84	733.06
436.062	807.06
436.284	869.06
436.505	743.06
436.727	716.06
436.949	711.06
437.17	673.06
437.392	673.06
437.614	682.06
437.835	701.06
438.057	769.06
438.278	842.06
438.5	833.06
438.721	907.06
438.943	883.06
439.165	752.06
439.386	734.06
439.608	718.06
439.829	697.06
440.05	698.06
440.272	762.06
440.493	757.06
440.715	703.06
440.936	733.06
441.158	693.06
441.379	685.06
441.6	752.06
441.822	742.06
442.043	763.06
442.264	839.06
442.486	870.06
442.707	789.06
442.928	749.06
443.149	746.06
443.371	784.06
443.592	815.06
443.813	858.06
444.034	919.06
444.255	851.06
444.476	829.06
444.698	822.06
444.919	817.06
445.14	912.06
445.361	827.06
445.582	791.06
445.803	821.06
446.024	890.06
446.245	886.06
446.466	828.06
446.687	767.06
446.908	727.06
447.129	684.06
447.35	670.06
447.571	647.06
447.792	635.06
448.013	660.06
448.234	689.06
448.455	678.06
448.675	798.06
448.896	901.06
449.117	799.06
449.338	741.06
449.559	815.06
449.779	891.06
450	764.06
450.221	677.06
450.442	638.06
450.662	649.06
450.883	646.06
451.104	661.06
451.324	649.06
451.545	636.06
451.766	612.06
451.986	604.06
452.207	591.06
452.428	608.06
452.648	618.06
452.869	593.06
453.089	615.06
453.31	613.06
453.53	600.06
453.751	605.06
453.971	607.06
454.192	598.06
454.412	578.06
454.633	590.06
454.853	585.06
455.073	587.06
455.294	616.06
455.514	665.06
455.734	648.06
455.955	595.06
456.175	599.06
456.395	580.06
456.616	584.06
456.836	589.06
457.056	572.06
457.276	569.06
457.497	578.06
457.717	567.06
457.937	586.06
458.157	587.06
458.377	607.06
458.598	624.06
458.818	664.06
459.038	723.06
459.258	751.06
459.478	684.06
459.698	670.06
459.918	673.06
460.138	686.06
460.358	733.06
460.578	720.06
460.798	720.06
461.018	731.06
461.238	707.06
461.458	703.06
461.678	694.06
461.898	733.06
462.118	737.06
462.338	750.06
462.558	776.06
462.777	792.06
462.997	806.06
463.217	863.06
463.437	897.06
463.657	828.06
463.876	797.06
464.096	832.06
464.316	807.06
464.536	808.06
464.755	773.06
464.975	760.06
465.195	761.06
465.414	784.06
465.634	761.06
465.854	688.06
466.073	687.06
466.293	664.06
466.512	649.06
466.732	621.06
466.951	621.06
467.171	632.06
467.391	635.06
467.61	649.06
467.829	642.06
468.049	642.06
468.268	623.06
468.488	624.06
468.707	623.06
468.927	616.06
469.146	605.06
469.365	615.06
469.585	614.06
469.804	625.06
470.023	666.06
470.243	640.06
470.462	641.06
470.681	673.06
470.901	668.06
471.12	658.06
471.339	645.06
471.558	639.06
471.777	641.06
471.997	632.06
472.216	638.06
472.435	677.06
472.654	617.06
472.873	633.06
473.092	615.06
473.311	629.06
473.53	607.06
473.749	617.06
473.968	650.06
474.187	703.06
474.406	751.06
474.625	651.06
474.844	653.06
475.063	646.06
475.282	618.06
475.501	621.06
475.72	632.06
475.939	627.06
476.158	635.06
476.377	649.06
476.596	656.06
476.814	656.06
477.033	659.06
477.252	668.06
477.471	683.06
477.69	693.06
477.908	718.06
478.127	706.06
478.346	716.06
478.564	726.06
478.783	737.06
479.002	739.06
479.22	756.06
479.439	758.06
479.658	734.06
479.876	789.06
480.095	783.06
480.313	793.06
480.532	794.06
480.751	791.06
480.969	794.06
481.188	843.06
481.406	844.06
481.624	794.06
481.843	755.06
482.061	741.06
482.28	729.06
482.498	724.06
482.717	731.06
482.935	734.06
483.153	739.06
483.372	727.06
483.59	732.06
483.808	713.06
484.027	747.06
484.245	718.06
484.463	716.06
484.681	751.06
484.9	739.06
485.118	759.06
485.336	736.06
485.554	744.06
485.772	752.06
485.99	760.06
486.209	776.06
486.427	760.06
486.645	757.06
486.863	733.06
487.081	759.06
487.299	785.06
487.517	785.06
487.735	781.06
487.953	783.06
488.171	774.06
488.389	762.06
488.607	771.06
488.825	780.06
489.043	761.06
489.261	763.06
489.479	769.06
489.696	789.06
489.914	774.06
490.132	816.06
490.35	822.06
490.568	806.06
490.786	811.06
491.003	816.06
491.221	825.06
491.439	823.06
491.657	839.06
491.874	838.06
492.092	841.06
492.31	853.06
492.527	861.06
492.745	898.06
492.963	880.06
493.18	871.06
493.398	887.06
493.615	875.06
493.833	903.06
494.05	899.06
494.268	900.06
494.485	901.06
494.703	924.06
494.92	907.06
495.138	905.06
495.355	880.06
495.573	899.06
495.79	899.06
496.008	934.06
496.225	911.06
496.442	898.06
496.66	947.06
496.877	955.06
497.094	939.06
497.312	938.06
497.529	994.06
497.746	981.06
497.963	987.06
498.181	1051.06
498.398	1053.06
498.615	1086.06
498.832	1136.06
499.049	1178.06
499.267	1262.06
499.484	1309.06
499.701	1401.06
499.918	1511.06
500.135	1649.06
500.352	1789.06
500.569	1833.06
500.786	1877.06
501.003	1771.06
501.22	1642.06
501.437	1519.06
501.654	1417.06
