Data from 1963.PennyLincolnUp.Lamp.En5.5.200Scan.071719.P1._HRD10591_13-57-35-062.txt Node
Date: Thu Jul 18 13:57:35 EDT 2019
User: cochatt
Spectrometer: HR+D1059
Trigger mode: 1
Integration Time (sec): 1.000000E-1
Scans to average: 1
Electric dark correction enabled: true
Nonlinearity correction enabled: false
Boxcar width: 0
XAxis mode: Wavelengths
Number of Pixels in Spectrum: 2048
>>>>>Begin Spectral Data<<<<<
223.165	-11.44
223.4	-11.44
223.635	-11.44
223.869	-27.44
224.104	-7.44
224.338	-12.44
224.573	-24.44
224.808	-6.44
225.042	9.56
225.277	-3.44
225.511	-19.44
225.746	-3.44
225.98	2.56
226.215	15.56
226.449	23.56
226.683	21.56
226.918	32.56
227.152	10.56
227.387	20.56
227.621	22.56
227.856	30.56
228.09	37.56
228.324	44.56
228.559	38.56
228.793	55.56
229.027	84.56
229.262	80.56
229.496	84.56
229.73	105.56
229.964	108.56
230.199	120.56
230.433	108.56
230.667	107.56
230.901	107.56
231.136	120.56
231.37	98.56
231.604	110.56
231.838	124.56
232.072	105.56
232.306	114.56
232.541	119.56
232.775	114.56
233.009	120.56
233.243	111.56
233.477	108.56
233.711	105.56
233.945	115.56
234.179	120.56
234.413	129.56
234.647	125.56
234.881	111.56
235.115	126.56
235.349	127.56
235.583	126.56
235.817	116.56
236.051	121.56
236.285	123.56
236.519	131.56
236.753	134.56
236.987	126.56
237.221	158.56
237.455	180.56
237.689	156.56
237.922	137.56
238.156	126.56
238.39	126.56
238.624	128.56
238.858	129.56
239.091	134.56
239.325	121.56
239.559	117.56
239.793	130.56
240.027	130.56
240.26	139.56
240.494	146.56
240.728	128.56
240.961	130.56
241.195	152.56
241.429	153.56
241.662	139.56
241.896	132.56
242.13	136.56
242.363	124.56
242.597	141.56
242.83	136.56
243.064	133.56
243.298	141.56
243.531	139.56
243.765	155.56
243.998	136.56
244.232	144.56
244.465	148.56
244.699	157.56
244.932	155.56
245.166	171.56
245.399	152.56
245.633	138.56
245.866	153.56
246.099	151.56
246.333	156.56
246.566	158.56
246.8	160.56
247.033	169.56
247.266	179.56
247.5	176.56
247.733	176.56
247.966	188.56
248.2	170.56
248.433	168.56
248.666	183.56
248.899	198.56
249.133	187.56
249.366	193.56
249.599	177.56
249.832	169.56
250.066	178.56
250.299	179.56
250.532	203.56
250.765	197.56
250.998	204.56
251.231	208.56
251.465	206.56
251.698	190.56
251.931	215.56
252.164	216.56
252.397	205.56
252.63	196.56
252.863	197.56
253.096	204.56
253.329	218.56
253.562	214.56
253.795	213.56
254.028	203.56
254.261	208.56
254.494	226.56
254.727	220.56
254.96	244.56
255.193	238.56
255.426	243.56
255.659	217.56
255.892	214.56
256.124	226.56
256.357	238.56
256.59	210.56
256.823	215.56
257.056	213.56
257.289	212.56
257.521	208.56
257.754	239.56
257.987	218.56
258.22	212.56
258.452	201.56
258.685	210.56
258.918	218.56
259.151	213.56
259.383	233.56
259.616	219.56
259.849	228.56
260.081	240.56
260.314	245.56
260.547	251.56
260.779	227.56
261.012	234.56
261.244	226.56
261.477	236.56
261.71	219.56
261.942	218.56
262.175	239.56
262.407	233.56
262.64	227.56
262.872	219.56
263.105	218.56
263.337	215.56
263.57	229.56
263.802	222.56
264.035	226.56
264.267	235.56
264.499	211.56
264.732	236.56
264.964	228.56
265.197	223.56
265.429	242.56
265.661	227.56
265.894	237.56
266.126	215.56
266.358	226.56
266.591	252.56
266.823	243.56
267.055	245.56
267.287	244.56
267.52	226.56
267.752	246.56
267.984	258.56
268.216	235.56
268.448	260.56
268.681	245.56
268.913	253.56
269.145	265.56
269.377	276.56
269.609	260.56
269.841	278.56
270.073	284.56
270.306	286.56
270.538	296.56
270.77	298.56
271.002	300.56
271.234	299.56
271.466	281.56
271.698	299.56
271.93	303.56
272.162	314.56
272.394	297.56
272.626	291.56
272.858	296.56
273.09	295.56
273.322	288.56
273.553	289.56
273.785	276.56
274.017	292.56
274.249	282.56
274.481	276.56
274.713	285.56
274.945	272.56
275.176	272.56
275.408	281.56
275.64	263.56
275.872	284.56
276.104	281.56
276.335	278.56
276.567	263.56
276.799	276.56
277.031	298.56
277.262	303.56
277.494	322.56
277.726	293.56
277.957	296.56
278.189	281.56
278.421	299.56
278.652	290.56
278.884	293.56
279.115	296.56
279.347	301.56
279.579	284.56
279.81	307.56
280.042	307.56
280.273	301.56
280.505	304.56
280.736	311.56
280.968	308.56
281.199	298.56
281.431	322.56
281.662	320.56
281.894	321.56
282.125	286.56
282.356	310.56
282.588	322.56
282.819	336.56
283.051	298.56
283.282	304.56
283.513	317.56
283.745	318.56
283.976	315.56
284.207	332.56
284.439	323.56
284.67	328.56
284.901	319.56
285.132	337.56
285.364	302.56
285.595	322.56
285.826	316.56
286.057	314.56
286.288	338.56
286.52	310.56
286.751	319.56
286.982	340.56
287.213	298.56
287.444	341.56
287.675	341.56
287.906	336.56
288.138	335.56
288.369	332.56
288.6	329.56
288.831	335.56
289.062	333.56
289.293	337.56
289.524	345.56
289.755	335.56
289.986	335.56
290.217	338.56
290.448	355.56
290.679	348.56
290.91	337.56
291.141	340.56
291.371	350.56
291.602	328.56
291.833	323.56
292.064	347.56
292.295	333.56
292.526	340.56
292.757	357.56
292.987	332.56
293.218	328.56
293.449	324.56
293.68	355.56
293.91	330.56
294.141	338.56
294.372	338.56
294.603	349.56
294.833	356.56
295.064	341.56
295.295	339.56
295.525	344.56
295.756	351.56
295.987	359.56
296.217	358.56
296.448	376.56
296.679	374.56
296.909	362.56
297.14	368.56
297.37	363.56
297.601	357.56
297.831	372.56
298.062	374.56
298.292	368.56
298.523	366.56
298.753	396.56
298.984	382.56
299.214	366.56
299.445	374.56
299.675	368.56
299.905	384.56
300.136	362.56
300.366	347.56
300.597	384.56
300.827	386.56
301.057	376.56
301.288	388.56
301.518	380.56
301.748	375.56
301.979	368.56
302.209	383.56
302.439	382.56
302.669	407.56
302.9	390.56
303.13	395.56
303.36	392.56
303.59	388.56
303.82	383.56
304.051	395.56
304.281	404.56
304.511	382.56
304.741	378.56
304.971	379.56
305.201	366.56
305.431	395.56
305.661	395.56
305.891	389.56
306.121	379.56
306.352	396.56
306.582	389.56
306.812	370.56
307.042	402.56
307.272	386.56
307.502	382.56
307.731	389.56
307.961	394.56
308.191	368.56
308.421	381.56
308.651	394.56
308.881	384.56
309.111	385.56
309.341	370.56
309.571	384.56
309.8	393.56
310.03	410.56
310.26	392.56
310.49	413.56
310.72	388.56
310.949	397.56
311.179	402.56
311.409	402.56
311.639	400.56
311.868	423.56
312.098	418.56
312.328	418.56
312.557	421.56
312.787	414.56
313.017	445.56
313.246	439.56
313.476	410.56
313.706	404.56
313.935	415.56
314.165	430.56
314.394	440.56
314.624	414.56
314.853	434.56
315.083	425.56
315.312	434.56
315.542	429.56
315.771	433.56
316.001	411.56
316.23	410.56
316.46	431.56
316.689	427.56
316.919	421.56
317.148	416.56
317.377	438.56
317.607	411.56
317.836	446.56
318.065	424.56
318.295	443.56
318.524	434.56
318.753	431.56
318.983	431.56
319.212	441.56
319.441	431.56
319.67	410.56
319.9	443.56
320.129	407.56
320.358	410.56
320.587	435.56
320.816	423.56
321.046	418.56
321.275	417.56
321.504	414.56
321.733	440.56
321.962	456.56
322.191	450.56
322.42	450.56
322.649	462.56
322.878	456.56
323.108	454.56
323.337	459.56
323.566	443.56
323.795	495.56
324.024	500.56
324.253	564.56
324.482	706.56
324.71	957.56
324.939	1314.56
325.168	1140.56
325.397	684.56
325.626	529.56
325.855	510.56
326.084	491.56
326.313	483.56
326.542	486.56
326.77	518.56
326.999	567.56
327.228	673.56
327.457	878.56
327.686	1069.56
327.914	751.56
328.143	597.56
328.372	560.56
328.6	544.56
328.829	508.56
329.058	557.56
329.287	532.56
329.515	532.56
329.744	507.56
329.972	512.56
330.201	503.56
330.43	525.56
330.658	531.56
330.887	575.56
331.115	567.56
331.344	514.56
331.572	519.56
331.801	506.56
332.03	534.56
332.258	492.56
332.486	518.56
332.715	520.56
332.943	550.56
333.172	539.56
333.4	569.56
333.629	584.56
333.857	603.56
334.085	587.56
334.314	587.56
334.542	596.56
334.771	617.56
334.999	588.56
335.227	547.56
335.455	559.56
335.684	561.56
335.912	554.56
336.14	532.56
336.369	531.56
336.597	532.56
336.825	514.56
337.053	547.56
337.281	515.56
337.51	523.56
337.738	531.56
337.966	515.56
338.194	536.56
338.422	516.56
338.65	511.56
338.878	508.56
339.106	496.56
339.334	518.56
339.562	466.56
339.79	491.56
340.018	496.56
340.246	485.56
340.474	478.56
340.702	480.56
340.93	508.56
341.158	487.56
341.386	483.56
341.614	499.56
341.842	489.56
342.07	459.56
342.298	471.56
342.526	479.56
342.754	490.56
342.981	474.56
343.209	484.56
343.437	513.56
343.665	514.56
343.893	540.56
344.12	578.56
344.348	555.56
344.576	538.56
344.804	511.56
345.031	538.56
345.259	523.56
345.487	483.56
345.714	500.56
345.942	478.56
346.17	504.56
346.397	492.56
346.625	473.56
346.853	494.56
347.08	479.56
347.308	458.56
347.535	468.56
347.763	485.56
347.99	479.56
348.218	456.56
348.445	464.56
348.673	459.56
348.9	464.56
349.128	465.56
349.355	457.56
349.583	476.56
349.81	450.56
350.037	446.56
350.265	450.56
350.492	455.56
350.72	461.56
350.947	481.56
351.174	463.56
351.402	472.56
351.629	460.56
351.856	471.56
352.083	466.56
352.311	477.56
352.538	458.56
352.765	462.56
352.992	458.56
353.22	463.56
353.447	460.56
353.674	450.56
353.901	454.56
354.128	470.56
354.355	472.56
354.583	457.56
354.81	452.56
355.037	472.56
355.264	467.56
355.491	469.56
355.718	469.56
355.945	464.56
356.172	442.56
356.399	435.56
356.626	456.56
356.853	468.56
357.08	441.56
357.307	452.56
357.534	460.56
357.761	461.56
357.988	444.56
358.215	449.56
358.441	464.56
358.668	442.56
358.895	451.56
359.122	463.56
359.349	470.56
359.576	449.56
359.802	464.56
360.029	479.56
360.256	508.56
360.483	491.56
360.709	458.56
360.936	470.56
361.163	441.56
361.39	480.56
361.616	482.56
361.843	465.56
362.07	495.56
362.296	511.56
362.523	463.56
362.749	478.56
362.976	470.56
363.203	455.56
363.429	450.56
363.656	479.56
363.882	458.56
364.109	453.56
364.335	481.56
364.562	458.56
364.788	442.56
365.015	471.56
365.241	461.56
365.468	455.56
365.694	444.56
365.92	471.56
366.147	458.56
366.373	452.56
366.599	438.56
366.826	454.56
367.052	456.56
367.278	457.56
367.505	460.56
367.731	465.56
367.957	468.56
368.184	454.56
368.41	466.56
368.636	473.56
368.862	498.56
369.089	467.56
369.315	481.56
369.541	468.56
369.767	471.56
369.993	473.56
370.219	475.56
370.445	478.56
370.672	484.56
370.898	495.56
371.124	484.56
371.35	494.56
371.576	483.56
371.802	498.56
372.028	496.56
372.254	486.56
372.48	442.56
372.706	467.56
372.932	498.56
373.158	510.56
373.384	466.56
373.61	487.56
373.835	491.56
374.061	469.56
374.287	479.56
374.513	513.56
374.739	525.56
374.965	525.56
375.191	532.56
375.416	528.56
375.642	503.56
375.868	518.56
376.094	508.56
376.319	514.56
376.545	502.56
376.771	482.56
376.997	469.56
377.222	500.56
377.448	484.56
377.674	491.56
377.899	481.56
378.125	502.56
378.35	501.56
378.576	502.56
378.802	492.56
379.027	484.56
379.253	491.56
379.478	482.56
379.704	484.56
379.929	474.56
380.155	489.56
380.38	469.56
380.606	470.56
380.831	499.56
381.057	488.56
381.282	482.56
381.507	469.56
381.733	469.56
381.958	496.56
382.184	500.56
382.409	507.56
382.634	505.56
382.86	516.56
383.085	531.56
383.31	506.56
383.535	520.56
383.761	521.56
383.986	530.56
384.211	524.56
384.436	548.56
384.662	546.56
384.887	540.56
385.112	533.56
385.337	564.56
385.562	562.56
385.787	560.56
386.013	564.56
386.238	563.56
386.463	557.56
386.688	584.56
386.913	565.56
387.138	546.56
387.363	587.56
387.588	576.56
387.813	574.56
388.038	577.56
388.263	552.56
388.488	549.56
388.713	544.56
388.938	542.56
389.163	559.56
389.387	558.56
389.612	532.56
389.837	572.56
390.062	542.56
390.287	570.56
390.512	547.56
390.736	543.56
390.961	551.56
391.186	553.56
391.411	599.56
391.636	601.56
391.86	596.56
392.085	597.56
392.31	601.56
392.534	581.56
392.759	600.56
392.984	609.56
393.208	585.56
393.433	560.56
393.658	592.56
393.882	582.56
394.107	579.56
394.331	588.56
394.556	574.56
394.78	595.56
395.005	597.56
395.229	617.56
395.454	619.56
395.678	620.56
395.903	628.56
396.127	627.56
396.352	599.56
396.576	589.56
396.801	592.56
397.025	604.56
397.249	611.56
397.474	635.56
397.698	620.56
397.922	638.56
398.147	634.56
398.371	635.56
398.595	648.56
398.82	669.56
399.044	721.56
399.268	747.56
399.492	828.56
399.717	868.56
399.941	902.56
400.165	873.56
400.389	842.56
400.613	783.56
400.837	688.56
401.062	694.56
401.286	678.56
401.51	658.56
401.734	675.56
401.958	686.56
402.182	678.56
402.406	671.56
402.63	699.56
402.854	683.56
403.078	697.56
403.302	700.56
403.526	716.56
403.75	731.56
403.974	743.56
404.198	727.56
404.422	763.56
404.645	727.56
404.869	716.56
405.093	752.56
405.317	777.56
405.541	790.56
405.765	758.56
405.988	722.56
406.212	742.56
406.436	744.56
406.66	766.56
406.883	736.56
407.107	788.56
407.331	825.56
407.555	915.56
407.778	882.56
408.002	830.56
408.226	800.56
408.449	780.56
408.673	752.56
408.896	773.56
409.12	783.56
409.344	793.56
409.567	748.56
409.791	712.56
410.014	727.56
410.238	708.56
410.461	707.56
410.685	718.56
410.908	682.56
411.132	730.56
411.355	756.56
411.578	730.56
411.802	682.56
412.025	690.56
412.249	682.56
412.472	729.56
412.695	722.56
412.919	705.56
413.142	703.56
413.365	676.56
413.589	662.56
413.812	670.56
414.035	677.56
414.258	676.56
414.482	678.56
414.705	673.56
414.928	662.56
415.151	664.56
415.374	640.56
415.597	634.56
415.821	652.56
416.044	655.56
416.267	681.56
416.49	656.56
416.713	625.56
416.936	652.56
417.159	647.56
417.382	657.56
417.605	666.56
417.828	649.56
418.051	663.56
418.274	662.56
418.497	662.56
418.72	653.56
418.943	654.56
419.166	700.56
419.389	739.56
419.611	726.56
419.834	704.56
420.057	700.56
420.28	684.56
420.503	690.56
420.726	667.56
420.948	664.56
421.171	697.56
421.394	688.56
421.617	680.56
421.839	671.56
422.062	678.56
422.285	688.56
422.507	713.56
422.73	772.56
422.953	760.56
423.175	704.56
423.398	710.56
423.621	705.56
423.843	714.56
424.066	697.56
424.288	716.56
424.511	721.56
424.733	750.56
424.956	799.56
425.178	757.56
425.401	789.56
425.623	795.56
425.846	739.56
426.068	662.56
426.291	662.56
426.513	651.56
426.735	683.56
426.958	695.56
427.18	741.56
427.402	831.56
427.625	886.56
427.847	774.56
428.069	695.56
428.292	672.56
428.514	639.56
428.736	633.56
428.958	647.56
429.181	598.56
429.403	606.56
429.625	610.56
429.847	644.56
430.069	677.56
430.292	685.56
430.514	603.56
430.736	608.56
430.958	613.56
431.18	618.56
431.402	615.56
431.624	619.56
431.846	604.56
432.068	625.56
432.29	622.56
432.512	604.56
432.734	609.56
432.956	603.56
433.178	630.56
433.4	607.56
433.622	605.56
433.844	620.56
434.066	609.56
434.287	591.56
434.509	634.56
434.731	652.56
434.953	660.56
435.175	684.56
435.397	686.56
435.618	678.56
435.84	695.56
436.062	761.56
436.284	774.56
436.505	658.56
436.727	624.56
436.949	658.56
437.17	635.56
437.392	600.56
437.614	619.56
437.835	632.56
438.057	664.56
438.278	763.56
438.5	735.56
438.721	790.56
438.943	788.56
439.165	644.56
439.386	630.56
439.608	648.56
439.829	659.56
440.05	657.56
440.272	675.56
440.493	647.56
440.715	635.56
440.936	648.56
441.158	641.56
441.379	630.56
441.6	663.56
441.822	667.56
442.043	724.56
442.264	752.56
442.486	779.56
442.707	706.56
442.928	674.56
443.149	687.56
443.371	689.56
443.592	740.56
443.813	768.56
444.034	828.56
444.255	758.56
444.476	746.56
444.698	738.56
444.919	766.56
445.14	844.56
445.361	771.56
445.582	714.56
445.803	737.56
446.024	792.56
446.245	774.56
446.466	721.56
446.687	658.56
446.908	658.56
447.129	636.56
447.35	610.56
447.571	594.56
447.792	595.56
448.013	601.56
448.234	600.56
448.455	609.56
448.675	716.56
448.896	780.56
449.117	699.56
449.338	668.56
449.559	719.56
449.779	802.56
450	658.56
450.221	627.56
450.442	606.56
450.662	576.56
450.883	606.56
451.104	569.56
451.324	575.56
451.545	572.56
451.766	591.56
451.986	535.56
452.207	571.56
452.428	527.56
452.648	547.56
452.869	562.56
453.089	561.56
453.31	580.56
453.53	561.56
453.751	556.56
453.971	537.56
454.192	561.56
454.412	536.56
454.633	544.56
454.853	555.56
455.073	531.56
455.294	538.56
455.514	588.56
455.734	598.56
455.955	549.56
456.175	539.56
456.395	530.56
456.616	519.56
456.836	520.56
457.056	522.56
457.276	528.56
457.497	544.56
457.717	545.56
457.937	553.56
458.157	527.56
458.377	538.56
458.598	554.56
458.818	603.56
459.038	647.56
459.258	668.56
459.478	632.56
459.698	634.56
459.918	624.56
460.138	628.56
460.358	664.56
460.578	668.56
460.798	693.56
461.018	683.56
461.238	658.56
461.458	674.56
461.678	688.56
461.898	671.56
462.118	695.56
462.338	701.56
462.558	710.56
462.777	739.56
462.997	769.56
463.217	825.56
463.437	836.56
463.657	773.56
463.876	757.56
464.096	782.56
464.316	748.56
464.536	755.56
464.755	752.56
464.975	706.56
465.195	713.56
465.414	707.56
465.634	672.56
465.854	653.56
466.073	626.56
466.293	604.56
466.512	599.56
466.732	597.56
466.951	570.56
467.171	583.56
467.391	591.56
467.61	602.56
467.829	587.56
468.049	602.56
468.268	581.56
468.488	579.56
468.707	573.56
468.927	564.56
469.146	571.56
469.365	578.56
469.585	569.56
469.804	623.56
470.023	610.56
470.243	627.56
470.462	602.56
470.681	619.56
470.901	624.56
471.12	606.56
471.339	603.56
471.558	604.56
471.777	587.56
471.997	577.56
472.216	588.56
472.435	589.56
472.654	586.56
472.873	587.56
473.092	546.56
473.311	586.56
473.53	567.56
473.749	572.56
473.968	595.56
474.187	656.56
474.406	666.56
474.625	627.56
474.844	596.56
475.063	581.56
475.282	583.56
475.501	586.56
475.72	571.56
475.939	583.56
476.158	590.56
476.377	593.56
476.596	571.56
476.814	630.56
477.033	622.56
477.252	643.56
477.471	631.56
477.69	625.56
477.908	662.56
478.127	672.56
478.346	652.56
478.564	682.56
478.783	681.56
479.002	696.56
479.22	734.56
479.439	719.56
479.658	721.56
479.876	710.56
480.095	722.56
480.313	753.56
480.532	745.56
480.751	742.56
480.969	754.56
481.188	762.56
481.406	772.56
481.624	719.56
481.843	724.56
482.061	681.56
482.28	698.56
482.498	686.56
482.717	646.56
482.935	686.56
483.153	674.56
483.372	679.56
483.59	670.56
483.808	678.56
484.027	690.56
484.245	650.56
484.463	681.56
484.681	709.56
484.9	674.56
485.118	672.56
485.336	705.56
485.554	714.56
485.772	707.56
485.99	699.56
486.209	713.56
486.427	725.56
486.645	713.56
486.863	731.56
487.081	697.56
487.299	715.56
487.517	730.56
487.735	691.56
487.953	711.56
488.171	725.56
488.389	721.56
488.607	704.56
488.825	696.56
489.043	707.56
489.261	698.56
489.479	739.56
489.696	727.56
489.914	738.56
490.132	737.56
490.35	720.56
490.568	722.56
490.786	728.56
491.003	745.56
491.221	757.56
491.439	767.56
491.657	774.56
491.874	756.56
492.092	785.56
492.31	805.56
492.527	778.56
492.745	770.56
492.963	790.56
493.18	810.56
493.398	794.56
493.615	801.56
493.833	829.56
494.05	812.56
494.268	807.56
494.485	819.56
494.703	810.56
494.92	810.56
495.138	807.56
495.355	836.56
495.573	812.56
495.79	796.56
496.008	832.56
496.225	827.56
496.442	838.56
496.66	819.56
496.877	836.56
497.094	875.56
497.312	845.56
497.529	907.56
497.746	903.56
497.963	926.56
498.181	946.56
498.398	971.56
498.615	1015.56
498.832	1042.56
499.049	1105.56
499.267	1142.56
499.484	1219.56
499.701	1324.56
499.918	1390.56
500.135	1506.56
500.352	1636.56
500.569	1723.56
500.786	1730.56
501.003	1650.56
501.22	1544.56
501.437	1406.56
501.654	1320.56
501.871	1248.56
