Data from 1963.PennyLincolnUp.Lamp.En5.5.200Scan.071719.P1._HRD10591_13-58-51-062.txt Node
Date: Thu Jul 18 13:58:51 EDT 2019
User: cochatt
Spectrometer: HR+D1059
Trigger mode: 1
Integration Time (sec): 1.000000E-1
Scans to average: 1
Electric dark correction enabled: true
Nonlinearity correction enabled: false
Boxcar width: 0
XAxis mode: Wavelengths
Number of Pixels in Spectrum: 2048
>>>>>Begin Spectral Data<<<<<
223.165	-10.88
223.4	-10.88
223.635	-10.88
223.869	-18.88
224.104	-28.88
224.338	-10.88
224.573	-23.88
224.808	2.12
225.042	-9.88
225.277	-12.88
225.511	8.12
225.746	12.12
225.98	14.12
226.215	12.12
226.449	17.12
226.683	9.12
226.918	21.12
227.152	20.12
227.387	29.12
227.621	42.12
227.856	43.12
228.09	56.12
228.324	46.12
228.559	60.12
228.793	64.12
229.027	94.12
229.262	115.12
229.496	106.12
229.73	141.12
229.964	140.12
230.199	124.12
230.433	123.12
230.667	128.12
230.901	115.12
231.136	108.12
231.37	116.12
231.604	117.12
231.838	111.12
232.072	123.12
232.306	132.12
232.541	113.12
232.775	118.12
233.009	114.12
233.243	121.12
233.477	122.12
233.711	120.12
233.945	123.12
234.179	122.12
234.413	112.12
234.647	122.12
234.881	122.12
235.115	120.12
235.349	130.12
235.583	127.12
235.817	130.12
236.051	130.12
236.285	130.12
236.519	132.12
236.753	135.12
236.987	155.12
237.221	170.12
237.455	220.12
237.689	162.12
237.922	151.12
238.156	143.12
238.39	129.12
238.624	126.12
238.858	134.12
239.091	143.12
239.325	133.12
239.559	130.12
239.793	132.12
240.027	155.12
240.26	143.12
240.494	155.12
240.728	159.12
240.961	166.12
241.195	165.12
241.429	157.12
241.662	139.12
241.896	137.12
242.13	143.12
242.363	146.12
242.597	146.12
242.83	163.12
243.064	132.12
243.298	150.12
243.531	154.12
243.765	149.12
243.998	156.12
244.232	158.12
244.465	154.12
244.699	168.12
244.932	161.12
245.166	162.12
245.399	162.12
245.633	150.12
245.866	152.12
246.099	175.12
246.333	168.12
246.566	168.12
246.8	182.12
247.033	175.12
247.266	160.12
247.5	163.12
247.733	180.12
247.966	173.12
248.2	193.12
248.433	182.12
248.666	190.12
248.899	187.12
249.133	198.12
249.366	206.12
249.599	211.12
249.832	204.12
250.066	196.12
250.299	180.12
250.532	196.12
250.765	215.12
250.998	230.12
251.231	236.12
251.465	233.12
251.698	197.12
251.931	223.12
252.164	217.12
252.397	214.12
252.63	226.12
252.863	218.12
253.096	220.12
253.329	219.12
253.562	237.12
253.795	206.12
254.028	235.12
254.261	228.12
254.494	229.12
254.727	258.12
254.96	264.12
255.193	254.12
255.426	247.12
255.659	227.12
255.892	232.12
256.124	249.12
256.357	250.12
256.59	239.12
256.823	247.12
257.056	229.12
257.289	232.12
257.521	241.12
257.754	226.12
257.987	233.12
258.22	226.12
258.452	224.12
258.685	239.12
258.918	224.12
259.151	231.12
259.383	230.12
259.616	232.12
259.849	229.12
260.081	242.12
260.314	269.12
260.547	251.12
260.779	275.12
261.012	238.12
261.244	248.12
261.477	246.12
261.71	236.12
261.942	236.12
262.175	247.12
262.407	249.12
262.64	237.12
262.872	227.12
263.105	219.12
263.337	228.12
263.57	249.12
263.802	246.12
264.035	235.12
264.267	235.12
264.499	235.12
264.732	261.12
264.964	248.12
265.197	242.12
265.429	234.12
265.661	256.12
265.894	245.12
266.126	247.12
266.358	248.12
266.591	243.12
266.823	242.12
267.055	256.12
267.287	258.12
267.52	277.12
267.752	255.12
267.984	252.12
268.216	249.12
268.448	250.12
268.681	276.12
268.913	281.12
269.145	298.12
269.377	293.12
269.609	314.12
269.841	314.12
270.073	287.12
270.306	310.12
270.538	326.12
270.77	322.12
271.002	307.12
271.234	313.12
271.466	303.12
271.698	300.12
271.93	309.12
272.162	328.12
272.394	335.12
272.626	304.12
272.858	290.12
273.09	310.12
273.322	308.12
273.553	302.12
273.785	306.12
274.017	291.12
274.249	299.12
274.481	312.12
274.713	286.12
274.945	300.12
275.176	312.12
275.408	281.12
275.64	296.12
275.872	291.12
276.104	297.12
276.335	314.12
276.567	321.12
276.799	319.12
277.031	346.12
277.262	344.12
277.494	346.12
277.726	336.12
277.957	321.12
278.189	308.12
278.421	312.12
278.652	312.12
278.884	322.12
279.115	298.12
279.347	323.12
279.579	312.12
279.81	313.12
280.042	331.12
280.273	308.12
280.505	324.12
280.736	308.12
280.968	311.12
281.199	322.12
281.431	308.12
281.662	316.12
281.894	306.12
282.125	319.12
282.356	322.12
282.588	333.12
282.819	331.12
283.051	337.12
283.282	319.12
283.513	327.12
283.745	340.12
283.976	324.12
284.207	349.12
284.439	333.12
284.67	338.12
284.901	332.12
285.132	340.12
285.364	339.12
285.595	342.12
285.826	348.12
286.057	345.12
286.288	343.12
286.52	342.12
286.751	361.12
286.982	346.12
287.213	346.12
287.444	344.12
287.675	355.12
287.906	362.12
288.138	359.12
288.369	359.12
288.6	354.12
288.831	359.12
289.062	353.12
289.293	345.12
289.524	335.12
289.755	357.12
289.986	374.12
290.217	356.12
290.448	361.12
290.679	367.12
290.91	362.12
291.141	358.12
291.371	379.12
291.602	374.12
291.833	347.12
292.064	360.12
292.295	362.12
292.526	356.12
292.757	370.12
292.987	358.12
293.218	356.12
293.449	362.12
293.68	350.12
293.91	361.12
294.141	365.12
294.372	346.12
294.603	371.12
294.833	373.12
295.064	357.12
295.295	366.12
295.525	359.12
295.756	378.12
295.987	360.12
296.217	378.12
296.448	394.12
296.679	365.12
296.909	378.12
297.14	379.12
297.37	394.12
297.601	388.12
297.831	371.12
298.062	388.12
298.292	385.12
298.523	387.12
298.753	394.12
298.984	357.12
299.214	382.12
299.445	390.12
299.675	390.12
299.905	391.12
300.136	391.12
300.366	395.12
300.597	415.12
300.827	415.12
301.057	395.12
301.288	415.12
301.518	423.12
301.748	399.12
301.979	433.12
302.209	415.12
302.439	422.12
302.669	408.12
302.9	408.12
303.13	411.12
303.36	423.12
303.59	382.12
303.82	391.12
304.051	415.12
304.281	434.12
304.511	404.12
304.741	396.12
304.971	403.12
305.201	397.12
305.431	415.12
305.661	422.12
305.891	412.12
306.121	429.12
306.352	428.12
306.582	436.12
306.812	394.12
307.042	410.12
307.272	402.12
307.502	406.12
307.731	418.12
307.961	435.12
308.191	414.12
308.421	419.12
308.651	439.12
308.881	407.12
309.111	424.12
309.341	420.12
309.571	414.12
309.8	414.12
310.03	438.12
310.26	450.12
310.49	447.12
310.72	441.12
310.949	456.12
311.179	454.12
311.409	450.12
311.639	445.12
311.868	420.12
312.098	444.12
312.328	430.12
312.557	463.12
312.787	438.12
313.017	470.12
313.246	457.12
313.476	447.12
313.706	459.12
313.935	439.12
314.165	465.12
314.394	456.12
314.624	475.12
314.853	451.12
315.083	451.12
315.312	444.12
315.542	461.12
315.771	465.12
316.001	442.12
316.23	467.12
316.46	446.12
316.689	470.12
316.919	470.12
317.148	456.12
317.377	463.12
317.607	475.12
317.836	464.12
318.065	451.12
318.295	463.12
318.524	451.12
318.753	461.12
318.983	451.12
319.212	471.12
319.441	471.12
319.67	463.12
319.9	443.12
320.129	443.12
320.358	461.12
320.587	464.12
320.816	483.12
321.046	446.12
321.275	454.12
321.504	460.12
321.733	464.12
321.962	463.12
322.191	467.12
322.42	471.12
322.649	512.12
322.878	493.12
323.108	487.12
323.337	513.12
323.566	537.12
323.795	562.12
324.024	560.12
324.253	620.12
324.482	818.12
324.71	1119.12
324.939	1569.12
325.168	1381.12
325.397	808.12
325.626	611.12
325.855	556.12
326.084	542.12
326.313	534.12
326.542	540.12
326.77	568.12
326.999	619.12
327.228	756.12
327.457	1044.12
327.686	1297.12
327.914	887.12
328.143	656.12
328.372	613.12
328.6	606.12
328.829	572.12
329.058	576.12
329.287	589.12
329.515	576.12
329.744	551.12
329.972	551.12
330.201	565.12
330.43	584.12
330.658	603.12
330.887	607.12
331.115	596.12
331.344	584.12
331.572	564.12
331.801	565.12
332.03	548.12
332.258	555.12
332.486	566.12
332.715	575.12
332.943	575.12
333.172	596.12
333.4	607.12
333.629	620.12
333.857	623.12
334.085	640.12
334.314	660.12
334.542	651.12
334.771	661.12
334.999	630.12
335.227	604.12
335.455	604.12
335.684	599.12
335.912	600.12
336.14	572.12
336.369	568.12
336.597	579.12
336.825	560.12
337.053	559.12
337.281	567.12
337.51	534.12
337.738	546.12
337.966	550.12
338.194	548.12
338.422	531.12
338.65	537.12
338.878	530.12
339.106	549.12
339.334	551.12
339.562	544.12
339.79	540.12
340.018	524.12
340.246	547.12
340.474	527.12
340.702	517.12
340.93	517.12
341.158	503.12
341.386	535.12
341.614	550.12
341.842	519.12
342.07	501.12
342.298	522.12
342.526	516.12
342.754	510.12
342.981	531.12
343.209	520.12
343.437	541.12
343.665	564.12
343.893	584.12
344.12	589.12
344.348	584.12
344.576	572.12
344.804	562.12
345.031	536.12
345.259	562.12
345.487	522.12
345.714	526.12
345.942	524.12
346.17	509.12
346.397	507.12
346.625	494.12
346.853	480.12
347.08	503.12
347.308	505.12
347.535	490.12
347.763	499.12
347.99	486.12
348.218	514.12
348.445	510.12
348.673	490.12
348.9	486.12
349.128	468.12
349.355	504.12
349.583	518.12
349.81	495.12
350.037	497.12
350.265	486.12
350.492	496.12
350.72	479.12
350.947	496.12
351.174	488.12
351.402	501.12
351.629	498.12
351.856	489.12
352.083	488.12
352.311	520.12
352.538	504.12
352.765	495.12
352.992	515.12
353.22	525.12
353.447	506.12
353.674	481.12
353.901	495.12
354.128	485.12
354.355	459.12
354.583	481.12
354.81	495.12
355.037	485.12
355.264	489.12
355.491	500.12
355.718	474.12
355.945	481.12
356.172	474.12
356.399	470.12
356.626	483.12
356.853	476.12
357.08	485.12
357.307	506.12
357.534	486.12
357.761	490.12
357.988	496.12
358.215	489.12
358.441	492.12
358.668	496.12
358.895	486.12
359.122	507.12
359.349	487.12
359.576	490.12
359.802	512.12
360.029	517.12
360.256	536.12
360.483	549.12
360.709	509.12
360.936	500.12
361.163	510.12
361.39	494.12
361.616	498.12
361.843	505.12
362.07	500.12
362.296	482.12
362.523	511.12
362.749	476.12
362.976	479.12
363.203	500.12
363.429	514.12
363.656	499.12
363.882	486.12
364.109	487.12
364.335	518.12
364.562	499.12
364.788	467.12
365.015	466.12
365.241	488.12
365.468	495.12
365.694	492.12
365.92	493.12
366.147	497.12
366.373	483.12
366.599	504.12
366.826	476.12
367.052	487.12
367.278	491.12
367.505	470.12
367.731	500.12
367.957	487.12
368.184	475.12
368.41	499.12
368.636	506.12
368.862	526.12
369.089	537.12
369.315	494.12
369.541	495.12
369.767	504.12
369.993	503.12
370.219	495.12
370.445	516.12
370.672	529.12
370.898	510.12
371.124	518.12
371.35	515.12
371.576	510.12
371.802	522.12
372.028	510.12
372.254	515.12
372.48	534.12
372.706	549.12
372.932	537.12
373.158	524.12
373.384	532.12
373.61	535.12
373.835	509.12
374.061	528.12
374.287	541.12
374.513	557.12
374.739	558.12
374.965	555.12
375.191	561.12
375.416	540.12
375.642	538.12
375.868	531.12
376.094	529.12
376.319	520.12
376.545	487.12
376.771	506.12
376.997	497.12
377.222	523.12
377.448	539.12
377.674	517.12
377.899	521.12
378.125	521.12
378.35	523.12
378.576	525.12
378.802	492.12
379.027	526.12
379.253	501.12
379.478	515.12
379.704	529.12
379.929	520.12
380.155	498.12
380.38	500.12
380.606	507.12
380.831	517.12
381.057	531.12
381.282	506.12
381.507	507.12
381.733	511.12
381.958	516.12
382.184	517.12
382.409	539.12
382.634	552.12
382.86	526.12
383.085	537.12
383.31	526.12
383.535	549.12
383.761	560.12
383.986	547.12
384.211	555.12
384.436	560.12
384.662	571.12
384.887	589.12
385.112	591.12
385.337	588.12
385.562	589.12
385.787	588.12
386.013	594.12
386.238	604.12
386.463	628.12
386.688	615.12
386.913	585.12
387.138	563.12
387.363	587.12
387.588	594.12
387.813	586.12
388.038	588.12
388.263	598.12
388.488	577.12
388.713	595.12
388.938	594.12
389.163	598.12
389.387	590.12
389.612	593.12
389.837	585.12
390.062	584.12
390.287	572.12
390.512	588.12
390.736	578.12
390.961	600.12
391.186	600.12
391.411	605.12
391.636	632.12
391.86	621.12
392.085	644.12
392.31	640.12
392.534	622.12
392.759	630.12
392.984	628.12
393.208	624.12
393.433	616.12
393.658	611.12
393.882	612.12
394.107	625.12
394.331	615.12
394.556	632.12
394.78	619.12
395.005	630.12
395.229	639.12
395.454	647.12
395.678	642.12
395.903	652.12
396.127	649.12
396.352	660.12
396.576	630.12
396.801	623.12
397.025	628.12
397.249	654.12
397.474	635.12
397.698	658.12
397.922	654.12
398.147	674.12
398.371	694.12
398.595	677.12
398.82	710.12
399.044	736.12
399.268	784.12
399.492	887.12
399.717	940.12
399.941	954.12
400.165	939.12
400.389	857.12
400.613	805.12
400.837	770.12
401.062	727.12
401.286	717.12
401.51	706.12
401.734	711.12
401.958	716.12
402.182	725.12
402.406	729.12
402.63	731.12
402.854	760.12
403.078	749.12
403.302	749.12
403.526	776.12
403.75	762.12
403.974	775.12
404.198	763.12
404.422	784.12
404.645	788.12
404.869	782.12
405.093	785.12
405.317	834.12
405.541	861.12
405.765	794.12
405.988	799.12
406.212	761.12
406.436	790.12
406.66	811.12
406.883	807.12
407.107	855.12
407.331	918.12
407.555	946.12
407.778	922.12
408.002	896.12
408.226	838.12
408.449	847.12
408.673	815.12
408.896	800.12
409.12	851.12
409.344	823.12
409.567	775.12
409.791	760.12
410.014	719.12
410.238	738.12
410.461	742.12
410.685	732.12
410.908	764.12
411.132	782.12
411.355	780.12
411.578	775.12
411.802	749.12
412.025	735.12
412.249	758.12
412.472	781.12
412.695	749.12
412.919	782.12
413.142	756.12
413.365	709.12
413.589	727.12
413.812	700.12
414.035	719.12
414.258	695.12
414.482	685.12
414.705	711.12
414.928	716.12
415.151	711.12
415.374	719.12
415.597	719.12
415.821	697.12
416.044	689.12
416.267	678.12
416.49	664.12
416.713	680.12
416.936	719.12
417.159	699.12
417.382	687.12
417.605	703.12
417.828	720.12
418.051	702.12
418.274	715.12
418.497	699.12
418.72	697.12
418.943	711.12
419.166	758.12
419.389	779.12
419.611	779.12
419.834	754.12
420.057	754.12
420.28	726.12
420.503	710.12
420.726	718.12
420.948	708.12
421.171	747.12
421.394	757.12
421.617	713.12
421.839	706.12
422.062	715.12
422.285	712.12
422.507	766.12
422.73	837.12
422.953	802.12
423.175	732.12
423.398	747.12
423.621	749.12
423.843	761.12
424.066	782.12
424.288	739.12
424.511	785.12
424.733	805.12
424.956	859.12
425.178	841.12
425.401	810.12
425.623	845.12
425.846	767.12
426.068	745.12
426.291	700.12
426.513	712.12
426.735	762.12
426.958	736.12
427.18	806.12
427.402	916.12
427.625	971.12
427.847	871.12
428.069	762.12
428.292	733.12
428.514	679.12
428.736	659.12
428.958	698.12
429.181	663.12
429.403	664.12
429.625	679.12
429.847	682.12
430.069	727.12
430.292	719.12
430.514	660.12
430.736	642.12
430.958	654.12
431.18	634.12
431.402	620.12
431.624	624.12
431.846	652.12
432.068	633.12
432.29	666.12
432.512	661.12
432.734	659.12
432.956	679.12
433.178	648.12
433.4	655.12
433.622	668.12
433.844	662.12
434.066	676.12
434.287	657.12
434.509	667.12
434.731	697.12
434.953	706.12
435.175	743.12
435.397	756.12
435.618	696.12
435.84	722.12
436.062	776.12
436.284	841.12
436.505	720.12
436.727	697.12
436.949	682.12
437.17	642.12
437.392	646.12
437.614	670.12
437.835	671.12
438.057	740.12
438.278	818.12
438.5	823.12
438.721	872.12
438.943	859.12
439.165	714.12
439.386	685.12
439.608	693.12
439.829	710.12
440.05	720.12
440.272	735.12
440.493	715.12
440.715	696.12
440.936	672.12
441.158	685.12
441.379	715.12
441.6	709.12
441.822	738.12
442.043	767.12
442.264	802.12
442.486	847.12
442.707	760.12
442.928	750.12
443.149	750.12
443.371	742.12
443.592	772.12
443.813	866.12
444.034	891.12
444.255	828.12
444.476	791.12
444.698	786.12
444.919	814.12
445.14	911.12
445.361	823.12
445.582	780.12
445.803	796.12
446.024	826.12
446.245	865.12
446.466	812.12
446.687	717.12
446.908	712.12
447.129	648.12
447.35	628.12
447.571	649.12
447.792	656.12
448.013	660.12
448.234	645.12
448.455	671.12
448.675	760.12
448.896	835.12
449.117	742.12
449.338	735.12
449.559	825.12
449.779	921.12
450	755.12
450.221	664.12
450.442	650.12
450.662	608.12
450.883	622.12
451.104	631.12
451.324	631.12
451.545	618.12
451.766	597.12
451.986	612.12
452.207	576.12
452.428	582.12
452.648	602.12
452.869	573.12
453.089	582.12
453.31	605.12
453.53	574.12
453.751	595.12
453.971	591.12
454.192	599.12
454.412	573.12
454.633	573.12
454.853	572.12
455.073	574.12
455.294	588.12
455.514	630.12
455.734	647.12
455.955	581.12
456.175	560.12
456.395	556.12
456.616	548.12
456.836	565.12
457.056	559.12
457.276	542.12
457.497	581.12
457.717	559.12
457.937	554.12
458.157	574.12
458.377	595.12
458.598	594.12
458.818	619.12
459.038	717.12
459.258	717.12
459.478	661.12
459.698	662.12
459.918	666.12
460.138	686.12
460.358	694.12
460.578	700.12
460.798	711.12
461.018	719.12
461.238	705.12
461.458	712.12
461.678	687.12
461.898	716.12
462.118	739.12
462.338	740.12
462.558	736.12
462.777	765.12
462.997	824.12
463.217	868.12
463.437	891.12
463.657	814.12
463.876	804.12
464.096	814.12
464.316	802.12
464.536	808.12
464.755	773.12
464.975	789.12
465.195	750.12
465.414	784.12
465.634	734.12
465.854	705.12
466.073	682.12
466.293	636.12
466.512	651.12
466.732	637.12
466.951	615.12
467.171	617.12
467.391	638.12
467.61	621.12
467.829	614.12
468.049	615.12
468.268	617.12
468.488	628.12
468.707	598.12
468.927	613.12
469.146	587.12
469.365	608.12
469.585	616.12
469.804	620.12
470.023	632.12
470.243	639.12
470.462	634.12
470.681	621.12
470.901	638.12
471.12	642.12
471.339	648.12
471.558	626.12
471.777	635.12
471.997	606.12
472.216	620.12
472.435	639.12
472.654	634.12
472.873	640.12
473.092	614.12
473.311	593.12
473.53	593.12
473.749	592.12
473.968	639.12
474.187	688.12
474.406	720.12
474.625	655.12
474.844	596.12
475.063	604.12
475.282	631.12
475.501	614.12
475.72	619.12
475.939	602.12
476.158	635.12
476.377	628.12
476.596	647.12
476.814	644.12
477.033	671.12
477.252	665.12
477.471	663.12
477.69	678.12
477.908	677.12
478.127	692.12
478.346	682.12
478.564	720.12
478.783	724.12
479.002	734.12
479.22	730.12
479.439	741.12
479.658	733.12
479.876	770.12
480.095	763.12
480.313	796.12
480.532	791.12
480.751	805.12
480.969	761.12
481.188	838.12
481.406	830.12
481.624	779.12
481.843	761.12
482.061	740.12
482.28	725.12
482.498	707.12
482.717	711.12
482.935	713.12
483.153	697.12
483.372	706.12
483.59	694.12
483.808	704.12
484.027	703.12
484.245	725.12
484.463	711.12
484.681	726.12
484.9	752.12
485.118	738.12
485.336	728.12
485.554	738.12
485.772	757.12
485.99	735.12
486.209	754.12
486.427	754.12
486.645	744.12
486.863	775.12
487.081	769.12
487.299	740.12
487.517	750.12
487.735	773.12
487.953	763.12
488.171	770.12
488.389	756.12
488.607	745.12
488.825	762.12
489.043	772.12
489.261	761.12
489.479	788.12
489.696	759.12
489.914	761.12
490.132	778.12
490.35	797.12
490.568	791.12
490.786	804.12
491.003	809.12
491.221	797.12
491.439	830.12
491.657	829.12
491.874	826.12
492.092	813.12
492.31	862.12
492.527	856.12
492.745	854.12
492.963	863.12
493.18	846.12
493.398	853.12
493.615	868.12
493.833	845.12
494.05	872.12
494.268	885.12
494.485	855.12
494.703	867.12
494.92	852.12
495.138	886.12
495.355	894.12
495.573	886.12
495.79	869.12
496.008	895.12
496.225	886.12
496.442	896.12
496.66	915.12
496.877	911.12
497.094	923.12
497.312	915.12
497.529	934.12
497.746	941.12
497.963	986.12
498.181	1027.12
498.398	1049.12
498.615	1060.12
498.832	1115.12
499.049	1157.12
499.267	1243.12
499.484	1298.12
499.701	1424.12
499.918	1514.12
500.135	1633.12
500.352	1772.12
500.569	1824.12
500.786	1782.12
501.003	1736.12
501.22	1609.12
501.437	1501.12
501.654	1422.12
