Data from 1963.PennyLincolnUp.Lamp.En5.5.200Scan.071719.P1._HRD10591_13-57-32-063.txt Node
Date: Thu Jul 18 13:57:32 EDT 2019
User: cochatt
Spectrometer: HR+D1059
Trigger mode: 1
Integration Time (sec): 1.000000E-1
Scans to average: 1
Electric dark correction enabled: true
Nonlinearity correction enabled: false
Boxcar width: 0
XAxis mode: Wavelengths
Number of Pixels in Spectrum: 2048
>>>>>Begin Spectral Data<<<<<
223.165	-15.25
223.4	-15.25
223.635	-15.25
223.869	-27.25
224.104	-14.25
224.338	-9.25
224.573	-19.25
224.808	-6.25
225.042	-22.25
225.277	-5.25
225.511	-18.25
225.746	15.75
225.98	7.75
226.215	20.75
226.449	8.75
226.683	12.75
226.918	29.75
227.152	41.75
227.387	35.75
227.621	47.75
227.856	56.75
228.09	48.75
228.324	51.75
228.559	58.75
228.793	63.75
229.027	81.75
229.262	106.75
229.496	113.75
229.73	105.75
229.964	143.75
230.199	103.75
230.433	104.75
230.667	115.75
230.901	95.75
231.136	116.75
231.37	106.75
231.604	121.75
231.838	116.75
232.072	112.75
232.306	116.75
232.541	111.75
232.775	123.75
233.009	128.75
233.243	125.75
233.477	140.75
233.711	121.75
233.945	127.75
234.179	122.75
234.413	98.75
234.647	115.75
234.881	123.75
235.115	111.75
235.349	111.75
235.583	128.75
235.817	125.75
236.051	128.75
236.285	140.75
236.519	123.75
236.753	125.75
236.987	151.75
237.221	143.75
237.455	182.75
237.689	161.75
237.922	144.75
238.156	132.75
238.39	140.75
238.624	112.75
238.858	150.75
239.091	137.75
239.325	125.75
239.559	125.75
239.793	142.75
240.027	159.75
240.26	133.75
240.494	141.75
240.728	145.75
240.961	131.75
241.195	154.75
241.429	140.75
241.662	138.75
241.896	143.75
242.13	146.75
242.363	149.75
242.597	142.75
242.83	147.75
243.064	150.75
243.298	148.75
243.531	155.75
243.765	152.75
243.998	134.75
244.232	164.75
244.465	153.75
244.699	150.75
244.932	164.75
245.166	154.75
245.399	163.75
245.633	157.75
245.866	154.75
246.099	158.75
246.333	161.75
246.566	173.75
246.8	162.75
247.033	187.75
247.266	158.75
247.5	169.75
247.733	182.75
247.966	168.75
248.2	186.75
248.433	173.75
248.666	188.75
248.899	193.75
249.133	194.75
249.366	199.75
249.599	195.75
249.832	190.75
250.066	220.75
250.299	184.75
250.532	202.75
250.765	211.75
250.998	222.75
251.231	207.75
251.465	216.75
251.698	202.75
251.931	209.75
252.164	214.75
252.397	229.75
252.63	207.75
252.863	211.75
253.096	214.75
253.329	230.75
253.562	232.75
253.795	221.75
254.028	240.75
254.261	215.75
254.494	224.75
254.727	234.75
254.96	256.75
255.193	243.75
255.426	229.75
255.659	236.75
255.892	226.75
256.124	228.75
256.357	233.75
256.59	228.75
256.823	219.75
257.056	211.75
257.289	219.75
257.521	221.75
257.754	219.75
257.987	220.75
258.22	206.75
258.452	219.75
258.685	230.75
258.918	215.75
259.151	219.75
259.383	233.75
259.616	208.75
259.849	219.75
260.081	222.75
260.314	248.75
260.547	281.75
260.779	272.75
261.012	226.75
261.244	257.75
261.477	244.75
261.71	225.75
261.942	218.75
262.175	236.75
262.407	244.75
262.64	236.75
262.872	235.75
263.105	241.75
263.337	225.75
263.57	240.75
263.802	234.75
264.035	231.75
264.267	237.75
264.499	234.75
264.732	228.75
264.964	223.75
265.197	235.75
265.429	250.75
265.661	233.75
265.894	259.75
266.126	232.75
266.358	259.75
266.591	249.75
266.823	251.75
267.055	244.75
267.287	270.75
267.52	246.75
267.752	257.75
267.984	261.75
268.216	250.75
268.448	251.75
268.681	254.75
268.913	248.75
269.145	263.75
269.377	274.75
269.609	298.75
269.841	289.75
270.073	273.75
270.306	304.75
270.538	307.75
270.77	291.75
271.002	278.75
271.234	280.75
271.466	293.75
271.698	284.75
271.93	315.75
272.162	313.75
272.394	327.75
272.626	281.75
272.858	287.75
273.09	301.75
273.322	307.75
273.553	281.75
273.785	276.75
274.017	288.75
274.249	288.75
274.481	281.75
274.713	278.75
274.945	285.75
275.176	302.75
275.408	296.75
275.64	296.75
275.872	296.75
276.104	291.75
276.335	285.75
276.567	302.75
276.799	303.75
277.031	335.75
277.262	327.75
277.494	325.75
277.726	316.75
277.957	309.75
278.189	292.75
278.421	299.75
278.652	297.75
278.884	302.75
279.115	318.75
279.347	329.75
279.579	296.75
279.81	315.75
280.042	311.75
280.273	300.75
280.505	301.75
280.736	303.75
280.968	301.75
281.199	305.75
281.431	304.75
281.662	320.75
281.894	311.75
282.125	317.75
282.356	316.75
282.588	319.75
282.819	317.75
283.051	326.75
283.282	319.75
283.513	318.75
283.745	330.75
283.976	317.75
284.207	346.75
284.439	328.75
284.67	347.75
284.901	338.75
285.132	323.75
285.364	328.75
285.595	325.75
285.826	331.75
286.057	335.75
286.288	330.75
286.52	333.75
286.751	333.75
286.982	322.75
287.213	331.75
287.444	346.75
287.675	333.75
287.906	343.75
288.138	359.75
288.369	366.75
288.6	365.75
288.831	361.75
289.062	358.75
289.293	333.75
289.524	341.75
289.755	340.75
289.986	348.75
290.217	351.75
290.448	376.75
290.679	345.75
290.91	357.75
291.141	339.75
291.371	343.75
291.602	355.75
291.833	353.75
292.064	360.75
292.295	345.75
292.526	341.75
292.757	348.75
292.987	337.75
293.218	343.75
293.449	345.75
293.68	351.75
293.91	355.75
294.141	358.75
294.372	350.75
294.603	373.75
294.833	334.75
295.064	347.75
295.295	355.75
295.525	362.75
295.756	379.75
295.987	345.75
296.217	370.75
296.448	379.75
296.679	362.75
296.909	358.75
297.14	371.75
297.37	372.75
297.601	358.75
297.831	353.75
298.062	363.75
298.292	361.75
298.523	373.75
298.753	383.75
298.984	392.75
299.214	382.75
299.445	374.75
299.675	374.75
299.905	378.75
300.136	396.75
300.366	376.75
300.597	399.75
300.827	385.75
301.057	391.75
301.288	382.75
301.518	422.75
301.748	408.75
301.979	390.75
302.209	399.75
302.439	415.75
302.669	404.75
302.9	399.75
303.13	374.75
303.36	407.75
303.59	383.75
303.82	383.75
304.051	384.75
304.281	417.75
304.511	410.75
304.741	418.75
304.971	407.75
305.201	399.75
305.431	379.75
305.661	408.75
305.891	405.75
306.121	406.75
306.352	397.75
306.582	382.75
306.812	383.75
307.042	386.75
307.272	407.75
307.502	395.75
307.731	392.75
307.961	391.75
308.191	382.75
308.421	397.75
308.651	393.75
308.881	388.75
309.111	372.75
309.341	412.75
309.571	399.75
309.8	400.75
310.03	403.75
310.26	425.75
310.49	414.75
310.72	399.75
310.949	429.75
311.179	420.75
311.409	400.75
311.639	421.75
311.868	421.75
312.098	441.75
312.328	422.75
312.557	439.75
312.787	439.75
313.017	441.75
313.246	430.75
313.476	424.75
313.706	441.75
313.935	446.75
314.165	447.75
314.394	430.75
314.624	462.75
314.853	437.75
315.083	444.75
315.312	431.75
315.542	441.75
315.771	434.75
316.001	438.75
316.23	439.75
316.46	420.75
316.689	451.75
316.919	420.75
317.148	453.75
317.377	433.75
317.607	435.75
317.836	443.75
318.065	444.75
318.295	432.75
318.524	426.75
318.753	445.75
318.983	420.75
319.212	424.75
319.441	444.75
319.67	435.75
319.9	447.75
320.129	449.75
320.358	435.75
320.587	435.75
320.816	444.75
321.046	442.75
321.275	463.75
321.504	431.75
321.733	456.75
321.962	453.75
322.191	435.75
322.42	438.75
322.649	476.75
322.878	467.75
323.108	459.75
323.337	486.75
323.566	474.75
323.795	528.75
324.024	506.75
324.253	555.75
324.482	696.75
324.71	940.75
324.939	1309.75
325.168	1190.75
325.397	680.75
325.626	565.75
325.855	513.75
326.084	512.75
326.313	475.75
326.542	495.75
326.77	525.75
326.999	580.75
327.228	686.75
327.457	909.75
327.686	1069.75
327.914	758.75
328.143	597.75
328.372	556.75
328.6	564.75
328.829	536.75
329.058	552.75
329.287	536.75
329.515	534.75
329.744	503.75
329.972	507.75
330.201	493.75
330.43	546.75
330.658	566.75
330.887	549.75
331.115	569.75
331.344	561.75
331.572	517.75
331.801	532.75
332.03	544.75
332.258	532.75
332.486	527.75
332.715	555.75
332.943	556.75
333.172	559.75
333.4	586.75
333.629	580.75
333.857	601.75
334.085	611.75
334.314	608.75
334.542	620.75
334.771	612.75
334.999	610.75
335.227	592.75
335.455	574.75
335.684	576.75
335.912	569.75
336.14	551.75
336.369	552.75
336.597	563.75
336.825	533.75
337.053	532.75
337.281	535.75
337.51	542.75
337.738	529.75
337.966	539.75
338.194	537.75
338.422	523.75
338.65	509.75
338.878	511.75
339.106	525.75
339.334	506.75
339.562	516.75
339.79	506.75
340.018	505.75
340.246	518.75
340.474	500.75
340.702	518.75
340.93	481.75
341.158	513.75
341.386	503.75
341.614	508.75
341.842	501.75
342.07	500.75
342.298	524.75
342.526	506.75
342.754	490.75
342.981	502.75
343.209	496.75
343.437	528.75
343.665	524.75
343.893	572.75
344.12	585.75
344.348	562.75
344.576	550.75
344.804	559.75
345.031	531.75
345.259	515.75
345.487	486.75
345.714	499.75
345.942	483.75
346.17	495.75
346.397	487.75
346.625	480.75
346.853	482.75
347.08	497.75
347.308	492.75
347.535	495.75
347.763	484.75
347.99	491.75
348.218	483.75
348.445	476.75
348.673	496.75
348.9	484.75
349.128	477.75
349.355	472.75
349.583	457.75
349.81	480.75
350.037	492.75
350.265	480.75
350.492	469.75
350.72	483.75
350.947	462.75
351.174	465.75
351.402	484.75
351.629	475.75
351.856	471.75
352.083	484.75
352.311	478.75
352.538	479.75
352.765	476.75
352.992	450.75
353.22	485.75
353.447	475.75
353.674	473.75
353.901	477.75
354.128	472.75
354.355	463.75
354.583	476.75
354.81	484.75
355.037	463.75
355.264	476.75
355.491	487.75
355.718	464.75
355.945	473.75
356.172	471.75
356.399	452.75
356.626	469.75
356.853	464.75
357.08	468.75
357.307	476.75
357.534	468.75
357.761	488.75
357.988	477.75
358.215	464.75
358.441	457.75
358.668	456.75
358.895	465.75
359.122	475.75
359.349	458.75
359.576	468.75
359.802	479.75
360.029	488.75
360.256	499.75
360.483	488.75
360.709	501.75
360.936	473.75
361.163	483.75
361.39	487.75
361.616	466.75
361.843	480.75
362.07	480.75
362.296	474.75
362.523	464.75
362.749	465.75
362.976	487.75
363.203	472.75
363.429	481.75
363.656	462.75
363.882	457.75
364.109	461.75
364.335	465.75
364.562	476.75
364.788	477.75
365.015	479.75
365.241	482.75
365.468	475.75
365.694	465.75
365.92	495.75
366.147	461.75
366.373	473.75
366.599	483.75
366.826	463.75
367.052	482.75
367.278	468.75
367.505	485.75
367.731	470.75
367.957	463.75
368.184	473.75
368.41	485.75
368.636	486.75
368.862	487.75
369.089	518.75
369.315	483.75
369.541	473.75
369.767	496.75
369.993	496.75
370.219	497.75
370.445	497.75
370.672	479.75
370.898	490.75
371.124	515.75
371.35	485.75
371.576	521.75
371.802	501.75
372.028	511.75
372.254	491.75
372.48	517.75
372.706	511.75
372.932	513.75
373.158	496.75
373.384	511.75
373.61	501.75
373.835	487.75
374.061	501.75
374.287	519.75
374.513	503.75
374.739	517.75
374.965	517.75
375.191	525.75
375.416	541.75
375.642	530.75
375.868	517.75
376.094	524.75
376.319	509.75
376.545	504.75
376.771	508.75
376.997	503.75
377.222	487.75
377.448	506.75
377.674	494.75
377.899	517.75
378.125	500.75
378.35	500.75
378.576	510.75
378.802	499.75
379.027	481.75
379.253	504.75
379.478	475.75
379.704	506.75
379.929	492.75
380.155	499.75
380.38	486.75
380.606	511.75
380.831	491.75
381.057	505.75
381.282	510.75
381.507	494.75
381.733	505.75
381.958	479.75
382.184	523.75
382.409	522.75
382.634	521.75
382.86	536.75
383.085	525.75
383.31	531.75
383.535	536.75
383.761	548.75
383.986	520.75
384.211	551.75
384.436	551.75
384.662	563.75
384.887	559.75
385.112	572.75
385.337	587.75
385.562	554.75
385.787	567.75
386.013	587.75
386.238	563.75
386.463	590.75
386.688	585.75
386.913	575.75
387.138	574.75
387.363	573.75
387.588	550.75
387.813	566.75
388.038	598.75
388.263	585.75
388.488	582.75
388.713	567.75
388.938	560.75
389.163	574.75
389.387	556.75
389.612	577.75
389.837	557.75
390.062	570.75
390.287	559.75
390.512	550.75
390.736	561.75
390.961	574.75
391.186	575.75
391.411	600.75
391.636	576.75
391.86	612.75
392.085	632.75
392.31	615.75
392.534	596.75
392.759	607.75
392.984	595.75
393.208	600.75
393.433	607.75
393.658	599.75
393.882	599.75
394.107	579.75
394.331	601.75
394.556	625.75
394.78	582.75
395.005	614.75
395.229	602.75
395.454	629.75
395.678	618.75
395.903	624.75
396.127	632.75
396.352	632.75
396.576	639.75
396.801	593.75
397.025	613.75
397.249	596.75
397.474	627.75
397.698	639.75
397.922	666.75
398.147	651.75
398.371	692.75
398.595	665.75
398.82	649.75
399.044	717.75
399.268	780.75
399.492	823.75
399.717	915.75
399.941	915.75
400.165	883.75
400.389	825.75
400.613	760.75
400.837	738.75
401.062	700.75
401.286	725.75
401.51	692.75
401.734	679.75
401.958	707.75
402.182	699.75
402.406	702.75
402.63	710.75
402.854	703.75
403.078	687.75
403.302	714.75
403.526	740.75
403.75	763.75
403.974	739.75
404.198	736.75
404.422	745.75
404.645	761.75
404.869	747.75
405.093	775.75
405.317	782.75
405.541	813.75
405.765	755.75
405.988	739.75
406.212	748.75
406.436	758.75
406.66	772.75
406.883	771.75
407.107	797.75
407.331	873.75
407.555	948.75
407.778	893.75
408.002	869.75
408.226	797.75
408.449	766.75
408.673	748.75
408.896	763.75
409.12	799.75
409.344	773.75
409.567	744.75
409.791	768.75
410.014	757.75
410.238	732.75
410.461	709.75
410.685	727.75
410.908	709.75
411.132	740.75
411.355	763.75
411.578	733.75
411.802	686.75
412.025	715.75
412.249	731.75
412.472	716.75
412.695	749.75
412.919	736.75
413.142	713.75
413.365	712.75
413.589	705.75
413.812	684.75
414.035	686.75
414.258	676.75
414.482	683.75
414.705	694.75
414.928	677.75
415.151	678.75
415.374	685.75
415.597	662.75
415.821	668.75
416.044	667.75
416.267	696.75
416.49	677.75
416.713	645.75
416.936	666.75
417.159	640.75
417.382	664.75
417.605	664.75
417.828	666.75
418.051	713.75
418.274	690.75
418.497	665.75
418.72	672.75
418.943	667.75
419.166	740.75
419.389	749.75
419.611	735.75
419.834	727.75
420.057	694.75
420.28	707.75
420.503	697.75
420.726	676.75
420.948	682.75
421.171	693.75
421.394	731.75
421.617	684.75
421.839	680.75
422.062	692.75
422.285	686.75
422.507	737.75
422.73	797.75
422.953	741.75
423.175	753.75
423.398	722.75
423.621	710.75
423.843	728.75
424.066	734.75
424.288	733.75
424.511	731.75
424.733	745.75
424.956	800.75
425.178	789.75
425.401	762.75
425.623	783.75
425.846	719.75
426.068	674.75
426.291	697.75
426.513	696.75
426.735	681.75
426.958	697.75
427.18	776.75
427.402	846.75
427.625	895.75
427.847	794.75
428.069	724.75
428.292	686.75
428.514	637.75
428.736	640.75
428.958	617.75
429.181	617.75
429.403	633.75
429.625	636.75
429.847	656.75
430.069	682.75
430.292	688.75
430.514	627.75
430.736	654.75
430.958	616.75
431.18	600.75
431.402	611.75
431.624	612.75
431.846	603.75
432.068	617.75
432.29	638.75
432.512	621.75
432.734	647.75
432.956	616.75
433.178	645.75
433.4	620.75
433.622	636.75
433.844	611.75
434.066	637.75
434.287	640.75
434.509	652.75
434.731	662.75
434.953	655.75
435.175	693.75
435.397	724.75
435.618	701.75
435.84	703.75
436.062	759.75
436.284	795.75
436.505	721.75
436.727	667.75
436.949	629.75
437.17	639.75
437.392	627.75
437.614	622.75
437.835	648.75
438.057	679.75
438.278	756.75
438.5	784.75
438.721	808.75
438.943	797.75
439.165	682.75
439.386	642.75
439.608	653.75
439.829	670.75
440.05	681.75
440.272	681.75
440.493	684.75
440.715	643.75
440.936	655.75
441.158	644.75
441.379	675.75
441.6	682.75
441.822	720.75
442.043	701.75
442.264	769.75
442.486	787.75
442.707	729.75
442.928	677.75
443.149	687.75
443.371	733.75
443.592	727.75
443.813	775.75
444.034	839.75
444.255	767.75
444.476	719.75
444.698	733.75
444.919	758.75
445.14	872.75
445.361	781.75
445.582	711.75
445.803	755.75
446.024	804.75
446.245	759.75
446.466	733.75
446.687	679.75
446.908	661.75
447.129	617.75
447.35	643.75
447.571	608.75
447.792	604.75
448.013	628.75
448.234	626.75
448.455	649.75
448.675	718.75
448.896	788.75
449.117	679.75
449.338	663.75
449.559	736.75
449.779	816.75
450	695.75
450.221	611.75
450.442	595.75
450.662	601.75
450.883	619.75
451.104	603.75
451.324	620.75
451.545	579.75
451.766	557.75
451.986	560.75
452.207	563.75
452.428	565.75
452.648	565.75
452.869	540.75
453.089	550.75
453.31	581.75
453.53	569.75
453.751	559.75
453.971	589.75
454.192	573.75
454.412	545.75
454.633	552.75
454.853	573.75
455.073	536.75
455.294	587.75
455.514	599.75
455.734	588.75
455.955	534.75
456.175	546.75
456.395	552.75
456.616	525.75
456.836	544.75
457.056	555.75
457.276	534.75
457.497	545.75
457.717	537.75
457.937	557.75
458.157	557.75
458.377	551.75
458.598	592.75
458.818	595.75
459.038	651.75
459.258	691.75
459.478	641.75
459.698	635.75
459.918	622.75
460.138	663.75
460.358	671.75
460.578	677.75
460.798	694.75
461.018	694.75
461.238	685.75
461.458	666.75
461.678	678.75
461.898	681.75
462.118	683.75
462.338	724.75
462.558	741.75
462.777	755.75
462.997	825.75
463.217	835.75
463.437	821.75
463.657	796.75
463.876	791.75
464.096	777.75
464.316	752.75
464.536	804.75
464.755	746.75
464.975	715.75
465.195	737.75
465.414	745.75
465.634	672.75
465.854	666.75
466.073	630.75
466.293	637.75
466.512	629.75
466.732	594.75
466.951	593.75
467.171	602.75
467.391	575.75
467.61	589.75
467.829	604.75
468.049	612.75
468.268	622.75
468.488	584.75
468.707	576.75
468.927	556.75
469.146	553.75
469.365	579.75
469.585	607.75
469.804	599.75
470.023	600.75
470.243	631.75
470.462	621.75
470.681	629.75
470.901	629.75
471.12	620.75
471.339	623.75
471.558	607.75
471.777	598.75
471.997	599.75
472.216	583.75
472.435	614.75
472.654	608.75
472.873	585.75
473.092	598.75
473.311	564.75
473.53	593.75
473.749	577.75
473.968	628.75
474.187	643.75
474.406	669.75
474.625	599.75
474.844	596.75
475.063	587.75
475.282	588.75
475.501	587.75
475.72	590.75
475.939	600.75
476.158	615.75
476.377	620.75
476.596	611.75
476.814	611.75
477.033	625.75
477.252	639.75
477.471	631.75
477.69	668.75
477.908	664.75
478.127	686.75
478.346	690.75
478.564	678.75
478.783	702.75
479.002	692.75
479.22	725.75
479.439	709.75
479.658	733.75
479.876	713.75
480.095	738.75
480.313	747.75
480.532	762.75
480.751	789.75
480.969	757.75
481.188	790.75
481.406	785.75
481.624	748.75
481.843	709.75
482.061	718.75
482.28	696.75
482.498	682.75
482.717	691.75
482.935	688.75
483.153	695.75
483.372	713.75
483.59	683.75
483.808	684.75
484.027	686.75
484.245	702.75
484.463	679.75
484.681	718.75
484.9	715.75
485.118	691.75
485.336	715.75
485.554	708.75
485.772	730.75
485.99	721.75
486.209	741.75
486.427	729.75
486.645	692.75
486.863	716.75
487.081	728.75
487.299	718.75
487.517	737.75
487.735	701.75
487.953	725.75
488.171	717.75
488.389	705.75
488.607	731.75
488.825	718.75
489.043	711.75
489.261	756.75
489.479	725.75
489.696	750.75
489.914	727.75
490.132	745.75
490.35	768.75
490.568	746.75
490.786	748.75
491.003	740.75
491.221	763.75
491.439	777.75
491.657	763.75
491.874	793.75
492.092	783.75
492.31	786.75
492.527	806.75
492.745	822.75
492.963	799.75
493.18	829.75
493.398	824.75
493.615	799.75
493.833	827.75
494.05	807.75
494.268	842.75
494.485	840.75
494.703	840.75
494.92	838.75
495.138	839.75
495.355	824.75
495.573	838.75
495.79	845.75
496.008	828.75
496.225	831.75
496.442	834.75
496.66	845.75
496.877	871.75
497.094	876.75
497.312	840.75
497.529	872.75
497.746	902.75
497.963	934.75
498.181	958.75
498.398	1011.75
498.615	1023.75
498.832	1097.75
499.049	1137.75
499.267	1164.75
499.484	1244.75
499.701	1353.75
499.918	1448.75
500.135	1563.75
500.352	1660.75
500.569	1709.75
500.786	1759.75
501.003	1661.75
501.22	1550.75
501.437	1449.75
501.654	1318.75
