Data from 1963.PennyLincolnUp.Lamp.En5.5.200Scan.071719.P1._HRD10591_13-58-22-063.txt Node
Date: Thu Jul 18 13:58:22 EDT 2019
User: cochatt
Spectrometer: HR+D1059
Trigger mode: 1
Integration Time (sec): 1.000000E-1
Scans to average: 1
Electric dark correction enabled: true
Nonlinearity correction enabled: false
Boxcar width: 0
XAxis mode: Wavelengths
Number of Pixels in Spectrum: 2048
>>>>>Begin Spectral Data<<<<<
223.165	-18.62
223.4	-18.62
223.635	-18.62
223.869	-27.62
224.104	-18.62
224.338	-12.62
224.573	-7.62
224.808	3.38
225.042	-0.62
225.277	-13.62
225.511	4.38
225.746	6.38
225.98	4.38
226.215	9.38
226.449	1.38
226.683	29.38
226.918	19.38
227.152	21.38
227.387	25.38
227.621	40.38
227.856	28.38
228.09	27.38
228.324	40.38
228.559	38.38
228.793	73.38
229.027	89.38
229.262	96.38
229.496	106.38
229.73	116.38
229.964	129.38
230.199	115.38
230.433	116.38
230.667	104.38
230.901	105.38
231.136	112.38
231.37	120.38
231.604	121.38
231.838	108.38
232.072	123.38
232.306	113.38
232.541	99.38
232.775	119.38
233.009	123.38
233.243	117.38
233.477	103.38
233.711	111.38
233.945	94.38
234.179	129.38
234.413	112.38
234.647	110.38
234.881	117.38
235.115	109.38
235.349	117.38
235.583	133.38
235.817	124.38
236.051	125.38
236.285	126.38
236.519	127.38
236.753	130.38
236.987	140.38
237.221	157.38
237.455	187.38
237.689	163.38
237.922	138.38
238.156	128.38
238.39	144.38
238.624	129.38
238.858	113.38
239.091	126.38
239.325	125.38
239.559	134.38
239.793	119.38
240.027	140.38
240.26	139.38
240.494	147.38
240.728	154.38
240.961	142.38
241.195	157.38
241.429	150.38
241.662	149.38
241.896	138.38
242.13	137.38
242.363	130.38
242.597	141.38
242.83	144.38
243.064	153.38
243.298	152.38
243.531	155.38
243.765	142.38
243.998	142.38
244.232	150.38
244.465	160.38
244.699	139.38
244.932	162.38
245.166	159.38
245.399	152.38
245.633	151.38
245.866	159.38
246.099	163.38
246.333	157.38
246.566	155.38
246.8	149.38
247.033	174.38
247.266	168.38
247.5	149.38
247.733	174.38
247.966	168.38
248.2	189.38
248.433	168.38
248.666	164.38
248.899	203.38
249.133	182.38
249.366	212.38
249.599	192.38
249.832	185.38
250.066	173.38
250.299	182.38
250.532	184.38
250.765	214.38
250.998	213.38
251.231	233.38
251.465	201.38
251.698	208.38
251.931	217.38
252.164	197.38
252.397	212.38
252.63	200.38
252.863	234.38
253.096	226.38
253.329	222.38
253.562	231.38
253.795	231.38
254.028	201.38
254.261	209.38
254.494	243.38
254.727	260.38
254.96	259.38
255.193	255.38
255.426	245.38
255.659	245.38
255.892	244.38
256.124	249.38
256.357	240.38
256.59	242.38
256.823	232.38
257.056	229.38
257.289	213.38
257.521	218.38
257.754	233.38
257.987	229.38
258.22	212.38
258.452	222.38
258.685	215.38
258.918	220.38
259.151	239.38
259.383	213.38
259.616	241.38
259.849	249.38
260.081	240.38
260.314	260.38
260.547	251.38
260.779	247.38
261.012	223.38
261.244	254.38
261.477	226.38
261.71	236.38
261.942	234.38
262.175	226.38
262.407	228.38
262.64	241.38
262.872	238.38
263.105	229.38
263.337	235.38
263.57	224.38
263.802	212.38
264.035	231.38
264.267	234.38
264.499	228.38
264.732	232.38
264.964	222.38
265.197	232.38
265.429	231.38
265.661	244.38
265.894	247.38
266.126	226.38
266.358	248.38
266.591	249.38
266.823	249.38
267.055	253.38
267.287	269.38
267.52	239.38
267.752	267.38
267.984	260.38
268.216	246.38
268.448	272.38
268.681	265.38
268.913	247.38
269.145	285.38
269.377	270.38
269.609	301.38
269.841	274.38
270.073	282.38
270.306	304.38
270.538	322.38
270.77	319.38
271.002	303.38
271.234	302.38
271.466	305.38
271.698	332.38
271.93	310.38
272.162	322.38
272.394	307.38
272.626	310.38
272.858	307.38
273.09	287.38
273.322	298.38
273.553	278.38
273.785	288.38
274.017	300.38
274.249	278.38
274.481	297.38
274.713	291.38
274.945	294.38
275.176	290.38
275.408	282.38
275.64	284.38
275.872	286.38
276.104	280.38
276.335	284.38
276.567	303.38
276.799	297.38
277.031	305.38
277.262	327.38
277.494	331.38
277.726	334.38
277.957	302.38
278.189	310.38
278.421	310.38
278.652	326.38
278.884	314.38
279.115	291.38
279.347	286.38
279.579	318.38
279.81	314.38
280.042	295.38
280.273	291.38
280.505	305.38
280.736	309.38
280.968	311.38
281.199	319.38
281.431	311.38
281.662	298.38
281.894	320.38
282.125	310.38
282.356	330.38
282.588	332.38
282.819	331.38
283.051	348.38
283.282	342.38
283.513	327.38
283.745	332.38
283.976	330.38
284.207	329.38
284.439	323.38
284.67	322.38
284.901	323.38
285.132	343.38
285.364	307.38
285.595	324.38
285.826	321.38
286.057	326.38
286.288	331.38
286.52	330.38
286.751	327.38
286.982	351.38
287.213	353.38
287.444	332.38
287.675	354.38
287.906	352.38
288.138	371.38
288.369	351.38
288.6	330.38
288.831	345.38
289.062	352.38
289.293	344.38
289.524	365.38
289.755	343.38
289.986	348.38
290.217	357.38
290.448	356.38
290.679	345.38
290.91	343.38
291.141	356.38
291.371	343.38
291.602	349.38
291.833	349.38
292.064	361.38
292.295	358.38
292.526	359.38
292.757	358.38
292.987	338.38
293.218	332.38
293.449	354.38
293.68	360.38
293.91	339.38
294.141	336.38
294.372	350.38
294.603	360.38
294.833	361.38
295.064	373.38
295.295	341.38
295.525	351.38
295.756	354.38
295.987	358.38
296.217	394.38
296.448	373.38
296.679	375.38
296.909	362.38
297.14	399.38
297.37	375.38
297.601	385.38
297.831	354.38
298.062	354.38
298.292	358.38
298.523	362.38
298.753	377.38
298.984	377.38
299.214	366.38
299.445	386.38
299.675	404.38
299.905	359.38
300.136	381.38
300.366	369.38
300.597	405.38
300.827	389.38
301.057	403.38
301.288	399.38
301.518	412.38
301.748	402.38
301.979	410.38
302.209	417.38
302.439	407.38
302.669	410.38
302.9	411.38
303.13	395.38
303.36	383.38
303.59	396.38
303.82	401.38
304.051	411.38
304.281	430.38
304.511	403.38
304.741	401.38
304.971	400.38
305.201	409.38
305.431	408.38
305.661	406.38
305.891	403.38
306.121	400.38
306.352	399.38
306.582	395.38
306.812	403.38
307.042	400.38
307.272	378.38
307.502	375.38
307.731	398.38
307.961	384.38
308.191	395.38
308.421	413.38
308.651	421.38
308.881	390.38
309.111	382.38
309.341	402.38
309.571	422.38
309.8	423.38
310.03	410.38
310.26	416.38
310.49	420.38
310.72	411.38
310.949	433.38
311.179	428.38
311.409	420.38
311.639	435.38
311.868	449.38
312.098	442.38
312.328	433.38
312.557	415.38
312.787	448.38
313.017	433.38
313.246	443.38
313.476	451.38
313.706	442.38
313.935	443.38
314.165	465.38
314.394	466.38
314.624	474.38
314.853	438.38
315.083	436.38
315.312	440.38
315.542	450.38
315.771	443.38
316.001	442.38
316.23	443.38
316.46	431.38
316.689	437.38
316.919	449.38
317.148	441.38
317.377	440.38
317.607	439.38
317.836	429.38
318.065	430.38
318.295	453.38
318.524	454.38
318.753	447.38
318.983	449.38
319.212	426.38
319.441	425.38
319.67	422.38
319.9	456.38
320.129	455.38
320.358	469.38
320.587	448.38
320.816	454.38
321.046	452.38
321.275	469.38
321.504	463.38
321.733	465.38
321.962	457.38
322.191	479.38
322.42	460.38
322.649	495.38
322.878	465.38
323.108	472.38
323.337	482.38
323.566	494.38
323.795	520.38
324.024	517.38
324.253	585.38
324.482	742.38
324.71	1059.38
324.939	1484.38
325.168	1322.38
325.397	772.38
325.626	586.38
325.855	521.38
326.084	501.38
326.313	507.38
326.542	521.38
326.77	550.38
326.999	606.38
327.228	729.38
327.457	997.38
327.686	1222.38
327.914	863.38
328.143	643.38
328.372	584.38
328.6	579.38
328.829	535.38
329.058	541.38
329.287	575.38
329.515	561.38
329.744	536.38
329.972	541.38
330.201	549.38
330.43	551.38
330.658	574.38
330.887	600.38
331.115	596.38
331.344	562.38
331.572	560.38
331.801	545.38
332.03	548.38
332.258	540.38
332.486	554.38
332.715	549.38
332.943	568.38
333.172	603.38
333.4	597.38
333.629	630.38
333.857	616.38
334.085	606.38
334.314	610.38
334.542	635.38
334.771	669.38
334.999	597.38
335.227	585.38
335.455	542.38
335.684	563.38
335.912	545.38
336.14	550.38
336.369	548.38
336.597	562.38
336.825	537.38
337.053	565.38
337.281	540.38
337.51	554.38
337.738	545.38
337.966	540.38
338.194	528.38
338.422	537.38
338.65	541.38
338.878	538.38
339.106	517.38
339.334	521.38
339.562	494.38
339.79	511.38
340.018	511.38
340.246	517.38
340.474	529.38
340.702	505.38
340.93	535.38
341.158	509.38
341.386	493.38
341.614	502.38
341.842	521.38
342.07	485.38
342.298	486.38
342.526	512.38
342.754	519.38
342.981	506.38
343.209	489.38
343.437	523.38
343.665	525.38
343.893	565.38
344.12	586.38
344.348	569.38
344.576	534.38
344.804	513.38
345.031	529.38
345.259	538.38
345.487	502.38
345.714	498.38
345.942	488.38
346.17	501.38
346.397	502.38
346.625	486.38
346.853	477.38
347.08	492.38
347.308	478.38
347.535	497.38
347.763	469.38
347.99	497.38
348.218	526.38
348.445	480.38
348.673	461.38
348.9	483.38
349.128	484.38
349.355	476.38
349.583	503.38
349.81	450.38
350.037	469.38
350.265	486.38
350.492	489.38
350.72	496.38
350.947	495.38
351.174	475.38
351.402	489.38
351.629	487.38
351.856	465.38
352.083	511.38
352.311	501.38
352.538	511.38
352.765	493.38
352.992	472.38
353.22	479.38
353.447	463.38
353.674	483.38
353.901	493.38
354.128	477.38
354.355	458.38
354.583	458.38
354.81	458.38
355.037	470.38
355.264	486.38
355.491	478.38
355.718	471.38
355.945	483.38
356.172	481.38
356.399	494.38
356.626	469.38
356.853	471.38
357.08	450.38
357.307	464.38
357.534	461.38
357.761	490.38
357.988	473.38
358.215	457.38
358.441	476.38
358.668	471.38
358.895	486.38
359.122	498.38
359.349	502.38
359.576	516.38
359.802	482.38
360.029	526.38
360.256	516.38
360.483	498.38
360.709	493.38
360.936	497.38
361.163	479.38
361.39	479.38
361.616	497.38
361.843	487.38
362.07	483.38
362.296	498.38
362.523	484.38
362.749	463.38
362.976	495.38
363.203	494.38
363.429	480.38
363.656	485.38
363.882	475.38
364.109	478.38
364.335	477.38
364.562	470.38
364.788	474.38
365.015	490.38
365.241	477.38
365.468	493.38
365.694	489.38
365.92	445.38
366.147	479.38
366.373	478.38
366.599	478.38
366.826	469.38
367.052	487.38
367.278	495.38
367.505	481.38
367.731	482.38
367.957	474.38
368.184	487.38
368.41	469.38
368.636	494.38
368.862	497.38
369.089	512.38
369.315	493.38
369.541	481.38
369.767	497.38
369.993	486.38
370.219	469.38
370.445	489.38
370.672	509.38
370.898	493.38
371.124	500.38
371.35	492.38
371.576	481.38
371.802	515.38
372.028	493.38
372.254	502.38
372.48	513.38
372.706	511.38
372.932	516.38
373.158	534.38
373.384	512.38
373.61	510.38
373.835	534.38
374.061	514.38
374.287	531.38
374.513	531.38
374.739	521.38
374.965	521.38
375.191	544.38
375.416	533.38
375.642	517.38
375.868	535.38
376.094	540.38
376.319	516.38
376.545	513.38
376.771	515.38
376.997	505.38
377.222	515.38
377.448	517.38
377.674	489.38
377.899	506.38
378.125	499.38
378.35	501.38
378.576	509.38
378.802	505.38
379.027	509.38
379.253	496.38
379.478	476.38
379.704	486.38
379.929	478.38
380.155	500.38
380.38	479.38
380.606	493.38
380.831	526.38
381.057	491.38
381.282	495.38
381.507	491.38
381.733	516.38
381.958	520.38
382.184	504.38
382.409	511.38
382.634	529.38
382.86	517.38
383.085	537.38
383.31	541.38
383.535	527.38
383.761	523.38
383.986	533.38
384.211	550.38
384.436	555.38
384.662	549.38
384.887	577.38
385.112	577.38
385.337	574.38
385.562	577.38
385.787	593.38
386.013	589.38
386.238	600.38
386.463	571.38
386.688	577.38
386.913	569.38
387.138	551.38
387.363	576.38
387.588	564.38
387.813	567.38
388.038	596.38
388.263	569.38
388.488	554.38
388.713	560.38
388.938	573.38
389.163	575.38
389.387	562.38
389.612	574.38
389.837	544.38
390.062	558.38
390.287	576.38
390.512	563.38
390.736	568.38
390.961	571.38
391.186	586.38
391.411	616.38
391.636	618.38
391.86	623.38
392.085	626.38
392.31	620.38
392.534	603.38
392.759	622.38
392.984	605.38
393.208	589.38
393.433	613.38
393.658	610.38
393.882	577.38
394.107	616.38
394.331	582.38
394.556	601.38
394.78	607.38
395.005	591.38
395.229	599.38
395.454	628.38
395.678	633.38
395.903	647.38
396.127	643.38
396.352	604.38
396.576	613.38
396.801	631.38
397.025	626.38
397.249	619.38
397.474	623.38
397.698	630.38
397.922	641.38
398.147	660.38
398.371	671.38
398.595	645.38
398.82	689.38
399.044	753.38
399.268	780.38
399.492	865.38
399.717	944.38
399.941	957.38
400.165	885.38
400.389	855.38
400.613	771.38
400.837	730.38
401.062	711.38
401.286	693.38
401.51	704.38
401.734	669.38
401.958	687.38
402.182	701.38
402.406	708.38
402.63	733.38
402.854	736.38
403.078	739.38
403.302	726.38
403.526	759.38
403.75	773.38
403.974	784.38
404.198	746.38
404.422	765.38
404.645	792.38
404.869	771.38
405.093	776.38
405.317	816.38
405.541	829.38
405.765	774.38
405.988	733.38
406.212	776.38
406.436	763.38
406.66	791.38
406.883	785.38
407.107	801.38
407.331	877.38
407.555	933.38
407.778	928.38
408.002	863.38
408.226	831.38
408.449	818.38
408.673	781.38
408.896	801.38
409.12	803.38
409.344	790.38
409.567	761.38
409.791	742.38
410.014	761.38
410.238	728.38
410.461	737.38
410.685	727.38
410.908	731.38
411.132	745.38
411.355	767.38
411.578	739.38
411.802	733.38
412.025	719.38
412.249	727.38
412.472	746.38
412.695	776.38
412.919	751.38
413.142	701.38
413.365	698.38
413.589	712.38
413.812	681.38
414.035	695.38
414.258	677.38
414.482	706.38
414.705	705.38
414.928	681.38
415.151	691.38
415.374	698.38
415.597	664.38
415.821	676.38
416.044	663.38
416.267	681.38
416.49	634.38
416.713	667.38
416.936	704.38
417.159	685.38
417.382	674.38
417.605	670.38
417.828	682.38
418.051	708.38
418.274	705.38
418.497	686.38
418.72	689.38
418.943	688.38
419.166	720.38
419.389	760.38
419.611	727.38
419.834	721.38
420.057	747.38
420.28	691.38
420.503	690.38
420.726	678.38
420.948	682.38
421.171	726.38
421.394	741.38
421.617	704.38
421.839	689.38
422.062	686.38
422.285	701.38
422.507	746.38
422.73	803.38
422.953	769.38
423.175	724.38
423.398	726.38
423.621	733.38
423.843	750.38
424.066	763.38
424.288	741.38
424.511	738.38
424.733	783.38
424.956	822.38
425.178	804.38
425.401	804.38
425.623	814.38
425.846	754.38
426.068	726.38
426.291	669.38
426.513	698.38
426.735	716.38
426.958	737.38
427.18	779.38
427.402	862.38
427.625	925.38
427.847	832.38
428.069	749.38
428.292	710.38
428.514	659.38
428.736	670.38
428.958	660.38
429.181	651.38
429.403	634.38
429.625	648.38
429.847	687.38
430.069	732.38
430.292	703.38
430.514	642.38
430.736	635.38
430.958	635.38
431.18	643.38
431.402	614.38
431.624	618.38
431.846	623.38
432.068	643.38
432.29	641.38
432.512	638.38
432.734	669.38
432.956	633.38
433.178	661.38
433.4	647.38
433.622	638.38
433.844	631.38
434.066	647.38
434.287	632.38
434.509	630.38
434.731	662.38
434.953	686.38
435.175	712.38
435.397	741.38
435.618	685.38
435.84	711.38
436.062	769.38
436.284	807.38
436.505	730.38
436.727	670.38
436.949	654.38
437.17	644.38
437.392	642.38
437.614	649.38
437.835	646.38
438.057	715.38
438.278	798.38
438.5	786.38
438.721	865.38
438.943	851.38
439.165	698.38
439.386	673.38
439.608	679.38
439.829	685.38
440.05	696.38
440.272	734.38
440.493	685.38
440.715	686.38
440.936	671.38
441.158	685.38
441.379	670.38
441.6	691.38
441.822	717.38
442.043	720.38
442.264	784.38
442.486	806.38
442.707	765.38
442.928	700.38
443.149	719.38
443.371	721.38
443.592	754.38
443.813	823.38
444.034	890.38
444.255	805.38
444.476	750.38
444.698	790.38
444.919	807.38
445.14	899.38
445.361	802.38
445.582	762.38
445.803	794.38
446.024	846.38
446.245	841.38
446.466	773.38
446.687	707.38
446.908	665.38
447.129	669.38
447.35	647.38
447.571	627.38
447.792	626.38
448.013	634.38
448.234	636.38
448.455	654.38
448.675	742.38
448.896	838.38
449.117	749.38
449.338	721.38
449.559	791.38
449.779	855.38
450	726.38
450.221	633.38
450.442	628.38
450.662	621.38
450.883	599.38
451.104	610.38
451.324	602.38
451.545	596.38
451.766	579.38
451.986	571.38
452.207	566.38
452.428	555.38
452.648	590.38
452.869	597.38
453.089	553.38
453.31	592.38
453.53	591.38
453.751	562.38
453.971	569.38
454.192	571.38
454.412	564.38
454.633	565.38
454.853	560.38
455.073	564.38
455.294	555.38
455.514	623.38
455.734	591.38
455.955	575.38
456.175	530.38
456.395	559.38
456.616	558.38
456.836	565.38
457.056	517.38
457.276	545.38
457.497	535.38
457.717	554.38
457.937	552.38
458.157	567.38
458.377	567.38
458.598	580.38
458.818	619.38
459.038	708.38
459.258	722.38
459.478	676.38
459.698	662.38
459.918	637.38
460.138	661.38
460.358	683.38
460.578	694.38
460.798	682.38
461.018	708.38
461.238	681.38
461.458	682.38
461.678	694.38
461.898	725.38
462.118	684.38
462.338	728.38
462.558	746.38
462.777	765.38
462.997	809.38
463.217	843.38
463.437	854.38
463.657	809.38
463.876	745.38
464.096	778.38
464.316	790.38
464.536	771.38
464.755	773.38
464.975	757.38
465.195	751.38
465.414	784.38
465.634	712.38
465.854	667.38
466.073	661.38
466.293	642.38
466.512	623.38
466.732	616.38
466.951	601.38
467.171	621.38
467.391	606.38
467.61	627.38
467.829	614.38
468.049	601.38
468.268	592.38
468.488	583.38
468.707	588.38
468.927	590.38
469.146	594.38
469.365	599.38
469.585	595.38
469.804	609.38
470.023	623.38
470.243	616.38
470.462	606.38
470.681	646.38
470.901	634.38
471.12	625.38
471.339	594.38
471.558	602.38
471.777	611.38
471.997	606.38
472.216	602.38
472.435	618.38
472.654	614.38
472.873	585.38
473.092	594.38
473.311	586.38
473.53	578.38
473.749	595.38
473.968	625.38
474.187	672.38
474.406	705.38
474.625	630.38
474.844	593.38
475.063	584.38
475.282	589.38
475.501	586.38
475.72	606.38
475.939	610.38
476.158	622.38
476.377	599.38
476.596	615.38
476.814	625.38
477.033	640.38
477.252	618.38
477.471	659.38
477.69	650.38
477.908	662.38
478.127	680.38
478.346	683.38
478.564	702.38
478.783	723.38
479.002	707.38
479.22	729.38
479.439	714.38
479.658	751.38
479.876	746.38
480.095	736.38
480.313	786.38
480.532	808.38
480.751	793.38
480.969	759.38
481.188	793.38
481.406	817.38
481.624	746.38
481.843	740.38
482.061	710.38
482.28	727.38
482.498	674.38
482.717	691.38
482.935	692.38
483.153	691.38
483.372	703.38
483.59	690.38
483.808	696.38
484.027	731.38
484.245	710.38
484.463	737.38
484.681	714.38
484.9	716.38
485.118	714.38
485.336	714.38
485.554	722.38
485.772	721.38
485.99	745.38
486.209	746.38
486.427	729.38
486.645	766.38
486.863	745.38
487.081	729.38
487.299	748.38
487.517	742.38
487.735	741.38
487.953	766.38
488.171	720.38
488.389	742.38
488.607	733.38
488.825	762.38
489.043	749.38
489.261	765.38
489.479	753.38
489.696	738.38
489.914	735.38
490.132	745.38
490.35	771.38
490.568	789.38
490.786	797.38
491.003	774.38
491.221	806.38
491.439	807.38
491.657	806.38
491.874	810.38
492.092	791.38
492.31	790.38
492.527	827.38
492.745	838.38
492.963	827.38
493.18	815.38
493.398	838.38
493.615	878.38
493.833	872.38
494.05	853.38
494.268	846.38
494.485	860.38
494.703	859.38
494.92	846.38
495.138	850.38
495.355	864.38
495.573	845.38
495.79	838.38
496.008	872.38
496.225	868.38
496.442	855.38
496.66	882.38
496.877	881.38
497.094	905.38
497.312	898.38
497.529	908.38
497.746	930.38
497.963	971.38
498.181	980.38
498.398	998.38
498.615	1041.38
498.832	1115.38
499.049	1127.38
499.267	1193.38
499.484	1283.38
499.701	1391.38
499.918	1447.38
500.135	1575.38
500.352	1727.38
500.569	1771.38
500.786	1745.38
501.003	1713.38
501.22	1607.38
501.437	1489.38
501.654	1363.38
501.871	1304.38
