Data from 1963.PennyLincolnUp.Lamp.En5.5.200Scan.071719.P1._HRD10591_13-58-03-063.txt Node
Date: Thu Jul 18 13:58:03 EDT 2019
User: cochatt
Spectrometer: HR+D1059
Trigger mode: 1
Integration Time (sec): 1.000000E-1
Scans to average: 1
Electric dark correction enabled: true
Nonlinearity correction enabled: false
Boxcar width: 0
XAxis mode: Wavelengths
Number of Pixels in Spectrum: 2048
>>>>>Begin Spectral Data<<<<<
223.165	-16.56
223.4	-16.56
223.635	-16.56
223.869	3.44
224.104	-7.56
224.338	-12.56
224.573	-19.56
224.808	-21.56
225.042	-12.56
225.277	-11.56
225.511	-11.56
225.746	1.44
225.98	6.44
226.215	7.44
226.449	6.44
226.683	21.44
226.918	27.44
227.152	39.44
227.387	31.44
227.621	38.44
227.856	43.44
228.09	54.44
228.324	60.44
228.559	38.44
228.793	68.44
229.027	111.44
229.262	104.44
229.496	122.44
229.73	126.44
229.964	130.44
230.199	118.44
230.433	105.44
230.667	126.44
230.901	128.44
231.136	109.44
231.37	108.44
231.604	124.44
231.838	119.44
232.072	107.44
232.306	126.44
232.541	118.44
232.775	119.44
233.009	121.44
233.243	128.44
233.477	117.44
233.711	109.44
233.945	124.44
234.179	120.44
234.413	132.44
234.647	116.44
234.881	130.44
235.115	126.44
235.349	147.44
235.583	118.44
235.817	117.44
236.051	135.44
236.285	133.44
236.519	117.44
236.753	137.44
236.987	130.44
237.221	170.44
237.455	203.44
237.689	168.44
237.922	143.44
238.156	136.44
238.39	140.44
238.624	134.44
238.858	126.44
239.091	145.44
239.325	123.44
239.559	132.44
239.793	142.44
240.027	142.44
240.26	133.44
240.494	136.44
240.728	152.44
240.961	163.44
241.195	158.44
241.429	146.44
241.662	150.44
241.896	151.44
242.13	151.44
242.363	154.44
242.597	148.44
242.83	156.44
243.064	136.44
243.298	150.44
243.531	144.44
243.765	162.44
243.998	164.44
244.232	163.44
244.465	158.44
244.699	162.44
244.932	166.44
245.166	169.44
245.399	166.44
245.633	151.44
245.866	167.44
246.099	162.44
246.333	168.44
246.566	149.44
246.8	162.44
247.033	174.44
247.266	170.44
247.5	184.44
247.733	159.44
247.966	172.44
248.2	175.44
248.433	187.44
248.666	199.44
248.899	197.44
249.133	205.44
249.366	207.44
249.599	190.44
249.832	198.44
250.066	176.44
250.299	190.44
250.532	204.44
250.765	211.44
250.998	221.44
251.231	216.44
251.465	223.44
251.698	200.44
251.931	204.44
252.164	212.44
252.397	195.44
252.63	196.44
252.863	215.44
253.096	213.44
253.329	216.44
253.562	232.44
253.795	211.44
254.028	215.44
254.261	211.44
254.494	210.44
254.727	238.44
254.96	248.44
255.193	258.44
255.426	233.44
255.659	242.44
255.892	237.44
256.124	227.44
256.357	246.44
256.59	230.44
256.823	221.44
257.056	210.44
257.289	215.44
257.521	224.44
257.754	228.44
257.987	232.44
258.22	229.44
258.452	229.44
258.685	215.44
258.918	243.44
259.151	242.44
259.383	238.44
259.616	230.44
259.849	221.44
260.081	238.44
260.314	258.44
260.547	262.44
260.779	233.44
261.012	245.44
261.244	242.44
261.477	235.44
261.71	246.44
261.942	232.44
262.175	265.44
262.407	248.44
262.64	248.44
262.872	252.44
263.105	219.44
263.337	244.44
263.57	222.44
263.802	232.44
264.035	246.44
264.267	239.44
264.499	211.44
264.732	252.44
264.964	247.44
265.197	236.44
265.429	250.44
265.661	242.44
265.894	272.44
266.126	262.44
266.358	259.44
266.591	233.44
266.823	260.44
267.055	243.44
267.287	245.44
267.52	266.44
267.752	252.44
267.984	236.44
268.216	262.44
268.448	258.44
268.681	290.44
268.913	245.44
269.145	286.44
269.377	291.44
269.609	287.44
269.841	298.44
270.073	308.44
270.306	302.44
270.538	314.44
270.77	296.44
271.002	318.44
271.234	286.44
271.466	303.44
271.698	310.44
271.93	311.44
272.162	312.44
272.394	306.44
272.626	307.44
272.858	292.44
273.09	288.44
273.322	315.44
273.553	312.44
273.785	287.44
274.017	271.44
274.249	279.44
274.481	296.44
274.713	288.44
274.945	307.44
275.176	306.44
275.408	299.44
275.64	287.44
275.872	288.44
276.104	308.44
276.335	299.44
276.567	303.44
276.799	299.44
277.031	307.44
277.262	314.44
277.494	318.44
277.726	299.44
277.957	322.44
278.189	319.44
278.421	296.44
278.652	292.44
278.884	289.44
279.115	309.44
279.347	316.44
279.579	300.44
279.81	307.44
280.042	295.44
280.273	325.44
280.505	313.44
280.736	295.44
280.968	303.44
281.199	317.44
281.431	318.44
281.662	323.44
281.894	314.44
282.125	305.44
282.356	331.44
282.588	339.44
282.819	333.44
283.051	313.44
283.282	311.44
283.513	326.44
283.745	306.44
283.976	309.44
284.207	329.44
284.439	329.44
284.67	336.44
284.901	346.44
285.132	330.44
285.364	325.44
285.595	338.44
285.826	313.44
286.057	332.44
286.288	334.44
286.52	330.44
286.751	327.44
286.982	333.44
287.213	333.44
287.444	346.44
287.675	336.44
287.906	356.44
288.138	355.44
288.369	365.44
288.6	355.44
288.831	346.44
289.062	344.44
289.293	358.44
289.524	345.44
289.755	331.44
289.986	360.44
290.217	352.44
290.448	360.44
290.679	363.44
290.91	343.44
291.141	345.44
291.371	358.44
291.602	325.44
291.833	332.44
292.064	348.44
292.295	352.44
292.526	345.44
292.757	326.44
292.987	360.44
293.218	349.44
293.449	333.44
293.68	347.44
293.91	364.44
294.141	344.44
294.372	360.44
294.603	358.44
294.833	345.44
295.064	352.44
295.295	374.44
295.525	364.44
295.756	361.44
295.987	345.44
296.217	370.44
296.448	382.44
296.679	377.44
296.909	362.44
297.14	359.44
297.37	367.44
297.601	376.44
297.831	346.44
298.062	375.44
298.292	357.44
298.523	374.44
298.753	370.44
298.984	373.44
299.214	383.44
299.445	374.44
299.675	379.44
299.905	384.44
300.136	382.44
300.366	366.44
300.597	372.44
300.827	384.44
301.057	403.44
301.288	406.44
301.518	390.44
301.748	393.44
301.979	390.44
302.209	399.44
302.439	391.44
302.669	388.44
302.9	385.44
303.13	404.44
303.36	407.44
303.59	414.44
303.82	391.44
304.051	405.44
304.281	414.44
304.511	392.44
304.741	400.44
304.971	396.44
305.201	388.44
305.431	390.44
305.661	399.44
305.891	416.44
306.121	398.44
306.352	403.44
306.582	382.44
306.812	406.44
307.042	389.44
307.272	398.44
307.502	405.44
307.731	392.44
307.961	412.44
308.191	406.44
308.421	418.44
308.651	399.44
308.881	408.44
309.111	415.44
309.341	405.44
309.571	399.44
309.8	424.44
310.03	410.44
310.26	425.44
310.49	418.44
310.72	440.44
310.949	414.44
311.179	451.44
311.409	429.44
311.639	429.44
311.868	407.44
312.098	435.44
312.328	424.44
312.557	421.44
312.787	452.44
313.017	454.44
313.246	446.44
313.476	442.44
313.706	423.44
313.935	430.44
314.165	458.44
314.394	450.44
314.624	445.44
314.853	442.44
315.083	430.44
315.312	444.44
315.542	436.44
315.771	439.44
316.001	443.44
316.23	422.44
316.46	456.44
316.689	432.44
316.919	452.44
317.148	446.44
317.377	450.44
317.607	419.44
317.836	449.44
318.065	441.44
318.295	457.44
318.524	444.44
318.753	450.44
318.983	424.44
319.212	418.44
319.441	447.44
319.67	450.44
319.9	432.44
320.129	437.44
320.358	446.44
320.587	424.44
320.816	438.44
321.046	456.44
321.275	460.44
321.504	428.44
321.733	449.44
321.962	479.44
322.191	453.44
322.42	472.44
322.649	470.44
322.878	456.44
323.108	484.44
323.337	509.44
323.566	495.44
323.795	512.44
324.024	506.44
324.253	576.44
324.482	739.44
324.71	1006.44
324.939	1443.44
325.168	1241.44
325.397	744.44
325.626	588.44
325.855	538.44
326.084	507.44
326.313	496.44
326.542	517.44
326.77	538.44
326.999	584.44
327.228	694.44
327.457	967.44
327.686	1141.44
327.914	814.44
328.143	626.44
328.372	606.44
328.6	565.44
328.829	560.44
329.058	526.44
329.287	551.44
329.515	568.44
329.744	552.44
329.972	554.44
330.201	540.44
330.43	568.44
330.658	557.44
330.887	589.44
331.115	580.44
331.344	535.44
331.572	546.44
331.801	555.44
332.03	546.44
332.258	553.44
332.486	563.44
332.715	563.44
332.943	559.44
333.172	581.44
333.4	580.44
333.629	612.44
333.857	608.44
334.085	618.44
334.314	614.44
334.542	647.44
334.771	648.44
334.999	604.44
335.227	593.44
335.455	591.44
335.684	560.44
335.912	559.44
336.14	559.44
336.369	576.44
336.597	545.44
336.825	536.44
337.053	575.44
337.281	565.44
337.51	542.44
337.738	526.44
337.966	532.44
338.194	546.44
338.422	557.44
338.65	507.44
338.878	516.44
339.106	512.44
339.334	533.44
339.562	521.44
339.79	500.44
340.018	517.44
340.246	500.44
340.474	501.44
340.702	490.44
340.93	516.44
341.158	530.44
341.386	506.44
341.614	493.44
341.842	503.44
342.07	489.44
342.298	480.44
342.526	499.44
342.754	513.44
342.981	500.44
343.209	494.44
343.437	537.44
343.665	540.44
343.893	553.44
344.12	579.44
344.348	570.44
344.576	540.44
344.804	538.44
345.031	515.44
345.259	536.44
345.487	524.44
345.714	485.44
345.942	495.44
346.17	502.44
346.397	473.44
346.625	468.44
346.853	477.44
347.08	525.44
347.308	492.44
347.535	482.44
347.763	485.44
347.99	503.44
348.218	490.44
348.445	493.44
348.673	493.44
348.9	505.44
349.128	493.44
349.355	488.44
349.583	480.44
349.81	473.44
350.037	488.44
350.265	462.44
350.492	471.44
350.72	470.44
350.947	452.44
351.174	483.44
351.402	494.44
351.629	478.44
351.856	469.44
352.083	471.44
352.311	483.44
352.538	483.44
352.765	498.44
352.992	497.44
353.22	487.44
353.447	482.44
353.674	471.44
353.901	488.44
354.128	473.44
354.355	472.44
354.583	467.44
354.81	470.44
355.037	452.44
355.264	466.44
355.491	474.44
355.718	468.44
355.945	456.44
356.172	487.44
356.399	474.44
356.626	468.44
356.853	470.44
357.08	463.44
357.307	467.44
357.534	454.44
357.761	471.44
357.988	510.44
358.215	473.44
358.441	492.44
358.668	481.44
358.895	492.44
359.122	476.44
359.349	481.44
359.576	493.44
359.802	494.44
360.029	499.44
360.256	498.44
360.483	491.44
360.709	498.44
360.936	482.44
361.163	475.44
361.39	490.44
361.616	495.44
361.843	488.44
362.07	486.44
362.296	485.44
362.523	487.44
362.749	499.44
362.976	478.44
363.203	473.44
363.429	491.44
363.656	495.44
363.882	473.44
364.109	475.44
364.335	480.44
364.562	485.44
364.788	456.44
365.015	461.44
365.241	477.44
365.468	487.44
365.694	475.44
365.92	467.44
366.147	452.44
366.373	469.44
366.599	469.44
366.826	477.44
367.052	467.44
367.278	484.44
367.505	485.44
367.731	488.44
367.957	476.44
368.184	481.44
368.41	500.44
368.636	489.44
368.862	499.44
369.089	497.44
369.315	488.44
369.541	473.44
369.767	471.44
369.993	484.44
370.219	480.44
370.445	471.44
370.672	510.44
370.898	496.44
371.124	512.44
371.35	502.44
371.576	487.44
371.802	490.44
372.028	508.44
372.254	510.44
372.48	501.44
372.706	501.44
372.932	489.44
373.158	507.44
373.384	528.44
373.61	513.44
373.835	495.44
374.061	495.44
374.287	488.44
374.513	506.44
374.739	563.44
374.965	530.44
375.191	524.44
375.416	518.44
375.642	498.44
375.868	500.44
376.094	515.44
376.319	501.44
376.545	518.44
376.771	484.44
376.997	477.44
377.222	518.44
377.448	520.44
377.674	495.44
377.899	516.44
378.125	525.44
378.35	494.44
378.576	491.44
378.802	493.44
379.027	485.44
379.253	500.44
379.478	492.44
379.704	500.44
379.929	504.44
380.155	513.44
380.38	500.44
380.606	501.44
380.831	503.44
381.057	494.44
381.282	490.44
381.507	493.44
381.733	496.44
381.958	504.44
382.184	528.44
382.409	528.44
382.634	515.44
382.86	537.44
383.085	512.44
383.31	534.44
383.535	552.44
383.761	564.44
383.986	551.44
384.211	558.44
384.436	576.44
384.662	541.44
384.887	556.44
385.112	566.44
385.337	586.44
385.562	579.44
385.787	573.44
386.013	584.44
386.238	596.44
386.463	590.44
386.688	578.44
386.913	584.44
387.138	575.44
387.363	576.44
387.588	581.44
387.813	589.44
388.038	560.44
388.263	566.44
388.488	554.44
388.713	588.44
388.938	559.44
389.163	553.44
389.387	591.44
389.612	578.44
389.837	568.44
390.062	570.44
390.287	580.44
390.512	574.44
390.736	594.44
390.961	579.44
391.186	593.44
391.411	599.44
391.636	610.44
391.86	620.44
392.085	648.44
392.31	643.44
392.534	624.44
392.759	634.44
392.984	610.44
393.208	594.44
393.433	587.44
393.658	623.44
393.882	594.44
394.107	600.44
394.331	595.44
394.556	597.44
394.78	607.44
395.005	593.44
395.229	619.44
395.454	609.44
395.678	630.44
395.903	642.44
396.127	650.44
396.352	655.44
396.576	619.44
396.801	610.44
397.025	622.44
397.249	648.44
397.474	652.44
397.698	648.44
397.922	638.44
398.147	649.44
398.371	667.44
398.595	659.44
398.82	699.44
399.044	724.44
399.268	746.44
399.492	850.44
399.717	921.44
399.941	938.44
400.165	890.44
400.389	838.44
400.613	782.44
400.837	736.44
401.062	711.44
401.286	695.44
401.51	704.44
401.734	692.44
401.958	703.44
402.182	700.44
402.406	707.44
402.63	682.44
402.854	710.44
403.078	729.44
403.302	736.44
403.526	745.44
403.75	759.44
403.974	757.44
404.198	753.44
404.422	749.44
404.645	792.44
404.869	762.44
405.093	768.44
405.317	782.44
405.541	825.44
405.765	780.44
405.988	750.44
406.212	744.44
406.436	767.44
406.66	780.44
406.883	749.44
407.107	794.44
407.331	878.44
407.555	946.44
407.778	922.44
408.002	866.44
408.226	815.44
408.449	790.44
408.673	788.44
408.896	798.44
409.12	824.44
409.344	776.44
409.567	728.44
409.791	756.44
410.014	745.44
410.238	712.44
410.461	739.44
410.685	720.44
410.908	742.44
411.132	756.44
411.355	772.44
411.578	773.44
411.802	725.44
412.025	730.44
412.249	735.44
412.472	743.44
412.695	768.44
412.919	734.44
413.142	707.44
413.365	703.44
413.589	678.44
413.812	684.44
414.035	693.44
414.258	668.44
414.482	681.44
414.705	697.44
414.928	684.44
415.151	713.44
415.374	688.44
415.597	694.44
415.821	701.44
416.044	692.44
416.267	684.44
416.49	674.44
416.713	648.44
416.936	663.44
417.159	691.44
417.382	681.44
417.605	674.44
417.828	698.44
418.051	687.44
418.274	700.44
418.497	711.44
418.72	708.44
418.943	697.44
419.166	714.44
419.389	775.44
419.611	737.44
419.834	734.44
420.057	718.44
420.28	721.44
420.503	720.44
420.726	679.44
420.948	725.44
421.171	705.44
421.394	733.44
421.617	697.44
421.839	682.44
422.062	691.44
422.285	716.44
422.507	762.44
422.73	804.44
422.953	803.44
423.175	746.44
423.398	698.44
423.621	733.44
423.843	746.44
424.066	732.44
424.288	728.44
424.511	752.44
424.733	758.44
424.956	830.44
425.178	795.44
425.401	746.44
425.623	835.44
425.846	722.44
426.068	714.44
426.291	674.44
426.513	670.44
426.735	733.44
426.958	749.44
427.18	770.44
427.402	884.44
427.625	930.44
427.847	804.44
428.069	726.44
428.292	706.44
428.514	679.44
428.736	649.44
428.958	660.44
429.181	654.44
429.403	646.44
429.625	643.44
429.847	660.44
430.069	699.44
430.292	685.44
430.514	612.44
430.736	646.44
430.958	658.44
431.18	601.44
431.402	614.44
431.624	625.44
431.846	618.44
432.068	628.44
432.29	646.44
432.512	637.44
432.734	650.44
432.956	631.44
433.178	676.44
433.4	634.44
433.622	647.44
433.844	628.44
434.066	646.44
434.287	623.44
434.509	655.44
434.731	639.44
434.953	681.44
435.175	711.44
435.397	715.44
435.618	702.44
435.84	706.44
436.062	760.44
436.284	811.44
436.505	700.44
436.727	642.44
436.949	655.44
437.17	660.44
437.392	619.44
437.614	646.44
437.835	653.44
438.057	723.44
438.278	790.44
438.5	784.44
438.721	830.44
438.943	854.44
439.165	697.44
439.386	663.44
439.608	674.44
439.829	687.44
440.05	673.44
440.272	726.44
440.493	688.44
440.715	657.44
440.936	646.44
441.158	670.44
441.379	661.44
441.6	686.44
441.822	700.44
442.043	731.44
442.264	796.44
442.486	818.44
442.707	748.44
442.928	723.44
443.149	719.44
443.371	706.44
443.592	756.44
443.813	814.44
444.034	886.44
444.255	784.44
444.476	778.44
444.698	797.44
444.919	764.44
445.14	886.44
445.361	791.44
445.582	725.44
445.803	739.44
446.024	815.44
446.245	825.44
446.466	761.44
446.687	699.44
446.908	666.44
447.129	634.44
447.35	619.44
447.571	610.44
447.792	632.44
448.013	613.44
448.234	642.44
448.455	640.44
448.675	738.44
448.896	804.44
449.117	716.44
449.338	692.44
449.559	755.44
449.779	855.44
450	742.44
450.221	646.44
450.442	642.44
450.662	618.44
450.883	611.44
451.104	598.44
451.324	587.44
451.545	587.44
451.766	613.44
451.986	570.44
452.207	585.44
452.428	576.44
452.648	587.44
452.869	591.44
453.089	578.44
453.31	594.44
453.53	582.44
453.751	578.44
453.971	574.44
454.192	612.44
454.412	574.44
454.633	551.44
454.853	579.44
455.073	570.44
455.294	580.44
455.514	635.44
455.734	601.44
455.955	543.44
456.175	541.44
456.395	547.44
456.616	547.44
456.836	534.44
457.056	559.44
457.276	535.44
457.497	543.44
457.717	563.44
457.937	563.44
458.157	565.44
458.377	560.44
458.598	590.44
458.818	631.44
459.038	703.44
459.258	713.44
459.478	659.44
459.698	635.44
459.918	638.44
460.138	675.44
460.358	680.44
460.578	705.44
460.798	684.44
461.018	692.44
461.238	691.44
461.458	701.44
461.678	700.44
461.898	719.44
462.118	702.44
462.338	716.44
462.558	715.44
462.777	758.44
462.997	803.44
463.217	831.44
463.437	854.44
463.657	807.44
463.876	777.44
464.096	779.44
464.316	795.44
464.536	784.44
464.755	760.44
464.975	767.44
465.195	743.44
465.414	749.44
465.634	696.44
465.854	684.44
466.073	650.44
466.293	641.44
466.512	620.44
466.732	604.44
466.951	618.44
467.171	595.44
467.391	618.44
467.61	615.44
467.829	611.44
468.049	629.44
468.268	621.44
468.488	607.44
468.707	588.44
468.927	601.44
469.146	588.44
469.365	591.44
469.585	592.44
469.804	612.44
470.023	640.44
470.243	662.44
470.462	638.44
470.681	640.44
470.901	670.44
471.12	638.44
471.339	626.44
471.558	612.44
471.777	620.44
471.997	599.44
472.216	589.44
472.435	630.44
472.654	600.44
472.873	602.44
473.092	591.44
473.311	615.44
473.53	578.44
473.749	584.44
473.968	630.44
474.187	664.44
474.406	693.44
474.625	616.44
474.844	612.44
475.063	607.44
475.282	613.44
475.501	608.44
475.72	614.44
475.939	619.44
476.158	609.44
476.377	637.44
476.596	631.44
476.814	631.44
477.033	635.44
477.252	644.44
477.471	643.44
477.69	671.44
477.908	674.44
478.127	676.44
478.346	709.44
478.564	724.44
478.783	709.44
479.002	718.44
479.22	726.44
479.439	763.44
479.658	736.44
479.876	728.44
480.095	733.44
480.313	783.44
480.532	778.44
480.751	802.44
480.969	781.44
481.188	790.44
481.406	815.44
481.624	741.44
481.843	714.44
482.061	717.44
482.28	701.44
482.498	702.44
482.717	687.44
482.935	688.44
483.153	704.44
483.372	692.44
483.59	692.44
483.808	683.44
484.027	664.44
484.245	698.44
484.463	715.44
484.681	722.44
484.9	717.44
485.118	716.44
485.336	715.44
485.554	739.44
485.772	742.44
485.99	751.44
486.209	726.44
486.427	732.44
486.645	742.44
486.863	751.44
487.081	751.44
487.299	726.44
487.517	741.44
487.735	719.44
487.953	734.44
488.171	722.44
488.389	740.44
488.607	742.44
488.825	723.44
489.043	722.44
489.261	743.44
489.479	755.44
489.696	764.44
489.914	748.44
490.132	743.44
490.35	778.44
490.568	758.44
490.786	758.44
491.003	783.44
491.221	808.44
491.439	782.44
491.657	806.44
491.874	805.44
492.092	838.44
492.31	836.44
492.527	829.44
492.745	818.44
492.963	837.44
493.18	825.44
493.398	852.44
493.615	862.44
493.833	844.44
494.05	835.44
494.268	848.44
494.485	833.44
494.703	822.44
494.92	844.44
495.138	824.44
495.355	857.44
495.573	856.44
495.79	836.44
496.008	865.44
496.225	868.44
496.442	870.44
496.66	891.44
496.877	862.44
497.094	891.44
497.312	901.44
497.529	885.44
497.746	935.44
497.963	936.44
498.181	994.44
498.398	1003.44
498.615	1071.44
498.832	1076.44
499.049	1133.44
499.267	1204.44
499.484	1295.44
499.701	1350.44
499.918	1469.44
500.135	1577.44
500.352	1736.44
500.569	1782.44
500.786	1715.44
501.003	1733.44
501.22	1616.44
501.437	1453.44
501.654	1358.44
