Data from 1963.PennyLincolnUp.Lamp.En5.5.200Scan.071719.P1._HRD10591_13-58-42-062.txt Node
Date: Thu Jul 18 13:58:42 EDT 2019
User: cochatt
Spectrometer: HR+D1059
Trigger mode: 1
Integration Time (sec): 1.000000E-1
Scans to average: 1
Electric dark correction enabled: true
Nonlinearity correction enabled: false
Boxcar width: 0
XAxis mode: Wavelengths
Number of Pixels in Spectrum: 2048
>>>>>Begin Spectral Data<<<<<
223.165	-20.38
223.4	-20.38
223.635	-20.38
223.869	-23.38
224.104	-9.38
224.338	-23.38
224.573	-17.38
224.808	-5.38
225.042	-10.38
225.277	-3.38
225.511	-13.38
225.746	11.62
225.98	-6.38
226.215	21.62
226.449	12.62
226.683	25.62
226.918	24.62
227.152	36.62
227.387	45.62
227.621	31.62
227.856	54.62
228.09	57.62
228.324	45.62
228.559	64.62
228.793	55.62
229.027	85.62
229.262	105.62
229.496	102.62
229.73	135.62
229.964	135.62
230.199	108.62
230.433	115.62
230.667	118.62
230.901	105.62
231.136	105.62
231.37	114.62
231.604	114.62
231.838	109.62
232.072	104.62
232.306	127.62
232.541	125.62
232.775	107.62
233.009	122.62
233.243	98.62
233.477	115.62
233.711	111.62
233.945	125.62
234.179	119.62
234.413	137.62
234.647	138.62
234.881	121.62
235.115	113.62
235.349	115.62
235.583	131.62
235.817	125.62
236.051	135.62
236.285	115.62
236.519	125.62
236.753	131.62
236.987	144.62
237.221	163.62
237.455	209.62
237.689	167.62
237.922	133.62
238.156	147.62
238.39	142.62
238.624	126.62
238.858	123.62
239.091	127.62
239.325	141.62
239.559	136.62
239.793	136.62
240.027	157.62
240.26	165.62
240.494	149.62
240.728	155.62
240.961	153.62
241.195	156.62
241.429	159.62
241.662	137.62
241.896	143.62
242.13	144.62
242.363	140.62
242.597	154.62
242.83	149.62
243.064	162.62
243.298	145.62
243.531	156.62
243.765	138.62
243.998	157.62
244.232	154.62
244.465	147.62
244.699	162.62
244.932	156.62
245.166	137.62
245.399	155.62
245.633	145.62
245.866	173.62
246.099	165.62
246.333	172.62
246.566	181.62
246.8	163.62
247.033	149.62
247.266	172.62
247.5	188.62
247.733	180.62
247.966	178.62
248.2	178.62
248.433	194.62
248.666	182.62
248.899	202.62
249.133	206.62
249.366	220.62
249.599	208.62
249.832	192.62
250.066	200.62
250.299	202.62
250.532	201.62
250.765	212.62
250.998	213.62
251.231	223.62
251.465	221.62
251.698	221.62
251.931	222.62
252.164	201.62
252.397	221.62
252.63	219.62
252.863	204.62
253.096	215.62
253.329	241.62
253.562	243.62
253.795	243.62
254.028	212.62
254.261	235.62
254.494	222.62
254.727	240.62
254.96	275.62
255.193	293.62
255.426	262.62
255.659	249.62
255.892	246.62
256.124	253.62
256.357	237.62
256.59	246.62
256.823	241.62
257.056	231.62
257.289	231.62
257.521	246.62
257.754	228.62
257.987	229.62
258.22	236.62
258.452	226.62
258.685	235.62
258.918	226.62
259.151	239.62
259.383	234.62
259.616	234.62
259.849	230.62
260.081	252.62
260.314	259.62
260.547	274.62
260.779	262.62
261.012	236.62
261.244	229.62
261.477	251.62
261.71	245.62
261.942	237.62
262.175	237.62
262.407	238.62
262.64	232.62
262.872	243.62
263.105	239.62
263.337	267.62
263.57	242.62
263.802	267.62
264.035	245.62
264.267	222.62
264.499	223.62
264.732	249.62
264.964	256.62
265.197	245.62
265.429	265.62
265.661	245.62
265.894	236.62
266.126	249.62
266.358	241.62
266.591	250.62
266.823	261.62
267.055	253.62
267.287	266.62
267.52	266.62
267.752	255.62
267.984	272.62
268.216	268.62
268.448	252.62
268.681	270.62
268.913	269.62
269.145	289.62
269.377	305.62
269.609	300.62
269.841	313.62
270.073	315.62
270.306	330.62
270.538	313.62
270.77	340.62
271.002	326.62
271.234	314.62
271.466	320.62
271.698	327.62
271.93	327.62
272.162	344.62
272.394	326.62
272.626	345.62
272.858	310.62
273.09	291.62
273.322	305.62
273.553	311.62
273.785	305.62
274.017	315.62
274.249	301.62
274.481	310.62
274.713	304.62
274.945	295.62
275.176	314.62
275.408	316.62
275.64	289.62
275.872	291.62
276.104	331.62
276.335	309.62
276.567	295.62
276.799	311.62
277.031	321.62
277.262	320.62
277.494	341.62
277.726	334.62
277.957	332.62
278.189	318.62
278.421	347.62
278.652	307.62
278.884	318.62
279.115	313.62
279.347	312.62
279.579	315.62
279.81	294.62
280.042	322.62
280.273	321.62
280.505	312.62
280.736	325.62
280.968	322.62
281.199	327.62
281.431	322.62
281.662	323.62
281.894	343.62
282.125	324.62
282.356	355.62
282.588	352.62
282.819	351.62
283.051	314.62
283.282	317.62
283.513	323.62
283.745	339.62
283.976	337.62
284.207	326.62
284.439	333.62
284.67	340.62
284.901	349.62
285.132	355.62
285.364	333.62
285.595	344.62
285.826	339.62
286.057	347.62
286.288	353.62
286.52	331.62
286.751	355.62
286.982	346.62
287.213	342.62
287.444	351.62
287.675	378.62
287.906	359.62
288.138	365.62
288.369	360.62
288.6	373.62
288.831	373.62
289.062	372.62
289.293	366.62
289.524	354.62
289.755	360.62
289.986	366.62
290.217	355.62
290.448	350.62
290.679	342.62
290.91	346.62
291.141	362.62
291.371	351.62
291.602	365.62
291.833	357.62
292.064	362.62
292.295	365.62
292.526	360.62
292.757	381.62
292.987	373.62
293.218	357.62
293.449	354.62
293.68	362.62
293.91	369.62
294.141	381.62
294.372	375.62
294.603	362.62
294.833	374.62
295.064	362.62
295.295	383.62
295.525	389.62
295.756	378.62
295.987	372.62
296.217	372.62
296.448	405.62
296.679	394.62
296.909	378.62
297.14	382.62
297.37	392.62
297.601	397.62
297.831	377.62
298.062	378.62
298.292	383.62
298.523	384.62
298.753	402.62
298.984	427.62
299.214	399.62
299.445	398.62
299.675	403.62
299.905	400.62
300.136	403.62
300.366	392.62
300.597	394.62
300.827	400.62
301.057	419.62
301.288	417.62
301.518	407.62
301.748	395.62
301.979	407.62
302.209	418.62
302.439	435.62
302.669	419.62
302.9	396.62
303.13	393.62
303.36	399.62
303.59	419.62
303.82	431.62
304.051	427.62
304.281	438.62
304.511	409.62
304.741	406.62
304.971	419.62
305.201	406.62
305.431	408.62
305.661	437.62
305.891	398.62
306.121	409.62
306.352	417.62
306.582	423.62
306.812	419.62
307.042	410.62
307.272	414.62
307.502	419.62
307.731	410.62
307.961	427.62
308.191	414.62
308.421	418.62
308.651	407.62
308.881	429.62
309.111	408.62
309.341	414.62
309.571	434.62
309.8	433.62
310.03	439.62
310.26	428.62
310.49	443.62
310.72	441.62
310.949	452.62
311.179	457.62
311.409	452.62
311.639	451.62
311.868	453.62
312.098	447.62
312.328	457.62
312.557	465.62
312.787	453.62
313.017	472.62
313.246	459.62
313.476	462.62
313.706	447.62
313.935	463.62
314.165	474.62
314.394	453.62
314.624	445.62
314.853	452.62
315.083	457.62
315.312	457.62
315.542	453.62
315.771	457.62
316.001	459.62
316.23	471.62
316.46	458.62
316.689	470.62
316.919	446.62
317.148	456.62
317.377	461.62
317.607	472.62
317.836	455.62
318.065	477.62
318.295	457.62
318.524	467.62
318.753	440.62
318.983	437.62
319.212	472.62
319.441	462.62
319.67	473.62
319.9	457.62
320.129	463.62
320.358	461.62
320.587	476.62
320.816	482.62
321.046	478.62
321.275	467.62
321.504	473.62
321.733	465.62
321.962	466.62
322.191	479.62
322.42	471.62
322.649	509.62
322.878	497.62
323.108	512.62
323.337	515.62
323.566	533.62
323.795	560.62
324.024	573.62
324.253	620.62
324.482	800.62
324.71	1146.62
324.939	1611.62
325.168	1390.62
325.397	827.62
325.626	612.62
325.855	577.62
326.084	539.62
326.313	545.62
326.542	517.62
326.77	554.62
326.999	639.62
327.228	752.62
327.457	1061.62
327.686	1321.62
327.914	900.62
328.143	654.62
328.372	630.62
328.6	582.62
328.829	589.62
329.058	582.62
329.287	586.62
329.515	541.62
329.744	555.62
329.972	585.62
330.201	583.62
330.43	598.62
330.658	619.62
330.887	620.62
331.115	598.62
331.344	572.62
331.572	569.62
331.801	549.62
332.03	562.62
332.258	585.62
332.486	584.62
332.715	580.62
332.943	577.62
333.172	605.62
333.4	619.62
333.629	630.62
333.857	649.62
334.085	632.62
334.314	673.62
334.542	659.62
334.771	654.62
334.999	661.62
335.227	614.62
335.455	602.62
335.684	584.62
335.912	586.62
336.14	591.62
336.369	574.62
336.597	598.62
336.825	576.62
337.053	543.62
337.281	551.62
337.51	559.62
337.738	569.62
337.966	547.62
338.194	547.62
338.422	580.62
338.65	552.62
338.878	557.62
339.106	530.62
339.334	533.62
339.562	535.62
339.79	537.62
340.018	532.62
340.246	524.62
340.474	525.62
340.702	546.62
340.93	531.62
341.158	534.62
341.386	534.62
341.614	522.62
341.842	512.62
342.07	532.62
342.298	523.62
342.526	503.62
342.754	527.62
342.981	527.62
343.209	534.62
343.437	539.62
343.665	571.62
343.893	591.62
344.12	591.62
344.348	592.62
344.576	590.62
344.804	551.62
345.031	545.62
345.259	554.62
345.487	509.62
345.714	512.62
345.942	522.62
346.17	527.62
346.397	534.62
346.625	498.62
346.853	502.62
347.08	517.62
347.308	513.62
347.535	516.62
347.763	512.62
347.99	544.62
348.218	533.62
348.445	501.62
348.673	514.62
348.9	498.62
349.128	502.62
349.355	508.62
349.583	509.62
349.81	521.62
350.037	485.62
350.265	495.62
350.492	509.62
350.72	501.62
350.947	494.62
351.174	530.62
351.402	527.62
351.629	481.62
351.856	500.62
352.083	501.62
352.311	491.62
352.538	499.62
352.765	524.62
352.992	489.62
353.22	484.62
353.447	495.62
353.674	499.62
353.901	497.62
354.128	493.62
354.355	477.62
354.583	497.62
354.81	484.62
355.037	503.62
355.264	515.62
355.491	489.62
355.718	502.62
355.945	488.62
356.172	509.62
356.399	470.62
356.626	484.62
356.853	507.62
357.08	493.62
357.307	502.62
357.534	486.62
357.761	487.62
357.988	498.62
358.215	478.62
358.441	487.62
358.668	476.62
358.895	504.62
359.122	485.62
359.349	508.62
359.576	509.62
359.802	532.62
360.029	538.62
360.256	541.62
360.483	515.62
360.709	507.62
360.936	489.62
361.163	501.62
361.39	487.62
361.616	518.62
361.843	500.62
362.07	486.62
362.296	486.62
362.523	505.62
362.749	499.62
362.976	502.62
363.203	502.62
363.429	503.62
363.656	489.62
363.882	497.62
364.109	495.62
364.335	491.62
364.562	485.62
364.788	487.62
365.015	507.62
365.241	487.62
365.468	489.62
365.694	503.62
365.92	530.62
366.147	504.62
366.373	489.62
366.599	494.62
366.826	495.62
367.052	487.62
367.278	505.62
367.505	514.62
367.731	503.62
367.957	519.62
368.184	516.62
368.41	509.62
368.636	518.62
368.862	511.62
369.089	518.62
369.315	501.62
369.541	503.62
369.767	493.62
369.993	488.62
370.219	513.62
370.445	513.62
370.672	493.62
370.898	522.62
371.124	517.62
371.35	519.62
371.576	502.62
371.802	524.62
372.028	533.62
372.254	547.62
372.48	499.62
372.706	534.62
372.932	514.62
373.158	535.62
373.384	517.62
373.61	502.62
373.835	533.62
374.061	538.62
374.287	531.62
374.513	533.62
374.739	559.62
374.965	555.62
375.191	567.62
375.416	573.62
375.642	530.62
375.868	562.62
376.094	542.62
376.319	526.62
376.545	538.62
376.771	518.62
376.997	517.62
377.222	528.62
377.448	531.62
377.674	515.62
377.899	535.62
378.125	526.62
378.35	519.62
378.576	494.62
378.802	515.62
379.027	520.62
379.253	526.62
379.478	518.62
379.704	517.62
379.929	545.62
380.155	511.62
380.38	544.62
380.606	521.62
380.831	520.62
381.057	529.62
381.282	535.62
381.507	515.62
381.733	498.62
381.958	520.62
382.184	530.62
382.409	556.62
382.634	551.62
382.86	528.62
383.085	552.62
383.31	538.62
383.535	572.62
383.761	566.62
383.986	571.62
384.211	576.62
384.436	583.62
384.662	589.62
384.887	595.62
385.112	585.62
385.337	609.62
385.562	607.62
385.787	606.62
386.013	599.62
386.238	623.62
386.463	606.62
386.688	596.62
386.913	614.62
387.138	630.62
387.363	630.62
387.588	590.62
387.813	590.62
388.038	573.62
388.263	625.62
388.488	613.62
388.713	574.62
388.938	591.62
389.163	591.62
389.387	628.62
389.612	585.62
389.837	589.62
390.062	596.62
390.287	586.62
390.512	595.62
390.736	586.62
390.961	597.62
391.186	608.62
391.411	630.62
391.636	616.62
391.86	637.62
392.085	667.62
392.31	632.62
392.534	647.62
392.759	650.62
392.984	638.62
393.208	606.62
393.433	629.62
393.658	616.62
393.882	614.62
394.107	621.62
394.331	620.62
394.556	621.62
394.78	615.62
395.005	645.62
395.229	640.62
395.454	635.62
395.678	649.62
395.903	676.62
396.127	649.62
396.352	665.62
396.576	642.62
396.801	643.62
397.025	625.62
397.249	650.62
397.474	653.62
397.698	676.62
397.922	710.62
398.147	698.62
398.371	695.62
398.595	693.62
398.82	694.62
399.044	742.62
399.268	782.62
399.492	884.62
399.717	949.62
399.941	954.62
400.165	945.62
400.389	897.62
400.613	811.62
400.837	775.62
401.062	761.62
401.286	727.62
401.51	739.62
401.734	710.62
401.958	750.62
402.182	729.62
402.406	733.62
402.63	729.62
402.854	781.62
403.078	784.62
403.302	754.62
403.526	767.62
403.75	783.62
403.974	793.62
404.198	789.62
404.422	802.62
404.645	796.62
404.869	792.62
405.093	811.62
405.317	829.62
405.541	837.62
405.765	830.62
405.988	785.62
406.212	770.62
406.436	787.62
406.66	797.62
406.883	805.62
407.107	878.62
407.331	878.62
407.555	952.62
407.778	951.62
408.002	923.62
408.226	852.62
408.449	844.62
408.673	789.62
408.896	847.62
409.12	841.62
409.344	841.62
409.567	790.62
409.791	789.62
410.014	769.62
410.238	765.62
410.461	740.62
410.685	757.62
410.908	786.62
411.132	781.62
411.355	808.62
411.578	799.62
411.802	730.62
412.025	775.62
412.249	757.62
412.472	753.62
412.695	801.62
412.919	793.62
413.142	734.62
413.365	726.62
413.589	723.62
413.812	723.62
414.035	717.62
414.258	725.62
414.482	716.62
414.705	731.62
414.928	705.62
415.151	709.62
415.374	730.62
415.597	711.62
415.821	708.62
416.044	702.62
416.267	698.62
416.49	705.62
416.713	680.62
416.936	702.62
417.159	699.62
417.382	707.62
417.605	705.62
417.828	717.62
418.051	714.62
418.274	701.62
418.497	724.62
418.72	714.62
418.943	709.62
419.166	747.62
419.389	775.62
419.611	753.62
419.834	753.62
420.057	756.62
420.28	746.62
420.503	741.62
420.726	718.62
420.948	741.62
421.171	769.62
421.394	801.62
421.617	695.62
421.839	709.62
422.062	710.62
422.285	737.62
422.507	779.62
422.73	830.62
422.953	803.62
423.175	796.62
423.398	757.62
423.621	742.62
423.843	763.62
424.066	766.62
424.288	781.62
424.511	770.62
424.733	789.62
424.956	859.62
425.178	847.62
425.401	839.62
425.623	861.62
425.846	769.62
426.068	724.62
426.291	742.62
426.513	733.62
426.735	743.62
426.958	733.62
427.18	829.62
427.402	917.62
427.625	990.62
427.847	866.62
428.069	782.62
428.292	743.62
428.514	711.62
428.736	698.62
428.958	673.62
429.181	669.62
429.403	667.62
429.625	673.62
429.847	670.62
430.069	715.62
430.292	744.62
430.514	660.62
430.736	659.62
430.958	669.62
431.18	655.62
431.402	629.62
431.624	641.62
431.846	643.62
432.068	668.62
432.29	673.62
432.512	669.62
432.734	654.62
432.956	657.62
433.178	680.62
433.4	685.62
433.622	674.62
433.844	667.62
434.066	634.62
434.287	670.62
434.509	692.62
434.731	700.62
434.953	707.62
435.175	747.62
435.397	745.62
435.618	732.62
435.84	754.62
436.062	789.62
436.284	885.62
436.505	764.62
436.727	705.62
436.949	682.62
437.17	683.62
437.392	655.62
437.614	652.62
437.835	682.62
438.057	766.62
438.278	848.62
438.5	835.62
438.721	917.62
438.943	901.62
439.165	731.62
439.386	699.62
439.608	727.62
439.829	682.62
440.05	683.62
440.272	761.62
440.493	727.62
440.715	699.62
440.936	719.62
441.158	700.62
441.379	708.62
441.6	743.62
441.822	734.62
442.043	769.62
442.264	844.62
442.486	862.62
442.707	765.62
442.928	759.62
443.149	746.62
443.371	782.62
443.592	791.62
443.813	877.62
444.034	902.62
444.255	835.62
444.476	783.62
444.698	803.62
444.919	835.62
445.14	900.62
445.361	811.62
445.582	793.62
445.803	772.62
446.024	868.62
446.245	863.62
446.466	836.62
446.687	773.62
446.908	708.62
447.129	680.62
447.35	673.62
447.571	650.62
447.792	641.62
448.013	659.62
448.234	663.62
448.455	689.62
448.675	748.62
448.896	858.62
449.117	759.62
449.338	735.62
449.559	805.62
449.779	889.62
450	771.62
450.221	661.62
450.442	636.62
450.662	628.62
450.883	644.62
451.104	633.62
451.324	628.62
451.545	625.62
451.766	607.62
451.986	615.62
452.207	582.62
452.428	589.62
452.648	589.62
452.869	567.62
453.089	613.62
453.31	602.62
453.53	602.62
453.751	586.62
453.971	600.62
454.192	601.62
454.412	574.62
454.633	571.62
454.853	582.62
455.073	599.62
455.294	593.62
455.514	632.62
455.734	641.62
455.955	601.62
456.175	584.62
456.395	581.62
456.616	563.62
456.836	581.62
457.056	555.62
457.276	554.62
457.497	568.62
457.717	569.62
457.937	589.62
458.157	566.62
458.377	591.62
458.598	627.62
458.818	649.62
459.038	715.62
459.258	741.62
459.478	669.62
459.698	675.62
459.918	689.62
460.138	688.62
460.358	693.62
460.578	709.62
460.798	742.62
461.018	742.62
461.238	700.62
461.458	721.62
461.678	703.62
461.898	716.62
462.118	726.62
462.338	764.62
462.558	764.62
462.777	779.62
462.997	830.62
463.217	846.62
463.437	871.62
463.657	831.62
463.876	821.62
464.096	823.62
464.316	802.62
464.536	809.62
464.755	819.62
464.975	764.62
465.195	753.62
465.414	787.62
465.634	725.62
465.854	681.62
466.073	663.62
466.293	675.62
466.512	658.62
466.732	626.62
466.951	635.62
467.171	645.62
467.391	619.62
467.61	634.62
467.829	641.62
468.049	648.62
468.268	623.62
468.488	621.62
468.707	595.62
468.927	611.62
469.146	605.62
469.365	620.62
469.585	611.62
469.804	631.62
470.023	639.62
470.243	637.62
470.462	644.62
470.681	649.62
470.901	656.62
471.12	653.62
471.339	635.62
471.558	642.62
471.777	650.62
471.997	630.62
472.216	626.62
472.435	652.62
472.654	612.62
472.873	621.62
473.092	611.62
473.311	610.62
473.53	622.62
473.749	615.62
473.968	635.62
474.187	709.62
474.406	723.62
474.625	632.62
474.844	645.62
475.063	608.62
475.282	619.62
475.501	629.62
475.72	625.62
475.939	642.62
476.158	655.62
476.377	653.62
476.596	639.62
476.814	665.62
477.033	670.62
477.252	684.62
477.471	675.62
477.69	688.62
477.908	694.62
478.127	727.62
478.346	693.62
478.564	742.62
478.783	751.62
479.002	755.62
479.22	765.62
479.439	769.62
479.658	770.62
479.876	789.62
480.095	789.62
480.313	825.62
480.532	799.62
480.751	826.62
480.969	792.62
481.188	829.62
481.406	859.62
481.624	771.62
481.843	750.62
482.061	731.62
482.28	737.62
482.498	717.62
482.717	707.62
482.935	735.62
483.153	717.62
483.372	700.62
483.59	707.62
483.808	721.62
484.027	719.62
484.245	722.62
484.463	726.62
484.681	725.62
484.9	741.62
485.118	738.62
485.336	718.62
485.554	738.62
485.772	744.62
485.99	753.62
486.209	783.62
486.427	749.62
486.645	759.62
486.863	771.62
487.081	783.62
487.299	801.62
487.517	763.62
487.735	768.62
487.953	805.62
488.171	768.62
488.389	775.62
488.607	765.62
488.825	765.62
489.043	771.62
489.261	756.62
489.479	775.62
489.696	777.62
489.914	769.62
490.132	798.62
490.35	796.62
490.568	807.62
490.786	798.62
491.003	812.62
491.221	809.62
491.439	844.62
491.657	837.62
491.874	861.62
492.092	865.62
492.31	829.62
492.527	877.62
492.745	894.62
492.963	865.62
493.18	865.62
493.398	877.62
493.615	887.62
493.833	881.62
494.05	871.62
494.268	884.62
494.485	888.62
494.703	895.62
494.92	885.62
495.138	893.62
495.355	898.62
495.573	872.62
495.79	915.62
496.008	883.62
496.225	893.62
496.442	897.62
496.66	894.62
496.877	917.62
497.094	931.62
497.312	933.62
497.529	949.62
497.746	974.62
497.963	990.62
498.181	1006.62
498.398	1031.62
498.615	1093.62
498.832	1153.62
499.049	1183.62
499.267	1252.62
499.484	1346.62
499.701	1443.62
499.918	1496.62
500.135	1653.62
500.352	1788.62
500.569	1816.62
500.786	1849.62
501.003	1730.62
501.22	1671.62
501.437	1518.62
501.654	1392.62
