Data from 1963.PennyLincolnUp.Lamp.En5.5.200Scan.071719.P1._HRD10591_13-57-25-062.txt Node
Date: Thu Jul 18 13:57:25 EDT 2019
User: cochatt
Spectrometer: HR+D1059
Trigger mode: 1
Integration Time (sec): 1.000000E-1
Scans to average: 1
Electric dark correction enabled: true
Nonlinearity correction enabled: false
Boxcar width: 0
XAxis mode: Wavelengths
Number of Pixels in Spectrum: 2048
>>>>>Begin Spectral Data<<<<<
223.165	-22.31
223.4	-22.31
223.635	-22.31
223.869	-3.31
224.104	-20.31
224.338	-14.31
224.573	-7.31
224.808	-12.31
225.042	-4.31
225.277	-13.31
225.511	-3.31
225.746	-2.31
225.98	8.69
226.215	14.69
226.449	12.69
226.683	21.69
226.918	21.69
227.152	23.69
227.387	26.69
227.621	56.69
227.856	46.69
228.09	35.69
228.324	53.69
228.559	50.69
228.793	74.69
229.027	87.69
229.262	98.69
229.496	97.69
229.73	107.69
229.964	121.69
230.199	117.69
230.433	120.69
230.667	105.69
230.901	111.69
231.136	99.69
231.37	113.69
231.604	127.69
231.838	122.69
232.072	103.69
232.306	115.69
232.541	107.69
232.775	113.69
233.009	117.69
233.243	122.69
233.477	119.69
233.711	127.69
233.945	125.69
234.179	104.69
234.413	127.69
234.647	116.69
234.881	99.69
235.115	111.69
235.349	116.69
235.583	121.69
235.817	125.69
236.051	145.69
236.285	131.69
236.519	116.69
236.753	122.69
236.987	130.69
237.221	146.69
237.455	193.69
237.689	178.69
237.922	139.69
238.156	145.69
238.39	131.69
238.624	127.69
238.858	136.69
239.091	123.69
239.325	133.69
239.559	136.69
239.793	132.69
240.027	132.69
240.26	137.69
240.494	151.69
240.728	145.69
240.961	148.69
241.195	144.69
241.429	143.69
241.662	141.69
241.896	129.69
242.13	144.69
242.363	147.69
242.597	140.69
242.83	132.69
243.064	153.69
243.298	154.69
243.531	153.69
243.765	141.69
243.998	144.69
244.232	147.69
244.465	151.69
244.699	153.69
244.932	160.69
245.166	165.69
245.399	151.69
245.633	165.69
245.866	159.69
246.099	156.69
246.333	151.69
246.566	150.69
246.8	161.69
247.033	170.69
247.266	167.69
247.5	164.69
247.733	174.69
247.966	178.69
248.2	171.69
248.433	167.69
248.666	166.69
248.899	175.69
249.133	197.69
249.366	185.69
249.599	183.69
249.832	190.69
250.066	193.69
250.299	181.69
250.532	186.69
250.765	185.69
250.998	188.69
251.231	181.69
251.465	200.69
251.698	194.69
251.931	199.69
252.164	199.69
252.397	202.69
252.63	203.69
252.863	204.69
253.096	209.69
253.329	208.69
253.562	218.69
253.795	205.69
254.028	208.69
254.261	210.69
254.494	222.69
254.727	241.69
254.96	236.69
255.193	236.69
255.426	233.69
255.659	216.69
255.892	212.69
256.124	209.69
256.357	212.69
256.59	210.69
256.823	211.69
257.056	204.69
257.289	217.69
257.521	205.69
257.754	195.69
257.987	198.69
258.22	214.69
258.452	220.69
258.685	205.69
258.918	205.69
259.151	210.69
259.383	225.69
259.616	220.69
259.849	203.69
260.081	219.69
260.314	236.69
260.547	241.69
260.779	221.69
261.012	236.69
261.244	225.69
261.477	222.69
261.71	232.69
261.942	240.69
262.175	232.69
262.407	228.69
262.64	220.69
262.872	249.69
263.105	239.69
263.337	219.69
263.57	226.69
263.802	214.69
264.035	224.69
264.267	234.69
264.499	227.69
264.732	242.69
264.964	228.69
265.197	247.69
265.429	232.69
265.661	232.69
265.894	245.69
266.126	259.69
266.358	243.69
266.591	227.69
266.823	236.69
267.055	228.69
267.287	258.69
267.52	227.69
267.752	246.69
267.984	261.69
268.216	239.69
268.448	255.69
268.681	241.69
268.913	255.69
269.145	279.69
269.377	278.69
269.609	275.69
269.841	271.69
270.073	269.69
270.306	295.69
270.538	304.69
270.77	283.69
271.002	291.69
271.234	293.69
271.466	296.69
271.698	290.69
271.93	293.69
272.162	291.69
272.394	293.69
272.626	300.69
272.858	296.69
273.09	289.69
273.322	282.69
273.553	283.69
273.785	276.69
274.017	279.69
274.249	283.69
274.481	278.69
274.713	282.69
274.945	272.69
275.176	277.69
275.408	285.69
275.64	297.69
275.872	298.69
276.104	281.69
276.335	291.69
276.567	292.69
276.799	298.69
277.031	311.69
277.262	327.69
277.494	327.69
277.726	290.69
277.957	299.69
278.189	303.69
278.421	291.69
278.652	278.69
278.884	310.69
279.115	301.69
279.347	296.69
279.579	296.69
279.81	269.69
280.042	284.69
280.273	302.69
280.505	295.69
280.736	295.69
280.968	301.69
281.199	298.69
281.431	289.69
281.662	298.69
281.894	304.69
282.125	306.69
282.356	315.69
282.588	322.69
282.819	321.69
283.051	309.69
283.282	294.69
283.513	300.69
283.745	319.69
283.976	319.69
284.207	309.69
284.439	320.69
284.67	305.69
284.901	291.69
285.132	309.69
285.364	331.69
285.595	321.69
285.826	319.69
286.057	311.69
286.288	328.69
286.52	333.69
286.751	311.69
286.982	324.69
287.213	340.69
287.444	316.69
287.675	352.69
287.906	355.69
288.138	358.69
288.369	356.69
288.6	359.69
288.831	353.69
289.062	351.69
289.293	327.69
289.524	323.69
289.755	340.69
289.986	351.69
290.217	364.69
290.448	323.69
290.679	332.69
290.91	336.69
291.141	321.69
291.371	333.69
291.602	336.69
291.833	324.69
292.064	344.69
292.295	341.69
292.526	342.69
292.757	339.69
292.987	346.69
293.218	352.69
293.449	370.69
293.68	355.69
293.91	357.69
294.141	329.69
294.372	307.69
294.603	339.69
294.833	365.69
295.064	345.69
295.295	345.69
295.525	336.69
295.756	340.69
295.987	353.69
296.217	333.69
296.448	349.69
296.679	347.69
296.909	363.69
297.14	339.69
297.37	346.69
297.601	369.69
297.831	369.69
298.062	353.69
298.292	371.69
298.523	367.69
298.753	364.69
298.984	357.69
299.214	373.69
299.445	363.69
299.675	360.69
299.905	371.69
300.136	383.69
300.366	372.69
300.597	382.69
300.827	380.69
301.057	380.69
301.288	379.69
301.518	391.69
301.748	404.69
301.979	390.69
302.209	401.69
302.439	377.69
302.669	404.69
302.9	405.69
303.13	376.69
303.36	394.69
303.59	386.69
303.82	403.69
304.051	402.69
304.281	392.69
304.511	390.69
304.741	385.69
304.971	394.69
305.201	375.69
305.431	379.69
305.661	389.69
305.891	396.69
306.121	398.69
306.352	392.69
306.582	394.69
306.812	373.69
307.042	396.69
307.272	389.69
307.502	381.69
307.731	380.69
307.961	392.69
308.191	380.69
308.421	388.69
308.651	394.69
308.881	374.69
309.111	393.69
309.341	383.69
309.571	397.69
309.8	393.69
310.03	411.69
310.26	411.69
310.49	377.69
310.72	405.69
310.949	415.69
311.179	405.69
311.409	403.69
311.639	403.69
311.868	422.69
312.098	402.69
312.328	428.69
312.557	423.69
312.787	423.69
313.017	431.69
313.246	442.69
313.476	418.69
313.706	428.69
313.935	431.69
314.165	434.69
314.394	428.69
314.624	411.69
314.853	429.69
315.083	418.69
315.312	424.69
315.542	416.69
315.771	419.69
316.001	423.69
316.23	422.69
316.46	432.69
316.689	431.69
316.919	417.69
317.148	415.69
317.377	425.69
317.607	411.69
317.836	433.69
318.065	439.69
318.295	427.69
318.524	433.69
318.753	433.69
318.983	400.69
319.212	417.69
319.441	427.69
319.67	432.69
319.9	420.69
320.129	418.69
320.358	418.69
320.587	441.69
320.816	429.69
321.046	419.69
321.275	441.69
321.504	428.69
321.733	414.69
321.962	425.69
322.191	447.69
322.42	455.69
322.649	456.69
322.878	455.69
323.108	468.69
323.337	477.69
323.566	475.69
323.795	464.69
324.024	495.69
324.253	549.69
324.482	636.69
324.71	891.69
324.939	1256.69
325.168	1113.69
325.397	643.69
325.626	512.69
325.855	513.69
326.084	482.69
326.313	491.69
326.542	491.69
326.77	519.69
326.999	531.69
327.228	641.69
327.457	857.69
327.686	1003.69
327.914	721.69
328.143	561.69
328.372	539.69
328.6	505.69
328.829	496.69
329.058	513.69
329.287	511.69
329.515	503.69
329.744	485.69
329.972	489.69
330.201	507.69
330.43	520.69
330.658	545.69
330.887	539.69
331.115	535.69
331.344	517.69
331.572	507.69
331.801	505.69
332.03	522.69
332.258	516.69
332.486	524.69
332.715	529.69
332.943	539.69
333.172	535.69
333.4	561.69
333.629	557.69
333.857	588.69
334.085	593.69
334.314	588.69
334.542	595.69
334.771	599.69
334.999	591.69
335.227	582.69
335.455	567.69
335.684	533.69
335.912	553.69
336.14	525.69
336.369	547.69
336.597	550.69
336.825	520.69
337.053	522.69
337.281	511.69
337.51	523.69
337.738	521.69
337.966	521.69
338.194	506.69
338.422	499.69
338.65	514.69
338.878	507.69
339.106	506.69
339.334	491.69
339.562	512.69
339.79	469.69
340.018	486.69
340.246	501.69
340.474	509.69
340.702	484.69
340.93	491.69
341.158	480.69
341.386	491.69
341.614	493.69
341.842	492.69
342.07	471.69
342.298	500.69
342.526	491.69
342.754	469.69
342.981	475.69
343.209	505.69
343.437	509.69
343.665	505.69
343.893	557.69
344.12	552.69
344.348	515.69
344.576	539.69
344.804	497.69
345.031	530.69
345.259	522.69
345.487	481.69
345.714	487.69
345.942	466.69
346.17	492.69
346.397	480.69
346.625	480.69
346.853	483.69
347.08	452.69
347.308	474.69
347.535	477.69
347.763	462.69
347.99	466.69
348.218	465.69
348.445	470.69
348.673	454.69
348.9	459.69
349.128	457.69
349.355	446.69
349.583	454.69
349.81	464.69
350.037	453.69
350.265	454.69
350.492	437.69
350.72	445.69
350.947	455.69
351.174	473.69
351.402	460.69
351.629	461.69
351.856	472.69
352.083	470.69
352.311	457.69
352.538	483.69
352.765	455.69
352.992	457.69
353.22	455.69
353.447	458.69
353.674	464.69
353.901	465.69
354.128	455.69
354.355	445.69
354.583	450.69
354.81	450.69
355.037	458.69
355.264	421.69
355.491	447.69
355.718	425.69
355.945	460.69
356.172	445.69
356.399	448.69
356.626	447.69
356.853	455.69
357.08	453.69
357.307	435.69
357.534	469.69
357.761	447.69
357.988	465.69
358.215	460.69
358.441	473.69
358.668	447.69
358.895	440.69
359.122	449.69
359.349	447.69
359.576	454.69
359.802	472.69
360.029	470.69
360.256	467.69
360.483	478.69
360.709	479.69
360.936	473.69
361.163	471.69
361.39	468.69
361.616	470.69
361.843	463.69
362.07	457.69
362.296	461.69
362.523	472.69
362.749	473.69
362.976	461.69
363.203	465.69
363.429	436.69
363.656	469.69
363.882	463.69
364.109	457.69
364.335	442.69
364.562	445.69
364.788	451.69
365.015	462.69
365.241	458.69
365.468	455.69
365.694	459.69
365.92	460.69
366.147	468.69
366.373	455.69
366.599	465.69
366.826	448.69
367.052	466.69
367.278	443.69
367.505	474.69
367.731	466.69
367.957	458.69
368.184	466.69
368.41	480.69
368.636	453.69
368.862	476.69
369.089	471.69
369.315	490.69
369.541	471.69
369.767	449.69
369.993	474.69
370.219	501.69
370.445	480.69
370.672	476.69
370.898	496.69
371.124	469.69
371.35	484.69
371.576	500.69
371.802	476.69
372.028	492.69
372.254	469.69
372.48	480.69
372.706	503.69
372.932	507.69
373.158	491.69
373.384	481.69
373.61	477.69
373.835	502.69
374.061	479.69
374.287	486.69
374.513	490.69
374.739	506.69
374.965	517.69
375.191	544.69
375.416	504.69
375.642	478.69
375.868	480.69
376.094	493.69
376.319	503.69
376.545	515.69
376.771	500.69
376.997	503.69
377.222	489.69
377.448	463.69
377.674	472.69
377.899	490.69
378.125	474.69
378.35	480.69
378.576	498.69
378.802	491.69
379.027	472.69
379.253	485.69
379.478	461.69
379.704	473.69
379.929	489.69
380.155	495.69
380.38	495.69
380.606	468.69
380.831	483.69
381.057	515.69
381.282	477.69
381.507	511.69
381.733	501.69
381.958	497.69
382.184	493.69
382.409	511.69
382.634	487.69
382.86	495.69
383.085	505.69
383.31	531.69
383.535	519.69
383.761	518.69
383.986	533.69
384.211	527.69
384.436	533.69
384.662	530.69
384.887	559.69
385.112	552.69
385.337	552.69
385.562	566.69
385.787	565.69
386.013	577.69
386.238	582.69
386.463	555.69
386.688	593.69
386.913	577.69
387.138	578.69
387.363	570.69
387.588	572.69
387.813	564.69
388.038	575.69
388.263	582.69
388.488	574.69
388.713	581.69
388.938	555.69
389.163	553.69
389.387	553.69
389.612	550.69
389.837	546.69
390.062	570.69
390.287	567.69
390.512	544.69
390.736	553.69
390.961	572.69
391.186	589.69
391.411	583.69
391.636	588.69
391.86	604.69
392.085	603.69
392.31	613.69
392.534	624.69
392.759	617.69
392.984	584.69
393.208	596.69
393.433	592.69
393.658	579.69
393.882	589.69
394.107	589.69
394.331	572.69
394.556	581.69
394.78	581.69
395.005	588.69
395.229	587.69
395.454	588.69
395.678	625.69
395.903	646.69
396.127	617.69
396.352	600.69
396.576	605.69
396.801	619.69
397.025	597.69
397.249	611.69
397.474	611.69
397.698	621.69
397.922	627.69
398.147	633.69
398.371	643.69
398.595	671.69
398.82	666.69
399.044	691.69
399.268	738.69
399.492	824.69
399.717	888.69
399.941	889.69
400.165	871.69
400.389	836.69
400.613	764.69
400.837	699.69
401.062	675.69
401.286	663.69
401.51	691.69
401.734	671.69
401.958	687.69
402.182	660.69
402.406	707.69
402.63	700.69
402.854	724.69
403.078	690.69
403.302	701.69
403.526	722.69
403.75	715.69
403.974	713.69
404.198	712.69
404.422	718.69
404.645	771.69
404.869	744.69
405.093	736.69
405.317	757.69
405.541	803.69
405.765	756.69
405.988	750.69
406.212	727.69
406.436	738.69
406.66	777.69
406.883	741.69
407.107	783.69
407.331	836.69
407.555	872.69
407.778	873.69
408.002	814.69
408.226	794.69
408.449	795.69
408.673	752.69
408.896	764.69
409.12	808.69
409.344	772.69
409.567	715.69
409.791	741.69
410.014	730.69
410.238	703.69
410.461	705.69
410.685	694.69
410.908	679.69
411.132	721.69
411.355	729.69
411.578	706.69
411.802	713.69
412.025	703.69
412.249	701.69
412.472	706.69
412.695	738.69
412.919	716.69
413.142	696.69
413.365	702.69
413.589	651.69
413.812	680.69
414.035	653.69
414.258	678.69
414.482	705.69
414.705	682.69
414.928	663.69
415.151	659.69
415.374	651.69
415.597	683.69
415.821	657.69
416.044	652.69
416.267	669.69
416.49	646.69
416.713	662.69
416.936	647.69
417.159	633.69
417.382	658.69
417.605	663.69
417.828	655.69
418.051	653.69
418.274	674.69
418.497	668.69
418.72	679.69
418.943	677.69
419.166	684.69
419.389	714.69
419.611	710.69
419.834	697.69
420.057	688.69
420.28	669.69
420.503	679.69
420.726	683.69
420.948	666.69
421.171	692.69
421.394	707.69
421.617	671.69
421.839	659.69
422.062	661.69
422.285	673.69
422.507	722.69
422.73	763.69
422.953	767.69
423.175	707.69
423.398	697.69
423.621	719.69
423.843	709.69
424.066	697.69
424.288	697.69
424.511	722.69
424.733	742.69
424.956	808.69
425.178	746.69
425.401	743.69
425.623	765.69
425.846	707.69
426.068	671.69
426.291	643.69
426.513	647.69
426.735	649.69
426.958	672.69
427.18	713.69
427.402	827.69
427.625	856.69
427.847	757.69
428.069	717.69
428.292	677.69
428.514	647.69
428.736	613.69
428.958	643.69
429.181	617.69
429.403	605.69
429.625	616.69
429.847	646.69
430.069	671.69
430.292	671.69
430.514	628.69
430.736	625.69
430.958	622.69
431.18	600.69
431.402	616.69
431.624	595.69
431.846	593.69
432.068	601.69
432.29	634.69
432.512	597.69
432.734	630.69
432.956	593.69
433.178	619.69
433.4	598.69
433.622	627.69
433.844	623.69
434.066	594.69
434.287	613.69
434.509	633.69
434.731	645.69
434.953	628.69
435.175	652.69
435.397	664.69
435.618	659.69
435.84	679.69
436.062	729.69
436.284	763.69
436.505	669.69
436.727	654.69
436.949	619.69
437.17	607.69
437.392	606.69
437.614	627.69
437.835	651.69
438.057	685.69
438.278	759.69
438.5	724.69
438.721	775.69
438.943	756.69
439.165	669.69
439.386	645.69
439.608	657.69
439.829	647.69
440.05	659.69
440.272	676.69
440.493	643.69
440.715	642.69
440.936	648.69
441.158	636.69
441.379	647.69
441.6	654.69
441.822	664.69
442.043	712.69
442.264	746.69
442.486	739.69
442.707	702.69
442.928	676.69
443.149	701.69
443.371	708.69
443.592	715.69
443.813	795.69
444.034	851.69
444.255	768.69
444.476	718.69
444.698	753.69
444.919	748.69
445.14	852.69
445.361	778.69
445.582	698.69
445.803	708.69
446.024	748.69
446.245	780.69
446.466	737.69
446.687	659.69
446.908	620.69
447.129	609.69
447.35	585.69
447.571	620.69
447.792	582.69
448.013	596.69
448.234	588.69
448.455	617.69
448.675	692.69
448.896	790.69
449.117	682.69
449.338	651.69
449.559	721.69
449.779	790.69
450	657.69
450.221	623.69
450.442	571.69
450.662	559.69
450.883	562.69
451.104	612.69
451.324	553.69
451.545	582.69
451.766	583.69
451.986	552.69
452.207	555.69
452.428	548.69
452.648	547.69
452.869	543.69
453.089	541.69
453.31	574.69
453.53	561.69
453.751	557.69
453.971	545.69
454.192	559.69
454.412	529.69
454.633	530.69
454.853	532.69
455.073	574.69
455.294	546.69
455.514	577.69
455.734	600.69
455.955	553.69
456.175	539.69
456.395	541.69
456.616	519.69
456.836	531.69
457.056	524.69
457.276	524.69
457.497	527.69
457.717	539.69
457.937	522.69
458.157	531.69
458.377	545.69
458.598	548.69
458.818	578.69
459.038	634.69
459.258	681.69
459.478	644.69
459.698	620.69
459.918	643.69
460.138	641.69
460.358	675.69
460.578	663.69
460.798	687.69
461.018	684.69
461.238	666.69
461.458	668.69
461.678	640.69
461.898	676.69
462.118	693.69
462.338	734.69
462.558	713.69
462.777	744.69
462.997	785.69
463.217	789.69
463.437	855.69
463.657	791.69
463.876	747.69
464.096	747.69
464.316	755.69
464.536	760.69
464.755	748.69
464.975	720.69
465.195	688.69
465.414	721.69
465.634	644.69
465.854	643.69
466.073	610.69
466.293	601.69
466.512	621.69
466.732	592.69
466.951	599.69
467.171	564.69
467.391	591.69
467.61	585.69
467.829	579.69
468.049	590.69
468.268	593.69
468.488	598.69
468.707	578.69
468.927	549.69
469.146	563.69
469.365	583.69
469.585	578.69
469.804	590.69
470.023	573.69
470.243	603.69
470.462	608.69
470.681	595.69
470.901	635.69
471.12	613.69
471.339	589.69
471.558	595.69
471.777	583.69
471.997	579.69
472.216	589.69
472.435	594.69
472.654	591.69
472.873	581.69
473.092	577.69
473.311	577.69
473.53	577.69
473.749	564.69
473.968	601.69
474.187	637.69
474.406	643.69
474.625	596.69
474.844	585.69
475.063	602.69
475.282	587.69
475.501	569.69
475.72	587.69
475.939	596.69
476.158	602.69
476.377	587.69
476.596	588.69
476.814	607.69
477.033	588.69
477.252	612.69
477.471	617.69
477.69	619.69
477.908	658.69
478.127	648.69
478.346	632.69
478.564	699.69
478.783	672.69
479.002	699.69
479.22	683.69
479.439	698.69
479.658	707.69
479.876	709.69
480.095	728.69
480.313	725.69
480.532	729.69
480.751	728.69
480.969	727.69
481.188	738.69
481.406	768.69
481.624	717.69
481.843	708.69
482.061	667.69
482.28	679.69
482.498	677.69
482.717	664.69
482.935	649.69
483.153	689.69
483.372	667.69
483.59	682.69
483.808	669.69
484.027	674.69
484.245	659.69
484.463	664.69
484.681	711.69
484.9	669.69
485.118	702.69
485.336	699.69
485.554	687.69
485.772	686.69
485.99	696.69
486.209	696.69
486.427	691.69
486.645	737.69
486.863	712.69
487.081	696.69
487.299	701.69
487.517	699.69
487.735	705.69
487.953	713.69
488.171	729.69
488.389	714.69
488.607	716.69
488.825	713.69
489.043	714.69
489.261	699.69
489.479	721.69
489.696	725.69
489.914	717.69
490.132	733.69
490.35	716.69
490.568	732.69
490.786	743.69
491.003	743.69
491.221	743.69
491.439	751.69
491.657	774.69
491.874	775.69
492.092	784.69
492.31	778.69
492.527	784.69
492.745	785.69
492.963	782.69
493.18	782.69
493.398	780.69
493.615	809.69
493.833	801.69
494.05	805.69
494.268	812.69
494.485	793.69
494.703	797.69
494.92	808.69
495.138	807.69
495.355	802.69
495.573	825.69
495.79	779.69
496.008	812.69
496.225	843.69
496.442	815.69
496.66	840.69
496.877	793.69
497.094	852.69
497.312	865.69
497.529	863.69
497.746	860.69
497.963	887.69
498.181	959.69
498.398	979.69
498.615	991.69
498.832	1066.69
499.049	1084.69
499.267	1146.69
499.484	1204.69
499.701	1303.69
499.918	1407.69
500.135	1507.69
500.352	1687.69
500.569	1720.69
500.786	1711.69
501.003	1666.69
501.22	1542.69
501.437	1392.69
501.654	1320.69
501.871	1243.69
