Data from 1963.PennyLincolnUp.Lamp.En5.5.200Scan.071719.P1._HRD10591_13-57-24-063.txt Node
Date: Thu Jul 18 13:57:24 EDT 2019
User: cochatt
Spectrometer: HR+D1059
Trigger mode: 1
Integration Time (sec): 1.000000E-1
Scans to average: 1
Electric dark correction enabled: true
Nonlinearity correction enabled: false
Boxcar width: 0
XAxis mode: Wavelengths
Number of Pixels in Spectrum: 2048
>>>>>Begin Spectral Data<<<<<
223.165	-5.44
223.4	-5.44
223.635	-5.44
223.869	-30.44
224.104	-6.44
224.338	-6.44
224.573	-13.44
224.808	-15.44
225.042	-4.44
225.277	13.56
225.511	-5.44
225.746	4.56
225.98	-9.44
226.215	0.56
226.449	9.56
226.683	18.56
226.918	20.56
227.152	29.56
227.387	33.56
227.621	52.56
227.856	51.56
228.09	57.56
228.324	74.56
228.559	57.56
228.793	68.56
229.027	91.56
229.262	107.56
229.496	112.56
229.73	114.56
229.964	136.56
230.199	122.56
230.433	103.56
230.667	106.56
230.901	115.56
231.136	93.56
231.37	114.56
231.604	117.56
231.838	114.56
232.072	125.56
232.306	114.56
232.541	127.56
232.775	135.56
233.009	107.56
233.243	131.56
233.477	112.56
233.711	121.56
233.945	124.56
234.179	123.56
234.413	137.56
234.647	112.56
234.881	130.56
235.115	125.56
235.349	123.56
235.583	124.56
235.817	113.56
236.051	139.56
236.285	146.56
236.519	126.56
236.753	125.56
236.987	136.56
237.221	164.56
237.455	184.56
237.689	151.56
237.922	133.56
238.156	125.56
238.39	145.56
238.624	131.56
238.858	134.56
239.091	130.56
239.325	150.56
239.559	139.56
239.793	135.56
240.027	120.56
240.26	144.56
240.494	147.56
240.728	170.56
240.961	145.56
241.195	162.56
241.429	153.56
241.662	143.56
241.896	141.56
242.13	152.56
242.363	136.56
242.597	144.56
242.83	154.56
243.064	155.56
243.298	142.56
243.531	132.56
243.765	145.56
243.998	157.56
244.232	154.56
244.465	138.56
244.699	150.56
244.932	173.56
245.166	154.56
245.399	177.56
245.633	171.56
245.866	163.56
246.099	154.56
246.333	171.56
246.566	159.56
246.8	162.56
247.033	174.56
247.266	160.56
247.5	158.56
247.733	175.56
247.966	177.56
248.2	171.56
248.433	186.56
248.666	187.56
248.899	166.56
249.133	187.56
249.366	201.56
249.599	201.56
249.832	198.56
250.066	199.56
250.299	187.56
250.532	192.56
250.765	187.56
250.998	212.56
251.231	206.56
251.465	211.56
251.698	195.56
251.931	202.56
252.164	191.56
252.397	201.56
252.63	214.56
252.863	213.56
253.096	215.56
253.329	215.56
253.562	222.56
253.795	235.56
254.028	220.56
254.261	211.56
254.494	218.56
254.727	229.56
254.96	249.56
255.193	246.56
255.426	228.56
255.659	230.56
255.892	234.56
256.124	243.56
256.357	218.56
256.59	218.56
256.823	212.56
257.056	226.56
257.289	224.56
257.521	239.56
257.754	213.56
257.987	204.56
258.22	217.56
258.452	233.56
258.685	235.56
258.918	217.56
259.151	232.56
259.383	218.56
259.616	218.56
259.849	226.56
260.081	222.56
260.314	236.56
260.547	240.56
260.779	245.56
261.012	245.56
261.244	233.56
261.477	238.56
261.71	236.56
261.942	246.56
262.175	231.56
262.407	246.56
262.64	224.56
262.872	246.56
263.105	239.56
263.337	234.56
263.57	233.56
263.802	222.56
264.035	245.56
264.267	241.56
264.499	231.56
264.732	238.56
264.964	229.56
265.197	256.56
265.429	251.56
265.661	232.56
265.894	238.56
266.126	231.56
266.358	220.56
266.591	261.56
266.823	245.56
267.055	250.56
267.287	229.56
267.52	261.56
267.752	250.56
267.984	249.56
268.216	235.56
268.448	241.56
268.681	267.56
268.913	258.56
269.145	275.56
269.377	273.56
269.609	275.56
269.841	294.56
270.073	292.56
270.306	289.56
270.538	310.56
270.77	320.56
271.002	315.56
271.234	284.56
271.466	281.56
271.698	317.56
271.93	307.56
272.162	309.56
272.394	306.56
272.626	293.56
272.858	295.56
273.09	290.56
273.322	301.56
273.553	287.56
273.785	280.56
274.017	265.56
274.249	278.56
274.481	283.56
274.713	276.56
274.945	296.56
275.176	281.56
275.408	306.56
275.64	300.56
275.872	289.56
276.104	293.56
276.335	288.56
276.567	306.56
276.799	296.56
277.031	312.56
277.262	327.56
277.494	313.56
277.726	305.56
277.957	313.56
278.189	285.56
278.421	319.56
278.652	290.56
278.884	302.56
279.115	307.56
279.347	303.56
279.579	304.56
279.81	314.56
280.042	314.56
280.273	299.56
280.505	323.56
280.736	294.56
280.968	312.56
281.199	299.56
281.431	315.56
281.662	331.56
281.894	298.56
282.125	319.56
282.356	336.56
282.588	329.56
282.819	326.56
283.051	323.56
283.282	308.56
283.513	330.56
283.745	310.56
283.976	325.56
284.207	313.56
284.439	305.56
284.67	316.56
284.901	324.56
285.132	337.56
285.364	335.56
285.595	314.56
285.826	331.56
286.057	343.56
286.288	315.56
286.52	330.56
286.751	347.56
286.982	344.56
287.213	338.56
287.444	353.56
287.675	350.56
287.906	348.56
288.138	341.56
288.369	338.56
288.6	348.56
288.831	339.56
289.062	337.56
289.293	349.56
289.524	343.56
289.755	336.56
289.986	339.56
290.217	340.56
290.448	345.56
290.679	338.56
290.91	355.56
291.141	344.56
291.371	339.56
291.602	343.56
291.833	357.56
292.064	340.56
292.295	335.56
292.526	359.56
292.757	351.56
292.987	351.56
293.218	352.56
293.449	352.56
293.68	335.56
293.91	353.56
294.141	337.56
294.372	351.56
294.603	366.56
294.833	366.56
295.064	332.56
295.295	351.56
295.525	362.56
295.756	353.56
295.987	358.56
296.217	364.56
296.448	369.56
296.679	368.56
296.909	334.56
297.14	359.56
297.37	367.56
297.601	360.56
297.831	362.56
298.062	362.56
298.292	368.56
298.523	369.56
298.753	375.56
298.984	365.56
299.214	385.56
299.445	376.56
299.675	359.56
299.905	386.56
300.136	389.56
300.366	388.56
300.597	389.56
300.827	387.56
301.057	399.56
301.288	384.56
301.518	404.56
301.748	397.56
301.979	389.56
302.209	393.56
302.439	384.56
302.669	415.56
302.9	408.56
303.13	385.56
303.36	386.56
303.59	398.56
303.82	410.56
304.051	411.56
304.281	402.56
304.511	415.56
304.741	391.56
304.971	397.56
305.201	391.56
305.431	391.56
305.661	387.56
305.891	408.56
306.121	363.56
306.352	391.56
306.582	386.56
306.812	386.56
307.042	398.56
307.272	391.56
307.502	387.56
307.731	373.56
307.961	409.56
308.191	378.56
308.421	390.56
308.651	389.56
308.881	405.56
309.111	407.56
309.341	389.56
309.571	395.56
309.8	398.56
310.03	403.56
310.26	408.56
310.49	387.56
310.72	405.56
310.949	416.56
311.179	422.56
311.409	435.56
311.639	410.56
311.868	435.56
312.098	418.56
312.328	445.56
312.557	425.56
312.787	423.56
313.017	439.56
313.246	406.56
313.476	415.56
313.706	430.56
313.935	442.56
314.165	437.56
314.394	422.56
314.624	459.56
314.853	434.56
315.083	419.56
315.312	441.56
315.542	414.56
315.771	427.56
316.001	418.56
316.23	434.56
316.46	426.56
316.689	440.56
316.919	423.56
317.148	441.56
317.377	426.56
317.607	442.56
317.836	439.56
318.065	426.56
318.295	427.56
318.524	438.56
318.753	421.56
318.983	402.56
319.212	421.56
319.441	426.56
319.67	429.56
319.9	449.56
320.129	434.56
320.358	444.56
320.587	437.56
320.816	448.56
321.046	446.56
321.275	450.56
321.504	443.56
321.733	455.56
321.962	455.56
322.191	460.56
322.42	458.56
322.649	451.56
322.878	453.56
323.108	473.56
323.337	468.56
323.566	475.56
323.795	491.56
324.024	502.56
324.253	531.56
324.482	666.56
324.71	885.56
324.939	1245.56
325.168	1098.56
325.397	677.56
325.626	559.56
325.855	527.56
326.084	491.56
326.313	485.56
326.542	496.56
326.77	514.56
326.999	546.56
327.228	643.56
327.457	874.56
327.686	1033.56
327.914	734.56
328.143	573.56
328.372	560.56
328.6	519.56
328.829	514.56
329.058	510.56
329.287	528.56
329.515	538.56
329.744	529.56
329.972	516.56
330.201	532.56
330.43	522.56
330.658	553.56
330.887	554.56
331.115	547.56
331.344	531.56
331.572	538.56
331.801	534.56
332.03	514.56
332.258	528.56
332.486	538.56
332.715	542.56
332.943	571.56
333.172	557.56
333.4	581.56
333.629	610.56
333.857	598.56
334.085	583.56
334.314	600.56
334.542	627.56
334.771	634.56
334.999	594.56
335.227	586.56
335.455	549.56
335.684	559.56
335.912	565.56
336.14	525.56
336.369	548.56
336.597	542.56
336.825	542.56
337.053	550.56
337.281	552.56
337.51	502.56
337.738	513.56
337.966	507.56
338.194	535.56
338.422	522.56
338.65	522.56
338.878	526.56
339.106	523.56
339.334	516.56
339.562	505.56
339.79	495.56
340.018	520.56
340.246	472.56
340.474	505.56
340.702	488.56
340.93	485.56
341.158	507.56
341.386	495.56
341.614	501.56
341.842	477.56
342.07	455.56
342.298	488.56
342.526	483.56
342.754	490.56
342.981	501.56
343.209	486.56
343.437	513.56
343.665	510.56
343.893	565.56
344.12	586.56
344.348	565.56
344.576	555.56
344.804	525.56
345.031	507.56
345.259	518.56
345.487	489.56
345.714	498.56
345.942	490.56
346.17	490.56
346.397	488.56
346.625	476.56
346.853	477.56
347.08	472.56
347.308	462.56
347.535	486.56
347.763	485.56
347.99	492.56
348.218	480.56
348.445	498.56
348.673	474.56
348.9	455.56
349.128	487.56
349.355	475.56
349.583	469.56
349.81	457.56
350.037	483.56
350.265	477.56
350.492	466.56
350.72	451.56
350.947	475.56
351.174	480.56
351.402	470.56
351.629	473.56
351.856	464.56
352.083	443.56
352.311	470.56
352.538	488.56
352.765	475.56
352.992	479.56
353.22	471.56
353.447	463.56
353.674	463.56
353.901	453.56
354.128	470.56
354.355	465.56
354.583	439.56
354.81	475.56
355.037	467.56
355.264	458.56
355.491	444.56
355.718	446.56
355.945	462.56
356.172	470.56
356.399	463.56
356.626	465.56
356.853	460.56
357.08	466.56
357.307	463.56
357.534	456.56
357.761	461.56
357.988	448.56
358.215	453.56
358.441	465.56
358.668	449.56
358.895	475.56
359.122	470.56
359.349	488.56
359.576	465.56
359.802	482.56
360.029	478.56
360.256	482.56
360.483	501.56
360.709	485.56
360.936	481.56
361.163	502.56
361.39	487.56
361.616	491.56
361.843	470.56
362.07	462.56
362.296	487.56
362.523	484.56
362.749	477.56
362.976	482.56
363.203	466.56
363.429	471.56
363.656	485.56
363.882	480.56
364.109	479.56
364.335	481.56
364.562	491.56
364.788	474.56
365.015	484.56
365.241	455.56
365.468	460.56
365.694	466.56
365.92	469.56
366.147	473.56
366.373	461.56
366.599	468.56
366.826	453.56
367.052	475.56
367.278	484.56
367.505	477.56
367.731	470.56
367.957	477.56
368.184	487.56
368.41	481.56
368.636	478.56
368.862	474.56
369.089	469.56
369.315	482.56
369.541	476.56
369.767	464.56
369.993	479.56
370.219	494.56
370.445	474.56
370.672	484.56
370.898	469.56
371.124	492.56
371.35	487.56
371.576	490.56
371.802	481.56
372.028	494.56
372.254	475.56
372.48	491.56
372.706	508.56
372.932	493.56
373.158	507.56
373.384	514.56
373.61	480.56
373.835	510.56
374.061	492.56
374.287	493.56
374.513	508.56
374.739	519.56
374.965	520.56
375.191	523.56
375.416	534.56
375.642	495.56
375.868	507.56
376.094	504.56
376.319	478.56
376.545	496.56
376.771	493.56
376.997	518.56
377.222	521.56
377.448	488.56
377.674	501.56
377.899	501.56
378.125	480.56
378.35	469.56
378.576	477.56
378.802	497.56
379.027	511.56
379.253	492.56
379.478	485.56
379.704	496.56
379.929	510.56
380.155	472.56
380.38	502.56
380.606	475.56
380.831	490.56
381.057	495.56
381.282	493.56
381.507	496.56
381.733	494.56
381.958	482.56
382.184	494.56
382.409	482.56
382.634	517.56
382.86	535.56
383.085	533.56
383.31	505.56
383.535	515.56
383.761	517.56
383.986	534.56
384.211	567.56
384.436	556.56
384.662	558.56
384.887	571.56
385.112	569.56
385.337	561.56
385.562	577.56
385.787	577.56
386.013	576.56
386.238	581.56
386.463	562.56
386.688	589.56
386.913	582.56
387.138	558.56
387.363	555.56
387.588	556.56
387.813	555.56
388.038	551.56
388.263	585.56
388.488	569.56
388.713	578.56
388.938	555.56
389.163	561.56
389.387	563.56
389.612	545.56
389.837	554.56
390.062	565.56
390.287	553.56
390.512	557.56
390.736	573.56
390.961	558.56
391.186	585.56
391.411	617.56
391.636	616.56
391.86	597.56
392.085	617.56
392.31	619.56
392.534	592.56
392.759	601.56
392.984	591.56
393.208	594.56
393.433	590.56
393.658	624.56
393.882	582.56
394.107	575.56
394.331	587.56
394.556	559.56
394.78	619.56
395.005	581.56
395.229	601.56
395.454	600.56
395.678	609.56
395.903	617.56
396.127	603.56
396.352	620.56
396.576	629.56
396.801	599.56
397.025	592.56
397.249	613.56
397.474	617.56
397.698	642.56
397.922	633.56
398.147	629.56
398.371	642.56
398.595	663.56
398.82	660.56
399.044	705.56
399.268	759.56
399.492	844.56
399.717	918.56
399.941	913.56
400.165	874.56
400.389	837.56
400.613	765.56
400.837	703.56
401.062	687.56
401.286	671.56
401.51	668.56
401.734	654.56
401.958	707.56
402.182	671.56
402.406	681.56
402.63	695.56
402.854	695.56
403.078	705.56
403.302	703.56
403.526	748.56
403.75	749.56
403.974	730.56
404.198	739.56
404.422	770.56
404.645	726.56
404.869	722.56
405.093	759.56
405.317	753.56
405.541	794.56
405.765	740.56
405.988	733.56
406.212	728.56
406.436	746.56
406.66	745.56
406.883	739.56
407.107	793.56
407.331	815.56
407.555	879.56
407.778	870.56
408.002	846.56
408.226	801.56
408.449	769.56
408.673	754.56
408.896	774.56
409.12	793.56
409.344	748.56
409.567	719.56
409.791	733.56
410.014	713.56
410.238	688.56
410.461	715.56
410.685	727.56
410.908	696.56
411.132	727.56
411.355	727.56
411.578	744.56
411.802	723.56
412.025	696.56
412.249	700.56
412.472	707.56
412.695	761.56
412.919	705.56
413.142	687.56
413.365	687.56
413.589	670.56
413.812	696.56
414.035	669.56
414.258	677.56
414.482	684.56
414.705	669.56
414.928	689.56
415.151	671.56
415.374	664.56
415.597	651.56
415.821	649.56
416.044	662.56
416.267	668.56
416.49	643.56
416.713	669.56
416.936	654.56
417.159	665.56
417.382	664.56
417.605	644.56
417.828	669.56
418.051	671.56
418.274	667.56
418.497	666.56
418.72	685.56
418.943	687.56
419.166	715.56
419.389	743.56
419.611	721.56
419.834	693.56
420.057	713.56
420.28	706.56
420.503	683.56
420.726	677.56
420.948	688.56
421.171	689.56
421.394	730.56
421.617	686.56
421.839	674.56
422.062	689.56
422.285	680.56
422.507	716.56
422.73	759.56
422.953	775.56
423.175	701.56
423.398	695.56
423.621	683.56
423.843	735.56
424.066	715.56
424.288	703.56
424.511	732.56
424.733	753.56
424.956	770.56
425.178	759.56
425.401	769.56
425.623	788.56
425.846	703.56
426.068	699.56
426.291	690.56
426.513	674.56
426.735	693.56
426.958	690.56
427.18	734.56
427.402	838.56
427.625	871.56
427.847	742.56
428.069	730.56
428.292	670.56
428.514	643.56
428.736	642.56
428.958	618.56
429.181	627.56
429.403	611.56
429.625	613.56
429.847	627.56
430.069	674.56
430.292	679.56
430.514	653.56
430.736	633.56
430.958	622.56
431.18	606.56
431.402	613.56
431.624	602.56
431.846	613.56
432.068	610.56
432.29	641.56
432.512	619.56
432.734	645.56
432.956	637.56
433.178	623.56
433.4	615.56
433.622	605.56
433.844	653.56
434.066	610.56
434.287	633.56
434.509	637.56
434.731	634.56
434.953	655.56
435.175	680.56
435.397	673.56
435.618	695.56
435.84	679.56
436.062	757.56
436.284	766.56
436.505	680.56
436.727	674.56
436.949	629.56
437.17	605.56
437.392	593.56
437.614	649.56
437.835	643.56
438.057	690.56
438.278	727.56
438.5	769.56
438.721	793.56
438.943	751.56
439.165	677.56
439.386	618.56
439.608	656.56
439.829	624.56
440.05	672.56
440.272	713.56
440.493	669.56
440.715	652.56
440.936	640.56
441.158	651.56
441.379	663.56
441.6	671.56
441.822	669.56
442.043	718.56
442.264	726.56
442.486	769.56
442.707	702.56
442.928	651.56
443.149	725.56
443.371	705.56
443.592	722.56
443.813	794.56
444.034	842.56
444.255	745.56
444.476	741.56
444.698	755.56
444.919	762.56
445.14	853.56
445.361	765.56
445.582	730.56
445.803	741.56
446.024	779.56
446.245	786.56
446.466	722.56
446.687	668.56
446.908	636.56
447.129	636.56
447.35	638.56
447.571	609.56
447.792	591.56
448.013	611.56
448.234	617.56
448.455	632.56
448.675	714.56
448.896	774.56
449.117	696.56
449.338	679.56
449.559	727.56
449.779	796.56
450	677.56
450.221	631.56
450.442	583.56
450.662	565.56
450.883	580.56
451.104	601.56
451.324	600.56
451.545	597.56
451.766	566.56
451.986	548.56
452.207	557.56
452.428	571.56
452.648	573.56
452.869	529.56
453.089	551.56
453.31	576.56
453.53	579.56
453.751	529.56
453.971	572.56
454.192	581.56
454.412	546.56
454.633	558.56
454.853	535.56
455.073	528.56
455.294	577.56
455.514	591.56
455.734	576.56
455.955	545.56
456.175	541.56
456.395	546.56
456.616	541.56
456.836	536.56
457.056	530.56
457.276	504.56
457.497	523.56
457.717	529.56
457.937	551.56
458.157	531.56
458.377	549.56
458.598	577.56
458.818	580.56
459.038	640.56
459.258	681.56
459.478	635.56
459.698	638.56
459.918	618.56
460.138	643.56
460.358	675.56
460.578	671.56
460.798	683.56
461.018	696.56
461.238	681.56
461.458	678.56
461.678	683.56
461.898	687.56
462.118	690.56
462.338	726.56
462.558	731.56
462.777	760.56
462.997	782.56
463.217	817.56
463.437	825.56
463.657	829.56
463.876	773.56
464.096	746.56
464.316	783.56
464.536	765.56
464.755	757.56
464.975	752.56
465.195	707.56
465.414	721.56
465.634	679.56
465.854	639.56
466.073	639.56
466.293	619.56
466.512	593.56
466.732	587.56
466.951	607.56
467.171	589.56
467.391	593.56
467.61	592.56
467.829	598.56
468.049	584.56
468.268	607.56
468.488	581.56
468.707	583.56
468.927	576.56
469.146	567.56
469.365	571.56
469.585	597.56
469.804	593.56
470.023	589.56
470.243	610.56
470.462	612.56
470.681	605.56
470.901	613.56
471.12	585.56
471.339	618.56
471.558	600.56
471.777	612.56
471.997	575.56
472.216	593.56
472.435	580.56
472.654	585.56
472.873	570.56
473.092	582.56
473.311	575.56
473.53	600.56
473.749	581.56
473.968	613.56
474.187	648.56
474.406	644.56
474.625	608.56
474.844	605.56
475.063	576.56
475.282	599.56
475.501	590.56
475.72	588.56
475.939	612.56
476.158	611.56
476.377	597.56
476.596	585.56
476.814	616.56
477.033	616.56
477.252	624.56
477.471	634.56
477.69	635.56
477.908	647.56
478.127	679.56
478.346	647.56
478.564	681.56
478.783	709.56
479.002	714.56
479.22	706.56
479.439	703.56
479.658	706.56
479.876	684.56
480.095	733.56
480.313	744.56
480.532	740.56
480.751	762.56
480.969	711.56
481.188	747.56
481.406	767.56
481.624	711.56
481.843	675.56
482.061	690.56
482.28	678.56
482.498	683.56
482.717	697.56
482.935	669.56
483.153	699.56
483.372	680.56
483.59	673.56
483.808	684.56
484.027	680.56
484.245	688.56
484.463	688.56
484.681	703.56
484.9	729.56
485.118	711.56
485.336	702.56
485.554	715.56
485.772	714.56
485.99	693.56
486.209	725.56
486.427	694.56
486.645	722.56
486.863	748.56
487.081	730.56
487.299	724.56
487.517	744.56
487.735	708.56
487.953	738.56
488.171	742.56
488.389	752.56
488.607	705.56
488.825	723.56
489.043	703.56
489.261	705.56
489.479	742.56
489.696	722.56
489.914	746.56
490.132	773.56
490.35	753.56
490.568	756.56
490.786	775.56
491.003	749.56
491.221	781.56
491.439	780.56
491.657	773.56
491.874	779.56
492.092	766.56
492.31	771.56
492.527	773.56
492.745	803.56
492.963	796.56
493.18	809.56
493.398	805.56
493.615	810.56
493.833	801.56
494.05	787.56
494.268	801.56
494.485	819.56
494.703	818.56
494.92	812.56
495.138	810.56
495.355	799.56
495.573	803.56
495.79	840.56
496.008	827.56
496.225	790.56
496.442	830.56
496.66	860.56
496.877	870.56
497.094	874.56
497.312	881.56
497.529	903.56
497.746	885.56
497.963	922.56
498.181	952.56
498.398	953.56
498.615	988.56
498.832	1043.56
499.049	1089.56
499.267	1175.56
499.484	1245.56
499.701	1347.56
499.918	1437.56
500.135	1526.56
500.352	1717.56
500.569	1753.56
500.786	1723.56
501.003	1674.56
501.22	1555.56
501.437	1417.56
501.654	1294.56
501.871	1245.56
