Data from 1963.PennyLincolnUp.Lamp.En5.5.200Scan.071719.P1._HRD10591_13-59-48-063.txt Node
Date: Thu Jul 18 13:59:48 EDT 2019
User: cochatt
Spectrometer: HR+D1059
Trigger mode: 1
Integration Time (sec): 1.000000E-1
Scans to average: 1
Electric dark correction enabled: true
Nonlinearity correction enabled: false
Boxcar width: 0
XAxis mode: Wavelengths
Number of Pixels in Spectrum: 2048
>>>>>Begin Spectral Data<<<<<
223.165	-6.19
223.4	-6.19
223.635	-6.19
223.869	-15.19
224.104	-15.19
224.338	-7.19
224.573	-12.19
224.808	-19.19
225.042	-12.19
225.277	-8.19
225.511	-13.19
225.746	3.81
225.98	0.81
226.215	8.81
226.449	17.81
226.683	16.81
226.918	20.81
227.152	39.81
227.387	37.81
227.621	37.81
227.856	52.81
228.09	60.81
228.324	39.81
228.559	58.81
228.793	62.81
229.027	91.81
229.262	101.81
229.496	105.81
229.73	110.81
229.964	136.81
230.199	130.81
230.433	121.81
230.667	110.81
230.901	119.81
231.136	110.81
231.37	120.81
231.604	120.81
231.838	122.81
232.072	119.81
232.306	120.81
232.541	115.81
232.775	118.81
233.009	128.81
233.243	121.81
233.477	136.81
233.711	118.81
233.945	120.81
234.179	107.81
234.413	114.81
234.647	107.81
234.881	118.81
235.115	126.81
235.349	138.81
235.583	126.81
235.817	122.81
236.051	134.81
236.285	128.81
236.519	126.81
236.753	136.81
236.987	131.81
237.221	174.81
237.455	208.81
237.689	187.81
237.922	134.81
238.156	122.81
238.39	131.81
238.624	131.81
238.858	131.81
239.091	126.81
239.325	130.81
239.559	133.81
239.793	140.81
240.027	144.81
240.26	140.81
240.494	162.81
240.728	148.81
240.961	171.81
241.195	156.81
241.429	156.81
241.662	152.81
241.896	129.81
242.13	147.81
242.363	138.81
242.597	141.81
242.83	133.81
243.064	158.81
243.298	163.81
243.531	146.81
243.765	148.81
243.998	158.81
244.232	161.81
244.465	157.81
244.699	151.81
244.932	165.81
245.166	165.81
245.399	176.81
245.633	152.81
245.866	158.81
246.099	163.81
246.333	150.81
246.566	168.81
246.8	158.81
247.033	189.81
247.266	171.81
247.5	165.81
247.733	186.81
247.966	180.81
248.2	182.81
248.433	202.81
248.666	188.81
248.899	200.81
249.133	197.81
249.366	217.81
249.599	197.81
249.832	179.81
250.066	201.81
250.299	201.81
250.532	212.81
250.765	236.81
250.998	210.81
251.231	218.81
251.465	206.81
251.698	218.81
251.931	214.81
252.164	212.81
252.397	220.81
252.63	208.81
252.863	223.81
253.096	219.81
253.329	257.81
253.562	248.81
253.795	219.81
254.028	232.81
254.261	230.81
254.494	246.81
254.727	267.81
254.96	286.81
255.193	294.81
255.426	266.81
255.659	246.81
255.892	249.81
256.124	233.81
256.357	236.81
256.59	238.81
256.823	223.81
257.056	226.81
257.289	225.81
257.521	227.81
257.754	235.81
257.987	209.81
258.22	225.81
258.452	227.81
258.685	225.81
258.918	219.81
259.151	248.81
259.383	234.81
259.616	238.81
259.849	242.81
260.081	259.81
260.314	268.81
260.547	281.81
260.779	234.81
261.012	254.81
261.244	247.81
261.477	249.81
261.71	271.81
261.942	250.81
262.175	247.81
262.407	249.81
262.64	241.81
262.872	244.81
263.105	243.81
263.337	249.81
263.57	230.81
263.802	242.81
264.035	244.81
264.267	254.81
264.499	250.81
264.732	257.81
264.964	249.81
265.197	242.81
265.429	254.81
265.661	258.81
265.894	246.81
266.126	240.81
266.358	253.81
266.591	244.81
266.823	254.81
267.055	256.81
267.287	267.81
267.52	263.81
267.752	262.81
267.984	265.81
268.216	273.81
268.448	273.81
268.681	269.81
268.913	274.81
269.145	292.81
269.377	300.81
269.609	321.81
269.841	308.81
270.073	294.81
270.306	319.81
270.538	330.81
270.77	339.81
271.002	329.81
271.234	314.81
271.466	349.81
271.698	321.81
271.93	339.81
272.162	336.81
272.394	329.81
272.626	329.81
272.858	332.81
273.09	313.81
273.322	303.81
273.553	314.81
273.785	294.81
274.017	302.81
274.249	305.81
274.481	314.81
274.713	290.81
274.945	295.81
275.176	312.81
275.408	323.81
275.64	295.81
275.872	308.81
276.104	311.81
276.335	315.81
276.567	325.81
276.799	311.81
277.031	346.81
277.262	356.81
277.494	346.81
277.726	323.81
277.957	343.81
278.189	308.81
278.421	308.81
278.652	313.81
278.884	328.81
279.115	313.81
279.347	316.81
279.579	312.81
279.81	318.81
280.042	302.81
280.273	299.81
280.505	321.81
280.736	312.81
280.968	316.81
281.199	331.81
281.431	325.81
281.662	312.81
281.894	328.81
282.125	327.81
282.356	346.81
282.588	350.81
282.819	351.81
283.051	317.81
283.282	338.81
283.513	333.81
283.745	331.81
283.976	331.81
284.207	330.81
284.439	338.81
284.67	338.81
284.901	330.81
285.132	322.81
285.364	320.81
285.595	338.81
285.826	331.81
286.057	349.81
286.288	337.81
286.52	348.81
286.751	346.81
286.982	359.81
287.213	338.81
287.444	377.81
287.675	350.81
287.906	375.81
288.138	368.81
288.369	367.81
288.6	361.81
288.831	362.81
289.062	360.81
289.293	366.81
289.524	373.81
289.755	354.81
289.986	359.81
290.217	355.81
290.448	354.81
290.679	363.81
290.91	374.81
291.141	365.81
291.371	370.81
291.602	346.81
291.833	359.81
292.064	352.81
292.295	370.81
292.526	372.81
292.757	366.81
292.987	350.81
293.218	353.81
293.449	347.81
293.68	364.81
293.91	355.81
294.141	347.81
294.372	345.81
294.603	352.81
294.833	375.81
295.064	377.81
295.295	381.81
295.525	347.81
295.756	376.81
295.987	376.81
296.217	390.81
296.448	408.81
296.679	382.81
296.909	386.81
297.14	386.81
297.37	376.81
297.601	360.81
297.831	371.81
298.062	378.81
298.292	363.81
298.523	380.81
298.753	407.81
298.984	401.81
299.214	392.81
299.445	396.81
299.675	400.81
299.905	400.81
300.136	389.81
300.366	403.81
300.597	386.81
300.827	394.81
301.057	409.81
301.288	436.81
301.518	412.81
301.748	423.81
301.979	434.81
302.209	404.81
302.439	414.81
302.669	410.81
302.9	408.81
303.13	409.81
303.36	425.81
303.59	424.81
303.82	421.81
304.051	407.81
304.281	425.81
304.511	399.81
304.741	416.81
304.971	406.81
305.201	416.81
305.431	413.81
305.661	430.81
305.891	407.81
306.121	410.81
306.352	413.81
306.582	422.81
306.812	417.81
307.042	415.81
307.272	420.81
307.502	408.81
307.731	426.81
307.961	406.81
308.191	406.81
308.421	398.81
308.651	412.81
308.881	400.81
309.111	399.81
309.341	427.81
309.571	428.81
309.8	438.81
310.03	416.81
310.26	430.81
310.49	436.81
310.72	446.81
310.949	465.81
311.179	469.81
311.409	453.81
311.639	460.81
311.868	448.81
312.098	441.81
312.328	473.81
312.557	441.81
312.787	461.81
313.017	459.81
313.246	468.81
313.476	442.81
313.706	440.81
313.935	464.81
314.165	455.81
314.394	470.81
314.624	475.81
314.853	441.81
315.083	452.81
315.312	463.81
315.542	467.81
315.771	452.81
316.001	466.81
316.23	444.81
316.46	458.81
316.689	445.81
316.919	459.81
317.148	472.81
317.377	461.81
317.607	438.81
317.836	452.81
318.065	450.81
318.295	446.81
318.524	461.81
318.753	458.81
318.983	464.81
319.212	457.81
319.441	475.81
319.67	467.81
319.9	455.81
320.129	442.81
320.358	460.81
320.587	445.81
320.816	474.81
321.046	448.81
321.275	484.81
321.504	480.81
321.733	461.81
321.962	463.81
322.191	479.81
322.42	482.81
322.649	481.81
322.878	509.81
323.108	498.81
323.337	528.81
323.566	563.81
323.795	569.81
324.024	575.81
324.253	640.81
324.482	839.81
324.71	1227.81
324.939	1756.81
325.168	1532.81
325.397	852.81
325.626	662.81
325.855	593.81
326.084	546.81
326.313	536.81
326.542	543.81
326.77	605.81
326.999	632.81
327.228	802.81
327.457	1102.81
327.686	1376.81
327.914	931.81
328.143	702.81
328.372	637.81
328.6	605.81
328.829	587.81
329.058	603.81
329.287	620.81
329.515	587.81
329.744	558.81
329.972	546.81
330.201	570.81
330.43	606.81
330.658	625.81
330.887	648.81
331.115	614.81
331.344	596.81
331.572	585.81
331.801	580.81
332.03	579.81
332.258	586.81
332.486	567.81
332.715	562.81
332.943	579.81
333.172	587.81
333.4	610.81
333.629	606.81
333.857	644.81
334.085	640.81
334.314	646.81
334.542	659.81
334.771	664.81
334.999	624.81
335.227	594.81
335.455	601.81
335.684	593.81
335.912	586.81
336.14	585.81
336.369	589.81
336.597	583.81
336.825	572.81
337.053	551.81
337.281	569.81
337.51	568.81
337.738	552.81
337.966	562.81
338.194	542.81
338.422	551.81
338.65	540.81
338.878	545.81
339.106	547.81
339.334	536.81
339.562	546.81
339.79	545.81
340.018	532.81
340.246	527.81
340.474	538.81
340.702	536.81
340.93	528.81
341.158	551.81
341.386	545.81
341.614	532.81
341.842	528.81
342.07	530.81
342.298	535.81
342.526	506.81
342.754	512.81
342.981	512.81
343.209	533.81
343.437	554.81
343.665	558.81
343.893	573.81
344.12	606.81
344.348	582.81
344.576	566.81
344.804	582.81
345.031	533.81
345.259	557.81
345.487	523.81
345.714	511.81
345.942	514.81
346.17	521.81
346.397	514.81
346.625	512.81
346.853	500.81
347.08	495.81
347.308	489.81
347.535	520.81
347.763	536.81
347.99	528.81
348.218	513.81
348.445	543.81
348.673	519.81
348.9	523.81
349.128	501.81
349.355	494.81
349.583	496.81
349.81	486.81
350.037	490.81
350.265	497.81
350.492	494.81
350.72	516.81
350.947	497.81
351.174	499.81
351.402	512.81
351.629	513.81
351.856	511.81
352.083	505.81
352.311	509.81
352.538	512.81
352.765	523.81
352.992	501.81
353.22	520.81
353.447	494.81
353.674	495.81
353.901	488.81
354.128	473.81
354.355	495.81
354.583	512.81
354.81	486.81
355.037	486.81
355.264	488.81
355.491	493.81
355.718	482.81
355.945	478.81
356.172	472.81
356.399	488.81
356.626	489.81
356.853	489.81
357.08	477.81
357.307	480.81
357.534	506.81
357.761	481.81
357.988	474.81
358.215	474.81
358.441	487.81
358.668	491.81
358.895	479.81
359.122	505.81
359.349	498.81
359.576	506.81
359.802	536.81
360.029	523.81
360.256	548.81
360.483	520.81
360.709	489.81
360.936	496.81
361.163	474.81
361.39	511.81
361.616	512.81
361.843	514.81
362.07	499.81
362.296	480.81
362.523	475.81
362.749	488.81
362.976	502.81
363.203	483.81
363.429	497.81
363.656	515.81
363.882	494.81
364.109	481.81
364.335	482.81
364.562	484.81
364.788	502.81
365.015	486.81
365.241	481.81
365.468	504.81
365.694	482.81
365.92	503.81
366.147	472.81
366.373	496.81
366.599	464.81
366.826	478.81
367.052	462.81
367.278	491.81
367.505	500.81
367.731	498.81
367.957	482.81
368.184	501.81
368.41	503.81
368.636	514.81
368.862	521.81
369.089	527.81
369.315	518.81
369.541	528.81
369.767	516.81
369.993	513.81
370.219	482.81
370.445	517.81
370.672	519.81
370.898	512.81
371.124	486.81
371.35	502.81
371.576	514.81
371.802	506.81
372.028	492.81
372.254	516.81
372.48	534.81
372.706	531.81
372.932	532.81
373.158	539.81
373.384	525.81
373.61	530.81
373.835	518.81
374.061	528.81
374.287	529.81
374.513	538.81
374.739	532.81
374.965	523.81
375.191	519.81
375.416	560.81
375.642	536.81
375.868	539.81
376.094	542.81
376.319	539.81
376.545	534.81
376.771	503.81
376.997	509.81
377.222	500.81
377.448	525.81
377.674	523.81
377.899	514.81
378.125	515.81
378.35	535.81
378.576	506.81
378.802	517.81
379.027	514.81
379.253	518.81
379.478	514.81
379.704	521.81
379.929	517.81
380.155	510.81
380.38	506.81
380.606	499.81
380.831	514.81
381.057	518.81
381.282	510.81
381.507	545.81
381.733	517.81
381.958	521.81
382.184	529.81
382.409	519.81
382.634	533.81
382.86	545.81
383.085	541.81
383.31	536.81
383.535	551.81
383.761	542.81
383.986	563.81
384.211	555.81
384.436	569.81
384.662	597.81
384.887	591.81
385.112	587.81
385.337	594.81
385.562	596.81
385.787	592.81
386.013	623.81
386.238	595.81
386.463	588.81
386.688	607.81
386.913	588.81
387.138	567.81
387.363	598.81
387.588	574.81
387.813	605.81
388.038	602.81
388.263	597.81
388.488	590.81
388.713	616.81
388.938	608.81
389.163	571.81
389.387	587.81
389.612	580.81
389.837	582.81
390.062	567.81
390.287	592.81
390.512	579.81
390.736	610.81
390.961	592.81
391.186	604.81
391.411	599.81
391.636	606.81
391.86	646.81
392.085	598.81
392.31	642.81
392.534	614.81
392.759	633.81
392.984	625.81
393.208	594.81
393.433	629.81
393.658	604.81
393.882	628.81
394.107	614.81
394.331	617.81
394.556	609.81
394.78	616.81
395.005	612.81
395.229	615.81
395.454	624.81
395.678	638.81
395.903	662.81
396.127	640.81
396.352	649.81
396.576	628.81
396.801	622.81
397.025	643.81
397.249	641.81
397.474	671.81
397.698	638.81
397.922	672.81
398.147	652.81
398.371	682.81
398.595	696.81
398.82	692.81
399.044	744.81
399.268	782.81
399.492	854.81
399.717	938.81
399.941	997.81
400.165	937.81
400.389	884.81
400.613	804.81
400.837	748.81
401.062	745.81
401.286	724.81
401.51	710.81
401.734	708.81
401.958	735.81
402.182	718.81
402.406	716.81
402.63	730.81
402.854	761.81
403.078	766.81
403.302	767.81
403.526	763.81
403.75	790.81
403.974	776.81
404.198	776.81
404.422	770.81
404.645	793.81
404.869	790.81
405.093	808.81
405.317	837.81
405.541	901.81
405.765	819.81
405.988	784.81
406.212	792.81
406.436	792.81
406.66	817.81
406.883	811.81
407.107	864.81
407.331	883.81
407.555	964.81
407.778	954.81
408.002	892.81
408.226	846.81
408.449	856.81
408.673	811.81
408.896	814.81
409.12	826.81
409.344	844.81
409.567	790.81
409.791	761.81
410.014	776.81
410.238	757.81
410.461	713.81
410.685	746.81
410.908	756.81
411.132	806.81
411.355	773.81
411.578	791.81
411.802	751.81
412.025	742.81
412.249	755.81
412.472	776.81
412.695	796.81
412.919	756.81
413.142	752.81
413.365	735.81
413.589	728.81
413.812	711.81
414.035	708.81
414.258	694.81
414.482	698.81
414.705	705.81
414.928	706.81
415.151	703.81
415.374	694.81
415.597	681.81
415.821	693.81
416.044	691.81
416.267	686.81
416.49	696.81
416.713	697.81
416.936	700.81
417.159	685.81
417.382	691.81
417.605	720.81
417.828	707.81
418.051	722.81
418.274	713.81
418.497	724.81
418.72	731.81
418.943	722.81
419.166	747.81
419.389	787.81
419.611	772.81
419.834	763.81
420.057	739.81
420.28	731.81
420.503	726.81
420.726	747.81
420.948	715.81
421.171	747.81
421.394	787.81
421.617	733.81
421.839	724.81
422.062	708.81
422.285	747.81
422.507	790.81
422.73	874.81
422.953	835.81
423.175	774.81
423.398	750.81
423.621	747.81
423.843	757.81
424.066	806.81
424.288	791.81
424.511	803.81
424.733	810.81
424.956	884.81
425.178	856.81
425.401	846.81
425.623	839.81
425.846	772.81
426.068	743.81
426.291	708.81
426.513	740.81
426.735	722.81
426.958	764.81
427.18	816.81
427.402	936.81
427.625	1025.81
427.847	860.81
428.069	762.81
428.292	760.81
428.514	694.81
428.736	684.81
428.958	682.81
429.181	671.81
429.403	694.81
429.625	675.81
429.847	706.81
430.069	748.81
430.292	730.81
430.514	700.81
430.736	678.81
430.958	663.81
431.18	657.81
431.402	658.81
431.624	649.81
431.846	645.81
432.068	641.81
432.29	656.81
432.512	649.81
432.734	688.81
432.956	678.81
433.178	662.81
433.4	636.81
433.622	655.81
433.844	658.81
434.066	670.81
434.287	644.81
434.509	671.81
434.731	676.81
434.953	707.81
435.175	710.81
435.397	736.81
435.618	728.81
435.84	719.81
436.062	797.81
436.284	867.81
436.505	790.81
436.727	710.81
436.949	665.81
437.17	688.81
437.392	695.81
437.614	700.81
437.835	699.81
438.057	751.81
438.278	846.81
438.5	832.81
438.721	949.81
438.943	898.81
439.165	736.81
439.386	725.81
439.608	716.81
439.829	713.81
440.05	734.81
440.272	756.81
440.493	736.81
440.715	704.81
440.936	668.81
441.158	691.81
441.379	702.81
441.6	699.81
441.822	729.81
442.043	784.81
442.264	838.81
442.486	870.81
442.707	799.81
442.928	739.81
443.149	770.81
443.371	779.81
443.592	783.81
443.813	879.81
444.034	938.81
444.255	861.81
444.476	809.81
444.698	808.81
444.919	812.81
445.14	912.81
445.361	830.81
445.582	819.81
445.803	830.81
446.024	892.81
446.245	894.81
446.466	820.81
446.687	748.81
446.908	679.81
447.129	690.81
447.35	658.81
447.571	636.81
447.792	634.81
448.013	631.81
448.234	658.81
448.455	710.81
448.675	793.81
448.896	883.81
449.117	756.81
449.338	721.81
449.559	818.81
449.779	895.81
450	775.81
450.221	672.81
450.442	639.81
450.662	651.81
450.883	639.81
451.104	634.81
451.324	639.81
451.545	630.81
451.766	618.81
451.986	578.81
452.207	609.81
452.428	615.81
452.648	580.81
452.869	593.81
453.089	608.81
453.31	605.81
453.53	623.81
453.751	581.81
453.971	574.81
454.192	591.81
454.412	587.81
454.633	588.81
454.853	571.81
455.073	586.81
455.294	624.81
455.514	656.81
455.734	629.81
455.955	570.81
456.175	551.81
456.395	560.81
456.616	568.81
456.836	553.81
457.056	568.81
457.276	555.81
457.497	575.81
457.717	586.81
457.937	577.81
458.157	595.81
458.377	588.81
458.598	608.81
458.818	641.81
459.038	707.81
459.258	729.81
459.478	699.81
459.698	697.81
459.918	679.81
460.138	700.81
460.358	712.81
460.578	723.81
460.798	744.81
461.018	735.81
461.238	727.81
461.458	718.81
461.678	709.81
461.898	711.81
462.118	717.81
462.338	766.81
462.558	759.81
462.777	794.81
462.997	819.81
463.217	871.81
463.437	887.81
463.657	818.81
463.876	790.81
464.096	790.81
464.316	800.81
464.536	822.81
464.755	803.81
464.975	772.81
465.195	750.81
465.414	798.81
465.634	761.81
465.854	715.81
466.073	675.81
466.293	663.81
466.512	648.81
466.732	637.81
466.951	632.81
467.171	620.81
467.391	627.81
467.61	636.81
467.829	619.81
468.049	648.81
468.268	626.81
468.488	613.81
468.707	601.81
468.927	582.81
469.146	602.81
469.365	615.81
469.585	599.81
469.804	617.81
470.023	642.81
470.243	661.81
470.462	658.81
470.681	663.81
470.901	678.81
471.12	678.81
471.339	664.81
471.558	626.81
471.777	631.81
471.997	616.81
472.216	631.81
472.435	656.81
472.654	651.81
472.873	622.81
473.092	631.81
473.311	615.81
473.53	612.81
473.749	616.81
473.968	643.81
474.187	723.81
474.406	741.81
474.625	643.81
474.844	627.81
475.063	626.81
475.282	626.81
475.501	647.81
475.72	650.81
475.939	611.81
476.158	627.81
476.377	638.81
476.596	618.81
476.814	646.81
477.033	654.81
477.252	670.81
477.471	657.81
477.69	668.81
477.908	680.81
478.127	700.81
478.346	702.81
478.564	753.81
478.783	741.81
479.002	748.81
479.22	726.81
479.439	747.81
479.658	758.81
479.876	755.81
480.095	751.81
480.313	840.81
480.532	806.81
480.751	810.81
480.969	786.81
481.188	855.81
481.406	846.81
481.624	780.81
481.843	751.81
482.061	748.81
482.28	724.81
482.498	725.81
482.717	718.81
482.935	728.81
483.153	732.81
483.372	722.81
483.59	707.81
483.808	703.81
484.027	713.81
484.245	734.81
484.463	714.81
484.681	758.81
484.9	729.81
485.118	747.81
485.336	748.81
485.554	733.81
485.772	730.81
485.99	755.81
486.209	774.81
486.427	761.81
486.645	758.81
486.863	776.81
487.081	759.81
487.299	764.81
487.517	800.81
487.735	756.81
487.953	759.81
488.171	776.81
488.389	783.81
488.607	788.81
488.825	785.81
489.043	774.81
489.261	785.81
489.479	780.81
489.696	785.81
489.914	802.81
490.132	812.81
490.35	804.81
490.568	791.81
490.786	812.81
491.003	842.81
491.221	850.81
491.439	836.81
491.657	862.81
491.874	852.81
492.092	867.81
492.31	871.81
492.527	879.81
492.745	869.81
492.963	876.81
493.18	875.81
493.398	904.81
493.615	900.81
493.833	891.81
494.05	908.81
494.268	903.81
494.485	900.81
494.703	918.81
494.92	938.81
495.138	878.81
495.355	872.81
495.573	884.81
495.79	898.81
496.008	917.81
496.225	923.81
496.442	914.81
496.66	924.81
496.877	925.81
497.094	927.81
497.312	957.81
497.529	930.81
497.746	983.81
497.963	1004.81
498.181	1030.81
498.398	1040.81
498.615	1102.81
498.832	1114.81
499.049	1176.81
499.267	1226.81
499.484	1335.81
499.701	1408.81
499.918	1490.81
500.135	1623.81
500.352	1767.81
500.569	1819.81
500.786	1857.81
501.003	1766.81
501.22	1610.81
501.437	1523.81
501.654	1413.81
