Data from 1963.PennyLincolnUp.Lamp.En5.5.200Scan.071719.P1._HRD10591_13-59-05-063.txt Node
Date: Thu Jul 18 13:59:05 EDT 2019
User: cochatt
Spectrometer: HR+D1059
Trigger mode: 1
Integration Time (sec): 1.000000E-1
Scans to average: 1
Electric dark correction enabled: true
Nonlinearity correction enabled: false
Boxcar width: 0
XAxis mode: Wavelengths
Number of Pixels in Spectrum: 2048
>>>>>Begin Spectral Data<<<<<
223.165	-1.06
223.4	-1.06
223.635	-1.06
223.869	-17.06
224.104	-13.06
224.338	-1.06
224.573	-20.06
224.808	-15.06
225.042	-13.06
225.277	-9.06
225.511	-13.06
225.746	7.94
225.98	-6.06
226.215	24.94
226.449	5.94
226.683	15.94
226.918	24.94
227.152	28.94
227.387	28.94
227.621	19.94
227.856	46.94
228.09	48.94
228.324	43.94
228.559	65.94
228.793	58.94
229.027	94.94
229.262	104.94
229.496	116.94
229.73	134.94
229.964	139.94
230.199	114.94
230.433	118.94
230.667	119.94
230.901	126.94
231.136	121.94
231.37	119.94
231.604	118.94
231.838	108.94
232.072	103.94
232.306	127.94
232.541	121.94
232.775	135.94
233.009	117.94
233.243	104.94
233.477	128.94
233.711	124.94
233.945	126.94
234.179	128.94
234.413	124.94
234.647	123.94
234.881	130.94
235.115	131.94
235.349	133.94
235.583	132.94
235.817	128.94
236.051	119.94
236.285	134.94
236.519	131.94
236.753	125.94
236.987	126.94
237.221	170.94
237.455	214.94
237.689	171.94
237.922	134.94
238.156	134.94
238.39	122.94
238.624	134.94
238.858	146.94
239.091	128.94
239.325	122.94
239.559	131.94
239.793	144.94
240.027	142.94
240.26	151.94
240.494	170.94
240.728	166.94
240.961	162.94
241.195	157.94
241.429	158.94
241.662	139.94
241.896	142.94
242.13	144.94
242.363	153.94
242.597	145.94
242.83	178.94
243.064	159.94
243.298	159.94
243.531	158.94
243.765	149.94
243.998	167.94
244.232	145.94
244.465	151.94
244.699	158.94
244.932	159.94
245.166	160.94
245.399	180.94
245.633	164.94
245.866	163.94
246.099	151.94
246.333	165.94
246.566	158.94
246.8	175.94
247.033	164.94
247.266	181.94
247.5	184.94
247.733	178.94
247.966	186.94
248.2	203.94
248.433	183.94
248.666	189.94
248.899	194.94
249.133	220.94
249.366	213.94
249.599	216.94
249.832	199.94
250.066	205.94
250.299	201.94
250.532	192.94
250.765	216.94
250.998	215.94
251.231	250.94
251.465	218.94
251.698	228.94
251.931	214.94
252.164	216.94
252.397	212.94
252.63	202.94
252.863	214.94
253.096	236.94
253.329	237.94
253.562	247.94
253.795	234.94
254.028	240.94
254.261	233.94
254.494	246.94
254.727	242.94
254.96	271.94
255.193	272.94
255.426	268.94
255.659	230.94
255.892	242.94
256.124	265.94
256.357	275.94
256.59	235.94
256.823	217.94
257.056	230.94
257.289	220.94
257.521	216.94
257.754	231.94
257.987	233.94
258.22	239.94
258.452	219.94
258.685	225.94
258.918	232.94
259.151	248.94
259.383	239.94
259.616	255.94
259.849	240.94
260.081	256.94
260.314	271.94
260.547	279.94
260.779	288.94
261.012	250.94
261.244	230.94
261.477	266.94
261.71	248.94
261.942	254.94
262.175	259.94
262.407	254.94
262.64	224.94
262.872	229.94
263.105	246.94
263.337	250.94
263.57	231.94
263.802	235.94
264.035	253.94
264.267	242.94
264.499	241.94
264.732	258.94
264.964	237.94
265.197	234.94
265.429	239.94
265.661	266.94
265.894	264.94
266.126	244.94
266.358	250.94
266.591	247.94
266.823	244.94
267.055	271.94
267.287	263.94
267.52	274.94
267.752	250.94
267.984	255.94
268.216	274.94
268.448	269.94
268.681	270.94
268.913	285.94
269.145	294.94
269.377	291.94
269.609	302.94
269.841	299.94
270.073	310.94
270.306	304.94
270.538	312.94
270.77	314.94
271.002	336.94
271.234	314.94
271.466	318.94
271.698	340.94
271.93	331.94
272.162	340.94
272.394	320.94
272.626	334.94
272.858	315.94
273.09	320.94
273.322	284.94
273.553	292.94
273.785	293.94
274.017	313.94
274.249	316.94
274.481	322.94
274.713	307.94
274.945	309.94
275.176	315.94
275.408	311.94
275.64	311.94
275.872	296.94
276.104	301.94
276.335	301.94
276.567	316.94
276.799	334.94
277.031	325.94
277.262	332.94
277.494	338.94
277.726	329.94
277.957	326.94
278.189	327.94
278.421	311.94
278.652	337.94
278.884	308.94
279.115	336.94
279.347	322.94
279.579	323.94
279.81	325.94
280.042	302.94
280.273	304.94
280.505	327.94
280.736	294.94
280.968	313.94
281.199	318.94
281.431	313.94
281.662	313.94
281.894	332.94
282.125	332.94
282.356	366.94
282.588	325.94
282.819	357.94
283.051	350.94
283.282	330.94
283.513	330.94
283.745	351.94
283.976	328.94
284.207	338.94
284.439	332.94
284.67	316.94
284.901	338.94
285.132	359.94
285.364	322.94
285.595	317.94
285.826	336.94
286.057	336.94
286.288	342.94
286.52	349.94
286.751	350.94
286.982	344.94
287.213	343.94
287.444	348.94
287.675	352.94
287.906	370.94
288.138	361.94
288.369	378.94
288.6	392.94
288.831	358.94
289.062	371.94
289.293	352.94
289.524	346.94
289.755	365.94
289.986	355.94
290.217	355.94
290.448	347.94
290.679	374.94
290.91	352.94
291.141	358.94
291.371	365.94
291.602	350.94
291.833	333.94
292.064	388.94
292.295	365.94
292.526	376.94
292.757	347.94
292.987	342.94
293.218	339.94
293.449	371.94
293.68	386.94
293.91	349.94
294.141	360.94
294.372	358.94
294.603	365.94
294.833	370.94
295.064	376.94
295.295	359.94
295.525	386.94
295.756	377.94
295.987	360.94
296.217	397.94
296.448	420.94
296.679	371.94
296.909	392.94
297.14	384.94
297.37	384.94
297.601	390.94
297.831	386.94
298.062	378.94
298.292	386.94
298.523	374.94
298.753	409.94
298.984	390.94
299.214	383.94
299.445	385.94
299.675	384.94
299.905	394.94
300.136	399.94
300.366	401.94
300.597	396.94
300.827	408.94
301.057	412.94
301.288	399.94
301.518	427.94
301.748	416.94
301.979	424.94
302.209	428.94
302.439	412.94
302.669	412.94
302.9	407.94
303.13	401.94
303.36	430.94
303.59	428.94
303.82	446.94
304.051	416.94
304.281	404.94
304.511	424.94
304.741	408.94
304.971	419.94
305.201	414.94
305.431	404.94
305.661	427.94
305.891	437.94
306.121	407.94
306.352	406.94
306.582	426.94
306.812	401.94
307.042	403.94
307.272	405.94
307.502	423.94
307.731	429.94
307.961	400.94
308.191	402.94
308.421	428.94
308.651	429.94
308.881	412.94
309.111	422.94
309.341	393.94
309.571	426.94
309.8	427.94
310.03	430.94
310.26	430.94
310.49	421.94
310.72	445.94
310.949	455.94
311.179	460.94
311.409	447.94
311.639	438.94
311.868	436.94
312.098	449.94
312.328	447.94
312.557	467.94
312.787	449.94
313.017	454.94
313.246	444.94
313.476	470.94
313.706	468.94
313.935	454.94
314.165	450.94
314.394	459.94
314.624	474.94
314.853	483.94
315.083	460.94
315.312	469.94
315.542	457.94
315.771	454.94
316.001	460.94
316.23	455.94
316.46	454.94
316.689	461.94
316.919	464.94
317.148	463.94
317.377	459.94
317.607	471.94
317.836	457.94
318.065	441.94
318.295	455.94
318.524	441.94
318.753	457.94
318.983	452.94
319.212	430.94
319.441	440.94
319.67	463.94
319.9	464.94
320.129	434.94
320.358	447.94
320.587	468.94
320.816	482.94
321.046	454.94
321.275	476.94
321.504	480.94
321.733	472.94
321.962	473.94
322.191	500.94
322.42	490.94
322.649	527.94
322.878	516.94
323.108	506.94
323.337	522.94
323.566	516.94
323.795	520.94
324.024	551.94
324.253	630.94
324.482	831.94
324.71	1164.94
324.939	1679.94
325.168	1462.94
325.397	831.94
325.626	620.94
325.855	574.94
326.084	515.94
326.313	534.94
326.542	531.94
326.77	604.94
326.999	637.94
327.228	762.94
327.457	1097.94
327.686	1334.94
327.914	924.94
328.143	668.94
328.372	615.94
328.6	602.94
328.829	581.94
329.058	610.94
329.287	617.94
329.515	603.94
329.744	552.94
329.972	578.94
330.201	562.94
330.43	580.94
330.658	601.94
330.887	620.94
331.115	636.94
331.344	576.94
331.572	561.94
331.801	560.94
332.03	576.94
332.258	581.94
332.486	575.94
332.715	586.94
332.943	595.94
333.172	604.94
333.4	609.94
333.629	652.94
333.857	632.94
334.085	653.94
334.314	666.94
334.542	673.94
334.771	665.94
334.999	613.94
335.227	625.94
335.455	604.94
335.684	560.94
335.912	608.94
336.14	573.94
336.369	576.94
336.597	574.94
336.825	557.94
337.053	578.94
337.281	575.94
337.51	543.94
337.738	560.94
337.966	554.94
338.194	550.94
338.422	556.94
338.65	545.94
338.878	543.94
339.106	556.94
339.334	526.94
339.562	527.94
339.79	537.94
340.018	525.94
340.246	528.94
340.474	555.94
340.702	513.94
340.93	536.94
341.158	504.94
341.386	547.94
341.614	533.94
341.842	510.94
342.07	503.94
342.298	530.94
342.526	527.94
342.754	506.94
342.981	516.94
343.209	531.94
343.437	548.94
343.665	571.94
343.893	572.94
344.12	580.94
344.348	604.94
344.576	587.94
344.804	587.94
345.031	586.94
345.259	554.94
345.487	531.94
345.714	542.94
345.942	532.94
346.17	527.94
346.397	485.94
346.625	522.94
346.853	494.94
347.08	507.94
347.308	500.94
347.535	530.94
347.763	536.94
347.99	512.94
348.218	513.94
348.445	517.94
348.673	511.94
348.9	522.94
349.128	491.94
349.355	494.94
349.583	502.94
349.81	510.94
350.037	498.94
350.265	522.94
350.492	485.94
350.72	496.94
350.947	484.94
351.174	493.94
351.402	504.94
351.629	516.94
351.856	520.94
352.083	495.94
352.311	502.94
352.538	504.94
352.765	499.94
352.992	505.94
353.22	482.94
353.447	482.94
353.674	499.94
353.901	510.94
354.128	477.94
354.355	473.94
354.583	476.94
354.81	460.94
355.037	477.94
355.264	472.94
355.491	480.94
355.718	485.94
355.945	479.94
356.172	500.94
356.399	489.94
356.626	498.94
356.853	482.94
357.08	493.94
357.307	494.94
357.534	498.94
357.761	478.94
357.988	494.94
358.215	477.94
358.441	512.94
358.668	498.94
358.895	490.94
359.122	488.94
359.349	515.94
359.576	490.94
359.802	528.94
360.029	550.94
360.256	558.94
360.483	533.94
360.709	506.94
360.936	518.94
361.163	515.94
361.39	519.94
361.616	508.94
361.843	516.94
362.07	503.94
362.296	518.94
362.523	495.94
362.749	501.94
362.976	502.94
363.203	520.94
363.429	507.94
363.656	503.94
363.882	527.94
364.109	480.94
364.335	507.94
364.562	470.94
364.788	493.94
365.015	503.94
365.241	492.94
365.468	483.94
365.694	486.94
365.92	508.94
366.147	491.94
366.373	463.94
366.599	493.94
366.826	500.94
367.052	492.94
367.278	499.94
367.505	498.94
367.731	500.94
367.957	478.94
368.184	492.94
368.41	497.94
368.636	529.94
368.862	499.94
369.089	526.94
369.315	505.94
369.541	504.94
369.767	503.94
369.993	487.94
370.219	521.94
370.445	518.94
370.672	507.94
370.898	530.94
371.124	511.94
371.35	515.94
371.576	548.94
371.802	534.94
372.028	531.94
372.254	514.94
372.48	509.94
372.706	526.94
372.932	536.94
373.158	535.94
373.384	513.94
373.61	538.94
373.835	534.94
374.061	547.94
374.287	526.94
374.513	523.94
374.739	548.94
374.965	558.94
375.191	541.94
375.416	584.94
375.642	554.94
375.868	527.94
376.094	540.94
376.319	532.94
376.545	534.94
376.771	539.94
376.997	518.94
377.222	522.94
377.448	509.94
377.674	519.94
377.899	482.94
378.125	512.94
378.35	516.94
378.576	518.94
378.802	491.94
379.027	530.94
379.253	532.94
379.478	513.94
379.704	520.94
379.929	488.94
380.155	513.94
380.38	525.94
380.606	514.94
380.831	506.94
381.057	520.94
381.282	503.94
381.507	495.94
381.733	520.94
381.958	538.94
382.184	530.94
382.409	536.94
382.634	554.94
382.86	537.94
383.085	521.94
383.31	544.94
383.535	578.94
383.761	567.94
383.986	565.94
384.211	568.94
384.436	587.94
384.662	570.94
384.887	593.94
385.112	607.94
385.337	584.94
385.562	616.94
385.787	589.94
386.013	610.94
386.238	587.94
386.463	623.94
386.688	582.94
386.913	607.94
387.138	589.94
387.363	606.94
387.588	566.94
387.813	597.94
388.038	595.94
388.263	586.94
388.488	596.94
388.713	604.94
388.938	588.94
389.163	598.94
389.387	626.94
389.612	591.94
389.837	592.94
390.062	592.94
390.287	600.94
390.512	597.94
390.736	596.94
390.961	608.94
391.186	603.94
391.411	621.94
391.636	624.94
391.86	622.94
392.085	656.94
392.31	634.94
392.534	620.94
392.759	627.94
392.984	575.94
393.208	614.94
393.433	630.94
393.658	631.94
393.882	647.94
394.107	607.94
394.331	630.94
394.556	622.94
394.78	599.94
395.005	621.94
395.229	635.94
395.454	652.94
395.678	645.94
395.903	652.94
396.127	672.94
396.352	655.94
396.576	635.94
396.801	620.94
397.025	615.94
397.249	633.94
397.474	655.94
397.698	631.94
397.922	676.94
398.147	669.94
398.371	690.94
398.595	697.94
398.82	691.94
399.044	761.94
399.268	751.94
399.492	888.94
399.717	962.94
399.941	983.94
400.165	914.94
400.389	889.94
400.613	826.94
400.837	784.94
401.062	714.94
401.286	731.94
401.51	717.94
401.734	678.94
401.958	726.94
402.182	730.94
402.406	731.94
402.63	749.94
402.854	754.94
403.078	759.94
403.302	769.94
403.526	773.94
403.75	770.94
403.974	785.94
404.198	771.94
404.422	802.94
404.645	793.94
404.869	798.94
405.093	811.94
405.317	840.94
405.541	854.94
405.765	798.94
405.988	787.94
406.212	796.94
406.436	823.94
406.66	796.94
406.883	792.94
407.107	830.94
407.331	917.94
407.555	946.94
407.778	950.94
408.002	898.94
408.226	846.94
408.449	821.94
408.673	806.94
408.896	841.94
409.12	842.94
409.344	810.94
409.567	755.94
409.791	772.94
410.014	779.94
410.238	770.94
410.461	752.94
410.685	768.94
410.908	760.94
411.132	779.94
411.355	802.94
411.578	776.94
411.802	756.94
412.025	726.94
412.249	767.94
412.472	772.94
412.695	798.94
412.919	780.94
413.142	728.94
413.365	726.94
413.589	717.94
413.812	687.94
414.035	708.94
414.258	716.94
414.482	714.94
414.705	708.94
414.928	715.94
415.151	697.94
415.374	713.94
415.597	702.94
415.821	708.94
416.044	699.94
416.267	708.94
416.49	654.94
416.713	666.94
416.936	732.94
417.159	689.94
417.382	681.94
417.605	716.94
417.828	700.94
418.051	706.94
418.274	710.94
418.497	684.94
418.72	709.94
418.943	739.94
419.166	727.94
419.389	797.94
419.611	782.94
419.834	787.94
420.057	772.94
420.28	734.94
420.503	734.94
420.726	708.94
420.948	722.94
421.171	743.94
421.394	796.94
421.617	716.94
421.839	722.94
422.062	730.94
422.285	707.94
422.507	791.94
422.73	867.94
422.953	811.94
423.175	778.94
423.398	774.94
423.621	739.94
423.843	779.94
424.066	777.94
424.288	756.94
424.511	770.94
424.733	799.94
424.956	892.94
425.178	856.94
425.401	841.94
425.623	838.94
425.846	761.94
426.068	748.94
426.291	716.94
426.513	741.94
426.735	738.94
426.958	771.94
427.18	806.94
427.402	933.94
427.625	998.94
427.847	858.94
428.069	780.94
428.292	729.94
428.514	698.94
428.736	677.94
428.958	683.94
429.181	656.94
429.403	668.94
429.625	671.94
429.847	662.94
430.069	760.94
430.292	743.94
430.514	674.94
430.736	662.94
430.958	662.94
431.18	642.94
431.402	644.94
431.624	642.94
431.846	646.94
432.068	678.94
432.29	652.94
432.512	640.94
432.734	667.94
432.956	680.94
433.178	690.94
433.4	690.94
433.622	671.94
433.844	650.94
434.066	648.94
434.287	654.94
434.509	676.94
434.731	723.94
434.953	703.94
435.175	730.94
435.397	758.94
435.618	738.94
435.84	732.94
436.062	825.94
436.284	869.94
436.505	766.94
436.727	730.94
436.949	692.94
437.17	676.94
437.392	650.94
437.614	664.94
437.835	698.94
438.057	766.94
438.278	820.94
438.5	826.94
438.721	902.94
438.943	865.94
439.165	728.94
439.386	692.94
439.608	706.94
439.829	702.94
440.05	720.94
440.272	732.94
440.493	715.94
440.715	719.94
440.936	694.94
441.158	696.94
441.379	720.94
441.6	745.94
441.822	749.94
442.043	778.94
442.264	866.94
442.486	878.94
442.707	788.94
442.928	743.94
443.149	770.94
443.371	771.94
443.592	811.94
443.813	888.94
444.034	968.94
444.255	826.94
444.476	788.94
444.698	812.94
444.919	821.94
445.14	892.94
445.361	827.94
445.582	757.94
445.803	790.94
446.024	864.94
446.245	867.94
446.466	805.94
446.687	734.94
446.908	701.94
447.129	674.94
447.35	687.94
447.571	658.94
447.792	636.94
448.013	653.94
448.234	656.94
448.455	668.94
448.675	781.94
448.896	842.94
449.117	763.94
449.338	744.94
449.559	831.94
449.779	915.94
450	778.94
450.221	670.94
450.442	656.94
450.662	642.94
450.883	624.94
451.104	637.94
451.324	627.94
451.545	616.94
451.766	613.94
451.986	612.94
452.207	596.94
452.428	596.94
452.648	580.94
452.869	589.94
453.089	594.94
453.31	608.94
453.53	580.94
453.751	590.94
453.971	574.94
454.192	603.94
454.412	598.94
454.633	578.94
454.853	581.94
455.073	587.94
455.294	607.94
455.514	638.94
455.734	650.94
455.955	610.94
456.175	574.94
456.395	556.94
456.616	548.94
456.836	554.94
457.056	570.94
457.276	547.94
457.497	576.94
457.717	562.94
457.937	578.94
458.157	571.94
458.377	590.94
458.598	622.94
458.818	651.94
459.038	692.94
459.258	741.94
459.478	670.94
459.698	658.94
459.918	680.94
460.138	671.94
460.358	700.94
460.578	720.94
460.798	740.94
461.018	740.94
461.238	720.94
461.458	714.94
461.678	713.94
461.898	716.94
462.118	704.94
462.338	762.94
462.558	743.94
462.777	776.94
462.997	792.94
463.217	861.94
463.437	854.94
463.657	812.94
463.876	824.94
464.096	807.94
464.316	797.94
464.536	819.94
464.755	800.94
464.975	778.94
465.195	763.94
465.414	819.94
465.634	726.94
465.854	711.94
466.073	678.94
466.293	643.94
466.512	660.94
466.732	628.94
466.951	605.94
467.171	608.94
467.391	625.94
467.61	635.94
467.829	630.94
468.049	646.94
468.268	603.94
468.488	618.94
468.707	636.94
468.927	637.94
469.146	607.94
469.365	604.94
469.585	623.94
469.804	629.94
470.023	650.94
470.243	652.94
470.462	659.94
470.681	687.94
470.901	687.94
471.12	658.94
471.339	644.94
471.558	640.94
471.777	632.94
471.997	603.94
472.216	638.94
472.435	639.94
472.654	651.94
472.873	606.94
473.092	614.94
473.311	601.94
473.53	646.94
473.749	584.94
473.968	662.94
474.187	741.94
474.406	728.94
474.625	653.94
474.844	623.94
475.063	615.94
475.282	621.94
475.501	609.94
475.72	637.94
475.939	638.94
476.158	659.94
476.377	634.94
476.596	632.94
476.814	665.94
477.033	682.94
477.252	664.94
477.471	676.94
477.69	691.94
477.908	694.94
478.127	728.94
478.346	704.94
478.564	700.94
478.783	732.94
479.002	734.94
479.22	711.94
479.439	764.94
479.658	757.94
479.876	766.94
480.095	760.94
480.313	812.94
480.532	807.94
480.751	802.94
480.969	804.94
481.188	830.94
481.406	858.94
481.624	818.94
481.843	761.94
482.061	738.94
482.28	732.94
482.498	719.94
482.717	706.94
482.935	711.94
483.153	714.94
483.372	750.94
483.59	728.94
483.808	715.94
484.027	722.94
484.245	734.94
484.463	766.94
484.681	752.94
484.9	750.94
485.118	732.94
485.336	738.94
485.554	761.94
485.772	754.94
485.99	762.94
486.209	747.94
486.427	744.94
486.645	778.94
486.863	766.94
487.081	737.94
487.299	774.94
487.517	790.94
487.735	764.94
487.953	765.94
488.171	764.94
488.389	769.94
488.607	773.94
488.825	786.94
489.043	772.94
489.261	769.94
489.479	770.94
489.696	788.94
489.914	821.94
490.132	820.94
490.35	800.94
490.568	802.94
490.786	795.94
491.003	798.94
491.221	825.94
491.439	828.94
491.657	863.94
491.874	848.94
492.092	871.94
492.31	867.94
492.527	861.94
492.745	876.94
492.963	886.94
493.18	890.94
493.398	880.94
493.615	898.94
493.833	898.94
494.05	869.94
494.268	896.94
494.485	870.94
494.703	873.94
494.92	890.94
495.138	896.94
495.355	909.94
495.573	912.94
495.79	902.94
496.008	913.94
496.225	924.94
496.442	916.94
496.66	922.94
496.877	938.94
497.094	915.94
497.312	932.94
497.529	957.94
497.746	981.94
497.963	986.94
498.181	1035.94
498.398	1045.94
498.615	1079.94
498.832	1144.94
499.049	1229.94
499.267	1248.94
499.484	1311.94
499.701	1382.94
499.918	1478.94
500.135	1639.94
500.352	1736.94
500.569	1809.94
500.786	1892.94
501.003	1796.94
501.22	1657.94
501.437	1496.94
501.654	1400.94
