Data from 1963.PennyLincolnUp.Lamp.En5.5.200Scan.071719.P1._HRD10591_14-00-14-063.txt Node
Date: Thu Jul 18 14:00:14 EDT 2019
User: cochatt
Spectrometer: HR+D1059
Trigger mode: 1
Integration Time (sec): 1.000000E-1
Scans to average: 1
Electric dark correction enabled: true
Nonlinearity correction enabled: false
Boxcar width: 0
XAxis mode: Wavelengths
Number of Pixels in Spectrum: 2048
>>>>>Begin Spectral Data<<<<<
223.165	-10.12
223.4	-10.12
223.635	-10.12
223.869	-11.12
224.104	-5.12
224.338	-22.12
224.573	-13.12
224.808	-4.12
225.042	-0.12
225.277	-6.12
225.511	-7.12
225.746	-3.12
225.98	7.88
226.215	5.88
226.449	4.88
226.683	21.88
226.918	24.88
227.152	16.88
227.387	29.88
227.621	33.88
227.856	34.88
228.09	52.88
228.324	39.88
228.559	48.88
228.793	71.88
229.027	99.88
229.262	116.88
229.496	124.88
229.73	119.88
229.964	142.88
230.199	113.88
230.433	118.88
230.667	126.88
230.901	112.88
231.136	119.88
231.37	115.88
231.604	136.88
231.838	120.88
232.072	114.88
232.306	119.88
232.541	112.88
232.775	118.88
233.009	116.88
233.243	123.88
233.477	120.88
233.711	101.88
233.945	125.88
234.179	136.88
234.413	123.88
234.647	134.88
234.881	147.88
235.115	133.88
235.349	132.88
235.583	124.88
235.817	119.88
236.051	120.88
236.285	134.88
236.519	130.88
236.753	142.88
236.987	137.88
237.221	173.88
237.455	217.88
237.689	169.88
237.922	134.88
238.156	140.88
238.39	146.88
238.624	143.88
238.858	135.88
239.091	138.88
239.325	137.88
239.559	141.88
239.793	138.88
240.027	141.88
240.26	160.88
240.494	163.88
240.728	155.88
240.961	154.88
241.195	166.88
241.429	159.88
241.662	162.88
241.896	149.88
242.13	136.88
242.363	142.88
242.597	150.88
242.83	152.88
243.064	165.88
243.298	162.88
243.531	154.88
243.765	169.88
243.998	171.88
244.232	154.88
244.465	151.88
244.699	162.88
244.932	168.88
245.166	165.88
245.399	162.88
245.633	171.88
245.866	173.88
246.099	148.88
246.333	177.88
246.566	169.88
246.8	177.88
247.033	166.88
247.266	164.88
247.5	182.88
247.733	206.88
247.966	183.88
248.2	196.88
248.433	188.88
248.666	186.88
248.899	181.88
249.133	204.88
249.366	237.88
249.599	205.88
249.832	203.88
250.066	196.88
250.299	224.88
250.532	231.88
250.765	233.88
250.998	228.88
251.231	230.88
251.465	214.88
251.698	208.88
251.931	227.88
252.164	216.88
252.397	216.88
252.63	218.88
252.863	219.88
253.096	228.88
253.329	252.88
253.562	258.88
253.795	241.88
254.028	230.88
254.261	249.88
254.494	237.88
254.727	264.88
254.96	285.88
255.193	268.88
255.426	257.88
255.659	245.88
255.892	232.88
256.124	241.88
256.357	256.88
256.59	246.88
256.823	245.88
257.056	251.88
257.289	256.88
257.521	233.88
257.754	234.88
257.987	234.88
258.22	233.88
258.452	246.88
258.685	243.88
258.918	227.88
259.151	237.88
259.383	259.88
259.616	263.88
259.849	245.88
260.081	278.88
260.314	289.88
260.547	286.88
260.779	276.88
261.012	256.88
261.244	250.88
261.477	245.88
261.71	261.88
261.942	243.88
262.175	266.88
262.407	232.88
262.64	242.88
262.872	245.88
263.105	246.88
263.337	240.88
263.57	242.88
263.802	247.88
264.035	248.88
264.267	257.88
264.499	226.88
264.732	239.88
264.964	250.88
265.197	254.88
265.429	238.88
265.661	256.88
265.894	254.88
266.126	256.88
266.358	249.88
266.591	266.88
266.823	265.88
267.055	265.88
267.287	252.88
267.52	276.88
267.752	266.88
267.984	273.88
268.216	265.88
268.448	252.88
268.681	261.88
268.913	296.88
269.145	288.88
269.377	322.88
269.609	305.88
269.841	297.88
270.073	285.88
270.306	310.88
270.538	356.88
270.77	346.88
271.002	333.88
271.234	320.88
271.466	321.88
271.698	349.88
271.93	351.88
272.162	322.88
272.394	338.88
272.626	334.88
272.858	329.88
273.09	318.88
273.322	307.88
273.553	310.88
273.785	298.88
274.017	304.88
274.249	304.88
274.481	307.88
274.713	287.88
274.945	300.88
275.176	305.88
275.408	322.88
275.64	325.88
275.872	312.88
276.104	295.88
276.335	310.88
276.567	318.88
276.799	309.88
277.031	337.88
277.262	353.88
277.494	348.88
277.726	361.88
277.957	349.88
278.189	321.88
278.421	322.88
278.652	320.88
278.884	312.88
279.115	329.88
279.347	324.88
279.579	324.88
279.81	330.88
280.042	324.88
280.273	329.88
280.505	334.88
280.736	336.88
280.968	320.88
281.199	339.88
281.431	339.88
281.662	339.88
281.894	316.88
282.125	337.88
282.356	339.88
282.588	361.88
282.819	343.88
283.051	331.88
283.282	341.88
283.513	338.88
283.745	348.88
283.976	337.88
284.207	361.88
284.439	350.88
284.67	341.88
284.901	327.88
285.132	360.88
285.364	339.88
285.595	325.88
285.826	334.88
286.057	355.88
286.288	353.88
286.52	339.88
286.751	345.88
286.982	364.88
287.213	367.88
287.444	344.88
287.675	352.88
287.906	369.88
288.138	376.88
288.369	363.88
288.6	370.88
288.831	366.88
289.062	378.88
289.293	362.88
289.524	379.88
289.755	362.88
289.986	363.88
290.217	361.88
290.448	360.88
290.679	368.88
290.91	357.88
291.141	366.88
291.371	366.88
291.602	365.88
291.833	372.88
292.064	368.88
292.295	376.88
292.526	368.88
292.757	363.88
292.987	366.88
293.218	374.88
293.449	388.88
293.68	355.88
293.91	374.88
294.141	372.88
294.372	371.88
294.603	364.88
294.833	383.88
295.064	374.88
295.295	385.88
295.525	380.88
295.756	401.88
295.987	399.88
296.217	393.88
296.448	381.88
296.679	401.88
296.909	372.88
297.14	370.88
297.37	365.88
297.601	396.88
297.831	377.88
298.062	390.88
298.292	406.88
298.523	415.88
298.753	391.88
298.984	404.88
299.214	400.88
299.445	394.88
299.675	405.88
299.905	394.88
300.136	384.88
300.366	416.88
300.597	422.88
300.827	401.88
301.057	395.88
301.288	424.88
301.518	409.88
301.748	409.88
301.979	448.88
302.209	422.88
302.439	439.88
302.669	425.88
302.9	428.88
303.13	423.88
303.36	415.88
303.59	439.88
303.82	430.88
304.051	409.88
304.281	404.88
304.511	407.88
304.741	433.88
304.971	424.88
305.201	421.88
305.431	408.88
305.661	407.88
305.891	420.88
306.121	408.88
306.352	425.88
306.582	425.88
306.812	424.88
307.042	434.88
307.272	424.88
307.502	416.88
307.731	419.88
307.961	399.88
308.191	419.88
308.421	407.88
308.651	418.88
308.881	415.88
309.111	422.88
309.341	453.88
309.571	449.88
309.8	453.88
310.03	446.88
310.26	426.88
310.49	438.88
310.72	450.88
310.949	478.88
311.179	462.88
311.409	448.88
311.639	439.88
311.868	466.88
312.098	466.88
312.328	459.88
312.557	489.88
312.787	473.88
313.017	481.88
313.246	483.88
313.476	452.88
313.706	467.88
313.935	503.88
314.165	470.88
314.394	493.88
314.624	497.88
314.853	478.88
315.083	479.88
315.312	462.88
315.542	478.88
315.771	448.88
316.001	473.88
316.23	475.88
316.46	458.88
316.689	452.88
316.919	472.88
317.148	473.88
317.377	483.88
317.607	468.88
317.836	478.88
318.065	471.88
318.295	472.88
318.524	465.88
318.753	440.88
318.983	456.88
319.212	472.88
319.441	488.88
319.67	473.88
319.9	466.88
320.129	461.88
320.358	453.88
320.587	460.88
320.816	469.88
321.046	472.88
321.275	493.88
321.504	474.88
321.733	485.88
321.962	490.88
322.191	490.88
322.42	476.88
322.649	501.88
322.878	517.88
323.108	534.88
323.337	538.88
323.566	549.88
323.795	568.88
324.024	609.88
324.253	670.88
324.482	877.88
324.71	1267.88
324.939	1800.88
325.168	1582.88
325.397	896.88
325.626	672.88
325.855	574.88
326.084	568.88
326.313	542.88
326.542	567.88
326.77	600.88
326.999	631.88
327.228	807.88
327.457	1172.88
327.686	1416.88
327.914	989.88
328.143	718.88
328.372	659.88
328.6	634.88
328.829	587.88
329.058	647.88
329.287	616.88
329.515	600.88
329.744	577.88
329.972	570.88
330.201	617.88
330.43	605.88
330.658	631.88
330.887	640.88
331.115	648.88
331.344	602.88
331.572	566.88
331.801	600.88
332.03	610.88
332.258	580.88
332.486	554.88
332.715	591.88
332.943	595.88
333.172	613.88
333.4	633.88
333.629	646.88
333.857	634.88
334.085	662.88
334.314	664.88
334.542	702.88
334.771	701.88
334.999	650.88
335.227	605.88
335.455	614.88
335.684	645.88
335.912	597.88
336.14	572.88
336.369	601.88
336.597	618.88
336.825	608.88
337.053	574.88
337.281	573.88
337.51	561.88
337.738	587.88
337.966	550.88
338.194	564.88
338.422	580.88
338.65	541.88
338.878	554.88
339.106	556.88
339.334	562.88
339.562	521.88
339.79	552.88
340.018	552.88
340.246	531.88
340.474	548.88
340.702	551.88
340.93	547.88
341.158	546.88
341.386	539.88
341.614	547.88
341.842	562.88
342.07	529.88
342.298	531.88
342.526	517.88
342.754	531.88
342.981	539.88
343.209	557.88
343.437	545.88
343.665	598.88
343.893	586.88
344.12	614.88
344.348	618.88
344.576	586.88
344.804	588.88
345.031	576.88
345.259	575.88
345.487	521.88
345.714	560.88
345.942	525.88
346.17	530.88
346.397	525.88
346.625	508.88
346.853	518.88
347.08	512.88
347.308	520.88
347.535	522.88
347.763	533.88
347.99	533.88
348.218	520.88
348.445	525.88
348.673	527.88
348.9	514.88
349.128	526.88
349.355	504.88
349.583	503.88
349.81	519.88
350.037	514.88
350.265	506.88
350.492	506.88
350.72	492.88
350.947	504.88
351.174	507.88
351.402	516.88
351.629	520.88
351.856	527.88
352.083	505.88
352.311	539.88
352.538	493.88
352.765	515.88
352.992	507.88
353.22	512.88
353.447	500.88
353.674	498.88
353.901	493.88
354.128	491.88
354.355	503.88
354.583	516.88
354.81	490.88
355.037	506.88
355.264	503.88
355.491	504.88
355.718	479.88
355.945	501.88
356.172	496.88
356.399	486.88
356.626	524.88
356.853	496.88
357.08	489.88
357.307	489.88
357.534	480.88
357.761	483.88
357.988	493.88
358.215	522.88
358.441	512.88
358.668	499.88
358.895	518.88
359.122	512.88
359.349	508.88
359.576	526.88
359.802	505.88
360.029	553.88
360.256	565.88
360.483	547.88
360.709	500.88
360.936	522.88
361.163	522.88
361.39	525.88
361.616	541.88
361.843	503.88
362.07	500.88
362.296	511.88
362.523	525.88
362.749	522.88
362.976	505.88
363.203	522.88
363.429	501.88
363.656	515.88
363.882	518.88
364.109	498.88
364.335	491.88
364.562	499.88
364.788	501.88
365.015	512.88
365.241	492.88
365.468	514.88
365.694	498.88
365.92	528.88
366.147	506.88
366.373	506.88
366.599	505.88
366.826	487.88
367.052	504.88
367.278	498.88
367.505	512.88
367.731	510.88
367.957	504.88
368.184	512.88
368.41	500.88
368.636	510.88
368.862	512.88
369.089	496.88
369.315	505.88
369.541	498.88
369.767	515.88
369.993	514.88
370.219	514.88
370.445	525.88
370.672	506.88
370.898	518.88
371.124	512.88
371.35	542.88
371.576	543.88
371.802	506.88
372.028	522.88
372.254	527.88
372.48	511.88
372.706	526.88
372.932	548.88
373.158	547.88
373.384	542.88
373.61	531.88
373.835	558.88
374.061	554.88
374.287	543.88
374.513	546.88
374.739	565.88
374.965	580.88
375.191	554.88
375.416	541.88
375.642	561.88
375.868	546.88
376.094	562.88
376.319	523.88
376.545	539.88
376.771	525.88
376.997	528.88
377.222	536.88
377.448	541.88
377.674	524.88
377.899	523.88
378.125	514.88
378.35	531.88
378.576	516.88
378.802	509.88
379.027	526.88
379.253	535.88
379.478	531.88
379.704	514.88
379.929	513.88
380.155	521.88
380.38	532.88
380.606	518.88
380.831	528.88
381.057	541.88
381.282	513.88
381.507	523.88
381.733	543.88
381.958	537.88
382.184	527.88
382.409	536.88
382.634	536.88
382.86	522.88
383.085	546.88
383.31	555.88
383.535	562.88
383.761	528.88
383.986	593.88
384.211	585.88
384.436	578.88
384.662	584.88
384.887	583.88
385.112	586.88
385.337	571.88
385.562	589.88
385.787	600.88
386.013	608.88
386.238	630.88
386.463	616.88
386.688	632.88
386.913	606.88
387.138	605.88
387.363	596.88
387.588	583.88
387.813	612.88
388.038	591.88
388.263	594.88
388.488	603.88
388.713	632.88
388.938	590.88
389.163	614.88
389.387	590.88
389.612	589.88
389.837	604.88
390.062	577.88
390.287	610.88
390.512	603.88
390.736	601.88
390.961	606.88
391.186	610.88
391.411	632.88
391.636	638.88
391.86	634.88
392.085	660.88
392.31	638.88
392.534	652.88
392.759	640.88
392.984	632.88
393.208	605.88
393.433	621.88
393.658	630.88
393.882	624.88
394.107	618.88
394.331	626.88
394.556	627.88
394.78	627.88
395.005	633.88
395.229	632.88
395.454	628.88
395.678	640.88
395.903	666.88
396.127	667.88
396.352	667.88
396.576	651.88
396.801	632.88
397.025	659.88
397.249	648.88
397.474	648.88
397.698	661.88
397.922	670.88
398.147	680.88
398.371	694.88
398.595	695.88
398.82	718.88
399.044	742.88
399.268	817.88
399.492	898.88
399.717	944.88
399.941	992.88
400.165	938.88
400.389	892.88
400.613	829.88
400.837	772.88
401.062	742.88
401.286	731.88
401.51	719.88
401.734	727.88
401.958	740.88
402.182	701.88
402.406	754.88
402.63	731.88
402.854	764.88
403.078	752.88
403.302	767.88
403.526	786.88
403.75	787.88
403.974	798.88
404.198	792.88
404.422	781.88
404.645	814.88
404.869	803.88
405.093	841.88
405.317	838.88
405.541	882.88
405.765	830.88
405.988	792.88
406.212	797.88
406.436	800.88
406.66	839.88
406.883	830.88
407.107	854.88
407.331	919.88
407.555	977.88
407.778	962.88
408.002	925.88
408.226	864.88
408.449	845.88
408.673	812.88
408.896	834.88
409.12	868.88
409.344	829.88
409.567	796.88
409.791	792.88
410.014	760.88
410.238	772.88
410.461	768.88
410.685	764.88
410.908	747.88
411.132	784.88
411.355	788.88
411.578	807.88
411.802	790.88
412.025	746.88
412.249	778.88
412.472	780.88
412.695	810.88
412.919	776.88
413.142	738.88
413.365	739.88
413.589	736.88
413.812	715.88
414.035	712.88
414.258	677.88
414.482	720.88
414.705	721.88
414.928	731.88
415.151	704.88
415.374	731.88
415.597	690.88
415.821	699.88
416.044	689.88
416.267	706.88
416.49	725.88
416.713	695.88
416.936	708.88
417.159	697.88
417.382	704.88
417.605	707.88
417.828	721.88
418.051	728.88
418.274	739.88
418.497	709.88
418.72	699.88
418.943	713.88
419.166	742.88
419.389	804.88
419.611	792.88
419.834	766.88
420.057	749.88
420.28	758.88
420.503	733.88
420.726	749.88
420.948	724.88
421.171	772.88
421.394	793.88
421.617	754.88
421.839	746.88
422.062	717.88
422.285	707.88
422.507	805.88
422.73	837.88
422.953	864.88
423.175	766.88
423.398	762.88
423.621	743.88
423.843	779.88
424.066	801.88
424.288	778.88
424.511	782.88
424.733	823.88
424.956	932.88
425.178	876.88
425.401	853.88
425.623	856.88
425.846	770.88
426.068	738.88
426.291	725.88
426.513	742.88
426.735	752.88
426.958	788.88
427.18	850.88
427.402	963.88
427.625	1003.88
427.847	896.88
428.069	809.88
428.292	752.88
428.514	695.88
428.736	688.88
428.958	686.88
429.181	672.88
429.403	676.88
429.625	680.88
429.847	706.88
430.069	761.88
430.292	775.88
430.514	684.88
430.736	674.88
430.958	672.88
431.18	654.88
431.402	658.88
431.624	646.88
431.846	682.88
432.068	666.88
432.29	676.88
432.512	669.88
432.734	660.88
432.956	677.88
433.178	677.88
433.4	697.88
433.622	663.88
433.844	663.88
434.066	648.88
434.287	662.88
434.509	682.88
434.731	719.88
434.953	720.88
435.175	742.88
435.397	744.88
435.618	736.88
435.84	785.88
436.062	844.88
436.284	890.88
436.505	784.88
436.727	725.88
436.949	702.88
437.17	699.88
437.392	680.88
437.614	681.88
437.835	706.88
438.057	812.88
438.278	837.88
438.5	871.88
438.721	949.88
438.943	865.88
439.165	768.88
439.386	716.88
439.608	723.88
439.829	736.88
440.05	721.88
440.272	791.88
440.493	756.88
440.715	729.88
440.936	692.88
441.158	690.88
441.379	708.88
441.6	734.88
441.822	741.88
442.043	776.88
442.264	877.88
442.486	876.88
442.707	795.88
442.928	752.88
443.149	755.88
443.371	766.88
443.592	826.88
443.813	886.88
444.034	926.88
444.255	850.88
444.476	780.88
444.698	840.88
444.919	841.88
445.14	865.88
445.361	852.88
445.582	807.88
445.803	812.88
446.024	900.88
446.245	892.88
446.466	817.88
446.687	745.88
446.908	720.88
447.129	675.88
447.35	674.88
447.571	673.88
447.792	668.88
448.013	665.88
448.234	699.88
448.455	704.88
448.675	796.88
448.896	904.88
449.117	796.88
449.338	757.88
449.559	843.88
449.779	931.88
450	774.88
450.221	682.88
450.442	677.88
450.662	622.88
450.883	644.88
451.104	673.88
451.324	652.88
451.545	620.88
451.766	628.88
451.986	603.88
452.207	603.88
452.428	611.88
452.648	599.88
452.869	605.88
453.089	611.88
453.31	624.88
453.53	626.88
453.751	621.88
453.971	606.88
454.192	622.88
454.412	603.88
454.633	586.88
454.853	588.88
455.073	595.88
455.294	599.88
455.514	664.88
455.734	667.88
455.955	608.88
456.175	582.88
456.395	570.88
456.616	566.88
456.836	574.88
457.056	565.88
457.276	557.88
457.497	572.88
457.717	568.88
457.937	590.88
458.157	580.88
458.377	611.88
458.598	611.88
458.818	638.88
459.038	732.88
459.258	759.88
459.478	700.88
459.698	665.88
459.918	677.88
460.138	695.88
460.358	722.88
460.578	728.88
460.798	716.88
461.018	729.88
461.238	720.88
461.458	716.88
461.678	740.88
461.898	746.88
462.118	740.88
462.338	781.88
462.558	794.88
462.777	813.88
462.997	856.88
463.217	876.88
463.437	877.88
463.657	839.88
463.876	816.88
464.096	826.88
464.316	787.88
464.536	803.88
464.755	780.88
464.975	808.88
465.195	774.88
465.414	824.88
465.634	757.88
465.854	702.88
466.073	688.88
466.293	663.88
466.512	638.88
466.732	636.88
466.951	669.88
467.171	636.88
467.391	652.88
467.61	661.88
467.829	674.88
468.049	641.88
468.268	661.88
468.488	617.88
468.707	615.88
468.927	599.88
469.146	616.88
469.365	626.88
469.585	638.88
469.804	613.88
470.023	641.88
470.243	656.88
470.462	661.88
470.681	692.88
470.901	675.88
471.12	648.88
471.339	640.88
471.558	649.88
471.777	647.88
471.997	637.88
472.216	633.88
472.435	658.88
472.654	658.88
472.873	624.88
473.092	637.88
473.311	646.88
473.53	613.88
473.749	617.88
473.968	660.88
474.187	718.88
474.406	753.88
474.625	694.88
474.844	652.88
475.063	620.88
475.282	619.88
475.501	618.88
475.72	621.88
475.939	632.88
476.158	637.88
476.377	651.88
476.596	634.88
476.814	651.88
477.033	667.88
477.252	674.88
477.471	661.88
477.69	700.88
477.908	691.88
478.127	743.88
478.346	721.88
478.564	724.88
478.783	746.88
479.002	763.88
479.22	797.88
479.439	772.88
479.658	782.88
479.876	791.88
480.095	782.88
480.313	828.88
480.532	842.88
480.751	820.88
480.969	836.88
481.188	845.88
481.406	885.88
481.624	818.88
481.843	781.88
482.061	760.88
482.28	736.88
482.498	744.88
482.717	723.88
482.935	737.88
483.153	715.88
483.372	730.88
483.59	729.88
483.808	744.88
484.027	734.88
484.245	729.88
484.463	747.88
484.681	770.88
484.9	743.88
485.118	766.88
485.336	788.88
485.554	764.88
485.772	773.88
485.99	741.88
486.209	749.88
486.427	759.88
486.645	793.88
486.863	783.88
487.081	796.88
487.299	798.88
487.517	773.88
487.735	786.88
487.953	788.88
488.171	788.88
488.389	774.88
488.607	788.88
488.825	773.88
489.043	791.88
489.261	787.88
489.479	780.88
489.696	795.88
489.914	822.88
490.132	805.88
490.35	827.88
490.568	804.88
490.786	822.88
491.003	844.88
491.221	826.88
491.439	858.88
491.657	861.88
491.874	860.88
492.092	826.88
492.31	864.88
492.527	881.88
492.745	902.88
492.963	891.88
493.18	898.88
493.398	915.88
493.615	906.88
493.833	916.88
494.05	910.88
494.268	919.88
494.485	903.88
494.703	920.88
494.92	924.88
495.138	894.88
495.355	912.88
495.573	910.88
495.79	900.88
496.008	917.88
496.225	902.88
496.442	910.88
496.66	940.88
496.877	918.88
497.094	951.88
497.312	933.88
497.529	979.88
497.746	1001.88
497.963	1005.88
498.181	1050.88
498.398	1093.88
498.615	1099.88
498.832	1140.88
499.049	1180.88
499.267	1251.88
499.484	1346.88
499.701	1444.88
499.918	1549.88
500.135	1642.88
500.352	1771.88
500.569	1848.88
500.786	1859.88
501.003	1817.88
501.22	1687.88
501.437	1571.88
501.654	1413.88
