Data from 1963.PennyLincolnUp.Lamp.En5.5.200Scan.071719.P1._HRD10591_13-57-23-062.txt Node
Date: Thu Jul 18 13:57:23 EDT 2019
User: cochatt
Spectrometer: HR+D1059
Trigger mode: 1
Integration Time (sec): 1.000000E-1
Scans to average: 1
Electric dark correction enabled: true
Nonlinearity correction enabled: false
Boxcar width: 0
XAxis mode: Wavelengths
Number of Pixels in Spectrum: 2048
>>>>>Begin Spectral Data<<<<<
223.165	-14.12
223.4	-14.12
223.635	-14.12
223.869	-31.12
224.104	-26.12
224.338	-10.12
224.573	-10.12
224.808	-17.12
225.042	1.88
225.277	-4.12
225.511	-3.12
225.746	11.88
225.98	10.88
226.215	16.88
226.449	8.88
226.683	21.88
226.918	22.88
227.152	20.88
227.387	28.88
227.621	38.88
227.856	34.88
228.09	33.88
228.324	56.88
228.559	61.88
228.793	67.88
229.027	90.88
229.262	102.88
229.496	96.88
229.73	114.88
229.964	117.88
230.199	112.88
230.433	113.88
230.667	102.88
230.901	122.88
231.136	120.88
231.37	116.88
231.604	108.88
231.838	112.88
232.072	112.88
232.306	125.88
232.541	110.88
232.775	106.88
233.009	99.88
233.243	112.88
233.477	102.88
233.711	132.88
233.945	121.88
234.179	116.88
234.413	117.88
234.647	104.88
234.881	108.88
235.115	126.88
235.349	92.88
235.583	112.88
235.817	109.88
236.051	112.88
236.285	118.88
236.519	127.88
236.753	124.88
236.987	139.88
237.221	148.88
237.455	176.88
237.689	160.88
237.922	139.88
238.156	134.88
238.39	134.88
238.624	123.88
238.858	137.88
239.091	128.88
239.325	114.88
239.559	124.88
239.793	129.88
240.027	146.88
240.26	140.88
240.494	140.88
240.728	138.88
240.961	148.88
241.195	139.88
241.429	146.88
241.662	160.88
241.896	124.88
242.13	136.88
242.363	138.88
242.597	129.88
242.83	142.88
243.064	153.88
243.298	165.88
243.531	140.88
243.765	143.88
243.998	143.88
244.232	145.88
244.465	164.88
244.699	162.88
244.932	142.88
245.166	146.88
245.399	161.88
245.633	162.88
245.866	157.88
246.099	161.88
246.333	165.88
246.566	154.88
246.8	154.88
247.033	172.88
247.266	162.88
247.5	166.88
247.733	189.88
247.966	170.88
248.2	171.88
248.433	168.88
248.666	163.88
248.899	169.88
249.133	178.88
249.366	194.88
249.599	202.88
249.832	181.88
250.066	187.88
250.299	184.88
250.532	198.88
250.765	212.88
250.998	208.88
251.231	225.88
251.465	192.88
251.698	205.88
251.931	208.88
252.164	199.88
252.397	206.88
252.63	204.88
252.863	201.88
253.096	225.88
253.329	228.88
253.562	203.88
253.795	208.88
254.028	219.88
254.261	218.88
254.494	223.88
254.727	242.88
254.96	252.88
255.193	237.88
255.426	221.88
255.659	228.88
255.892	214.88
256.124	218.88
256.357	226.88
256.59	228.88
256.823	198.88
257.056	226.88
257.289	218.88
257.521	216.88
257.754	228.88
257.987	219.88
258.22	211.88
258.452	215.88
258.685	205.88
258.918	226.88
259.151	230.88
259.383	217.88
259.616	226.88
259.849	217.88
260.081	245.88
260.314	234.88
260.547	246.88
260.779	247.88
261.012	224.88
261.244	213.88
261.477	232.88
261.71	224.88
261.942	231.88
262.175	230.88
262.407	212.88
262.64	205.88
262.872	234.88
263.105	229.88
263.337	242.88
263.57	229.88
263.802	223.88
264.035	240.88
264.267	228.88
264.499	224.88
264.732	222.88
264.964	227.88
265.197	246.88
265.429	216.88
265.661	242.88
265.894	228.88
266.126	216.88
266.358	232.88
266.591	211.88
266.823	230.88
267.055	222.88
267.287	229.88
267.52	242.88
267.752	230.88
267.984	250.88
268.216	254.88
268.448	251.88
268.681	249.88
268.913	232.88
269.145	270.88
269.377	270.88
269.609	285.88
269.841	262.88
270.073	280.88
270.306	272.88
270.538	298.88
270.77	290.88
271.002	284.88
271.234	271.88
271.466	273.88
271.698	289.88
271.93	305.88
272.162	290.88
272.394	307.88
272.626	292.88
272.858	277.88
273.09	286.88
273.322	291.88
273.553	288.88
273.785	269.88
274.017	294.88
274.249	277.88
274.481	283.88
274.713	269.88
274.945	288.88
275.176	300.88
275.408	288.88
275.64	278.88
275.872	282.88
276.104	286.88
276.335	295.88
276.567	269.88
276.799	291.88
277.031	294.88
277.262	312.88
277.494	300.88
277.726	310.88
277.957	300.88
278.189	291.88
278.421	284.88
278.652	293.88
278.884	291.88
279.115	298.88
279.347	306.88
279.579	308.88
279.81	308.88
280.042	301.88
280.273	314.88
280.505	310.88
280.736	302.88
280.968	323.88
281.199	307.88
281.431	301.88
281.662	308.88
281.894	304.88
282.125	300.88
282.356	310.88
282.588	326.88
282.819	315.88
283.051	312.88
283.282	322.88
283.513	301.88
283.745	302.88
283.976	320.88
284.207	306.88
284.439	306.88
284.67	302.88
284.901	319.88
285.132	315.88
285.364	315.88
285.595	329.88
285.826	339.88
286.057	315.88
286.288	305.88
286.52	329.88
286.751	316.88
286.982	328.88
287.213	323.88
287.444	308.88
287.675	323.88
287.906	331.88
288.138	341.88
288.369	328.88
288.6	342.88
288.831	326.88
289.062	325.88
289.293	341.88
289.524	343.88
289.755	334.88
289.986	340.88
290.217	336.88
290.448	344.88
290.679	332.88
290.91	321.88
291.141	342.88
291.371	340.88
291.602	340.88
291.833	337.88
292.064	335.88
292.295	354.88
292.526	325.88
292.757	333.88
292.987	331.88
293.218	308.88
293.449	348.88
293.68	341.88
293.91	332.88
294.141	338.88
294.372	354.88
294.603	329.88
294.833	352.88
295.064	341.88
295.295	331.88
295.525	340.88
295.756	339.88
295.987	346.88
296.217	354.88
296.448	361.88
296.679	347.88
296.909	354.88
297.14	363.88
297.37	368.88
297.601	365.88
297.831	361.88
298.062	360.88
298.292	376.88
298.523	354.88
298.753	376.88
298.984	376.88
299.214	370.88
299.445	356.88
299.675	370.88
299.905	360.88
300.136	367.88
300.366	386.88
300.597	387.88
300.827	358.88
301.057	382.88
301.288	386.88
301.518	393.88
301.748	381.88
301.979	385.88
302.209	387.88
302.439	382.88
302.669	384.88
302.9	387.88
303.13	404.88
303.36	373.88
303.59	391.88
303.82	404.88
304.051	376.88
304.281	403.88
304.511	381.88
304.741	378.88
304.971	380.88
305.201	381.88
305.431	395.88
305.661	391.88
305.891	380.88
306.121	378.88
306.352	372.88
306.582	368.88
306.812	373.88
307.042	385.88
307.272	386.88
307.502	385.88
307.731	397.88
307.961	395.88
308.191	372.88
308.421	404.88
308.651	402.88
308.881	390.88
309.111	397.88
309.341	395.88
309.571	382.88
309.8	390.88
310.03	396.88
310.26	400.88
310.49	384.88
310.72	409.88
310.949	412.88
311.179	412.88
311.409	414.88
311.639	391.88
311.868	423.88
312.098	417.88
312.328	422.88
312.557	437.88
312.787	422.88
313.017	422.88
313.246	412.88
313.476	404.88
313.706	401.88
313.935	427.88
314.165	440.88
314.394	434.88
314.624	428.88
314.853	420.88
315.083	448.88
315.312	408.88
315.542	428.88
315.771	424.88
316.001	448.88
316.23	429.88
316.46	420.88
316.689	430.88
316.919	426.88
317.148	420.88
317.377	425.88
317.607	420.88
317.836	444.88
318.065	420.88
318.295	395.88
318.524	413.88
318.753	428.88
318.983	424.88
319.212	435.88
319.441	412.88
319.67	414.88
319.9	418.88
320.129	429.88
320.358	446.88
320.587	417.88
320.816	413.88
321.046	432.88
321.275	423.88
321.504	435.88
321.733	433.88
321.962	414.88
322.191	443.88
322.42	448.88
322.649	456.88
322.878	460.88
323.108	449.88
323.337	448.88
323.566	474.88
323.795	482.88
324.024	508.88
324.253	515.88
324.482	624.88
324.71	834.88
324.939	1175.88
325.168	1046.88
325.397	651.88
325.626	511.88
325.855	485.88
326.084	459.88
326.313	476.88
326.542	485.88
326.77	502.88
326.999	532.88
327.228	632.88
327.457	822.88
327.686	989.88
327.914	702.88
328.143	558.88
328.372	537.88
328.6	506.88
328.829	499.88
329.058	512.88
329.287	508.88
329.515	507.88
329.744	516.88
329.972	493.88
330.201	523.88
330.43	541.88
330.658	533.88
330.887	525.88
331.115	538.88
331.344	508.88
331.572	512.88
331.801	499.88
332.03	510.88
332.258	523.88
332.486	511.88
332.715	531.88
332.943	534.88
333.172	547.88
333.4	575.88
333.629	565.88
333.857	566.88
334.085	567.88
334.314	601.88
334.542	605.88
334.771	595.88
334.999	576.88
335.227	548.88
335.455	544.88
335.684	551.88
335.912	534.88
336.14	563.88
336.369	546.88
336.597	524.88
336.825	549.88
337.053	527.88
337.281	527.88
337.51	511.88
337.738	516.88
337.966	516.88
338.194	513.88
338.422	520.88
338.65	517.88
338.878	490.88
339.106	525.88
339.334	492.88
339.562	498.88
339.79	476.88
340.018	510.88
340.246	496.88
340.474	489.88
340.702	496.88
340.93	498.88
341.158	487.88
341.386	487.88
341.614	474.88
341.842	495.88
342.07	470.88
342.298	476.88
342.526	479.88
342.754	505.88
342.981	486.88
343.209	506.88
343.437	498.88
343.665	520.88
343.893	552.88
344.12	549.88
344.348	554.88
344.576	515.88
344.804	504.88
345.031	497.88
345.259	499.88
345.487	466.88
345.714	498.88
345.942	488.88
346.17	476.88
346.397	475.88
346.625	464.88
346.853	464.88
347.08	474.88
347.308	474.88
347.535	474.88
347.763	468.88
347.99	473.88
348.218	466.88
348.445	460.88
348.673	456.88
348.9	459.88
349.128	474.88
349.355	449.88
349.583	461.88
349.81	475.88
350.037	438.88
350.265	466.88
350.492	470.88
350.72	485.88
350.947	451.88
351.174	450.88
351.402	450.88
351.629	463.88
351.856	460.88
352.083	456.88
352.311	462.88
352.538	460.88
352.765	469.88
352.992	462.88
353.22	454.88
353.447	457.88
353.674	460.88
353.901	464.88
354.128	444.88
354.355	438.88
354.583	455.88
354.81	448.88
355.037	469.88
355.264	465.88
355.491	450.88
355.718	461.88
355.945	443.88
356.172	452.88
356.399	457.88
356.626	446.88
356.853	460.88
357.08	465.88
357.307	455.88
357.534	450.88
357.761	459.88
357.988	460.88
358.215	449.88
358.441	439.88
358.668	452.88
358.895	447.88
359.122	465.88
359.349	483.88
359.576	455.88
359.802	454.88
360.029	472.88
360.256	502.88
360.483	477.88
360.709	458.88
360.936	466.88
361.163	449.88
361.39	474.88
361.616	467.88
361.843	452.88
362.07	464.88
362.296	460.88
362.523	453.88
362.749	455.88
362.976	465.88
363.203	466.88
363.429	448.88
363.656	459.88
363.882	459.88
364.109	456.88
364.335	442.88
364.562	460.88
364.788	449.88
365.015	468.88
365.241	449.88
365.468	460.88
365.694	458.88
365.92	485.88
366.147	450.88
366.373	453.88
366.599	450.88
366.826	453.88
367.052	461.88
367.278	447.88
367.505	454.88
367.731	457.88
367.957	452.88
368.184	456.88
368.41	467.88
368.636	460.88
368.862	482.88
369.089	475.88
369.315	462.88
369.541	478.88
369.767	491.88
369.993	460.88
370.219	458.88
370.445	498.88
370.672	468.88
370.898	473.88
371.124	485.88
371.35	477.88
371.576	471.88
371.802	492.88
372.028	488.88
372.254	478.88
372.48	471.88
372.706	494.88
372.932	494.88
373.158	484.88
373.384	488.88
373.61	478.88
373.835	500.88
374.061	478.88
374.287	501.88
374.513	475.88
374.739	501.88
374.965	514.88
375.191	510.88
375.416	527.88
375.642	509.88
375.868	530.88
376.094	487.88
376.319	486.88
376.545	469.88
376.771	512.88
376.997	489.88
377.222	488.88
377.448	494.88
377.674	481.88
377.899	484.88
378.125	484.88
378.35	468.88
378.576	486.88
378.802	473.88
379.027	481.88
379.253	509.88
379.478	481.88
379.704	487.88
379.929	499.88
380.155	485.88
380.38	453.88
380.606	476.88
380.831	468.88
381.057	486.88
381.282	481.88
381.507	478.88
381.733	491.88
381.958	481.88
382.184	486.88
382.409	492.88
382.634	494.88
382.86	502.88
383.085	508.88
383.31	510.88
383.535	519.88
383.761	516.88
383.986	522.88
384.211	523.88
384.436	531.88
384.662	533.88
384.887	548.88
385.112	549.88
385.337	575.88
385.562	571.88
385.787	556.88
386.013	570.88
386.238	584.88
386.463	590.88
386.688	572.88
386.913	548.88
387.138	558.88
387.363	564.88
387.588	534.88
387.813	562.88
388.038	554.88
388.263	551.88
388.488	556.88
388.713	560.88
388.938	536.88
389.163	561.88
389.387	552.88
389.612	552.88
389.837	566.88
390.062	550.88
390.287	558.88
390.512	568.88
390.736	548.88
390.961	547.88
391.186	581.88
391.411	563.88
391.636	603.88
391.86	581.88
392.085	599.88
392.31	604.88
392.534	608.88
392.759	594.88
392.984	586.88
393.208	592.88
393.433	591.88
393.658	580.88
393.882	588.88
394.107	577.88
394.331	583.88
394.556	578.88
394.78	583.88
395.005	593.88
395.229	584.88
395.454	607.88
395.678	601.88
395.903	608.88
396.127	596.88
396.352	587.88
396.576	590.88
396.801	579.88
397.025	589.88
397.249	615.88
397.474	596.88
397.698	595.88
397.922	610.88
398.147	617.88
398.371	640.88
398.595	642.88
398.82	653.88
399.044	701.88
399.268	748.88
399.492	815.88
399.717	889.88
399.941	911.88
400.165	883.88
400.389	832.88
400.613	747.88
400.837	706.88
401.062	670.88
401.286	670.88
401.51	694.88
401.734	649.88
401.958	703.88
402.182	682.88
402.406	686.88
402.63	665.88
402.854	680.88
403.078	706.88
403.302	729.88
403.526	720.88
403.75	726.88
403.974	724.88
404.198	745.88
404.422	699.88
404.645	737.88
404.869	726.88
405.093	749.88
405.317	772.88
405.541	798.88
405.765	713.88
405.988	708.88
406.212	718.88
406.436	725.88
406.66	757.88
406.883	752.88
407.107	772.88
407.331	832.88
407.555	892.88
407.778	883.88
408.002	826.88
408.226	782.88
408.449	782.88
408.673	773.88
408.896	744.88
409.12	766.88
409.344	756.88
409.567	719.88
409.791	712.88
410.014	719.88
410.238	692.88
410.461	701.88
410.685	715.88
410.908	721.88
411.132	717.88
411.355	713.88
411.578	718.88
411.802	705.88
412.025	683.88
412.249	693.88
412.472	724.88
412.695	730.88
412.919	712.88
413.142	697.88
413.365	660.88
413.589	662.88
413.812	681.88
414.035	658.88
414.258	667.88
414.482	672.88
414.705	661.88
414.928	666.88
415.151	666.88
415.374	679.88
415.597	656.88
415.821	636.88
416.044	644.88
416.267	672.88
416.49	650.88
416.713	638.88
416.936	639.88
417.159	650.88
417.382	640.88
417.605	658.88
417.828	648.88
418.051	688.88
418.274	672.88
418.497	648.88
418.72	651.88
418.943	668.88
419.166	686.88
419.389	717.88
419.611	740.88
419.834	684.88
420.057	710.88
420.28	685.88
420.503	692.88
420.726	660.88
420.948	665.88
421.171	693.88
421.394	717.88
421.617	666.88
421.839	670.88
422.062	677.88
422.285	684.88
422.507	692.88
422.73	774.88
422.953	770.88
423.175	700.88
423.398	710.88
423.621	694.88
423.843	713.88
424.066	688.88
424.288	714.88
424.511	727.88
424.733	741.88
424.956	777.88
425.178	780.88
425.401	773.88
425.623	791.88
425.846	677.88
426.068	685.88
426.291	659.88
426.513	646.88
426.735	653.88
426.958	678.88
427.18	713.88
427.402	804.88
427.625	852.88
427.847	750.88
428.069	704.88
428.292	650.88
428.514	624.88
428.736	631.88
428.958	638.88
429.181	617.88
429.403	600.88
429.625	606.88
429.847	638.88
430.069	674.88
430.292	654.88
430.514	614.88
430.736	612.88
430.958	605.88
431.18	587.88
431.402	591.88
431.624	596.88
431.846	616.88
432.068	603.88
432.29	621.88
432.512	599.88
432.734	606.88
432.956	606.88
433.178	592.88
433.4	597.88
433.622	605.88
433.844	631.88
434.066	631.88
434.287	596.88
434.509	643.88
434.731	646.88
434.953	654.88
435.175	661.88
435.397	663.88
435.618	663.88
435.84	649.88
436.062	721.88
436.284	741.88
436.505	680.88
436.727	650.88
436.949	621.88
437.17	603.88
437.392	603.88
437.614	595.88
437.835	608.88
438.057	679.88
438.278	717.88
438.5	727.88
438.721	782.88
438.943	770.88
439.165	640.88
439.386	648.88
439.608	652.88
439.829	624.88
440.05	629.88
440.272	684.88
440.493	652.88
440.715	654.88
440.936	630.88
441.158	642.88
441.379	640.88
441.6	662.88
441.822	683.88
442.043	700.88
442.264	729.88
442.486	770.88
442.707	686.88
442.928	672.88
443.149	668.88
443.371	704.88
443.592	688.88
443.813	757.88
444.034	796.88
444.255	732.88
444.476	725.88
444.698	733.88
444.919	737.88
445.14	873.88
445.361	791.88
445.582	688.88
445.803	704.88
446.024	775.88
446.245	760.88
446.466	748.88
446.687	645.88
446.908	650.88
447.129	621.88
447.35	588.88
447.571	595.88
447.792	594.88
448.013	595.88
448.234	594.88
448.455	613.88
448.675	664.88
448.896	768.88
449.117	666.88
449.338	648.88
449.559	731.88
449.779	794.88
450	648.88
450.221	620.88
450.442	580.88
450.662	574.88
450.883	576.88
451.104	590.88
451.324	556.88
451.545	566.88
451.766	567.88
451.986	551.88
452.207	556.88
452.428	555.88
452.648	542.88
452.869	544.88
453.089	519.88
453.31	563.88
453.53	538.88
453.751	562.88
453.971	549.88
454.192	564.88
454.412	549.88
454.633	540.88
454.853	540.88
455.073	555.88
455.294	532.88
455.514	584.88
455.734	586.88
455.955	538.88
456.175	538.88
456.395	515.88
456.616	527.88
456.836	504.88
457.056	515.88
457.276	530.88
457.497	519.88
457.717	501.88
457.937	526.88
458.157	552.88
458.377	528.88
458.598	566.88
458.818	595.88
459.038	618.88
459.258	653.88
459.478	630.88
459.698	637.88
459.918	625.88
460.138	646.88
460.358	656.88
460.578	675.88
460.798	673.88
461.018	686.88
461.238	667.88
461.458	662.88
461.678	645.88
461.898	680.88
462.118	676.88
462.338	706.88
462.558	755.88
462.777	741.88
462.997	797.88
463.217	836.88
463.437	836.88
463.657	786.88
463.876	758.88
464.096	748.88
464.316	739.88
464.536	764.88
464.755	761.88
464.975	725.88
465.195	701.88
465.414	697.88
465.634	648.88
465.854	644.88
466.073	596.88
466.293	601.88
466.512	596.88
466.732	574.88
466.951	588.88
467.171	586.88
467.391	593.88
467.61	618.88
467.829	592.88
468.049	579.88
468.268	586.88
468.488	565.88
468.707	548.88
468.927	564.88
469.146	577.88
469.365	576.88
469.585	578.88
469.804	610.88
470.023	599.88
470.243	591.88
470.462	590.88
470.681	616.88
470.901	608.88
471.12	606.88
471.339	602.88
471.558	588.88
471.777	591.88
471.997	567.88
472.216	588.88
472.435	572.88
472.654	551.88
472.873	573.88
473.092	564.88
473.311	554.88
473.53	578.88
473.749	586.88
473.968	584.88
474.187	625.88
474.406	642.88
474.625	596.88
474.844	603.88
475.063	568.88
475.282	568.88
475.501	581.88
475.72	609.88
475.939	598.88
476.158	601.88
476.377	580.88
476.596	596.88
476.814	612.88
477.033	608.88
477.252	627.88
477.471	622.88
477.69	616.88
477.908	641.88
478.127	646.88
478.346	688.88
478.564	680.88
478.783	668.88
479.002	673.88
479.22	698.88
479.439	700.88
479.658	688.88
479.876	725.88
480.095	714.88
480.313	756.88
480.532	774.88
480.751	774.88
480.969	713.88
481.188	749.88
481.406	709.88
481.624	666.88
481.843	698.88
482.061	693.88
482.28	670.88
482.498	664.88
482.717	674.88
482.935	658.88
483.153	658.88
483.372	668.88
483.59	654.88
483.808	682.88
484.027	676.88
484.245	705.88
484.463	670.88
484.681	697.88
484.9	698.88
485.118	704.88
485.336	684.88
485.554	677.88
485.772	698.88
485.99	669.88
486.209	709.88
486.427	706.88
486.645	701.88
486.863	714.88
487.081	724.88
487.299	712.88
487.517	725.88
487.735	722.88
487.953	712.88
488.171	720.88
488.389	698.88
488.607	708.88
488.825	715.88
489.043	717.88
489.261	709.88
489.479	717.88
489.696	698.88
489.914	718.88
490.132	691.88
490.35	700.88
490.568	715.88
490.786	714.88
491.003	766.88
491.221	725.88
491.439	733.88
491.657	776.88
491.874	766.88
492.092	781.88
492.31	762.88
492.527	779.88
492.745	788.88
492.963	787.88
493.18	789.88
493.398	800.88
493.615	784.88
493.833	786.88
494.05	790.88
494.268	809.88
494.485	788.88
494.703	814.88
494.92	811.88
495.138	798.88
495.355	793.88
495.573	816.88
495.79	828.88
496.008	824.88
496.225	824.88
496.442	823.88
496.66	822.88
496.877	827.88
497.094	837.88
497.312	853.88
497.529	851.88
497.746	873.88
497.963	917.88
498.181	928.88
498.398	950.88
498.615	1016.88
498.832	1069.88
499.049	1100.88
499.267	1165.88
499.484	1226.88
499.701	1322.88
499.918	1425.88
500.135	1512.88
500.352	1670.88
500.569	1732.88
500.786	1727.88
501.003	1622.88
501.22	1564.88
501.437	1392.88
501.654	1293.88
501.871	1243.88
