Data from 1963.PennyLincolnUp.Lamp.En5.5.200Scan.071719.P1._HRD10591_13-57-56-063.txt Node
Date: Thu Jul 18 13:57:56 EDT 2019
User: cochatt
Spectrometer: HR+D1059
Trigger mode: 1
Integration Time (sec): 1.000000E-1
Scans to average: 1
Electric dark correction enabled: true
Nonlinearity correction enabled: false
Boxcar width: 0
XAxis mode: Wavelengths
Number of Pixels in Spectrum: 2048
>>>>>Begin Spectral Data<<<<<
223.165	-17.94
223.4	-17.94
223.635	-17.94
223.869	-4.94
224.104	-9.94
224.338	-10.94
224.573	-17.94
224.808	-7.94
225.042	2.06
225.277	-14.94
225.511	1.06
225.746	4.06
225.98	-11.94
226.215	9.06
226.449	6.06
226.683	16.06
226.918	32.06
227.152	26.06
227.387	26.06
227.621	32.06
227.856	42.06
228.09	47.06
228.324	56.06
228.559	55.06
228.793	59.06
229.027	95.06
229.262	101.06
229.496	104.06
229.73	137.06
229.964	135.06
230.199	122.06
230.433	118.06
230.667	117.06
230.901	120.06
231.136	119.06
231.37	119.06
231.604	116.06
231.838	117.06
232.072	116.06
232.306	126.06
232.541	125.06
232.775	135.06
233.009	107.06
233.243	125.06
233.477	121.06
233.711	128.06
233.945	126.06
234.179	128.06
234.413	127.06
234.647	116.06
234.881	125.06
235.115	110.06
235.349	113.06
235.583	141.06
235.817	123.06
236.051	141.06
236.285	137.06
236.519	137.06
236.753	145.06
236.987	139.06
237.221	162.06
237.455	174.06
237.689	163.06
237.922	141.06
238.156	126.06
238.39	146.06
238.624	125.06
238.858	141.06
239.091	139.06
239.325	126.06
239.559	124.06
239.793	131.06
240.027	133.06
240.26	149.06
240.494	141.06
240.728	135.06
240.961	162.06
241.195	141.06
241.429	135.06
241.662	145.06
241.896	148.06
242.13	150.06
242.363	158.06
242.597	134.06
242.83	154.06
243.064	155.06
243.298	155.06
243.531	133.06
243.765	151.06
243.998	168.06
244.232	155.06
244.465	153.06
244.699	150.06
244.932	165.06
245.166	160.06
245.399	166.06
245.633	159.06
245.866	155.06
246.099	157.06
246.333	156.06
246.566	156.06
246.8	162.06
247.033	171.06
247.266	167.06
247.5	167.06
247.733	167.06
247.966	185.06
248.2	165.06
248.433	183.06
248.666	177.06
248.899	168.06
249.133	179.06
249.366	194.06
249.599	191.06
249.832	184.06
250.066	174.06
250.299	197.06
250.532	199.06
250.765	209.06
250.998	205.06
251.231	219.06
251.465	201.06
251.698	199.06
251.931	200.06
252.164	213.06
252.397	195.06
252.63	209.06
252.863	219.06
253.096	217.06
253.329	212.06
253.562	235.06
253.795	218.06
254.028	211.06
254.261	200.06
254.494	220.06
254.727	243.06
254.96	248.06
255.193	256.06
255.426	235.06
255.659	220.06
255.892	220.06
256.124	210.06
256.357	217.06
256.59	225.06
256.823	199.06
257.056	221.06
257.289	220.06
257.521	234.06
257.754	216.06
257.987	211.06
258.22	199.06
258.452	209.06
258.685	222.06
258.918	217.06
259.151	223.06
259.383	213.06
259.616	224.06
259.849	235.06
260.081	238.06
260.314	258.06
260.547	251.06
260.779	248.06
261.012	250.06
261.244	221.06
261.477	244.06
261.71	228.06
261.942	246.06
262.175	237.06
262.407	238.06
262.64	233.06
262.872	228.06
263.105	226.06
263.337	229.06
263.57	236.06
263.802	230.06
264.035	233.06
264.267	238.06
264.499	248.06
264.732	249.06
264.964	230.06
265.197	231.06
265.429	245.06
265.661	245.06
265.894	239.06
266.126	237.06
266.358	240.06
266.591	243.06
266.823	254.06
267.055	269.06
267.287	236.06
267.52	235.06
267.752	257.06
267.984	256.06
268.216	254.06
268.448	272.06
268.681	240.06
268.913	248.06
269.145	292.06
269.377	281.06
269.609	270.06
269.841	261.06
270.073	266.06
270.306	278.06
270.538	296.06
270.77	290.06
271.002	298.06
271.234	285.06
271.466	302.06
271.698	303.06
271.93	302.06
272.162	309.06
272.394	291.06
272.626	313.06
272.858	297.06
273.09	280.06
273.322	305.06
273.553	276.06
273.785	303.06
274.017	285.06
274.249	293.06
274.481	286.06
274.713	288.06
274.945	276.06
275.176	283.06
275.408	290.06
275.64	288.06
275.872	301.06
276.104	296.06
276.335	288.06
276.567	307.06
276.799	303.06
277.031	310.06
277.262	333.06
277.494	307.06
277.726	309.06
277.957	302.06
278.189	296.06
278.421	284.06
278.652	296.06
278.884	285.06
279.115	286.06
279.347	289.06
279.579	288.06
279.81	304.06
280.042	329.06
280.273	318.06
280.505	301.06
280.736	288.06
280.968	307.06
281.199	294.06
281.431	319.06
281.662	287.06
281.894	306.06
282.125	302.06
282.356	321.06
282.588	336.06
282.819	339.06
283.051	323.06
283.282	325.06
283.513	314.06
283.745	333.06
283.976	312.06
284.207	320.06
284.439	329.06
284.67	318.06
284.901	325.06
285.132	325.06
285.364	325.06
285.595	321.06
285.826	332.06
286.057	357.06
286.288	318.06
286.52	331.06
286.751	326.06
286.982	332.06
287.213	333.06
287.444	325.06
287.675	332.06
287.906	338.06
288.138	339.06
288.369	347.06
288.6	344.06
288.831	339.06
289.062	342.06
289.293	344.06
289.524	340.06
289.755	349.06
289.986	338.06
290.217	329.06
290.448	340.06
290.679	327.06
290.91	347.06
291.141	324.06
291.371	349.06
291.602	339.06
291.833	341.06
292.064	344.06
292.295	337.06
292.526	351.06
292.757	332.06
292.987	323.06
293.218	337.06
293.449	352.06
293.68	345.06
293.91	348.06
294.141	349.06
294.372	347.06
294.603	351.06
294.833	341.06
295.064	367.06
295.295	368.06
295.525	366.06
295.756	359.06
295.987	357.06
296.217	365.06
296.448	376.06
296.679	370.06
296.909	328.06
297.14	358.06
297.37	364.06
297.601	359.06
297.831	355.06
298.062	359.06
298.292	384.06
298.523	361.06
298.753	375.06
298.984	363.06
299.214	374.06
299.445	375.06
299.675	376.06
299.905	374.06
300.136	380.06
300.366	372.06
300.597	383.06
300.827	379.06
301.057	391.06
301.288	415.06
301.518	389.06
301.748	383.06
301.979	382.06
302.209	364.06
302.439	367.06
302.669	398.06
302.9	389.06
303.13	386.06
303.36	385.06
303.59	399.06
303.82	392.06
304.051	402.06
304.281	390.06
304.511	403.06
304.741	397.06
304.971	405.06
305.201	391.06
305.431	376.06
305.661	397.06
305.891	391.06
306.121	377.06
306.352	389.06
306.582	414.06
306.812	411.06
307.042	398.06
307.272	387.06
307.502	381.06
307.731	394.06
307.961	383.06
308.191	381.06
308.421	385.06
308.651	380.06
308.881	388.06
309.111	380.06
309.341	416.06
309.571	407.06
309.8	406.06
310.03	425.06
310.26	405.06
310.49	405.06
310.72	431.06
310.949	423.06
311.179	415.06
311.409	425.06
311.639	416.06
311.868	417.06
312.098	414.06
312.328	414.06
312.557	429.06
312.787	414.06
313.017	434.06
313.246	441.06
313.476	431.06
313.706	423.06
313.935	424.06
314.165	427.06
314.394	429.06
314.624	455.06
314.853	421.06
315.083	426.06
315.312	430.06
315.542	435.06
315.771	416.06
316.001	405.06
316.23	423.06
316.46	433.06
316.689	423.06
316.919	421.06
317.148	453.06
317.377	430.06
317.607	435.06
317.836	432.06
318.065	432.06
318.295	409.06
318.524	434.06
318.753	425.06
318.983	448.06
319.212	405.06
319.441	430.06
319.67	417.06
319.9	427.06
320.129	429.06
320.358	435.06
320.587	434.06
320.816	429.06
321.046	435.06
321.275	433.06
321.504	444.06
321.733	439.06
321.962	444.06
322.191	436.06
322.42	452.06
322.649	456.06
322.878	468.06
323.108	443.06
323.337	486.06
323.566	465.06
323.795	478.06
324.024	496.06
324.253	536.06
324.482	695.06
324.71	943.06
324.939	1267.06
325.168	1159.06
325.397	692.06
325.626	563.06
325.855	525.06
326.084	509.06
326.313	486.06
326.542	510.06
326.77	519.06
326.999	558.06
327.228	648.06
327.457	883.06
327.686	1056.06
327.914	757.06
328.143	599.06
328.372	553.06
328.6	524.06
328.829	520.06
329.058	509.06
329.287	516.06
329.515	529.06
329.744	520.06
329.972	500.06
330.201	503.06
330.43	539.06
330.658	544.06
330.887	554.06
331.115	536.06
331.344	524.06
331.572	514.06
331.801	532.06
332.03	527.06
332.258	530.06
332.486	534.06
332.715	521.06
332.943	544.06
333.172	539.06
333.4	560.06
333.629	574.06
333.857	589.06
334.085	610.06
334.314	611.06
334.542	614.06
334.771	594.06
334.999	573.06
335.227	571.06
335.455	552.06
335.684	554.06
335.912	563.06
336.14	553.06
336.369	532.06
336.597	544.06
336.825	541.06
337.053	550.06
337.281	528.06
337.51	535.06
337.738	507.06
337.966	508.06
338.194	505.06
338.422	518.06
338.65	505.06
338.878	510.06
339.106	523.06
339.334	533.06
339.562	513.06
339.79	510.06
340.018	515.06
340.246	486.06
340.474	493.06
340.702	496.06
340.93	523.06
341.158	511.06
341.386	474.06
341.614	493.06
341.842	505.06
342.07	503.06
342.298	478.06
342.526	469.06
342.754	483.06
342.981	504.06
343.209	499.06
343.437	496.06
343.665	537.06
343.893	549.06
344.12	555.06
344.348	551.06
344.576	540.06
344.804	528.06
345.031	517.06
345.259	491.06
345.487	496.06
345.714	514.06
345.942	514.06
346.17	480.06
346.397	477.06
346.625	465.06
346.853	441.06
347.08	453.06
347.308	458.06
347.535	460.06
347.763	474.06
347.99	479.06
348.218	478.06
348.445	467.06
348.673	483.06
348.9	479.06
349.128	475.06
349.355	433.06
349.583	461.06
349.81	459.06
350.037	463.06
350.265	455.06
350.492	473.06
350.72	468.06
350.947	459.06
351.174	465.06
351.402	479.06
351.629	485.06
351.856	439.06
352.083	471.06
352.311	489.06
352.538	491.06
352.765	473.06
352.992	471.06
353.22	464.06
353.447	460.06
353.674	483.06
353.901	452.06
354.128	458.06
354.355	452.06
354.583	463.06
354.81	456.06
355.037	463.06
355.264	457.06
355.491	453.06
355.718	468.06
355.945	459.06
356.172	459.06
356.399	475.06
356.626	447.06
356.853	464.06
357.08	469.06
357.307	464.06
357.534	456.06
357.761	478.06
357.988	488.06
358.215	496.06
358.441	459.06
358.668	469.06
358.895	476.06
359.122	466.06
359.349	476.06
359.576	490.06
359.802	469.06
360.029	485.06
360.256	515.06
360.483	487.06
360.709	473.06
360.936	474.06
361.163	467.06
361.39	483.06
361.616	469.06
361.843	463.06
362.07	485.06
362.296	467.06
362.523	475.06
362.749	473.06
362.976	453.06
363.203	487.06
363.429	476.06
363.656	463.06
363.882	474.06
364.109	449.06
364.335	445.06
364.562	483.06
364.788	471.06
365.015	447.06
365.241	447.06
365.468	485.06
365.694	468.06
365.92	471.06
366.147	482.06
366.373	470.06
366.599	458.06
366.826	471.06
367.052	469.06
367.278	462.06
367.505	465.06
367.731	468.06
367.957	467.06
368.184	477.06
368.41	483.06
368.636	483.06
368.862	488.06
369.089	483.06
369.315	456.06
369.541	476.06
369.767	472.06
369.993	470.06
370.219	485.06
370.445	479.06
370.672	473.06
370.898	477.06
371.124	502.06
371.35	484.06
371.576	487.06
371.802	480.06
372.028	503.06
372.254	487.06
372.48	484.06
372.706	496.06
372.932	481.06
373.158	492.06
373.384	506.06
373.61	484.06
373.835	484.06
374.061	486.06
374.287	499.06
374.513	504.06
374.739	528.06
374.965	523.06
375.191	510.06
375.416	498.06
375.642	499.06
375.868	499.06
376.094	481.06
376.319	481.06
376.545	504.06
376.771	479.06
376.997	505.06
377.222	518.06
377.448	503.06
377.674	485.06
377.899	479.06
378.125	485.06
378.35	482.06
378.576	488.06
378.802	487.06
379.027	493.06
379.253	490.06
379.478	473.06
379.704	480.06
379.929	507.06
380.155	485.06
380.38	501.06
380.606	485.06
380.831	475.06
381.057	493.06
381.282	494.06
381.507	488.06
381.733	506.06
381.958	479.06
382.184	487.06
382.409	510.06
382.634	508.06
382.86	534.06
383.085	503.06
383.31	542.06
383.535	515.06
383.761	521.06
383.986	534.06
384.211	541.06
384.436	557.06
384.662	536.06
384.887	567.06
385.112	581.06
385.337	572.06
385.562	559.06
385.787	549.06
386.013	558.06
386.238	583.06
386.463	577.06
386.688	569.06
386.913	536.06
387.138	575.06
387.363	558.06
387.588	564.06
387.813	581.06
388.038	557.06
388.263	565.06
388.488	583.06
388.713	575.06
388.938	573.06
389.163	540.06
389.387	582.06
389.612	553.06
389.837	572.06
390.062	545.06
390.287	570.06
390.512	537.06
390.736	565.06
390.961	574.06
391.186	587.06
391.411	591.06
391.636	588.06
391.86	600.06
392.085	616.06
392.31	599.06
392.534	597.06
392.759	611.06
392.984	587.06
393.208	596.06
393.433	593.06
393.658	592.06
393.882	596.06
394.107	576.06
394.331	569.06
394.556	593.06
394.78	589.06
395.005	576.06
395.229	603.06
395.454	623.06
395.678	628.06
395.903	627.06
396.127	629.06
396.352	636.06
396.576	568.06
396.801	604.06
397.025	620.06
397.249	599.06
397.474	614.06
397.698	628.06
397.922	619.06
398.147	611.06
398.371	631.06
398.595	658.06
398.82	658.06
399.044	708.06
399.268	748.06
399.492	821.06
399.717	901.06
399.941	908.06
400.165	863.06
400.389	831.06
400.613	769.06
400.837	723.06
401.062	717.06
401.286	672.06
401.51	684.06
401.734	659.06
401.958	703.06
402.182	689.06
402.406	676.06
402.63	696.06
402.854	689.06
403.078	712.06
403.302	717.06
403.526	704.06
403.75	741.06
403.974	737.06
404.198	733.06
404.422	770.06
404.645	733.06
404.869	737.06
405.093	760.06
405.317	781.06
405.541	797.06
405.765	755.06
405.988	730.06
406.212	735.06
406.436	740.06
406.66	739.06
406.883	733.06
407.107	793.06
407.331	830.06
407.555	865.06
407.778	893.06
408.002	839.06
408.226	785.06
408.449	795.06
408.673	757.06
408.896	789.06
409.12	821.06
409.344	749.06
409.567	710.06
409.791	735.06
410.014	712.06
410.238	723.06
410.461	704.06
410.685	709.06
410.908	698.06
411.132	719.06
411.355	755.06
411.578	738.06
411.802	692.06
412.025	687.06
412.249	709.06
412.472	718.06
412.695	737.06
412.919	704.06
413.142	696.06
413.365	707.06
413.589	672.06
413.812	702.06
414.035	648.06
414.258	675.06
414.482	682.06
414.705	703.06
414.928	649.06
415.151	653.06
415.374	676.06
415.597	665.06
415.821	654.06
416.044	654.06
416.267	659.06
416.49	657.06
416.713	660.06
416.936	660.06
417.159	629.06
417.382	665.06
417.605	667.06
417.828	657.06
418.051	665.06
418.274	666.06
418.497	667.06
418.72	655.06
418.943	668.06
419.166	695.06
419.389	725.06
419.611	735.06
419.834	719.06
420.057	702.06
420.28	675.06
420.503	657.06
420.726	661.06
420.948	684.06
421.171	705.06
421.394	727.06
421.617	698.06
421.839	657.06
422.062	691.06
422.285	685.06
422.507	714.06
422.73	753.06
422.953	745.06
423.175	702.06
423.398	724.06
423.621	688.06
423.843	720.06
424.066	710.06
424.288	723.06
424.511	737.06
424.733	759.06
424.956	811.06
425.178	789.06
425.401	764.06
425.623	768.06
425.846	695.06
426.068	701.06
426.291	683.06
426.513	673.06
426.735	643.06
426.958	712.06
427.18	727.06
427.402	805.06
427.625	841.06
427.847	776.06
428.069	715.06
428.292	672.06
428.514	638.06
428.736	644.06
428.958	634.06
429.181	631.06
429.403	596.06
429.625	631.06
429.847	638.06
430.069	675.06
430.292	673.06
430.514	635.06
430.736	606.06
430.958	609.06
431.18	620.06
431.402	600.06
431.624	619.06
431.846	611.06
432.068	626.06
432.29	646.06
432.512	613.06
432.734	615.06
432.956	633.06
433.178	645.06
433.4	619.06
433.622	599.06
433.844	594.06
434.066	599.06
434.287	638.06
434.509	649.06
434.731	648.06
434.953	660.06
435.175	659.06
435.397	699.06
435.618	676.06
435.84	705.06
436.062	725.06
436.284	764.06
436.505	681.06
436.727	649.06
436.949	611.06
437.17	644.06
437.392	628.06
437.614	624.06
437.835	664.06
438.057	715.06
438.278	724.06
438.5	747.06
438.721	784.06
438.943	789.06
439.165	659.06
439.386	663.06
439.608	636.06
439.829	635.06
440.05	655.06
440.272	679.06
440.493	649.06
440.715	652.06
440.936	644.06
441.158	667.06
441.379	659.06
441.6	702.06
441.822	699.06
442.043	687.06
442.264	741.06
442.486	757.06
442.707	674.06
442.928	686.06
443.149	669.06
443.371	714.06
443.592	737.06
443.813	805.06
444.034	803.06
444.255	774.06
444.476	738.06
444.698	761.06
444.919	747.06
445.14	871.06
445.361	799.06
445.582	748.06
445.803	759.06
446.024	787.06
446.245	778.06
446.466	707.06
446.687	671.06
446.908	645.06
447.129	612.06
447.35	617.06
447.571	626.06
447.792	614.06
448.013	616.06
448.234	641.06
448.455	620.06
448.675	695.06
448.896	775.06
449.117	691.06
449.338	668.06
449.559	729.06
449.779	787.06
450	673.06
450.221	637.06
450.442	618.06
450.662	585.06
450.883	571.06
451.104	598.06
451.324	596.06
451.545	594.06
451.766	577.06
451.986	581.06
452.207	560.06
452.428	558.06
452.648	556.06
452.869	547.06
453.089	567.06
453.31	571.06
453.53	573.06
453.751	564.06
453.971	525.06
454.192	563.06
454.412	545.06
454.633	566.06
454.853	546.06
455.073	536.06
455.294	575.06
455.514	595.06
455.734	580.06
455.955	560.06
456.175	537.06
456.395	559.06
456.616	531.06
456.836	550.06
457.056	525.06
457.276	519.06
457.497	530.06
457.717	535.06
457.937	549.06
458.157	549.06
458.377	540.06
458.598	557.06
458.818	591.06
459.038	632.06
459.258	680.06
459.478	646.06
459.698	599.06
459.918	627.06
460.138	638.06
460.358	643.06
460.578	683.06
460.798	668.06
461.018	697.06
461.238	679.06
461.458	662.06
461.678	678.06
461.898	692.06
462.118	699.06
462.338	716.06
462.558	727.06
462.777	770.06
462.997	794.06
463.217	817.06
463.437	813.06
463.657	775.06
463.876	755.06
464.096	761.06
464.316	759.06
464.536	782.06
464.755	765.06
464.975	716.06
465.195	731.06
465.414	741.06
465.634	681.06
465.854	661.06
466.073	625.06
466.293	604.06
466.512	625.06
466.732	586.06
466.951	587.06
467.171	578.06
467.391	585.06
467.61	597.06
467.829	601.06
468.049	566.06
468.268	565.06
468.488	597.06
468.707	576.06
468.927	548.06
469.146	565.06
469.365	578.06
469.585	571.06
469.804	597.06
470.023	605.06
470.243	598.06
470.462	613.06
470.681	605.06
470.901	622.06
471.12	613.06
471.339	591.06
471.558	593.06
471.777	581.06
471.997	585.06
472.216	591.06
472.435	624.06
472.654	606.06
472.873	587.06
473.092	571.06
473.311	580.06
473.53	582.06
473.749	580.06
473.968	602.06
474.187	654.06
474.406	653.06
474.625	600.06
474.844	592.06
475.063	561.06
475.282	584.06
475.501	583.06
475.72	589.06
475.939	592.06
476.158	582.06
476.377	622.06
476.596	606.06
476.814	610.06
477.033	605.06
477.252	631.06
477.471	633.06
477.69	637.06
477.908	670.06
478.127	675.06
478.346	650.06
478.564	686.06
478.783	694.06
479.002	694.06
479.22	742.06
479.439	720.06
479.658	687.06
479.876	719.06
480.095	734.06
480.313	741.06
480.532	751.06
480.751	744.06
480.969	760.06
481.188	765.06
481.406	757.06
481.624	741.06
481.843	708.06
482.061	670.06
482.28	711.06
482.498	667.06
482.717	687.06
482.935	675.06
483.153	688.06
483.372	656.06
483.59	667.06
483.808	677.06
484.027	660.06
484.245	696.06
484.463	692.06
484.681	699.06
484.9	703.06
485.118	719.06
485.336	681.06
485.554	715.06
485.772	707.06
485.99	714.06
486.209	707.06
486.427	751.06
486.645	703.06
486.863	723.06
487.081	707.06
487.299	698.06
487.517	732.06
487.735	694.06
487.953	721.06
488.171	729.06
488.389	723.06
488.607	721.06
488.825	691.06
489.043	713.06
489.261	713.06
489.479	728.06
489.696	736.06
489.914	729.06
490.132	744.06
490.35	748.06
490.568	733.06
490.786	763.06
491.003	750.06
491.221	774.06
491.439	765.06
491.657	789.06
491.874	771.06
492.092	769.06
492.31	741.06
492.527	769.06
492.745	799.06
492.963	814.06
493.18	805.06
493.398	807.06
493.615	796.06
493.833	796.06
494.05	794.06
494.268	828.06
494.485	824.06
494.703	806.06
494.92	783.06
495.138	802.06
495.355	806.06
495.573	835.06
495.79	847.06
496.008	820.06
496.225	804.06
496.442	827.06
496.66	843.06
496.877	845.06
497.094	866.06
497.312	891.06
497.529	875.06
497.746	901.06
497.963	923.06
498.181	971.06
498.398	990.06
498.615	1004.06
498.832	1030.06
499.049	1114.06
499.267	1136.06
499.484	1246.06
499.701	1308.06
499.918	1404.06
500.135	1545.06
500.352	1676.06
500.569	1731.06
500.786	1728.06
501.003	1630.06
501.22	1512.06
501.437	1447.06
501.654	1303.06
501.871	1253.06
