Data from 1963.PennyLincolnUp.Lamp.En5.5.200Scan.071719.P1._HRD10591_13-57-53-063.txt Node
Date: Thu Jul 18 13:57:53 EDT 2019
User: cochatt
Spectrometer: HR+D1059
Trigger mode: 1
Integration Time (sec): 1.000000E-1
Scans to average: 1
Electric dark correction enabled: true
Nonlinearity correction enabled: false
Boxcar width: 0
XAxis mode: Wavelengths
Number of Pixels in Spectrum: 2048
>>>>>Begin Spectral Data<<<<<
223.165	-19.69
223.4	-19.69
223.635	-19.69
223.869	-15.69
224.104	-16.69
224.338	-16.69
224.573	-16.69
224.808	-2.69
225.042	-2.69
225.277	-5.69
225.511	4.31
225.746	-8.69
225.98	10.31
226.215	9.31
226.449	5.31
226.683	20.31
226.918	32.31
227.152	23.31
227.387	14.31
227.621	42.31
227.856	56.31
228.09	44.31
228.324	51.31
228.559	37.31
228.793	66.31
229.027	108.31
229.262	97.31
229.496	106.31
229.73	129.31
229.964	121.31
230.199	117.31
230.433	100.31
230.667	91.31
230.901	101.31
231.136	100.31
231.37	113.31
231.604	115.31
231.838	121.31
232.072	113.31
232.306	113.31
232.541	111.31
232.775	118.31
233.009	113.31
233.243	118.31
233.477	113.31
233.711	125.31
233.945	121.31
234.179	125.31
234.413	140.31
234.647	107.31
234.881	111.31
235.115	122.31
235.349	124.31
235.583	125.31
235.817	123.31
236.051	125.31
236.285	124.31
236.519	132.31
236.753	129.31
236.987	140.31
237.221	158.31
237.455	202.31
237.689	169.31
237.922	131.31
238.156	137.31
238.39	136.31
238.624	131.31
238.858	119.31
239.091	135.31
239.325	139.31
239.559	139.31
239.793	130.31
240.027	140.31
240.26	133.31
240.494	151.31
240.728	129.31
240.961	163.31
241.195	160.31
241.429	124.31
241.662	140.31
241.896	137.31
242.13	141.31
242.363	148.31
242.597	136.31
242.83	156.31
243.064	136.31
243.298	147.31
243.531	150.31
243.765	153.31
243.998	156.31
244.232	156.31
244.465	163.31
244.699	147.31
244.932	144.31
245.166	159.31
245.399	179.31
245.633	145.31
245.866	160.31
246.099	157.31
246.333	168.31
246.566	172.31
246.8	170.31
247.033	159.31
247.266	159.31
247.5	184.31
247.733	185.31
247.966	172.31
248.2	169.31
248.433	171.31
248.666	172.31
248.899	198.31
249.133	188.31
249.366	200.31
249.599	196.31
249.832	202.31
250.066	165.31
250.299	201.31
250.532	196.31
250.765	211.31
250.998	220.31
251.231	217.31
251.465	206.31
251.698	197.31
251.931	197.31
252.164	210.31
252.397	217.31
252.63	217.31
252.863	206.31
253.096	204.31
253.329	217.31
253.562	223.31
253.795	212.31
254.028	214.31
254.261	230.31
254.494	224.31
254.727	227.31
254.96	247.31
255.193	249.31
255.426	244.31
255.659	227.31
255.892	250.31
256.124	236.31
256.357	241.31
256.59	229.31
256.823	218.31
257.056	213.31
257.289	221.31
257.521	229.31
257.754	226.31
257.987	214.31
258.22	210.31
258.452	207.31
258.685	218.31
258.918	218.31
259.151	214.31
259.383	235.31
259.616	244.31
259.849	226.31
260.081	237.31
260.314	258.31
260.547	282.31
260.779	254.31
261.012	241.31
261.244	243.31
261.477	235.31
261.71	240.31
261.942	230.31
262.175	243.31
262.407	233.31
262.64	234.31
262.872	240.31
263.105	233.31
263.337	237.31
263.57	241.31
263.802	230.31
264.035	243.31
264.267	233.31
264.499	216.31
264.732	233.31
264.964	234.31
265.197	244.31
265.429	249.31
265.661	225.31
265.894	232.31
266.126	263.31
266.358	232.31
266.591	267.31
266.823	242.31
267.055	275.31
267.287	261.31
267.52	248.31
267.752	261.31
267.984	249.31
268.216	240.31
268.448	265.31
268.681	247.31
268.913	267.31
269.145	278.31
269.377	288.31
269.609	262.31
269.841	276.31
270.073	277.31
270.306	307.31
270.538	309.31
270.77	315.31
271.002	285.31
271.234	292.31
271.466	309.31
271.698	293.31
271.93	311.31
272.162	298.31
272.394	322.31
272.626	303.31
272.858	301.31
273.09	301.31
273.322	283.31
273.553	288.31
273.785	300.31
274.017	283.31
274.249	282.31
274.481	306.31
274.713	287.31
274.945	285.31
275.176	275.31
275.408	294.31
275.64	275.31
275.872	281.31
276.104	287.31
276.335	300.31
276.567	295.31
276.799	288.31
277.031	323.31
277.262	323.31
277.494	314.31
277.726	304.31
277.957	295.31
278.189	305.31
278.421	298.31
278.652	299.31
278.884	292.31
279.115	300.31
279.347	303.31
279.579	299.31
279.81	290.31
280.042	311.31
280.273	313.31
280.505	320.31
280.736	319.31
280.968	320.31
281.199	320.31
281.431	313.31
281.662	316.31
281.894	333.31
282.125	330.31
282.356	316.31
282.588	337.31
282.819	319.31
283.051	319.31
283.282	319.31
283.513	323.31
283.745	290.31
283.976	319.31
284.207	322.31
284.439	324.31
284.67	328.31
284.901	330.31
285.132	313.31
285.364	317.31
285.595	327.31
285.826	344.31
286.057	328.31
286.288	338.31
286.52	327.31
286.751	329.31
286.982	328.31
287.213	332.31
287.444	331.31
287.675	331.31
287.906	329.31
288.138	344.31
288.369	348.31
288.6	351.31
288.831	353.31
289.062	343.31
289.293	341.31
289.524	329.31
289.755	337.31
289.986	338.31
290.217	333.31
290.448	336.31
290.679	339.31
290.91	376.31
291.141	359.31
291.371	348.31
291.602	351.31
291.833	367.31
292.064	362.31
292.295	366.31
292.526	354.31
292.757	345.31
292.987	336.31
293.218	346.31
293.449	364.31
293.68	325.31
293.91	344.31
294.141	351.31
294.372	369.31
294.603	343.31
294.833	359.31
295.064	360.31
295.295	355.31
295.525	345.31
295.756	352.31
295.987	373.31
296.217	362.31
296.448	391.31
296.679	368.31
296.909	357.31
297.14	354.31
297.37	375.31
297.601	379.31
297.831	369.31
298.062	369.31
298.292	385.31
298.523	391.31
298.753	394.31
298.984	376.31
299.214	369.31
299.445	374.31
299.675	364.31
299.905	403.31
300.136	385.31
300.366	379.31
300.597	379.31
300.827	377.31
301.057	395.31
301.288	396.31
301.518	381.31
301.748	385.31
301.979	409.31
302.209	388.31
302.439	420.31
302.669	409.31
302.9	401.31
303.13	399.31
303.36	411.31
303.59	397.31
303.82	407.31
304.051	397.31
304.281	401.31
304.511	397.31
304.741	406.31
304.971	405.31
305.201	411.31
305.431	406.31
305.661	389.31
305.891	385.31
306.121	413.31
306.352	409.31
306.582	409.31
306.812	408.31
307.042	399.31
307.272	414.31
307.502	409.31
307.731	406.31
307.961	403.31
308.191	386.31
308.421	375.31
308.651	405.31
308.881	392.31
309.111	408.31
309.341	397.31
309.571	409.31
309.8	418.31
310.03	405.31
310.26	412.31
310.49	413.31
310.72	413.31
310.949	413.31
311.179	440.31
311.409	419.31
311.639	423.31
311.868	441.31
312.098	441.31
312.328	457.31
312.557	446.31
312.787	428.31
313.017	458.31
313.246	422.31
313.476	425.31
313.706	435.31
313.935	431.31
314.165	452.31
314.394	455.31
314.624	452.31
314.853	445.31
315.083	439.31
315.312	448.31
315.542	452.31
315.771	432.31
316.001	445.31
316.23	431.31
316.46	441.31
316.689	450.31
316.919	450.31
317.148	443.31
317.377	457.31
317.607	442.31
317.836	456.31
318.065	460.31
318.295	446.31
318.524	441.31
318.753	443.31
318.983	427.31
319.212	428.31
319.441	453.31
319.67	448.31
319.9	428.31
320.129	433.31
320.358	437.31
320.587	450.31
320.816	451.31
321.046	445.31
321.275	442.31
321.504	445.31
321.733	434.31
321.962	455.31
322.191	449.31
322.42	450.31
322.649	481.31
322.878	498.31
323.108	461.31
323.337	503.31
323.566	491.31
323.795	518.31
324.024	529.31
324.253	570.31
324.482	738.31
324.71	1011.31
324.939	1461.31
325.168	1257.31
325.397	730.31
325.626	567.31
325.855	535.31
326.084	504.31
326.313	509.31
326.542	492.31
326.77	532.31
326.999	582.31
327.228	715.31
327.457	956.31
327.686	1155.31
327.914	825.31
328.143	609.31
328.372	571.31
328.6	545.31
328.829	547.31
329.058	541.31
329.287	557.31
329.515	535.31
329.744	505.31
329.972	526.31
330.201	549.31
330.43	571.31
330.658	559.31
330.887	577.31
331.115	579.31
331.344	553.31
331.572	532.31
331.801	556.31
332.03	562.31
332.258	546.31
332.486	531.31
332.715	541.31
332.943	552.31
333.172	575.31
333.4	585.31
333.629	603.31
333.857	616.31
334.085	618.31
334.314	618.31
334.542	625.31
334.771	669.31
334.999	609.31
335.227	581.31
335.455	564.31
335.684	582.31
335.912	581.31
336.14	560.31
336.369	556.31
336.597	565.31
336.825	560.31
337.053	546.31
337.281	529.31
337.51	524.31
337.738	530.31
337.966	560.31
338.194	561.31
338.422	521.31
338.65	535.31
338.878	516.31
339.106	517.31
339.334	516.31
339.562	519.31
339.79	490.31
340.018	521.31
340.246	493.31
340.474	513.31
340.702	503.31
340.93	520.31
341.158	518.31
341.386	524.31
341.614	520.31
341.842	517.31
342.07	520.31
342.298	503.31
342.526	502.31
342.754	503.31
342.981	526.31
343.209	503.31
343.437	542.31
343.665	549.31
343.893	559.31
344.12	579.31
344.348	589.31
344.576	550.31
344.804	553.31
345.031	514.31
345.259	533.31
345.487	497.31
345.714	525.31
345.942	522.31
346.17	491.31
346.397	501.31
346.625	485.31
346.853	492.31
347.08	491.31
347.308	483.31
347.535	485.31
347.763	472.31
347.99	495.31
348.218	479.31
348.445	508.31
348.673	491.31
348.9	484.31
349.128	465.31
349.355	476.31
349.583	475.31
349.81	483.31
350.037	487.31
350.265	482.31
350.492	459.31
350.72	483.31
350.947	479.31
351.174	472.31
351.402	473.31
351.629	472.31
351.856	478.31
352.083	467.31
352.311	482.31
352.538	497.31
352.765	479.31
352.992	475.31
353.22	467.31
353.447	490.31
353.674	479.31
353.901	479.31
354.128	475.31
354.355	464.31
354.583	465.31
354.81	488.31
355.037	462.31
355.264	477.31
355.491	475.31
355.718	489.31
355.945	475.31
356.172	459.31
356.399	463.31
356.626	492.31
356.853	469.31
357.08	476.31
357.307	476.31
357.534	460.31
357.761	474.31
357.988	464.31
358.215	487.31
358.441	486.31
358.668	484.31
358.895	485.31
359.122	475.31
359.349	474.31
359.576	484.31
359.802	492.31
360.029	490.31
360.256	544.31
360.483	516.31
360.709	507.31
360.936	473.31
361.163	471.31
361.39	499.31
361.616	496.31
361.843	500.31
362.07	508.31
362.296	484.31
362.523	472.31
362.749	474.31
362.976	488.31
363.203	473.31
363.429	465.31
363.656	480.31
363.882	479.31
364.109	477.31
364.335	468.31
364.562	468.31
364.788	477.31
365.015	468.31
365.241	477.31
365.468	483.31
365.694	487.31
365.92	477.31
366.147	465.31
366.373	488.31
366.599	493.31
366.826	473.31
367.052	461.31
367.278	487.31
367.505	468.31
367.731	495.31
367.957	495.31
368.184	498.31
368.41	499.31
368.636	474.31
368.862	471.31
369.089	491.31
369.315	483.31
369.541	489.31
369.767	472.31
369.993	489.31
370.219	483.31
370.445	499.31
370.672	472.31
370.898	484.31
371.124	504.31
371.35	469.31
371.576	494.31
371.802	492.31
372.028	486.31
372.254	491.31
372.48	492.31
372.706	492.31
372.932	523.31
373.158	520.31
373.384	520.31
373.61	499.31
373.835	512.31
374.061	520.31
374.287	493.31
374.513	513.31
374.739	531.31
374.965	543.31
375.191	550.31
375.416	552.31
375.642	524.31
375.868	531.31
376.094	513.31
376.319	493.31
376.545	535.31
376.771	495.31
376.997	523.31
377.222	518.31
377.448	494.31
377.674	497.31
377.899	488.31
378.125	482.31
378.35	485.31
378.576	476.31
378.802	503.31
379.027	498.31
379.253	499.31
379.478	499.31
379.704	476.31
379.929	510.31
380.155	511.31
380.38	513.31
380.606	502.31
380.831	485.31
381.057	524.31
381.282	470.31
381.507	490.31
381.733	508.31
381.958	540.31
382.184	535.31
382.409	497.31
382.634	512.31
382.86	498.31
383.085	545.31
383.31	535.31
383.535	563.31
383.761	539.31
383.986	539.31
384.211	551.31
384.436	576.31
384.662	549.31
384.887	578.31
385.112	586.31
385.337	563.31
385.562	571.31
385.787	566.31
386.013	596.31
386.238	583.31
386.463	601.31
386.688	577.31
386.913	545.31
387.138	602.31
387.363	586.31
387.588	577.31
387.813	576.31
388.038	569.31
388.263	589.31
388.488	595.31
388.713	600.31
388.938	569.31
389.163	567.31
389.387	574.31
389.612	547.31
389.837	522.31
390.062	563.31
390.287	557.31
390.512	549.31
390.736	577.31
390.961	590.31
391.186	571.31
391.411	573.31
391.636	594.31
391.86	618.31
392.085	640.31
392.31	624.31
392.534	588.31
392.759	609.31
392.984	579.31
393.208	596.31
393.433	609.31
393.658	633.31
393.882	617.31
394.107	597.31
394.331	583.31
394.556	598.31
394.78	607.31
395.005	606.31
395.229	616.31
395.454	635.31
395.678	619.31
395.903	637.31
396.127	613.31
396.352	617.31
396.576	597.31
396.801	603.31
397.025	615.31
397.249	625.31
397.474	649.31
397.698	625.31
397.922	644.31
398.147	615.31
398.371	673.31
398.595	698.31
398.82	683.31
399.044	714.31
399.268	752.31
399.492	821.31
399.717	925.31
399.941	921.31
400.165	916.31
400.389	875.31
400.613	772.31
400.837	748.31
401.062	719.31
401.286	703.31
401.51	666.31
401.734	698.31
401.958	677.31
402.182	712.31
402.406	723.31
402.63	687.31
402.854	714.31
403.078	715.31
403.302	731.31
403.526	759.31
403.75	749.31
403.974	748.31
404.198	747.31
404.422	760.31
404.645	752.31
404.869	772.31
405.093	788.31
405.317	811.31
405.541	820.31
405.765	793.31
405.988	765.31
406.212	762.31
406.436	775.31
406.66	780.31
406.883	778.31
407.107	812.31
407.331	845.31
407.555	922.31
407.778	927.31
408.002	862.31
408.226	827.31
408.449	819.31
408.673	782.31
408.896	799.31
409.12	796.31
409.344	809.31
409.567	745.31
409.791	735.31
410.014	722.31
410.238	711.31
410.461	745.31
410.685	710.31
410.908	717.31
411.132	765.31
411.355	775.31
411.578	730.31
411.802	739.31
412.025	703.31
412.249	733.31
412.472	748.31
412.695	774.31
412.919	751.31
413.142	725.31
413.365	716.31
413.589	700.31
413.812	700.31
414.035	674.31
414.258	671.31
414.482	677.31
414.705	689.31
414.928	683.31
415.151	700.31
415.374	669.31
415.597	651.31
415.821	688.31
416.044	680.31
416.267	695.31
416.49	691.31
416.713	671.31
416.936	691.31
417.159	667.31
417.382	681.31
417.605	680.31
417.828	680.31
418.051	705.31
418.274	707.31
418.497	687.31
418.72	672.31
418.943	696.31
419.166	715.31
419.389	769.31
419.611	760.31
419.834	728.31
420.057	737.31
420.28	715.31
420.503	688.31
420.726	687.31
420.948	688.31
421.171	721.31
421.394	721.31
421.617	705.31
421.839	693.31
422.062	709.31
422.285	715.31
422.507	748.31
422.73	810.31
422.953	795.31
423.175	743.31
423.398	706.31
423.621	741.31
423.843	733.31
424.066	758.31
424.288	732.31
424.511	756.31
424.733	801.31
424.956	836.31
425.178	819.31
425.401	795.31
425.623	802.31
425.846	728.31
426.068	720.31
426.291	697.31
426.513	696.31
426.735	680.31
426.958	696.31
427.18	767.31
427.402	871.31
427.625	915.31
427.847	828.31
428.069	737.31
428.292	717.31
428.514	649.31
428.736	651.31
428.958	642.31
429.181	643.31
429.403	637.31
429.625	657.31
429.847	647.31
430.069	707.31
430.292	701.31
430.514	638.31
430.736	646.31
430.958	638.31
431.18	625.31
431.402	642.31
431.624	629.31
431.846	633.31
432.068	620.31
432.29	651.31
432.512	621.31
432.734	615.31
432.956	636.31
433.178	631.31
433.4	634.31
433.622	659.31
433.844	620.31
434.066	629.31
434.287	633.31
434.509	666.31
434.731	662.31
434.953	710.31
435.175	704.31
435.397	709.31
435.618	683.31
435.84	723.31
436.062	785.31
436.284	820.31
436.505	715.31
436.727	675.31
436.949	653.31
437.17	661.31
437.392	642.31
437.614	675.31
437.835	665.31
438.057	699.31
438.278	783.31
438.5	778.31
438.721	848.31
438.943	829.31
439.165	682.31
439.386	657.31
439.608	660.31
439.829	691.31
440.05	684.31
440.272	716.31
440.493	682.31
440.715	658.31
440.936	675.31
441.158	672.31
441.379	660.31
441.6	691.31
441.822	714.31
442.043	717.31
442.264	792.31
442.486	776.31
442.707	744.31
442.928	728.31
443.149	732.31
443.371	720.31
443.592	760.31
443.813	820.31
444.034	873.31
444.255	791.31
444.476	774.31
444.698	778.31
444.919	771.31
445.14	905.31
445.361	829.31
445.582	749.31
445.803	776.31
446.024	857.31
446.245	823.31
446.466	763.31
446.687	699.31
446.908	672.31
447.129	671.31
447.35	642.31
447.571	635.31
447.792	644.31
448.013	615.31
448.234	627.31
448.455	643.31
448.675	712.31
448.896	832.31
449.117	708.31
449.338	699.31
449.559	779.31
449.779	863.31
450	737.31
450.221	643.31
450.442	625.31
450.662	620.31
450.883	613.31
451.104	610.31
451.324	595.31
451.545	581.31
451.766	580.31
451.986	561.31
452.207	580.31
452.428	563.31
452.648	580.31
452.869	572.31
453.089	582.31
453.31	568.31
453.53	579.31
453.751	581.31
453.971	575.31
454.192	551.31
454.412	563.31
454.633	565.31
454.853	564.31
455.073	572.31
455.294	575.31
455.514	617.31
455.734	584.31
455.955	561.31
456.175	544.31
456.395	513.31
456.616	534.31
456.836	541.31
457.056	556.31
457.276	522.31
457.497	540.31
457.717	567.31
457.937	549.31
458.157	556.31
458.377	563.31
458.598	589.31
458.818	635.31
459.038	687.31
459.258	684.31
459.478	647.31
459.698	616.31
459.918	636.31
460.138	672.31
460.358	701.31
460.578	683.31
460.798	690.31
461.018	707.31
461.238	695.31
461.458	697.31
461.678	722.31
461.898	705.31
462.118	709.31
462.338	735.31
462.558	752.31
462.777	756.31
462.997	817.31
463.217	829.31
463.437	835.31
463.657	799.31
463.876	775.31
464.096	769.31
464.316	730.31
464.536	748.31
464.755	771.31
464.975	726.31
465.195	737.31
465.414	770.31
465.634	683.31
465.854	634.31
466.073	641.31
466.293	623.31
466.512	605.31
466.732	603.31
466.951	595.31
467.171	600.31
467.391	608.31
467.61	636.31
467.829	609.31
468.049	618.31
468.268	567.31
468.488	571.31
468.707	576.31
468.927	577.31
469.146	594.31
469.365	608.31
469.585	554.31
469.804	609.31
470.023	614.31
470.243	601.31
470.462	623.31
470.681	615.31
470.901	623.31
471.12	603.31
471.339	606.31
471.558	619.31
471.777	595.31
471.997	598.31
472.216	584.31
472.435	642.31
472.654	627.31
472.873	596.31
473.092	614.31
473.311	575.31
473.53	591.31
473.749	605.31
473.968	609.31
474.187	673.31
474.406	701.31
474.625	621.31
474.844	598.31
475.063	610.31
475.282	581.31
475.501	602.31
475.72	607.31
475.939	611.31
476.158	612.31
476.377	623.31
476.596	612.31
476.814	633.31
477.033	625.31
477.252	659.31
477.471	650.31
477.69	657.31
477.908	657.31
478.127	685.31
478.346	697.31
478.564	702.31
478.783	727.31
479.002	716.31
479.22	738.31
479.439	731.31
479.658	745.31
479.876	749.31
480.095	748.31
480.313	777.31
480.532	785.31
480.751	796.31
480.969	777.31
481.188	793.31
481.406	824.31
481.624	730.31
481.843	727.31
482.061	719.31
482.28	719.31
482.498	695.31
482.717	697.31
482.935	709.31
483.153	677.31
483.372	673.31
483.59	680.31
483.808	706.31
484.027	682.31
484.245	693.31
484.463	696.31
484.681	719.31
484.9	708.31
485.118	699.31
485.336	713.31
485.554	712.31
485.772	730.31
485.99	733.31
486.209	717.31
486.427	718.31
486.645	765.31
486.863	745.31
487.081	743.31
487.299	712.31
487.517	710.31
487.735	735.31
487.953	730.31
488.171	759.31
488.389	718.31
488.607	731.31
488.825	723.31
489.043	730.31
489.261	747.31
489.479	748.31
489.696	737.31
489.914	760.31
490.132	767.31
490.35	780.31
490.568	755.31
490.786	784.31
491.003	758.31
491.221	785.31
491.439	790.31
491.657	777.31
491.874	819.31
492.092	795.31
492.31	811.31
492.527	802.31
492.745	808.31
492.963	823.31
493.18	842.31
493.398	809.31
493.615	844.31
493.833	846.31
494.05	844.31
494.268	858.31
494.485	857.31
494.703	876.31
494.92	869.31
495.138	837.31
495.355	866.31
495.573	852.31
495.79	843.31
496.008	849.31
496.225	856.31
496.442	871.31
496.66	876.31
496.877	873.31
497.094	895.31
497.312	886.31
497.529	899.31
497.746	949.31
497.963	967.31
498.181	1021.31
498.398	994.31
498.615	1033.31
498.832	1066.31
499.049	1126.31
499.267	1152.31
499.484	1283.31
499.701	1380.31
499.918	1462.31
500.135	1575.31
500.352	1713.31
500.569	1813.31
500.786	1789.31
501.003	1668.31
501.22	1572.31
501.437	1495.31
501.654	1351.31
