Data from 1963.PennyLincolnUp.Lamp.En5.5.200Scan.071719.P1._HRD10591_13-57-49-062.txt Node
Date: Thu Jul 18 13:57:49 EDT 2019
User: cochatt
Spectrometer: HR+D1059
Trigger mode: 1
Integration Time (sec): 1.000000E-1
Scans to average: 1
Electric dark correction enabled: true
Nonlinearity correction enabled: false
Boxcar width: 0
XAxis mode: Wavelengths
Number of Pixels in Spectrum: 2048
>>>>>Begin Spectral Data<<<<<
223.165	-8.75
223.4	-8.75
223.635	-8.75
223.869	-13.75
224.104	-26.75
224.338	-28.75
224.573	-14.75
224.808	-6.75
225.042	-15.75
225.277	4.25
225.511	1.25
225.746	7.25
225.98	9.25
226.215	14.25
226.449	8.25
226.683	19.25
226.918	25.25
227.152	26.25
227.387	46.25
227.621	28.25
227.856	43.25
228.09	27.25
228.324	47.25
228.559	43.25
228.793	74.25
229.027	91.25
229.262	89.25
229.496	107.25
229.73	115.25
229.964	132.25
230.199	118.25
230.433	103.25
230.667	112.25
230.901	108.25
231.136	118.25
231.37	101.25
231.604	96.25
231.838	116.25
232.072	108.25
232.306	115.25
232.541	119.25
232.775	105.25
233.009	109.25
233.243	117.25
233.477	118.25
233.711	132.25
233.945	104.25
234.179	120.25
234.413	131.25
234.647	125.25
234.881	101.25
235.115	109.25
235.349	118.25
235.583	114.25
235.817	126.25
236.051	119.25
236.285	139.25
236.519	130.25
236.753	139.25
236.987	127.25
237.221	145.25
237.455	192.25
237.689	163.25
237.922	140.25
238.156	137.25
238.39	134.25
238.624	126.25
238.858	123.25
239.091	135.25
239.325	106.25
239.559	140.25
239.793	130.25
240.027	125.25
240.26	149.25
240.494	157.25
240.728	157.25
240.961	140.25
241.195	132.25
241.429	145.25
241.662	132.25
241.896	134.25
242.13	144.25
242.363	133.25
242.597	129.25
242.83	147.25
243.064	147.25
243.298	152.25
243.531	149.25
243.765	149.25
243.998	152.25
244.232	140.25
244.465	136.25
244.699	153.25
244.932	149.25
245.166	166.25
245.399	152.25
245.633	152.25
245.866	164.25
246.099	150.25
246.333	169.25
246.566	159.25
246.8	153.25
247.033	158.25
247.266	163.25
247.5	182.25
247.733	162.25
247.966	169.25
248.2	177.25
248.433	171.25
248.666	181.25
248.899	181.25
249.133	190.25
249.366	210.25
249.599	190.25
249.832	187.25
250.066	202.25
250.299	177.25
250.532	185.25
250.765	200.25
250.998	220.25
251.231	204.25
251.465	204.25
251.698	183.25
251.931	195.25
252.164	190.25
252.397	202.25
252.63	189.25
252.863	203.25
253.096	228.25
253.329	218.25
253.562	205.25
253.795	209.25
254.028	213.25
254.261	214.25
254.494	222.25
254.727	226.25
254.96	246.25
255.193	231.25
255.426	231.25
255.659	247.25
255.892	215.25
256.124	242.25
256.357	222.25
256.59	214.25
256.823	205.25
257.056	217.25
257.289	218.25
257.521	215.25
257.754	223.25
257.987	210.25
258.22	237.25
258.452	225.25
258.685	223.25
258.918	207.25
259.151	209.25
259.383	220.25
259.616	229.25
259.849	235.25
260.081	232.25
260.314	244.25
260.547	255.25
260.779	241.25
261.012	230.25
261.244	241.25
261.477	208.25
261.71	221.25
261.942	231.25
262.175	235.25
262.407	238.25
262.64	214.25
262.872	242.25
263.105	221.25
263.337	212.25
263.57	229.25
263.802	240.25
264.035	230.25
264.267	253.25
264.499	237.25
264.732	228.25
264.964	229.25
265.197	227.25
265.429	232.25
265.661	245.25
265.894	250.25
266.126	241.25
266.358	227.25
266.591	234.25
266.823	255.25
267.055	251.25
267.287	247.25
267.52	253.25
267.752	244.25
267.984	269.25
268.216	233.25
268.448	251.25
268.681	247.25
268.913	274.25
269.145	259.25
269.377	271.25
269.609	270.25
269.841	272.25
270.073	267.25
270.306	287.25
270.538	301.25
270.77	286.25
271.002	290.25
271.234	287.25
271.466	302.25
271.698	293.25
271.93	294.25
272.162	309.25
272.394	322.25
272.626	311.25
272.858	286.25
273.09	296.25
273.322	275.25
273.553	286.25
273.785	290.25
274.017	285.25
274.249	283.25
274.481	276.25
274.713	295.25
274.945	307.25
275.176	273.25
275.408	281.25
275.64	298.25
275.872	307.25
276.104	281.25
276.335	277.25
276.567	299.25
276.799	285.25
277.031	307.25
277.262	317.25
277.494	310.25
277.726	309.25
277.957	328.25
278.189	304.25
278.421	327.25
278.652	281.25
278.884	315.25
279.115	314.25
279.347	287.25
279.579	287.25
279.81	296.25
280.042	289.25
280.273	317.25
280.505	315.25
280.736	312.25
280.968	311.25
281.199	307.25
281.431	287.25
281.662	334.25
281.894	313.25
282.125	301.25
282.356	314.25
282.588	315.25
282.819	326.25
283.051	320.25
283.282	310.25
283.513	311.25
283.745	312.25
283.976	313.25
284.207	313.25
284.439	307.25
284.67	322.25
284.901	328.25
285.132	327.25
285.364	333.25
285.595	323.25
285.826	323.25
286.057	318.25
286.288	331.25
286.52	329.25
286.751	302.25
286.982	314.25
287.213	336.25
287.444	343.25
287.675	338.25
287.906	350.25
288.138	343.25
288.369	366.25
288.6	338.25
288.831	339.25
289.062	335.25
289.293	342.25
289.524	345.25
289.755	340.25
289.986	349.25
290.217	348.25
290.448	340.25
290.679	341.25
290.91	356.25
291.141	345.25
291.371	337.25
291.602	351.25
291.833	342.25
292.064	351.25
292.295	361.25
292.526	349.25
292.757	359.25
292.987	362.25
293.218	336.25
293.449	348.25
293.68	357.25
293.91	341.25
294.141	350.25
294.372	360.25
294.603	355.25
294.833	359.25
295.064	373.25
295.295	371.25
295.525	372.25
295.756	355.25
295.987	367.25
296.217	371.25
296.448	385.25
296.679	376.25
296.909	349.25
297.14	358.25
297.37	365.25
297.601	375.25
297.831	355.25
298.062	369.25
298.292	371.25
298.523	373.25
298.753	365.25
298.984	381.25
299.214	386.25
299.445	377.25
299.675	364.25
299.905	382.25
300.136	370.25
300.366	368.25
300.597	393.25
300.827	396.25
301.057	393.25
301.288	401.25
301.518	374.25
301.748	379.25
301.979	410.25
302.209	383.25
302.439	402.25
302.669	398.25
302.9	396.25
303.13	398.25
303.36	413.25
303.59	421.25
303.82	399.25
304.051	402.25
304.281	403.25
304.511	417.25
304.741	400.25
304.971	386.25
305.201	386.25
305.431	386.25
305.661	404.25
305.891	388.25
306.121	409.25
306.352	402.25
306.582	381.25
306.812	399.25
307.042	409.25
307.272	403.25
307.502	377.25
307.731	385.25
307.961	406.25
308.191	405.25
308.421	381.25
308.651	402.25
308.881	387.25
309.111	395.25
309.341	373.25
309.571	406.25
309.8	391.25
310.03	401.25
310.26	413.25
310.49	420.25
310.72	425.25
310.949	419.25
311.179	441.25
311.409	406.25
311.639	431.25
311.868	414.25
312.098	427.25
312.328	435.25
312.557	427.25
312.787	445.25
313.017	447.25
313.246	440.25
313.476	423.25
313.706	442.25
313.935	436.25
314.165	449.25
314.394	453.25
314.624	436.25
314.853	453.25
315.083	437.25
315.312	452.25
315.542	437.25
315.771	441.25
316.001	453.25
316.23	410.25
316.46	420.25
316.689	429.25
316.919	439.25
317.148	419.25
317.377	459.25
317.607	429.25
317.836	437.25
318.065	443.25
318.295	430.25
318.524	423.25
318.753	431.25
318.983	433.25
319.212	412.25
319.441	439.25
319.67	432.25
319.9	450.25
320.129	418.25
320.358	452.25
320.587	440.25
320.816	425.25
321.046	441.25
321.275	443.25
321.504	439.25
321.733	436.25
321.962	455.25
322.191	436.25
322.42	463.25
322.649	466.25
322.878	450.25
323.108	458.25
323.337	467.25
323.566	477.25
323.795	491.25
324.024	514.25
324.253	580.25
324.482	715.25
324.71	987.25
324.939	1433.25
325.168	1235.25
325.397	720.25
325.626	535.25
325.855	527.25
326.084	506.25
326.313	513.25
326.542	507.25
326.77	519.25
326.999	558.25
327.228	687.25
327.457	947.25
327.686	1134.25
327.914	811.25
328.143	602.25
328.372	568.25
328.6	568.25
328.829	559.25
329.058	536.25
329.287	541.25
329.515	543.25
329.744	534.25
329.972	529.25
330.201	549.25
330.43	559.25
330.658	577.25
330.887	574.25
331.115	572.25
331.344	533.25
331.572	523.25
331.801	509.25
332.03	528.25
332.258	559.25
332.486	563.25
332.715	538.25
332.943	540.25
333.172	567.25
333.4	596.25
333.629	585.25
333.857	595.25
334.085	601.25
334.314	613.25
334.542	627.25
334.771	628.25
334.999	590.25
335.227	585.25
335.455	562.25
335.684	573.25
335.912	558.25
336.14	534.25
336.369	527.25
336.597	555.25
336.825	534.25
337.053	541.25
337.281	543.25
337.51	528.25
337.738	512.25
337.966	515.25
338.194	526.25
338.422	533.25
338.65	505.25
338.878	530.25
339.106	533.25
339.334	507.25
339.562	506.25
339.79	501.25
340.018	502.25
340.246	505.25
340.474	509.25
340.702	544.25
340.93	511.25
341.158	512.25
341.386	500.25
341.614	536.25
341.842	514.25
342.07	482.25
342.298	484.25
342.526	504.25
342.754	497.25
342.981	468.25
343.209	517.25
343.437	509.25
343.665	560.25
343.893	560.25
344.12	558.25
344.348	579.25
344.576	546.25
344.804	537.25
345.031	513.25
345.259	516.25
345.487	522.25
345.714	512.25
345.942	493.25
346.17	498.25
346.397	495.25
346.625	506.25
346.853	485.25
347.08	486.25
347.308	491.25
347.535	503.25
347.763	484.25
347.99	475.25
348.218	466.25
348.445	472.25
348.673	467.25
348.9	474.25
349.128	486.25
349.355	475.25
349.583	474.25
349.81	457.25
350.037	454.25
350.265	471.25
350.492	479.25
350.72	477.25
350.947	493.25
351.174	464.25
351.402	483.25
351.629	447.25
351.856	474.25
352.083	479.25
352.311	466.25
352.538	493.25
352.765	473.25
352.992	458.25
353.22	461.25
353.447	455.25
353.674	450.25
353.901	484.25
354.128	462.25
354.355	459.25
354.583	456.25
354.81	468.25
355.037	465.25
355.264	462.25
355.491	453.25
355.718	450.25
355.945	477.25
356.172	486.25
356.399	461.25
356.626	479.25
356.853	459.25
357.08	475.25
357.307	468.25
357.534	469.25
357.761	458.25
357.988	478.25
358.215	494.25
358.441	462.25
358.668	463.25
358.895	450.25
359.122	457.25
359.349	460.25
359.576	472.25
359.802	501.25
360.029	496.25
360.256	518.25
360.483	493.25
360.709	476.25
360.936	488.25
361.163	474.25
361.39	483.25
361.616	488.25
361.843	473.25
362.07	459.25
362.296	474.25
362.523	486.25
362.749	471.25
362.976	457.25
363.203	471.25
363.429	471.25
363.656	481.25
363.882	459.25
364.109	459.25
364.335	470.25
364.562	457.25
364.788	455.25
365.015	456.25
365.241	474.25
365.468	476.25
365.694	464.25
365.92	439.25
366.147	463.25
366.373	463.25
366.599	483.25
366.826	473.25
367.052	449.25
367.278	463.25
367.505	482.25
367.731	481.25
367.957	476.25
368.184	466.25
368.41	464.25
368.636	471.25
368.862	490.25
369.089	478.25
369.315	482.25
369.541	481.25
369.767	489.25
369.993	461.25
370.219	494.25
370.445	480.25
370.672	478.25
370.898	483.25
371.124	493.25
371.35	511.25
371.576	493.25
371.802	494.25
372.028	513.25
372.254	470.25
372.48	477.25
372.706	511.25
372.932	488.25
373.158	515.25
373.384	495.25
373.61	472.25
373.835	505.25
374.061	493.25
374.287	474.25
374.513	499.25
374.739	519.25
374.965	522.25
375.191	521.25
375.416	537.25
375.642	510.25
375.868	515.25
376.094	506.25
376.319	507.25
376.545	494.25
376.771	506.25
376.997	498.25
377.222	488.25
377.448	491.25
377.674	490.25
377.899	512.25
378.125	487.25
378.35	478.25
378.576	479.25
378.802	491.25
379.027	480.25
379.253	493.25
379.478	478.25
379.704	507.25
379.929	486.25
380.155	510.25
380.38	481.25
380.606	485.25
380.831	494.25
381.057	521.25
381.282	496.25
381.507	496.25
381.733	533.25
381.958	509.25
382.184	503.25
382.409	511.25
382.634	528.25
382.86	509.25
383.085	521.25
383.31	544.25
383.535	534.25
383.761	535.25
383.986	522.25
384.211	550.25
384.436	533.25
384.662	558.25
384.887	565.25
385.112	554.25
385.337	571.25
385.562	588.25
385.787	577.25
386.013	597.25
386.238	575.25
386.463	575.25
386.688	582.25
386.913	563.25
387.138	566.25
387.363	567.25
387.588	552.25
387.813	575.25
388.038	564.25
388.263	559.25
388.488	560.25
388.713	575.25
388.938	563.25
389.163	577.25
389.387	563.25
389.612	565.25
389.837	566.25
390.062	564.25
390.287	536.25
390.512	547.25
390.736	565.25
390.961	581.25
391.186	585.25
391.411	584.25
391.636	583.25
391.86	602.25
392.085	591.25
392.31	615.25
392.534	611.25
392.759	586.25
392.984	600.25
393.208	573.25
393.433	603.25
393.658	604.25
393.882	585.25
394.107	562.25
394.331	630.25
394.556	579.25
394.78	610.25
395.005	598.25
395.229	599.25
395.454	632.25
395.678	609.25
395.903	634.25
396.127	621.25
396.352	623.25
396.576	599.25
396.801	601.25
397.025	625.25
397.249	595.25
397.474	638.25
397.698	618.25
397.922	649.25
398.147	618.25
398.371	632.25
398.595	659.25
398.82	680.25
399.044	724.25
399.268	750.25
399.492	851.25
399.717	909.25
399.941	931.25
400.165	890.25
400.389	857.25
400.613	773.25
400.837	723.25
401.062	709.25
401.286	674.25
401.51	701.25
401.734	686.25
401.958	679.25
402.182	711.25
402.406	680.25
402.63	689.25
402.854	736.25
403.078	717.25
403.302	724.25
403.526	754.25
403.75	754.25
403.974	728.25
404.198	737.25
404.422	751.25
404.645	767.25
404.869	756.25
405.093	796.25
405.317	808.25
405.541	819.25
405.765	778.25
405.988	733.25
406.212	737.25
406.436	754.25
406.66	787.25
406.883	772.25
407.107	819.25
407.331	859.25
407.555	897.25
407.778	886.25
408.002	829.25
408.226	824.25
408.449	815.25
408.673	794.25
408.896	807.25
409.12	807.25
409.344	803.25
409.567	743.25
409.791	730.25
410.014	745.25
410.238	730.25
410.461	720.25
410.685	744.25
410.908	731.25
411.132	758.25
411.355	787.25
411.578	725.25
411.802	711.25
412.025	719.25
412.249	711.25
412.472	735.25
412.695	753.25
412.919	729.25
413.142	714.25
413.365	696.25
413.589	721.25
413.812	687.25
414.035	658.25
414.258	665.25
414.482	673.25
414.705	695.25
414.928	686.25
415.151	691.25
415.374	674.25
415.597	675.25
415.821	654.25
416.044	664.25
416.267	678.25
416.49	669.25
416.713	665.25
416.936	665.25
417.159	631.25
417.382	657.25
417.605	687.25
417.828	672.25
418.051	698.25
418.274	710.25
418.497	658.25
418.72	689.25
418.943	695.25
419.166	711.25
419.389	770.25
419.611	722.25
419.834	706.25
420.057	699.25
420.28	711.25
420.503	702.25
420.726	720.25
420.948	696.25
421.171	742.25
421.394	742.25
421.617	675.25
421.839	672.25
422.062	691.25
422.285	677.25
422.507	721.25
422.73	781.25
422.953	766.25
423.175	718.25
423.398	739.25
423.621	728.25
423.843	765.25
424.066	741.25
424.288	727.25
424.511	718.25
424.733	775.25
424.956	801.25
425.178	801.25
425.401	752.25
425.623	773.25
425.846	723.25
426.068	695.25
426.291	697.25
426.513	713.25
426.735	697.25
426.958	729.25
427.18	774.25
427.402	847.25
427.625	888.25
427.847	807.25
428.069	714.25
428.292	693.25
428.514	637.25
428.736	642.25
428.958	649.25
429.181	614.25
429.403	631.25
429.625	633.25
429.847	629.25
430.069	671.25
430.292	701.25
430.514	632.25
430.736	655.25
430.958	634.25
431.18	615.25
431.402	610.25
431.624	636.25
431.846	624.25
432.068	610.25
432.29	651.25
432.512	617.25
432.734	631.25
432.956	625.25
433.178	626.25
433.4	634.25
433.622	624.25
433.844	641.25
434.066	644.25
434.287	641.25
434.509	656.25
434.731	673.25
434.953	666.25
435.175	708.25
435.397	711.25
435.618	668.25
435.84	717.25
436.062	748.25
436.284	801.25
436.505	704.25
436.727	665.25
436.949	655.25
437.17	640.25
437.392	617.25
437.614	635.25
437.835	637.25
438.057	726.25
438.278	762.25
438.5	742.25
438.721	859.25
438.943	823.25
439.165	671.25
439.386	666.25
439.608	645.25
439.829	685.25
440.05	672.25
440.272	691.25
440.493	701.25
440.715	640.25
440.936	627.25
441.158	655.25
441.379	654.25
441.6	687.25
441.822	709.25
442.043	740.25
442.264	788.25
442.486	784.25
442.707	729.25
442.928	707.25
443.149	688.25
443.371	714.25
443.592	730.25
443.813	839.25
444.034	860.25
444.255	771.25
444.476	737.25
444.698	769.25
444.919	776.25
445.14	898.25
445.361	785.25
445.582	763.25
445.803	768.25
446.024	779.25
446.245	814.25
446.466	757.25
446.687	676.25
446.908	648.25
447.129	645.25
447.35	623.25
447.571	630.25
447.792	601.25
448.013	612.25
448.234	632.25
448.455	654.25
448.675	739.25
448.896	784.25
449.117	713.25
449.338	681.25
449.559	776.25
449.779	814.25
450	701.25
450.221	634.25
450.442	590.25
450.662	592.25
450.883	584.25
451.104	590.25
451.324	583.25
451.545	579.25
451.766	567.25
451.986	568.25
452.207	554.25
452.428	545.25
452.648	576.25
452.869	562.25
453.089	579.25
453.31	584.25
453.53	565.25
453.751	567.25
453.971	579.25
454.192	560.25
454.412	549.25
454.633	553.25
454.853	547.25
455.073	567.25
455.294	572.25
455.514	593.25
455.734	612.25
455.955	566.25
456.175	535.25
456.395	544.25
456.616	532.25
456.836	528.25
457.056	543.25
457.276	530.25
457.497	540.25
457.717	542.25
457.937	555.25
458.157	522.25
458.377	542.25
458.598	553.25
458.818	605.25
459.038	677.25
459.258	691.25
459.478	634.25
459.698	641.25
459.918	643.25
460.138	650.25
460.358	644.25
460.578	691.25
460.798	691.25
461.018	699.25
461.238	671.25
461.458	683.25
461.678	673.25
461.898	695.25
462.118	721.25
462.338	722.25
462.558	737.25
462.777	741.25
462.997	806.25
463.217	822.25
463.437	855.25
463.657	810.25
463.876	750.25
464.096	780.25
464.316	758.25
464.536	778.25
464.755	766.25
464.975	740.25
465.195	727.25
465.414	764.25
465.634	679.25
465.854	645.25
466.073	635.25
466.293	625.25
466.512	610.25
466.732	591.25
466.951	594.25
467.171	606.25
467.391	604.25
467.61	593.25
467.829	623.25
468.049	594.25
468.268	589.25
468.488	600.25
468.707	587.25
468.927	596.25
469.146	588.25
469.365	575.25
469.585	622.25
469.804	602.25
470.023	613.25
470.243	625.25
470.462	623.25
470.681	656.25
470.901	632.25
471.12	603.25
471.339	614.25
471.558	612.25
471.777	615.25
471.997	600.25
472.216	619.25
472.435	597.25
472.654	593.25
472.873	574.25
473.092	613.25
473.311	572.25
473.53	595.25
473.749	589.25
473.968	591.25
474.187	665.25
474.406	687.25
474.625	637.25
474.844	584.25
475.063	604.25
475.282	593.25
475.501	593.25
475.72	601.25
475.939	609.25
476.158	607.25
476.377	608.25
476.596	599.25
476.814	627.25
477.033	602.25
477.252	637.25
477.471	637.25
477.69	654.25
477.908	667.25
478.127	671.25
478.346	673.25
478.564	680.25
478.783	691.25
479.002	696.25
479.22	721.25
479.439	733.25
479.658	749.25
479.876	732.25
480.095	733.25
480.313	788.25
480.532	776.25
480.751	765.25
480.969	758.25
481.188	801.25
481.406	789.25
481.624	754.25
481.843	699.25
482.061	675.25
482.28	673.25
482.498	677.25
482.717	666.25
482.935	693.25
483.153	686.25
483.372	681.25
483.59	685.25
483.808	661.25
484.027	688.25
484.245	690.25
484.463	691.25
484.681	703.25
484.9	725.25
485.118	734.25
485.336	714.25
485.554	701.25
485.772	722.25
485.99	717.25
486.209	715.25
486.427	731.25
486.645	735.25
486.863	725.25
487.081	711.25
487.299	747.25
487.517	738.25
487.735	709.25
487.953	731.25
488.171	737.25
488.389	741.25
488.607	716.25
488.825	728.25
489.043	722.25
489.261	753.25
489.479	726.25
489.696	755.25
489.914	761.25
490.132	733.25
490.35	749.25
490.568	747.25
490.786	749.25
491.003	761.25
491.221	765.25
491.439	770.25
491.657	795.25
491.874	782.25
492.092	783.25
492.31	820.25
492.527	793.25
492.745	794.25
492.963	825.25
493.18	807.25
493.398	825.25
493.615	835.25
493.833	825.25
494.05	838.25
494.268	847.25
494.485	841.25
494.703	831.25
494.92	823.25
495.138	823.25
495.355	823.25
495.573	843.25
495.79	833.25
496.008	864.25
496.225	826.25
496.442	853.25
496.66	879.25
496.877	863.25
497.094	868.25
497.312	896.25
497.529	891.25
497.746	920.25
497.963	931.25
498.181	980.25
498.398	1000.25
498.615	1023.25
498.832	1073.25
499.049	1137.25
499.267	1181.25
499.484	1274.25
499.701	1341.25
499.918	1432.25
500.135	1572.25
500.352	1712.25
500.569	1783.25
500.786	1729.25
501.003	1630.25
501.22	1556.25
501.437	1434.25
501.654	1359.25
501.871	1269.25
