Data from 1963.PennyLincolnUp.Lamp.En5.5.200Scan.071719.P1._HRD10591_13-58-11-063.txt Node
Date: Thu Jul 18 13:58:11 EDT 2019
User: cochatt
Spectrometer: HR+D1059
Trigger mode: 1
Integration Time (sec): 1.000000E-1
Scans to average: 1
Electric dark correction enabled: true
Nonlinearity correction enabled: false
Boxcar width: 0
XAxis mode: Wavelengths
Number of Pixels in Spectrum: 2048
>>>>>Begin Spectral Data<<<<<
223.165	-23.38
223.4	-23.38
223.635	-23.38
223.869	-17.38
224.104	-9.38
224.338	-10.38
224.573	-19.38
224.808	-14.38
225.042	-5.38
225.277	1.62
225.511	-2.38
225.746	-5.38
225.98	2.62
226.215	9.62
226.449	15.62
226.683	24.62
226.918	23.62
227.152	29.62
227.387	31.62
227.621	41.62
227.856	60.62
228.09	49.62
228.324	44.62
228.559	56.62
228.793	75.62
229.027	94.62
229.262	81.62
229.496	93.62
229.73	118.62
229.964	125.62
230.199	111.62
230.433	115.62
230.667	113.62
230.901	113.62
231.136	120.62
231.37	116.62
231.604	109.62
231.838	125.62
232.072	103.62
232.306	110.62
232.541	125.62
232.775	120.62
233.009	118.62
233.243	117.62
233.477	111.62
233.711	118.62
233.945	117.62
234.179	121.62
234.413	118.62
234.647	111.62
234.881	113.62
235.115	123.62
235.349	106.62
235.583	115.62
235.817	123.62
236.051	130.62
236.285	126.62
236.519	123.62
236.753	131.62
236.987	153.62
237.221	165.62
237.455	198.62
237.689	170.62
237.922	130.62
238.156	137.62
238.39	129.62
238.624	137.62
238.858	139.62
239.091	128.62
239.325	134.62
239.559	141.62
239.793	137.62
240.027	142.62
240.26	151.62
240.494	170.62
240.728	157.62
240.961	166.62
241.195	166.62
241.429	146.62
241.662	146.62
241.896	151.62
242.13	148.62
242.363	161.62
242.597	147.62
242.83	139.62
243.064	144.62
243.298	150.62
243.531	162.62
243.765	155.62
243.998	161.62
244.232	146.62
244.465	150.62
244.699	166.62
244.932	170.62
245.166	180.62
245.399	165.62
245.633	159.62
245.866	152.62
246.099	165.62
246.333	162.62
246.566	155.62
246.8	170.62
247.033	164.62
247.266	157.62
247.5	177.62
247.733	184.62
247.966	194.62
248.2	182.62
248.433	173.62
248.666	185.62
248.899	194.62
249.133	211.62
249.366	227.62
249.599	212.62
249.832	205.62
250.066	197.62
250.299	187.62
250.532	191.62
250.765	210.62
250.998	217.62
251.231	222.62
251.465	213.62
251.698	199.62
251.931	220.62
252.164	208.62
252.397	208.62
252.63	205.62
252.863	211.62
253.096	213.62
253.329	230.62
253.562	235.62
253.795	254.62
254.028	222.62
254.261	223.62
254.494	242.62
254.727	253.62
254.96	266.62
255.193	250.62
255.426	245.62
255.659	220.62
255.892	231.62
256.124	223.62
256.357	243.62
256.59	224.62
256.823	240.62
257.056	212.62
257.289	222.62
257.521	223.62
257.754	234.62
257.987	217.62
258.22	222.62
258.452	217.62
258.685	218.62
258.918	213.62
259.151	230.62
259.383	246.62
259.616	229.62
259.849	241.62
260.081	231.62
260.314	246.62
260.547	260.62
260.779	243.62
261.012	252.62
261.244	248.62
261.477	227.62
261.71	246.62
261.942	249.62
262.175	234.62
262.407	233.62
262.64	245.62
262.872	220.62
263.105	221.62
263.337	246.62
263.57	235.62
263.802	251.62
264.035	232.62
264.267	229.62
264.499	234.62
264.732	241.62
264.964	230.62
265.197	222.62
265.429	236.62
265.661	230.62
265.894	247.62
266.126	251.62
266.358	246.62
266.591	238.62
266.823	264.62
267.055	268.62
267.287	262.62
267.52	244.62
267.752	257.62
267.984	253.62
268.216	247.62
268.448	247.62
268.681	262.62
268.913	260.62
269.145	265.62
269.377	294.62
269.609	269.62
269.841	281.62
270.073	283.62
270.306	302.62
270.538	294.62
270.77	309.62
271.002	310.62
271.234	300.62
271.466	303.62
271.698	306.62
271.93	309.62
272.162	305.62
272.394	312.62
272.626	327.62
272.858	311.62
273.09	315.62
273.322	278.62
273.553	288.62
273.785	286.62
274.017	286.62
274.249	289.62
274.481	283.62
274.713	284.62
274.945	282.62
275.176	303.62
275.408	309.62
275.64	291.62
275.872	290.62
276.104	306.62
276.335	286.62
276.567	307.62
276.799	320.62
277.031	320.62
277.262	325.62
277.494	333.62
277.726	311.62
277.957	315.62
278.189	315.62
278.421	302.62
278.652	299.62
278.884	304.62
279.115	297.62
279.347	294.62
279.579	308.62
279.81	294.62
280.042	315.62
280.273	316.62
280.505	310.62
280.736	314.62
280.968	293.62
281.199	308.62
281.431	309.62
281.662	321.62
281.894	307.62
282.125	331.62
282.356	341.62
282.588	349.62
282.819	336.62
283.051	319.62
283.282	330.62
283.513	337.62
283.745	333.62
283.976	334.62
284.207	334.62
284.439	330.62
284.67	332.62
284.901	313.62
285.132	327.62
285.364	351.62
285.595	324.62
285.826	323.62
286.057	332.62
286.288	330.62
286.52	341.62
286.751	354.62
286.982	357.62
287.213	339.62
287.444	347.62
287.675	355.62
287.906	355.62
288.138	345.62
288.369	357.62
288.6	335.62
288.831	340.62
289.062	333.62
289.293	351.62
289.524	343.62
289.755	340.62
289.986	357.62
290.217	358.62
290.448	341.62
290.679	350.62
290.91	357.62
291.141	361.62
291.371	353.62
291.602	353.62
291.833	357.62
292.064	354.62
292.295	356.62
292.526	344.62
292.757	346.62
292.987	354.62
293.218	349.62
293.449	365.62
293.68	363.62
293.91	355.62
294.141	351.62
294.372	359.62
294.603	374.62
294.833	373.62
295.064	359.62
295.295	360.62
295.525	353.62
295.756	361.62
295.987	373.62
296.217	383.62
296.448	398.62
296.679	377.62
296.909	358.62
297.14	369.62
297.37	381.62
297.601	360.62
297.831	385.62
298.062	375.62
298.292	385.62
298.523	387.62
298.753	376.62
298.984	373.62
299.214	374.62
299.445	390.62
299.675	373.62
299.905	397.62
300.136	377.62
300.366	379.62
300.597	396.62
300.827	387.62
301.057	384.62
301.288	394.62
301.518	411.62
301.748	389.62
301.979	399.62
302.209	414.62
302.439	402.62
302.669	397.62
302.9	422.62
303.13	410.62
303.36	402.62
303.59	381.62
303.82	419.62
304.051	405.62
304.281	418.62
304.511	399.62
304.741	384.62
304.971	408.62
305.201	402.62
305.431	406.62
305.661	403.62
305.891	437.62
306.121	402.62
306.352	419.62
306.582	389.62
306.812	413.62
307.042	401.62
307.272	379.62
307.502	408.62
307.731	410.62
307.961	413.62
308.191	404.62
308.421	411.62
308.651	417.62
308.881	401.62
309.111	420.62
309.341	416.62
309.571	407.62
309.8	422.62
310.03	412.62
310.26	424.62
310.49	432.62
310.72	418.62
310.949	449.62
311.179	453.62
311.409	431.62
311.639	438.62
311.868	437.62
312.098	435.62
312.328	436.62
312.557	463.62
312.787	433.62
313.017	456.62
313.246	448.62
313.476	435.62
313.706	455.62
313.935	464.62
314.165	472.62
314.394	453.62
314.624	441.62
314.853	438.62
315.083	450.62
315.312	445.62
315.542	442.62
315.771	451.62
316.001	442.62
316.23	422.62
316.46	439.62
316.689	433.62
316.919	451.62
317.148	465.62
317.377	463.62
317.607	443.62
317.836	434.62
318.065	442.62
318.295	437.62
318.524	430.62
318.753	434.62
318.983	450.62
319.212	447.62
319.441	433.62
319.67	469.62
319.9	452.62
320.129	445.62
320.358	455.62
320.587	467.62
320.816	452.62
321.046	459.62
321.275	467.62
321.504	453.62
321.733	463.62
321.962	459.62
322.191	472.62
322.42	469.62
322.649	481.62
322.878	454.62
323.108	476.62
323.337	503.62
323.566	487.62
323.795	521.62
324.024	549.62
324.253	605.62
324.482	769.62
324.71	1047.62
324.939	1443.62
325.168	1308.62
325.397	776.62
325.626	616.62
325.855	511.62
326.084	511.62
326.313	530.62
326.542	518.62
326.77	539.62
326.999	592.62
327.228	710.62
327.457	987.62
327.686	1191.62
327.914	837.62
328.143	633.62
328.372	595.62
328.6	575.62
328.829	565.62
329.058	554.62
329.287	577.62
329.515	554.62
329.744	525.62
329.972	513.62
330.201	543.62
330.43	553.62
330.658	587.62
330.887	579.62
331.115	579.62
331.344	559.62
331.572	541.62
331.801	539.62
332.03	551.62
332.258	567.62
332.486	563.62
332.715	555.62
332.943	553.62
333.172	579.62
333.4	589.62
333.629	611.62
333.857	595.62
334.085	630.62
334.314	614.62
334.542	651.62
334.771	649.62
334.999	606.62
335.227	600.62
335.455	610.62
335.684	600.62
335.912	569.62
336.14	566.62
336.369	549.62
336.597	578.62
336.825	558.62
337.053	570.62
337.281	572.62
337.51	514.62
337.738	531.62
337.966	545.62
338.194	542.62
338.422	536.62
338.65	527.62
338.878	524.62
339.106	527.62
339.334	538.62
339.562	515.62
339.79	516.62
340.018	516.62
340.246	515.62
340.474	511.62
340.702	525.62
340.93	491.62
341.158	513.62
341.386	517.62
341.614	502.62
341.842	502.62
342.07	513.62
342.298	495.62
342.526	513.62
342.754	511.62
342.981	499.62
343.209	519.62
343.437	568.62
343.665	537.62
343.893	563.62
344.12	577.62
344.348	568.62
344.576	541.62
344.804	549.62
345.031	524.62
345.259	529.62
345.487	557.62
345.714	524.62
345.942	511.62
346.17	487.62
346.397	488.62
346.625	484.62
346.853	478.62
347.08	476.62
347.308	489.62
347.535	491.62
347.763	481.62
347.99	509.62
348.218	511.62
348.445	504.62
348.673	497.62
348.9	493.62
349.128	503.62
349.355	483.62
349.583	475.62
349.81	497.62
350.037	477.62
350.265	475.62
350.492	490.62
350.72	453.62
350.947	488.62
351.174	489.62
351.402	483.62
351.629	467.62
351.856	499.62
352.083	474.62
352.311	487.62
352.538	493.62
352.765	501.62
352.992	499.62
353.22	468.62
353.447	483.62
353.674	474.62
353.901	452.62
354.128	481.62
354.355	497.62
354.583	466.62
354.81	502.62
355.037	495.62
355.264	489.62
355.491	477.62
355.718	475.62
355.945	478.62
356.172	485.62
356.399	473.62
356.626	469.62
356.853	464.62
357.08	483.62
357.307	495.62
357.534	474.62
357.761	467.62
357.988	485.62
358.215	495.62
358.441	477.62
358.668	484.62
358.895	470.62
359.122	461.62
359.349	487.62
359.576	509.62
359.802	494.62
360.029	506.62
360.256	537.62
360.483	525.62
360.709	506.62
360.936	516.62
361.163	487.62
361.39	508.62
361.616	482.62
361.843	513.62
362.07	491.62
362.296	482.62
362.523	488.62
362.749	494.62
362.976	480.62
363.203	501.62
363.429	480.62
363.656	487.62
363.882	497.62
364.109	508.62
364.335	470.62
364.562	466.62
364.788	480.62
365.015	487.62
365.241	476.62
365.468	482.62
365.694	504.62
365.92	481.62
366.147	478.62
366.373	489.62
366.599	501.62
366.826	477.62
367.052	472.62
367.278	498.62
367.505	483.62
367.731	474.62
367.957	498.62
368.184	478.62
368.41	492.62
368.636	492.62
368.862	494.62
369.089	484.62
369.315	493.62
369.541	509.62
369.767	511.62
369.993	488.62
370.219	476.62
370.445	479.62
370.672	508.62
370.898	521.62
371.124	514.62
371.35	495.62
371.576	500.62
371.802	492.62
372.028	492.62
372.254	503.62
372.48	519.62
372.706	513.62
372.932	520.62
373.158	523.62
373.384	534.62
373.61	530.62
373.835	508.62
374.061	525.62
374.287	520.62
374.513	515.62
374.739	530.62
374.965	554.62
375.191	534.62
375.416	538.62
375.642	513.62
375.868	517.62
376.094	554.62
376.319	513.62
376.545	527.62
376.771	509.62
376.997	490.62
377.222	494.62
377.448	487.62
377.674	488.62
377.899	494.62
378.125	477.62
378.35	519.62
378.576	501.62
378.802	509.62
379.027	525.62
379.253	487.62
379.478	492.62
379.704	499.62
379.929	511.62
380.155	500.62
380.38	492.62
380.606	518.62
380.831	487.62
381.057	500.62
381.282	483.62
381.507	485.62
381.733	503.62
381.958	523.62
382.184	517.62
382.409	524.62
382.634	541.62
382.86	527.62
383.085	543.62
383.31	563.62
383.535	558.62
383.761	551.62
383.986	528.62
384.211	556.62
384.436	576.62
384.662	555.62
384.887	583.62
385.112	579.62
385.337	600.62
385.562	592.62
385.787	582.62
386.013	601.62
386.238	597.62
386.463	603.62
386.688	600.62
386.913	574.62
387.138	586.62
387.363	585.62
387.588	592.62
387.813	589.62
388.038	592.62
388.263	584.62
388.488	593.62
388.713	604.62
388.938	588.62
389.163	598.62
389.387	580.62
389.612	574.62
389.837	600.62
390.062	572.62
390.287	580.62
390.512	567.62
390.736	590.62
390.961	568.62
391.186	583.62
391.411	595.62
391.636	604.62
391.86	644.62
392.085	630.62
392.31	619.62
392.534	628.62
392.759	613.62
392.984	609.62
393.208	615.62
393.433	611.62
393.658	601.62
393.882	623.62
394.107	598.62
394.331	594.62
394.556	582.62
394.78	593.62
395.005	622.62
395.229	595.62
395.454	627.62
395.678	622.62
395.903	634.62
396.127	636.62
396.352	635.62
396.576	634.62
396.801	614.62
397.025	620.62
397.249	623.62
397.474	634.62
397.698	613.62
397.922	661.62
398.147	644.62
398.371	662.62
398.595	669.62
398.82	691.62
399.044	699.62
399.268	809.62
399.492	855.62
399.717	905.62
399.941	965.62
400.165	909.62
400.389	871.62
400.613	796.62
400.837	746.62
401.062	750.62
401.286	719.62
401.51	707.62
401.734	711.62
401.958	697.62
402.182	727.62
402.406	730.62
402.63	712.62
402.854	741.62
403.078	718.62
403.302	734.62
403.526	745.62
403.75	769.62
403.974	757.62
404.198	776.62
404.422	763.62
404.645	771.62
404.869	786.62
405.093	777.62
405.317	809.62
405.541	840.62
405.765	768.62
405.988	762.62
406.212	792.62
406.436	767.62
406.66	791.62
406.883	785.62
407.107	817.62
407.331	883.62
407.555	925.62
407.778	953.62
408.002	871.62
408.226	828.62
408.449	849.62
408.673	829.62
408.896	814.62
409.12	829.62
409.344	782.62
409.567	777.62
409.791	771.62
410.014	771.62
410.238	747.62
410.461	713.62
410.685	734.62
410.908	734.62
411.132	788.62
411.355	785.62
411.578	762.62
411.802	732.62
412.025	727.62
412.249	720.62
412.472	700.62
412.695	757.62
412.919	747.62
413.142	705.62
413.365	734.62
413.589	717.62
413.812	715.62
414.035	687.62
414.258	677.62
414.482	684.62
414.705	708.62
414.928	700.62
415.151	721.62
415.374	683.62
415.597	713.62
415.821	695.62
416.044	666.62
416.267	677.62
416.49	693.62
416.713	676.62
416.936	667.62
417.159	667.62
417.382	689.62
417.605	672.62
417.828	683.62
418.051	702.62
418.274	702.62
418.497	675.62
418.72	732.62
418.943	705.62
419.166	718.62
419.389	773.62
419.611	754.62
419.834	737.62
420.057	708.62
420.28	694.62
420.503	694.62
420.726	730.62
420.948	696.62
421.171	735.62
421.394	761.62
421.617	701.62
421.839	709.62
422.062	705.62
422.285	705.62
422.507	775.62
422.73	802.62
422.953	805.62
423.175	735.62
423.398	735.62
423.621	743.62
423.843	751.62
424.066	769.62
424.288	749.62
424.511	747.62
424.733	773.62
424.956	814.62
425.178	811.62
425.401	803.62
425.623	835.62
425.846	743.62
426.068	705.62
426.291	694.62
426.513	690.62
426.735	713.62
426.958	736.62
427.18	755.62
427.402	873.62
427.625	932.62
427.847	828.62
428.069	732.62
428.292	702.62
428.514	660.62
428.736	663.62
428.958	669.62
429.181	655.62
429.403	639.62
429.625	627.62
429.847	696.62
430.069	731.62
430.292	707.62
430.514	638.62
430.736	621.62
430.958	619.62
431.18	610.62
431.402	619.62
431.624	638.62
431.846	643.62
432.068	646.62
432.29	642.62
432.512	634.62
432.734	662.62
432.956	653.62
433.178	637.62
433.4	641.62
433.622	636.62
433.844	625.62
434.066	648.62
434.287	648.62
434.509	653.62
434.731	665.62
434.953	687.62
435.175	722.62
435.397	705.62
435.618	699.62
435.84	706.62
436.062	783.62
436.284	839.62
436.505	706.62
436.727	689.62
436.949	657.62
437.17	654.62
437.392	644.62
437.614	650.62
437.835	644.62
438.057	730.62
438.278	771.62
438.5	786.62
438.721	863.62
438.943	822.62
439.165	698.62
439.386	706.62
439.608	690.62
439.829	663.62
440.05	679.62
440.272	732.62
440.493	682.62
440.715	684.62
440.936	689.62
441.158	669.62
441.379	696.62
441.6	721.62
441.822	712.62
442.043	744.62
442.264	790.62
442.486	812.62
442.707	760.62
442.928	723.62
443.149	722.62
443.371	733.62
443.592	751.62
443.813	821.62
444.034	864.62
444.255	779.62
444.476	748.62
444.698	785.62
444.919	794.62
445.14	914.62
445.361	826.62
445.582	782.62
445.803	763.62
446.024	812.62
446.245	830.62
446.466	764.62
446.687	704.62
446.908	693.62
447.129	664.62
447.35	632.62
447.571	622.62
447.792	622.62
448.013	628.62
448.234	635.62
448.455	662.62
448.675	747.62
448.896	801.62
449.117	720.62
449.338	711.62
449.559	772.62
449.779	851.62
450	708.62
450.221	637.62
450.442	637.62
450.662	594.62
450.883	614.62
451.104	635.62
451.324	622.62
451.545	601.62
451.766	594.62
451.986	579.62
452.207	586.62
452.428	580.62
452.648	572.62
452.869	566.62
453.089	595.62
453.31	609.62
453.53	580.62
453.751	555.62
453.971	575.62
454.192	570.62
454.412	588.62
454.633	563.62
454.853	564.62
455.073	580.62
455.294	591.62
455.514	593.62
455.734	589.62
455.955	573.62
456.175	568.62
456.395	557.62
456.616	526.62
456.836	578.62
457.056	537.62
457.276	526.62
457.497	549.62
457.717	565.62
457.937	563.62
458.157	568.62
458.377	568.62
458.598	586.62
458.818	634.62
459.038	684.62
459.258	712.62
459.478	671.62
459.698	666.62
459.918	643.62
460.138	654.62
460.358	680.62
460.578	712.62
460.798	725.62
461.018	715.62
461.238	711.62
461.458	694.62
461.678	697.62
461.898	693.62
462.118	698.62
462.338	742.62
462.558	738.62
462.777	749.62
462.997	819.62
463.217	866.62
463.437	851.62
463.657	820.62
463.876	793.62
464.096	789.62
464.316	794.62
464.536	796.62
464.755	782.62
464.975	758.62
465.195	745.62
465.414	759.62
465.634	689.62
465.854	675.62
466.073	660.62
466.293	637.62
466.512	627.62
466.732	611.62
466.951	621.62
467.171	597.62
467.391	611.62
467.61	637.62
467.829	624.62
468.049	629.62
468.268	626.62
468.488	606.62
468.707	595.62
468.927	591.62
469.146	595.62
469.365	612.62
469.585	611.62
469.804	613.62
470.023	629.62
470.243	653.62
470.462	662.62
470.681	643.62
470.901	641.62
471.12	643.62
471.339	629.62
471.558	622.62
471.777	621.62
471.997	608.62
472.216	603.62
472.435	621.62
472.654	630.62
472.873	609.62
473.092	618.62
473.311	612.62
473.53	625.62
473.749	603.62
473.968	621.62
474.187	681.62
474.406	695.62
474.625	634.62
474.844	611.62
475.063	601.62
475.282	610.62
475.501	602.62
475.72	632.62
475.939	620.62
476.158	626.62
476.377	602.62
476.596	633.62
476.814	606.62
477.033	617.62
477.252	644.62
477.471	667.62
477.69	644.62
477.908	667.62
478.127	692.62
478.346	685.62
478.564	715.62
478.783	723.62
479.002	726.62
479.22	721.62
479.439	727.62
479.658	744.62
479.876	759.62
480.095	757.62
480.313	767.62
480.532	801.62
480.751	807.62
480.969	780.62
481.188	790.62
481.406	838.62
481.624	775.62
481.843	719.62
482.061	721.62
482.28	705.62
482.498	701.62
482.717	686.62
482.935	720.62
483.153	731.62
483.372	689.62
483.59	716.62
483.808	709.62
484.027	709.62
484.245	694.62
484.463	686.62
484.681	746.62
484.9	694.62
485.118	731.62
485.336	694.62
485.554	757.62
485.772	743.62
485.99	742.62
486.209	740.62
486.427	738.62
486.645	759.62
486.863	769.62
487.081	769.62
487.299	758.62
487.517	747.62
487.735	761.62
487.953	760.62
488.171	748.62
488.389	753.62
488.607	761.62
488.825	728.62
489.043	759.62
489.261	751.62
489.479	769.62
489.696	751.62
489.914	759.62
490.132	781.62
490.35	772.62
490.568	767.62
490.786	781.62
491.003	811.62
491.221	796.62
491.439	791.62
491.657	807.62
491.874	824.62
492.092	802.62
492.31	825.62
492.527	817.62
492.745	846.62
492.963	834.62
493.18	844.62
493.398	872.62
493.615	851.62
493.833	867.62
494.05	862.62
494.268	852.62
494.485	862.62
494.703	856.62
494.92	855.62
495.138	830.62
495.355	844.62
495.573	854.62
495.79	861.62
496.008	843.62
496.225	878.62
496.442	891.62
496.66	881.62
496.877	875.62
497.094	906.62
497.312	907.62
497.529	913.62
497.746	955.62
497.963	957.62
498.181	991.62
498.398	1040.62
498.615	1068.62
498.832	1081.62
499.049	1162.62
499.267	1217.62
499.484	1280.62
499.701	1368.62
499.918	1476.62
500.135	1582.62
500.352	1724.62
500.569	1778.62
500.786	1781.62
501.003	1741.62
501.22	1591.62
501.437	1460.62
501.654	1356.62
501.871	1278.62
