Data from 1963.PennyLincolnUp.Lamp.En5.5.200Scan.071719.P1._HRD10591_13-57-51-063.txt Node
Date: Thu Jul 18 13:57:51 EDT 2019
User: cochatt
Spectrometer: HR+D1059
Trigger mode: 1
Integration Time (sec): 1.000000E-1
Scans to average: 1
Electric dark correction enabled: true
Nonlinearity correction enabled: false
Boxcar width: 0
XAxis mode: Wavelengths
Number of Pixels in Spectrum: 2048
>>>>>Begin Spectral Data<<<<<
223.165	4.5
223.4	4.5
223.635	4.5
223.869	-15.5
224.104	-16.5
224.338	-7.5
224.573	-11.5
224.808	-11.5
225.042	-6.5
225.277	-3.5
225.511	-8.5
225.746	5.5
225.98	-2.5
226.215	6.5
226.449	2.5
226.683	10.5
226.918	30.5
227.152	23.5
227.387	40.5
227.621	33.5
227.856	31.5
228.09	41.5
228.324	42.5
228.559	40.5
228.793	67.5
229.027	77.5
229.262	75.5
229.496	100.5
229.73	110.5
229.964	129.5
230.199	111.5
230.433	119.5
230.667	100.5
230.901	120.5
231.136	122.5
231.37	118.5
231.604	106.5
231.838	116.5
232.072	118.5
232.306	111.5
232.541	112.5
232.775	101.5
233.009	119.5
233.243	117.5
233.477	112.5
233.711	103.5
233.945	102.5
234.179	93.5
234.413	120.5
234.647	114.5
234.881	113.5
235.115	110.5
235.349	119.5
235.583	127.5
235.817	131.5
236.051	125.5
236.285	118.5
236.519	121.5
236.753	120.5
236.987	132.5
237.221	162.5
237.455	185.5
237.689	154.5
237.922	128.5
238.156	122.5
238.39	116.5
238.624	122.5
238.858	137.5
239.091	137.5
239.325	132.5
239.559	152.5
239.793	140.5
240.027	132.5
240.26	135.5
240.494	134.5
240.728	145.5
240.961	138.5
241.195	128.5
241.429	120.5
241.662	137.5
241.896	141.5
242.13	132.5
242.363	132.5
242.597	130.5
242.83	139.5
243.064	140.5
243.298	135.5
243.531	146.5
243.765	148.5
243.998	149.5
244.232	153.5
244.465	155.5
244.699	160.5
244.932	169.5
245.166	154.5
245.399	146.5
245.633	148.5
245.866	144.5
246.099	157.5
246.333	158.5
246.566	157.5
246.8	158.5
247.033	160.5
247.266	169.5
247.5	167.5
247.733	161.5
247.966	161.5
248.2	178.5
248.433	167.5
248.666	173.5
248.899	175.5
249.133	205.5
249.366	196.5
249.599	187.5
249.832	159.5
250.066	173.5
250.299	194.5
250.532	188.5
250.765	197.5
250.998	192.5
251.231	210.5
251.465	200.5
251.698	188.5
251.931	172.5
252.164	201.5
252.397	183.5
252.63	205.5
252.863	195.5
253.096	204.5
253.329	211.5
253.562	213.5
253.795	212.5
254.028	205.5
254.261	213.5
254.494	220.5
254.727	225.5
254.96	249.5
255.193	248.5
255.426	219.5
255.659	237.5
255.892	215.5
256.124	252.5
256.357	230.5
256.59	210.5
256.823	204.5
257.056	210.5
257.289	209.5
257.521	219.5
257.754	234.5
257.987	201.5
258.22	207.5
258.452	210.5
258.685	217.5
258.918	225.5
259.151	234.5
259.383	223.5
259.616	208.5
259.849	231.5
260.081	225.5
260.314	243.5
260.547	252.5
260.779	229.5
261.012	222.5
261.244	228.5
261.477	231.5
261.71	226.5
261.942	246.5
262.175	248.5
262.407	242.5
262.64	241.5
262.872	223.5
263.105	227.5
263.337	220.5
263.57	212.5
263.802	225.5
264.035	248.5
264.267	245.5
264.499	221.5
264.732	228.5
264.964	232.5
265.197	238.5
265.429	225.5
265.661	224.5
265.894	217.5
266.126	240.5
266.358	240.5
266.591	248.5
266.823	246.5
267.055	226.5
267.287	234.5
267.52	259.5
267.752	244.5
267.984	243.5
268.216	228.5
268.448	252.5
268.681	229.5
268.913	262.5
269.145	265.5
269.377	274.5
269.609	278.5
269.841	290.5
270.073	269.5
270.306	284.5
270.538	282.5
270.77	303.5
271.002	285.5
271.234	272.5
271.466	306.5
271.698	289.5
271.93	306.5
272.162	309.5
272.394	297.5
272.626	285.5
272.858	288.5
273.09	285.5
273.322	277.5
273.553	286.5
273.785	274.5
274.017	286.5
274.249	263.5
274.481	284.5
274.713	256.5
274.945	266.5
275.176	280.5
275.408	297.5
275.64	290.5
275.872	294.5
276.104	282.5
276.335	289.5
276.567	303.5
276.799	312.5
277.031	305.5
277.262	307.5
277.494	324.5
277.726	324.5
277.957	297.5
278.189	293.5
278.421	304.5
278.652	288.5
278.884	293.5
279.115	290.5
279.347	299.5
279.579	297.5
279.81	304.5
280.042	300.5
280.273	296.5
280.505	302.5
280.736	297.5
280.968	285.5
281.199	320.5
281.431	306.5
281.662	308.5
281.894	313.5
282.125	299.5
282.356	306.5
282.588	338.5
282.819	332.5
283.051	316.5
283.282	303.5
283.513	313.5
283.745	321.5
283.976	304.5
284.207	330.5
284.439	328.5
284.67	311.5
284.901	319.5
285.132	320.5
285.364	325.5
285.595	330.5
285.826	319.5
286.057	312.5
286.288	329.5
286.52	327.5
286.751	334.5
286.982	325.5
287.213	317.5
287.444	338.5
287.675	318.5
287.906	341.5
288.138	335.5
288.369	357.5
288.6	350.5
288.831	335.5
289.062	341.5
289.293	334.5
289.524	350.5
289.755	345.5
289.986	335.5
290.217	337.5
290.448	328.5
290.679	319.5
290.91	337.5
291.141	358.5
291.371	339.5
291.602	331.5
291.833	338.5
292.064	352.5
292.295	365.5
292.526	360.5
292.757	352.5
292.987	329.5
293.218	344.5
293.449	341.5
293.68	356.5
293.91	346.5
294.141	360.5
294.372	328.5
294.603	360.5
294.833	354.5
295.064	342.5
295.295	345.5
295.525	354.5
295.756	349.5
295.987	346.5
296.217	372.5
296.448	357.5
296.679	362.5
296.909	361.5
297.14	348.5
297.37	365.5
297.601	364.5
297.831	353.5
298.062	355.5
298.292	373.5
298.523	371.5
298.753	369.5
298.984	389.5
299.214	373.5
299.445	382.5
299.675	374.5
299.905	365.5
300.136	353.5
300.366	375.5
300.597	380.5
300.827	374.5
301.057	380.5
301.288	387.5
301.518	380.5
301.748	404.5
301.979	383.5
302.209	393.5
302.439	373.5
302.669	385.5
302.9	386.5
303.13	378.5
303.36	391.5
303.59	403.5
303.82	372.5
304.051	391.5
304.281	393.5
304.511	384.5
304.741	400.5
304.971	383.5
305.201	378.5
305.431	370.5
305.661	377.5
305.891	380.5
306.121	384.5
306.352	395.5
306.582	397.5
306.812	393.5
307.042	381.5
307.272	398.5
307.502	396.5
307.731	405.5
307.961	382.5
308.191	400.5
308.421	400.5
308.651	397.5
308.881	393.5
309.111	386.5
309.341	393.5
309.571	398.5
309.8	394.5
310.03	406.5
310.26	416.5
310.49	415.5
310.72	404.5
310.949	412.5
311.179	424.5
311.409	403.5
311.639	408.5
311.868	424.5
312.098	413.5
312.328	410.5
312.557	408.5
312.787	439.5
313.017	417.5
313.246	424.5
313.476	447.5
313.706	418.5
313.935	429.5
314.165	408.5
314.394	440.5
314.624	426.5
314.853	424.5
315.083	417.5
315.312	448.5
315.542	422.5
315.771	409.5
316.001	412.5
316.23	423.5
316.46	417.5
316.689	455.5
316.919	436.5
317.148	425.5
317.377	442.5
317.607	426.5
317.836	405.5
318.065	429.5
318.295	428.5
318.524	414.5
318.753	433.5
318.983	414.5
319.212	426.5
319.441	446.5
319.67	447.5
319.9	418.5
320.129	428.5
320.358	419.5
320.587	422.5
320.816	418.5
321.046	440.5
321.275	436.5
321.504	446.5
321.733	443.5
321.962	446.5
322.191	435.5
322.42	444.5
322.649	453.5
322.878	441.5
323.108	455.5
323.337	463.5
323.566	489.5
323.795	498.5
324.024	512.5
324.253	555.5
324.482	699.5
324.71	972.5
324.939	1344.5
325.168	1217.5
325.397	705.5
325.626	565.5
325.855	526.5
326.084	491.5
326.313	482.5
326.542	500.5
326.77	539.5
326.999	544.5
327.228	661.5
327.457	938.5
327.686	1117.5
327.914	772.5
328.143	612.5
328.372	551.5
328.6	554.5
328.829	522.5
329.058	542.5
329.287	545.5
329.515	531.5
329.744	535.5
329.972	517.5
330.201	540.5
330.43	559.5
330.658	556.5
330.887	555.5
331.115	561.5
331.344	538.5
331.572	524.5
331.801	529.5
332.03	536.5
332.258	532.5
332.486	519.5
332.715	533.5
332.943	546.5
333.172	576.5
333.4	576.5
333.629	582.5
333.857	614.5
334.085	596.5
334.314	613.5
334.542	595.5
334.771	622.5
334.999	574.5
335.227	582.5
335.455	540.5
335.684	550.5
335.912	526.5
336.14	554.5
336.369	527.5
336.597	538.5
336.825	536.5
337.053	544.5
337.281	519.5
337.51	532.5
337.738	538.5
337.966	514.5
338.194	515.5
338.422	513.5
338.65	508.5
338.878	489.5
339.106	505.5
339.334	500.5
339.562	508.5
339.79	503.5
340.018	487.5
340.246	493.5
340.474	488.5
340.702	501.5
340.93	502.5
341.158	486.5
341.386	489.5
341.614	502.5
341.842	488.5
342.07	493.5
342.298	505.5
342.526	493.5
342.754	495.5
342.981	461.5
343.209	495.5
343.437	528.5
343.665	510.5
343.893	519.5
344.12	586.5
344.348	533.5
344.576	522.5
344.804	522.5
345.031	515.5
345.259	510.5
345.487	497.5
345.714	494.5
345.942	497.5
346.17	498.5
346.397	475.5
346.625	496.5
346.853	492.5
347.08	486.5
347.308	470.5
347.535	487.5
347.763	481.5
347.99	484.5
348.218	489.5
348.445	496.5
348.673	476.5
348.9	473.5
349.128	480.5
349.355	463.5
349.583	458.5
349.81	483.5
350.037	463.5
350.265	465.5
350.492	465.5
350.72	469.5
350.947	464.5
351.174	470.5
351.402	458.5
351.629	472.5
351.856	472.5
352.083	464.5
352.311	480.5
352.538	485.5
352.765	500.5
352.992	481.5
353.22	457.5
353.447	485.5
353.674	467.5
353.901	450.5
354.128	458.5
354.355	441.5
354.583	452.5
354.81	441.5
355.037	457.5
355.264	466.5
355.491	442.5
355.718	461.5
355.945	458.5
356.172	464.5
356.399	451.5
356.626	452.5
356.853	457.5
357.08	472.5
357.307	466.5
357.534	453.5
357.761	461.5
357.988	472.5
358.215	465.5
358.441	464.5
358.668	455.5
358.895	469.5
359.122	460.5
359.349	452.5
359.576	462.5
359.802	497.5
360.029	481.5
360.256	484.5
360.483	489.5
360.709	474.5
360.936	461.5
361.163	480.5
361.39	477.5
361.616	481.5
361.843	486.5
362.07	479.5
362.296	492.5
362.523	460.5
362.749	494.5
362.976	459.5
363.203	471.5
363.429	449.5
363.656	472.5
363.882	467.5
364.109	454.5
364.335	482.5
364.562	444.5
364.788	472.5
365.015	459.5
365.241	464.5
365.468	463.5
365.694	464.5
365.92	464.5
366.147	446.5
366.373	447.5
366.599	475.5
366.826	461.5
367.052	459.5
367.278	447.5
367.505	463.5
367.731	480.5
367.957	480.5
368.184	467.5
368.41	481.5
368.636	480.5
368.862	469.5
369.089	490.5
369.315	468.5
369.541	468.5
369.767	483.5
369.993	496.5
370.219	466.5
370.445	481.5
370.672	473.5
370.898	479.5
371.124	504.5
371.35	489.5
371.576	502.5
371.802	489.5
372.028	504.5
372.254	478.5
372.48	470.5
372.706	482.5
372.932	503.5
373.158	512.5
373.384	502.5
373.61	492.5
373.835	509.5
374.061	487.5
374.287	514.5
374.513	496.5
374.739	506.5
374.965	509.5
375.191	523.5
375.416	498.5
375.642	523.5
375.868	501.5
376.094	490.5
376.319	467.5
376.545	513.5
376.771	480.5
376.997	496.5
377.222	467.5
377.448	498.5
377.674	481.5
377.899	474.5
378.125	495.5
378.35	485.5
378.576	477.5
378.802	498.5
379.027	466.5
379.253	472.5
379.478	480.5
379.704	496.5
379.929	497.5
380.155	503.5
380.38	481.5
380.606	504.5
380.831	486.5
381.057	471.5
381.282	496.5
381.507	504.5
381.733	479.5
381.958	495.5
382.184	506.5
382.409	481.5
382.634	505.5
382.86	511.5
383.085	502.5
383.31	502.5
383.535	523.5
383.761	519.5
383.986	525.5
384.211	514.5
384.436	544.5
384.662	552.5
384.887	544.5
385.112	553.5
385.337	553.5
385.562	551.5
385.787	556.5
386.013	572.5
386.238	563.5
386.463	569.5
386.688	557.5
386.913	573.5
387.138	579.5
387.363	568.5
387.588	570.5
387.813	553.5
388.038	545.5
388.263	578.5
388.488	578.5
388.713	548.5
388.938	553.5
389.163	566.5
389.387	563.5
389.612	540.5
389.837	537.5
390.062	548.5
390.287	552.5
390.512	579.5
390.736	573.5
390.961	570.5
391.186	558.5
391.411	569.5
391.636	571.5
391.86	596.5
392.085	602.5
392.31	608.5
392.534	594.5
392.759	599.5
392.984	592.5
393.208	575.5
393.433	591.5
393.658	600.5
393.882	584.5
394.107	589.5
394.331	587.5
394.556	576.5
394.78	586.5
395.005	601.5
395.229	576.5
395.454	611.5
395.678	602.5
395.903	638.5
396.127	618.5
396.352	627.5
396.576	604.5
396.801	597.5
397.025	600.5
397.249	604.5
397.474	608.5
397.698	613.5
397.922	645.5
398.147	625.5
398.371	646.5
398.595	651.5
398.82	686.5
399.044	705.5
399.268	772.5
399.492	826.5
399.717	928.5
399.941	898.5
400.165	873.5
400.389	814.5
400.613	768.5
400.837	735.5
401.062	695.5
401.286	678.5
401.51	665.5
401.734	690.5
401.958	689.5
402.182	688.5
402.406	701.5
402.63	694.5
402.854	697.5
403.078	717.5
403.302	723.5
403.526	728.5
403.75	745.5
403.974	749.5
404.198	736.5
404.422	750.5
404.645	750.5
404.869	751.5
405.093	752.5
405.317	758.5
405.541	777.5
405.765	756.5
405.988	730.5
406.212	751.5
406.436	739.5
406.66	788.5
406.883	766.5
407.107	804.5
407.331	832.5
407.555	916.5
407.778	904.5
408.002	829.5
408.226	814.5
408.449	785.5
408.673	749.5
408.896	790.5
409.12	816.5
409.344	737.5
409.567	715.5
409.791	712.5
410.014	738.5
410.238	720.5
410.461	681.5
410.685	718.5
410.908	700.5
411.132	735.5
411.355	740.5
411.578	728.5
411.802	685.5
412.025	706.5
412.249	702.5
412.472	723.5
412.695	751.5
412.919	716.5
413.142	687.5
413.365	662.5
413.589	685.5
413.812	690.5
414.035	680.5
414.258	697.5
414.482	673.5
414.705	693.5
414.928	676.5
415.151	656.5
415.374	660.5
415.597	656.5
415.821	663.5
416.044	665.5
416.267	657.5
416.49	648.5
416.713	647.5
416.936	664.5
417.159	661.5
417.382	654.5
417.605	664.5
417.828	672.5
418.051	689.5
418.274	658.5
418.497	671.5
418.72	655.5
418.943	675.5
419.166	697.5
419.389	746.5
419.611	718.5
419.834	703.5
420.057	701.5
420.28	689.5
420.503	706.5
420.726	681.5
420.948	680.5
421.171	713.5
421.394	721.5
421.617	682.5
421.839	684.5
422.062	667.5
422.285	678.5
422.507	724.5
422.73	772.5
422.953	758.5
423.175	712.5
423.398	732.5
423.621	719.5
423.843	728.5
424.066	699.5
424.288	732.5
424.511	735.5
424.733	755.5
424.956	826.5
425.178	794.5
425.401	752.5
425.623	791.5
425.846	702.5
426.068	679.5
426.291	663.5
426.513	692.5
426.735	670.5
426.958	676.5
427.18	739.5
427.402	817.5
427.625	920.5
427.847	801.5
428.069	722.5
428.292	688.5
428.514	676.5
428.736	652.5
428.958	665.5
429.181	609.5
429.403	617.5
429.625	641.5
429.847	639.5
430.069	679.5
430.292	689.5
430.514	609.5
430.736	625.5
430.958	614.5
431.18	616.5
431.402	620.5
431.624	606.5
431.846	610.5
432.068	611.5
432.29	616.5
432.512	622.5
432.734	651.5
432.956	620.5
433.178	620.5
433.4	627.5
433.622	621.5
433.844	621.5
434.066	627.5
434.287	631.5
434.509	646.5
434.731	653.5
434.953	661.5
435.175	685.5
435.397	690.5
435.618	678.5
435.84	697.5
436.062	752.5
436.284	786.5
436.505	687.5
436.727	636.5
436.949	656.5
437.17	637.5
437.392	627.5
437.614	626.5
437.835	642.5
438.057	680.5
438.278	752.5
438.5	752.5
438.721	834.5
438.943	780.5
439.165	680.5
439.386	632.5
439.608	630.5
439.829	634.5
440.05	678.5
440.272	700.5
440.493	650.5
440.715	656.5
440.936	653.5
441.158	648.5
441.379	664.5
441.6	662.5
441.822	701.5
442.043	732.5
442.264	768.5
442.486	764.5
442.707	711.5
442.928	680.5
443.149	690.5
443.371	700.5
443.592	727.5
443.813	795.5
444.034	847.5
444.255	730.5
444.476	729.5
444.698	745.5
444.919	752.5
445.14	892.5
445.361	784.5
445.582	746.5
445.803	770.5
446.024	785.5
446.245	773.5
446.466	726.5
446.687	668.5
446.908	643.5
447.129	615.5
447.35	586.5
447.571	609.5
447.792	608.5
448.013	600.5
448.234	596.5
448.455	634.5
448.675	714.5
448.896	784.5
449.117	696.5
449.338	667.5
449.559	716.5
449.779	836.5
450	710.5
450.221	622.5
450.442	613.5
450.662	607.5
450.883	591.5
451.104	596.5
451.324	590.5
451.545	568.5
451.766	572.5
451.986	543.5
452.207	566.5
452.428	553.5
452.648	558.5
452.869	562.5
453.089	576.5
453.31	577.5
453.53	566.5
453.751	553.5
453.971	558.5
454.192	549.5
454.412	552.5
454.633	559.5
454.853	537.5
455.073	545.5
455.294	559.5
455.514	600.5
455.734	603.5
455.955	549.5
456.175	540.5
456.395	519.5
456.616	543.5
456.836	528.5
457.056	509.5
457.276	510.5
457.497	538.5
457.717	526.5
457.937	560.5
458.157	558.5
458.377	551.5
458.598	560.5
458.818	616.5
459.038	668.5
459.258	660.5
459.478	639.5
459.698	620.5
459.918	621.5
460.138	636.5
460.358	656.5
460.578	686.5
460.798	683.5
461.018	701.5
461.238	672.5
461.458	668.5
461.678	679.5
461.898	674.5
462.118	674.5
462.338	692.5
462.558	740.5
462.777	755.5
462.997	774.5
463.217	817.5
463.437	837.5
463.657	808.5
463.876	760.5
464.096	755.5
464.316	730.5
464.536	761.5
464.755	738.5
464.975	714.5
465.195	708.5
465.414	764.5
465.634	659.5
465.854	632.5
466.073	628.5
466.293	623.5
466.512	606.5
466.732	601.5
466.951	601.5
467.171	597.5
467.391	586.5
467.61	586.5
467.829	574.5
468.049	586.5
468.268	590.5
468.488	583.5
468.707	574.5
468.927	567.5
469.146	559.5
469.365	573.5
469.585	583.5
469.804	605.5
470.023	650.5
470.243	612.5
470.462	620.5
470.681	642.5
470.901	620.5
471.12	602.5
471.339	620.5
471.558	600.5
471.777	600.5
471.997	600.5
472.216	608.5
472.435	588.5
472.654	608.5
472.873	577.5
473.092	570.5
473.311	572.5
473.53	566.5
473.749	542.5
473.968	604.5
474.187	656.5
474.406	668.5
474.625	616.5
474.844	597.5
475.063	593.5
475.282	591.5
475.501	587.5
475.72	578.5
475.939	576.5
476.158	606.5
476.377	600.5
476.596	590.5
476.814	618.5
477.033	624.5
477.252	627.5
477.471	641.5
477.69	638.5
477.908	654.5
478.127	648.5
478.346	677.5
478.564	676.5
478.783	689.5
479.002	689.5
479.22	720.5
479.439	713.5
479.658	718.5
479.876	710.5
480.095	727.5
480.313	748.5
480.532	764.5
480.751	761.5
480.969	745.5
481.188	764.5
481.406	800.5
481.624	757.5
481.843	727.5
482.061	710.5
482.28	690.5
482.498	654.5
482.717	682.5
482.935	696.5
483.153	668.5
483.372	679.5
483.59	668.5
483.808	644.5
484.027	693.5
484.245	672.5
484.463	656.5
484.681	691.5
484.9	695.5
485.118	688.5
485.336	710.5
485.554	727.5
485.772	706.5
485.99	708.5
486.209	723.5
486.427	705.5
486.645	713.5
486.863	702.5
487.081	717.5
487.299	721.5
487.517	704.5
487.735	734.5
487.953	694.5
488.171	707.5
488.389	716.5
488.607	693.5
488.825	727.5
489.043	702.5
489.261	710.5
489.479	728.5
489.696	744.5
489.914	737.5
490.132	758.5
490.35	759.5
490.568	737.5
490.786	752.5
491.003	777.5
491.221	760.5
491.439	757.5
491.657	796.5
491.874	786.5
492.092	785.5
492.31	772.5
492.527	808.5
492.745	796.5
492.963	799.5
493.18	834.5
493.398	816.5
493.615	781.5
493.833	815.5
494.05	816.5
494.268	830.5
494.485	829.5
494.703	825.5
494.92	816.5
495.138	805.5
495.355	826.5
495.573	825.5
495.79	827.5
496.008	810.5
496.225	825.5
496.442	850.5
496.66	847.5
496.877	862.5
497.094	878.5
497.312	910.5
497.529	882.5
497.746	904.5
497.963	919.5
498.181	957.5
498.398	964.5
498.615	1018.5
498.832	1056.5
499.049	1117.5
499.267	1180.5
499.484	1232.5
499.701	1325.5
499.918	1410.5
500.135	1553.5
500.352	1652.5
500.569	1710.5
500.786	1755.5
501.003	1631.5
501.22	1537.5
501.437	1431.5
501.654	1344.5
501.871	1232.5
502.088	1195.5
502.305	1125.5
502.522	1061.5
502.739	1044.5
502.956	1008.5
503.172	931.5
503.389	907.5
503.606	905.5
503.823	912.5
504.04	921.5
504.256	901.5
504.473	907.5
504.69	911.5
504.907	882.5
505.123	855.5
505.34	826.5
505.557	826.5
505.773	813.5
505.99	827.5
506.207	788.5
506.423	819.5
506.64	769.5
506.856	768.5
507.073	750.5
507.289	735.5
507.506	777.5
507.722	756.5
507.939	750.5
508.155	752.5
508.372	729.5
508.588	716.5
508.805	727.5
509.021	706.5
509.238	717.5
509.454	715.5
509.67	709.5
509.887	721.5
510.103	690.5
510.319	714.5
510.536	774.5
510.752	1038.5
510.968	923.5
511.184	730.5
511.401	692.5
511.617	682.5
511.833	680.5
512.049	703.5
512.265	674.5
512.481	669.5
512.698	676.5
512.914	677.5
513.13	692.5
513.346	687.5
513.562	660.5
513.778	662.5
513.994	668.5
514.21	674.5
514.426	688.5
514.642	696.5
514.858	725.5
515.074	728.5
515.29	793.5
515.506	1036.5
515.721	948.5
515.937	784.5
516.153	735.5
516.369	737.5
516.585	753.5
516.801	783.5
517.016	810.5
517.232	800.5
517.448	833.5
517.664	821.5
517.879	868.5
518.095	851.5
518.311	839.5
518.527	785.5
518.742	806.5
518.958	737.5
519.173	766.5
519.389	720.5
519.605	713.5
