Data from 1963.PennyLincolnUp.Lamp.En5.5.200Scan.071719.P1._HRD10591_13-58-01-063.txt Node
Date: Thu Jul 18 13:58:01 EDT 2019
User: cochatt
Spectrometer: HR+D1059
Trigger mode: 1
Integration Time (sec): 1.000000E-1
Scans to average: 1
Electric dark correction enabled: true
Nonlinearity correction enabled: false
Boxcar width: 0
XAxis mode: Wavelengths
Number of Pixels in Spectrum: 2048
>>>>>Begin Spectral Data<<<<<
223.165	5.62
223.4	5.62
223.635	5.62
223.869	-18.38
224.104	-16.38
224.338	-3.38
224.573	-33.38
224.808	-18.38
225.042	4.62
225.277	-15.38
225.511	0.62
225.746	3.62
225.98	5.62
226.215	10.62
226.449	3.62
226.683	5.62
226.918	29.62
227.152	35.62
227.387	28.62
227.621	39.62
227.856	41.62
228.09	22.62
228.324	44.62
228.559	52.62
228.793	48.62
229.027	89.62
229.262	89.62
229.496	96.62
229.73	121.62
229.964	125.62
230.199	112.62
230.433	110.62
230.667	102.62
230.901	105.62
231.136	108.62
231.37	111.62
231.604	109.62
231.838	111.62
232.072	114.62
232.306	119.62
232.541	116.62
232.775	122.62
233.009	115.62
233.243	110.62
233.477	112.62
233.711	110.62
233.945	115.62
234.179	111.62
234.413	105.62
234.647	110.62
234.881	104.62
235.115	114.62
235.349	124.62
235.583	104.62
235.817	125.62
236.051	134.62
236.285	120.62
236.519	109.62
236.753	120.62
236.987	129.62
237.221	145.62
237.455	189.62
237.689	150.62
237.922	127.62
238.156	131.62
238.39	136.62
238.624	119.62
238.858	121.62
239.091	121.62
239.325	121.62
239.559	127.62
239.793	120.62
240.027	125.62
240.26	134.62
240.494	144.62
240.728	131.62
240.961	145.62
241.195	149.62
241.429	133.62
241.662	133.62
241.896	137.62
242.13	136.62
242.363	147.62
242.597	129.62
242.83	146.62
243.064	133.62
243.298	137.62
243.531	157.62
243.765	146.62
243.998	145.62
244.232	154.62
244.465	153.62
244.699	140.62
244.932	159.62
245.166	155.62
245.399	167.62
245.633	137.62
245.866	164.62
246.099	166.62
246.333	163.62
246.566	144.62
246.8	153.62
247.033	158.62
247.266	157.62
247.5	169.62
247.733	174.62
247.966	171.62
248.2	161.62
248.433	177.62
248.666	160.62
248.899	178.62
249.133	193.62
249.366	204.62
249.599	189.62
249.832	190.62
250.066	180.62
250.299	188.62
250.532	198.62
250.765	207.62
250.998	207.62
251.231	220.62
251.465	215.62
251.698	197.62
251.931	205.62
252.164	189.62
252.397	195.62
252.63	198.62
252.863	209.62
253.096	220.62
253.329	222.62
253.562	224.62
253.795	215.62
254.028	227.62
254.261	224.62
254.494	221.62
254.727	226.62
254.96	240.62
255.193	240.62
255.426	228.62
255.659	224.62
255.892	235.62
256.124	224.62
256.357	221.62
256.59	231.62
256.823	220.62
257.056	209.62
257.289	201.62
257.521	213.62
257.754	223.62
257.987	201.62
258.22	219.62
258.452	207.62
258.685	231.62
258.918	220.62
259.151	232.62
259.383	228.62
259.616	228.62
259.849	230.62
260.081	227.62
260.314	260.62
260.547	252.62
260.779	255.62
261.012	236.62
261.244	212.62
261.477	232.62
261.71	209.62
261.942	203.62
262.175	236.62
262.407	224.62
262.64	233.62
262.872	227.62
263.105	239.62
263.337	221.62
263.57	249.62
263.802	243.62
264.035	238.62
264.267	222.62
264.499	233.62
264.732	230.62
264.964	200.62
265.197	235.62
265.429	226.62
265.661	229.62
265.894	241.62
266.126	235.62
266.358	237.62
266.591	244.62
266.823	242.62
267.055	244.62
267.287	245.62
267.52	252.62
267.752	246.62
267.984	250.62
268.216	262.62
268.448	240.62
268.681	283.62
268.913	267.62
269.145	277.62
269.377	286.62
269.609	275.62
269.841	280.62
270.073	285.62
270.306	285.62
270.538	313.62
270.77	306.62
271.002	290.62
271.234	297.62
271.466	297.62
271.698	287.62
271.93	322.62
272.162	309.62
272.394	294.62
272.626	295.62
272.858	300.62
273.09	279.62
273.322	305.62
273.553	279.62
273.785	285.62
274.017	277.62
274.249	274.62
274.481	283.62
274.713	274.62
274.945	283.62
275.176	288.62
275.408	286.62
275.64	287.62
275.872	292.62
276.104	282.62
276.335	293.62
276.567	285.62
276.799	306.62
277.031	303.62
277.262	326.62
277.494	321.62
277.726	312.62
277.957	302.62
278.189	283.62
278.421	279.62
278.652	295.62
278.884	305.62
279.115	304.62
279.347	303.62
279.579	301.62
279.81	301.62
280.042	292.62
280.273	299.62
280.505	277.62
280.736	304.62
280.968	305.62
281.199	311.62
281.431	298.62
281.662	311.62
281.894	325.62
282.125	318.62
282.356	327.62
282.588	321.62
282.819	315.62
283.051	335.62
283.282	319.62
283.513	318.62
283.745	327.62
283.976	293.62
284.207	303.62
284.439	318.62
284.67	324.62
284.901	300.62
285.132	318.62
285.364	312.62
285.595	322.62
285.826	323.62
286.057	326.62
286.288	312.62
286.52	338.62
286.751	326.62
286.982	335.62
287.213	331.62
287.444	335.62
287.675	340.62
287.906	351.62
288.138	328.62
288.369	343.62
288.6	358.62
288.831	339.62
289.062	329.62
289.293	327.62
289.524	346.62
289.755	354.62
289.986	360.62
290.217	338.62
290.448	342.62
290.679	331.62
290.91	339.62
291.141	356.62
291.371	346.62
291.602	327.62
291.833	310.62
292.064	332.62
292.295	348.62
292.526	324.62
292.757	336.62
292.987	353.62
293.218	351.62
293.449	342.62
293.68	339.62
293.91	344.62
294.141	345.62
294.372	343.62
294.603	362.62
294.833	327.62
295.064	330.62
295.295	327.62
295.525	345.62
295.756	356.62
295.987	355.62
296.217	383.62
296.448	375.62
296.679	363.62
296.909	332.62
297.14	367.62
297.37	356.62
297.601	341.62
297.831	355.62
298.062	368.62
298.292	372.62
298.523	373.62
298.753	366.62
298.984	379.62
299.214	361.62
299.445	360.62
299.675	366.62
299.905	359.62
300.136	371.62
300.366	359.62
300.597	390.62
300.827	383.62
301.057	398.62
301.288	395.62
301.518	388.62
301.748	396.62
301.979	383.62
302.209	385.62
302.439	391.62
302.669	397.62
302.9	401.62
303.13	383.62
303.36	393.62
303.59	404.62
303.82	412.62
304.051	411.62
304.281	407.62
304.511	414.62
304.741	385.62
304.971	391.62
305.201	391.62
305.431	386.62
305.661	387.62
305.891	382.62
306.121	393.62
306.352	405.62
306.582	398.62
306.812	411.62
307.042	391.62
307.272	398.62
307.502	387.62
307.731	383.62
307.961	416.62
308.191	395.62
308.421	377.62
308.651	393.62
308.881	374.62
309.111	385.62
309.341	393.62
309.571	448.62
309.8	413.62
310.03	412.62
310.26	389.62
310.49	404.62
310.72	409.62
310.949	423.62
311.179	432.62
311.409	417.62
311.639	423.62
311.868	406.62
312.098	431.62
312.328	422.62
312.557	447.62
312.787	459.62
313.017	444.62
313.246	437.62
313.476	444.62
313.706	440.62
313.935	447.62
314.165	456.62
314.394	449.62
314.624	440.62
314.853	454.62
315.083	441.62
315.312	453.62
315.542	449.62
315.771	422.62
316.001	437.62
316.23	441.62
316.46	412.62
316.689	423.62
316.919	445.62
317.148	439.62
317.377	434.62
317.607	443.62
317.836	439.62
318.065	446.62
318.295	415.62
318.524	450.62
318.753	429.62
318.983	435.62
319.212	430.62
319.441	430.62
319.67	445.62
319.9	417.62
320.129	443.62
320.358	439.62
320.587	424.62
320.816	471.62
321.046	436.62
321.275	430.62
321.504	446.62
321.733	450.62
321.962	467.62
322.191	440.62
322.42	449.62
322.649	473.62
322.878	465.62
323.108	457.62
323.337	491.62
323.566	475.62
323.795	509.62
324.024	519.62
324.253	585.62
324.482	711.62
324.71	1043.62
324.939	1438.62
325.168	1263.62
325.397	731.62
325.626	561.62
325.855	523.62
326.084	496.62
326.313	496.62
326.542	485.62
326.77	521.62
326.999	584.62
327.228	691.62
327.457	947.62
327.686	1155.62
327.914	833.62
328.143	608.62
328.372	572.62
328.6	565.62
328.829	528.62
329.058	526.62
329.287	547.62
329.515	555.62
329.744	535.62
329.972	527.62
330.201	536.62
330.43	550.62
330.658	566.62
330.887	567.62
331.115	581.62
331.344	558.62
331.572	509.62
331.801	546.62
332.03	541.62
332.258	560.62
332.486	549.62
332.715	562.62
332.943	537.62
333.172	543.62
333.4	567.62
333.629	581.62
333.857	606.62
334.085	616.62
334.314	608.62
334.542	636.62
334.771	637.62
334.999	593.62
335.227	592.62
335.455	575.62
335.684	568.62
335.912	562.62
336.14	557.62
336.369	546.62
336.597	553.62
336.825	568.62
337.053	545.62
337.281	518.62
337.51	501.62
337.738	523.62
337.966	551.62
338.194	543.62
338.422	524.62
338.65	529.62
338.878	533.62
339.106	533.62
339.334	525.62
339.562	512.62
339.79	515.62
340.018	528.62
340.246	510.62
340.474	507.62
340.702	505.62
340.93	494.62
341.158	521.62
341.386	522.62
341.614	520.62
341.842	499.62
342.07	475.62
342.298	496.62
342.526	503.62
342.754	476.62
342.981	477.62
343.209	509.62
343.437	519.62
343.665	537.62
343.893	569.62
344.12	569.62
344.348	552.62
344.576	537.62
344.804	523.62
345.031	514.62
345.259	525.62
345.487	499.62
345.714	499.62
345.942	504.62
346.17	480.62
346.397	484.62
346.625	480.62
346.853	484.62
347.08	501.62
347.308	482.62
347.535	479.62
347.763	509.62
347.99	478.62
348.218	478.62
348.445	497.62
348.673	477.62
348.9	469.62
349.128	475.62
349.355	446.62
349.583	470.62
349.81	473.62
350.037	462.62
350.265	463.62
350.492	454.62
350.72	478.62
350.947	466.62
351.174	482.62
351.402	479.62
351.629	483.62
351.856	480.62
352.083	499.62
352.311	495.62
352.538	464.62
352.765	481.62
352.992	493.62
353.22	471.62
353.447	474.62
353.674	460.62
353.901	471.62
354.128	466.62
354.355	484.62
354.583	467.62
354.81	493.62
355.037	454.62
355.264	438.62
355.491	450.62
355.718	469.62
355.945	473.62
356.172	461.62
356.399	457.62
356.626	460.62
356.853	481.62
357.08	479.62
357.307	487.62
357.534	461.62
357.761	464.62
357.988	474.62
358.215	467.62
358.441	475.62
358.668	443.62
358.895	464.62
359.122	466.62
359.349	457.62
359.576	499.62
359.802	493.62
360.029	502.62
360.256	509.62
360.483	503.62
360.709	486.62
360.936	487.62
361.163	483.62
361.39	494.62
361.616	495.62
361.843	497.62
362.07	474.62
362.296	480.62
362.523	459.62
362.749	484.62
362.976	479.62
363.203	482.62
363.429	460.62
363.656	472.62
363.882	450.62
364.109	448.62
364.335	474.62
364.562	460.62
364.788	479.62
365.015	492.62
365.241	467.62
365.468	463.62
365.694	459.62
365.92	461.62
366.147	461.62
366.373	494.62
366.599	468.62
366.826	467.62
367.052	463.62
367.278	466.62
367.505	462.62
367.731	471.62
367.957	448.62
368.184	435.62
368.41	461.62
368.636	494.62
368.862	475.62
369.089	472.62
369.315	479.62
369.541	468.62
369.767	473.62
369.993	454.62
370.219	466.62
370.445	483.62
370.672	468.62
370.898	483.62
371.124	491.62
371.35	492.62
371.576	517.62
371.802	497.62
372.028	486.62
372.254	496.62
372.48	514.62
372.706	496.62
372.932	512.62
373.158	511.62
373.384	485.62
373.61	488.62
373.835	483.62
374.061	484.62
374.287	519.62
374.513	513.62
374.739	533.62
374.965	535.62
375.191	513.62
375.416	523.62
375.642	509.62
375.868	498.62
376.094	497.62
376.319	519.62
376.545	493.62
376.771	499.62
376.997	513.62
377.222	495.62
377.448	505.62
377.674	495.62
377.899	488.62
378.125	502.62
378.35	489.62
378.576	488.62
378.802	455.62
379.027	486.62
379.253	482.62
379.478	485.62
379.704	493.62
379.929	471.62
380.155	486.62
380.38	503.62
380.606	491.62
380.831	486.62
381.057	511.62
381.282	485.62
381.507	484.62
381.733	497.62
381.958	503.62
382.184	512.62
382.409	516.62
382.634	519.62
382.86	518.62
383.085	516.62
383.31	520.62
383.535	530.62
383.761	536.62
383.986	550.62
384.211	570.62
384.436	540.62
384.662	579.62
384.887	573.62
385.112	543.62
385.337	571.62
385.562	587.62
385.787	568.62
386.013	575.62
386.238	593.62
386.463	550.62
386.688	568.62
386.913	601.62
387.138	575.62
387.363	557.62
387.588	554.62
387.813	582.62
388.038	576.62
388.263	557.62
388.488	551.62
388.713	577.62
388.938	558.62
389.163	564.62
389.387	579.62
389.612	563.62
389.837	568.62
390.062	571.62
390.287	547.62
390.512	543.62
390.736	574.62
390.961	577.62
391.186	571.62
391.411	595.62
391.636	612.62
391.86	624.62
392.085	622.62
392.31	643.62
392.534	619.62
392.759	608.62
392.984	600.62
393.208	611.62
393.433	571.62
393.658	598.62
393.882	589.62
394.107	599.62
394.331	601.62
394.556	588.62
394.78	617.62
395.005	595.62
395.229	578.62
395.454	599.62
395.678	609.62
395.903	634.62
396.127	639.62
396.352	635.62
396.576	607.62
396.801	601.62
397.025	639.62
397.249	636.62
397.474	639.62
397.698	608.62
397.922	643.62
398.147	647.62
398.371	646.62
398.595	659.62
398.82	695.62
399.044	726.62
399.268	751.62
399.492	831.62
399.717	931.62
399.941	940.62
400.165	873.62
400.389	845.62
400.613	796.62
400.837	729.62
401.062	719.62
401.286	710.62
401.51	691.62
401.734	672.62
401.958	685.62
402.182	703.62
402.406	708.62
402.63	711.62
402.854	700.62
403.078	727.62
403.302	721.62
403.526	740.62
403.75	740.62
403.974	763.62
404.198	742.62
404.422	729.62
404.645	747.62
404.869	751.62
405.093	777.62
405.317	791.62
405.541	833.62
405.765	776.62
405.988	756.62
406.212	736.62
406.436	761.62
406.66	781.62
406.883	787.62
407.107	833.62
407.331	875.62
407.555	915.62
407.778	912.62
408.002	841.62
408.226	810.62
408.449	795.62
408.673	774.62
408.896	753.62
409.12	814.62
409.344	791.62
409.567	760.62
409.791	738.62
410.014	728.62
410.238	730.62
410.461	736.62
410.685	706.62
410.908	721.62
411.132	766.62
411.355	757.62
411.578	742.62
411.802	710.62
412.025	689.62
412.249	696.62
412.472	723.62
412.695	742.62
412.919	758.62
413.142	683.62
413.365	700.62
413.589	724.62
413.812	670.62
414.035	653.62
414.258	679.62
414.482	678.62
414.705	662.62
414.928	668.62
415.151	689.62
415.374	672.62
415.597	688.62
415.821	672.62
416.044	676.62
416.267	653.62
416.49	662.62
416.713	675.62
416.936	690.62
417.159	654.62
417.382	673.62
417.605	647.62
417.828	660.62
418.051	706.62
418.274	675.62
418.497	683.62
418.72	675.62
418.943	673.62
419.166	720.62
419.389	749.62
419.611	753.62
419.834	705.62
420.057	726.62
420.28	695.62
420.503	691.62
420.726	696.62
420.948	702.62
421.171	697.62
421.394	723.62
421.617	707.62
421.839	713.62
422.062	701.62
422.285	687.62
422.507	748.62
422.73	805.62
422.953	789.62
423.175	721.62
423.398	697.62
423.621	710.62
423.843	734.62
424.066	760.62
424.288	728.62
424.511	742.62
424.733	791.62
424.956	836.62
425.178	812.62
425.401	779.62
425.623	775.62
425.846	719.62
426.068	685.62
426.291	676.62
426.513	671.62
426.735	657.62
426.958	701.62
427.18	773.62
427.402	865.62
427.625	923.62
427.847	831.62
428.069	741.62
428.292	670.62
428.514	660.62
428.736	633.62
428.958	639.62
429.181	614.62
429.403	617.62
429.625	665.62
429.847	641.62
430.069	708.62
430.292	721.62
430.514	633.62
430.736	623.62
430.958	639.62
431.18	617.62
431.402	617.62
431.624	633.62
431.846	619.62
432.068	611.62
432.29	639.62
432.512	625.62
432.734	644.62
432.956	635.62
433.178	606.62
433.4	634.62
433.622	635.62
433.844	646.62
434.066	631.62
434.287	656.62
434.509	654.62
434.731	689.62
434.953	696.62
435.175	692.62
435.397	700.62
435.618	687.62
435.84	693.62
436.062	755.62
436.284	797.62
436.505	725.62
436.727	661.62
436.949	657.62
437.17	623.62
437.392	648.62
437.614	634.62
437.835	643.62
438.057	725.62
438.278	778.62
438.5	777.62
438.721	845.62
438.943	790.62
439.165	694.62
439.386	659.62
439.608	655.62
439.829	654.62
440.05	647.62
440.272	712.62
440.493	679.62
440.715	668.62
440.936	665.62
441.158	671.62
441.379	645.62
441.6	691.62
441.822	729.62
442.043	748.62
442.264	793.62
442.486	777.62
442.707	716.62
442.928	719.62
443.149	722.62
443.371	742.62
443.592	735.62
443.813	844.62
444.034	857.62
444.255	792.62
444.476	739.62
444.698	761.62
444.919	797.62
445.14	905.62
445.361	823.62
445.582	765.62
445.803	783.62
446.024	821.62
446.245	801.62
446.466	786.62
446.687	692.62
446.908	672.62
447.129	643.62
447.35	633.62
447.571	631.62
447.792	593.62
448.013	634.62
448.234	628.62
448.455	656.62
448.675	723.62
448.896	791.62
449.117	701.62
449.338	697.62
449.559	787.62
449.779	821.62
450	697.62
450.221	628.62
450.442	605.62
450.662	612.62
450.883	612.62
451.104	607.62
451.324	583.62
451.545	573.62
451.766	579.62
451.986	577.62
452.207	558.62
452.428	574.62
452.648	568.62
452.869	568.62
453.089	575.62
453.31	593.62
453.53	587.62
453.751	573.62
453.971	568.62
454.192	583.62
454.412	551.62
454.633	550.62
454.853	566.62
455.073	555.62
455.294	572.62
455.514	615.62
455.734	626.62
455.955	549.62
456.175	543.62
456.395	536.62
456.616	547.62
456.836	533.62
457.056	542.62
457.276	511.62
457.497	553.62
457.717	542.62
457.937	536.62
458.157	567.62
458.377	552.62
458.598	583.62
458.818	626.62
459.038	658.62
459.258	696.62
459.478	633.62
459.698	637.62
459.918	647.62
460.138	646.62
460.358	687.62
460.578	701.62
460.798	717.62
461.018	698.62
461.238	681.62
461.458	690.62
461.678	689.62
461.898	710.62
462.118	676.62
462.338	728.62
462.558	767.62
462.777	763.62
462.997	813.62
463.217	875.62
463.437	867.62
463.657	774.62
463.876	798.62
464.096	778.62
464.316	755.62
464.536	772.62
464.755	746.62
464.975	727.62
465.195	742.62
465.414	747.62
465.634	665.62
465.854	639.62
466.073	669.62
466.293	634.62
466.512	619.62
466.732	598.62
466.951	619.62
467.171	604.62
467.391	611.62
467.61	611.62
467.829	638.62
468.049	612.62
468.268	598.62
468.488	584.62
468.707	602.62
468.927	585.62
469.146	582.62
469.365	605.62
469.585	569.62
469.804	601.62
470.023	603.62
470.243	614.62
470.462	623.62
470.681	645.62
470.901	637.62
471.12	617.62
471.339	626.62
471.558	595.62
471.777	591.62
471.997	615.62
472.216	588.62
472.435	618.62
472.654	611.62
472.873	595.62
473.092	584.62
473.311	599.62
473.53	584.62
473.749	598.62
473.968	614.62
474.187	680.62
474.406	695.62
474.625	624.62
474.844	604.62
475.063	585.62
475.282	606.62
475.501	589.62
475.72	602.62
475.939	615.62
476.158	595.62
476.377	598.62
476.596	588.62
476.814	603.62
477.033	646.62
477.252	636.62
477.471	653.62
477.69	639.62
477.908	673.62
478.127	676.62
478.346	711.62
478.564	683.62
478.783	699.62
479.002	705.62
479.22	721.62
479.439	731.62
479.658	744.62
479.876	753.62
480.095	751.62
480.313	793.62
480.532	771.62
480.751	761.62
480.969	751.62
481.188	778.62
481.406	844.62
481.624	740.62
481.843	741.62
482.061	715.62
482.28	719.62
482.498	704.62
482.717	711.62
482.935	691.62
483.153	673.62
483.372	693.62
483.59	661.62
483.808	687.62
484.027	677.62
484.245	721.62
484.463	707.62
484.681	703.62
484.9	710.62
485.118	731.62
485.336	723.62
485.554	729.62
485.772	734.62
485.99	758.62
486.209	725.62
486.427	738.62
486.645	747.62
486.863	739.62
487.081	731.62
487.299	732.62
487.517	719.62
487.735	721.62
487.953	731.62
488.171	729.62
488.389	719.62
488.607	716.62
488.825	733.62
489.043	749.62
489.261	755.62
489.479	731.62
489.696	741.62
489.914	745.62
490.132	753.62
490.35	770.62
490.568	744.62
490.786	769.62
491.003	793.62
491.221	756.62
491.439	795.62
491.657	784.62
491.874	799.62
492.092	831.62
492.31	813.62
492.527	805.62
492.745	807.62
492.963	831.62
493.18	832.62
493.398	838.62
493.615	856.62
493.833	840.62
494.05	839.62
494.268	840.62
494.485	827.62
494.703	840.62
494.92	856.62
495.138	834.62
495.355	852.62
495.573	839.62
495.79	821.62
496.008	850.62
496.225	854.62
496.442	840.62
496.66	863.62
496.877	863.62
497.094	862.62
497.312	908.62
497.529	905.62
497.746	929.62
497.963	943.62
498.181	992.62
498.398	1013.62
498.615	1055.62
498.832	1084.62
499.049	1136.62
499.267	1179.62
499.484	1268.62
499.701	1365.62
499.918	1456.62
500.135	1589.62
500.352	1747.62
500.569	1757.62
500.786	1729.62
501.003	1681.62
501.22	1588.62
501.437	1471.62
501.654	1374.62
501.871	1291.62
