Data from 1963.PennyLincolnUp.Lamp.En5.5.200Scan.071719.P1._HRD10591_14-00-03-063.txt Node
Date: Thu Jul 18 14:00:03 EDT 2019
User: cochatt
Spectrometer: HR+D1059
Trigger mode: 1
Integration Time (sec): 1.000000E-1
Scans to average: 1
Electric dark correction enabled: true
Nonlinearity correction enabled: false
Boxcar width: 0
XAxis mode: Wavelengths
Number of Pixels in Spectrum: 2048
>>>>>Begin Spectral Data<<<<<
223.165	-8.25
223.4	-8.25
223.635	-8.25
223.869	-7.25
224.104	-3.25
224.338	-17.25
224.573	-12.25
224.808	-26.25
225.042	-27.25
225.277	-11.25
225.511	7.75
225.746	9.75
225.98	6.75
226.215	6.75
226.449	10.75
226.683	16.75
226.918	27.75
227.152	26.75
227.387	33.75
227.621	40.75
227.856	43.75
228.09	48.75
228.324	52.75
228.559	56.75
228.793	87.75
229.027	116.75
229.262	117.75
229.496	105.75
229.73	125.75
229.964	149.75
230.199	128.75
230.433	123.75
230.667	115.75
230.901	108.75
231.136	115.75
231.37	129.75
231.604	119.75
231.838	117.75
232.072	116.75
232.306	127.75
232.541	130.75
232.775	124.75
233.009	113.75
233.243	114.75
233.477	126.75
233.711	117.75
233.945	125.75
234.179	136.75
234.413	111.75
234.647	128.75
234.881	121.75
235.115	123.75
235.349	119.75
235.583	143.75
235.817	138.75
236.051	151.75
236.285	145.75
236.519	127.75
236.753	148.75
236.987	131.75
237.221	169.75
237.455	232.75
237.689	184.75
237.922	155.75
238.156	143.75
238.39	131.75
238.624	140.75
238.858	146.75
239.091	135.75
239.325	129.75
239.559	128.75
239.793	127.75
240.027	175.75
240.26	149.75
240.494	156.75
240.728	163.75
240.961	152.75
241.195	157.75
241.429	167.75
241.662	149.75
241.896	151.75
242.13	160.75
242.363	142.75
242.597	165.75
242.83	160.75
243.064	151.75
243.298	141.75
243.531	151.75
243.765	158.75
243.998	172.75
244.232	147.75
244.465	155.75
244.699	162.75
244.932	163.75
245.166	161.75
245.399	161.75
245.633	163.75
245.866	156.75
246.099	192.75
246.333	209.75
246.566	168.75
246.8	172.75
247.033	166.75
247.266	179.75
247.5	193.75
247.733	188.75
247.966	199.75
248.2	191.75
248.433	200.75
248.666	209.75
248.899	200.75
249.133	211.75
249.366	215.75
249.599	220.75
249.832	196.75
250.066	192.75
250.299	212.75
250.532	217.75
250.765	222.75
250.998	240.75
251.231	243.75
251.465	255.75
251.698	218.75
251.931	235.75
252.164	220.75
252.397	226.75
252.63	212.75
252.863	228.75
253.096	227.75
253.329	231.75
253.562	239.75
253.795	225.75
254.028	239.75
254.261	225.75
254.494	263.75
254.727	275.75
254.96	294.75
255.193	277.75
255.426	267.75
255.659	256.75
255.892	267.75
256.124	228.75
256.357	244.75
256.59	245.75
256.823	241.75
257.056	257.75
257.289	216.75
257.521	245.75
257.754	229.75
257.987	237.75
258.22	222.75
258.452	249.75
258.685	228.75
258.918	233.75
259.151	244.75
259.383	224.75
259.616	245.75
259.849	259.75
260.081	260.75
260.314	273.75
260.547	261.75
260.779	270.75
261.012	251.75
261.244	260.75
261.477	252.75
261.71	247.75
261.942	263.75
262.175	248.75
262.407	261.75
262.64	246.75
262.872	259.75
263.105	251.75
263.337	246.75
263.57	260.75
263.802	246.75
264.035	255.75
264.267	241.75
264.499	255.75
264.732	238.75
264.964	255.75
265.197	245.75
265.429	236.75
265.661	254.75
265.894	253.75
266.126	251.75
266.358	254.75
266.591	250.75
266.823	261.75
267.055	287.75
267.287	281.75
267.52	273.75
267.752	264.75
267.984	269.75
268.216	267.75
268.448	268.75
268.681	260.75
268.913	264.75
269.145	293.75
269.377	299.75
269.609	307.75
269.841	289.75
270.073	301.75
270.306	346.75
270.538	346.75
270.77	344.75
271.002	324.75
271.234	309.75
271.466	314.75
271.698	316.75
271.93	344.75
272.162	346.75
272.394	353.75
272.626	330.75
272.858	341.75
273.09	325.75
273.322	313.75
273.553	300.75
273.785	301.75
274.017	319.75
274.249	302.75
274.481	307.75
274.713	309.75
274.945	303.75
275.176	321.75
275.408	296.75
275.64	317.75
275.872	314.75
276.104	310.75
276.335	311.75
276.567	315.75
276.799	313.75
277.031	333.75
277.262	341.75
277.494	372.75
277.726	337.75
277.957	350.75
278.189	355.75
278.421	329.75
278.652	319.75
278.884	326.75
279.115	314.75
279.347	321.75
279.579	337.75
279.81	329.75
280.042	334.75
280.273	329.75
280.505	321.75
280.736	321.75
280.968	334.75
281.199	323.75
281.431	340.75
281.662	338.75
281.894	337.75
282.125	325.75
282.356	347.75
282.588	351.75
282.819	355.75
283.051	331.75
283.282	325.75
283.513	343.75
283.745	337.75
283.976	338.75
284.207	331.75
284.439	332.75
284.67	348.75
284.901	353.75
285.132	322.75
285.364	330.75
285.595	344.75
285.826	331.75
286.057	344.75
286.288	348.75
286.52	370.75
286.751	348.75
286.982	351.75
287.213	344.75
287.444	346.75
287.675	350.75
287.906	343.75
288.138	365.75
288.369	368.75
288.6	375.75
288.831	373.75
289.062	374.75
289.293	348.75
289.524	354.75
289.755	361.75
289.986	379.75
290.217	363.75
290.448	358.75
290.679	374.75
290.91	371.75
291.141	364.75
291.371	383.75
291.602	361.75
291.833	377.75
292.064	381.75
292.295	363.75
292.526	373.75
292.757	371.75
292.987	364.75
293.218	359.75
293.449	378.75
293.68	357.75
293.91	360.75
294.141	386.75
294.372	392.75
294.603	380.75
294.833	376.75
295.064	381.75
295.295	377.75
295.525	341.75
295.756	382.75
295.987	376.75
296.217	390.75
296.448	399.75
296.679	390.75
296.909	386.75
297.14	400.75
297.37	374.75
297.601	381.75
297.831	385.75
298.062	369.75
298.292	372.75
298.523	385.75
298.753	400.75
298.984	379.75
299.214	385.75
299.445	400.75
299.675	389.75
299.905	399.75
300.136	392.75
300.366	397.75
300.597	397.75
300.827	409.75
301.057	410.75
301.288	420.75
301.518	427.75
301.748	432.75
301.979	424.75
302.209	421.75
302.439	416.75
302.669	420.75
302.9	394.75
303.13	400.75
303.36	428.75
303.59	423.75
303.82	445.75
304.051	428.75
304.281	410.75
304.511	429.75
304.741	429.75
304.971	425.75
305.201	397.75
305.431	409.75
305.661	405.75
305.891	414.75
306.121	425.75
306.352	422.75
306.582	411.75
306.812	414.75
307.042	414.75
307.272	438.75
307.502	411.75
307.731	404.75
307.961	416.75
308.191	427.75
308.421	419.75
308.651	429.75
308.881	437.75
309.111	418.75
309.341	441.75
309.571	445.75
309.8	442.75
310.03	437.75
310.26	454.75
310.49	428.75
310.72	465.75
310.949	451.75
311.179	471.75
311.409	461.75
311.639	449.75
311.868	447.75
312.098	460.75
312.328	443.75
312.557	464.75
312.787	482.75
313.017	482.75
313.246	472.75
313.476	439.75
313.706	476.75
313.935	485.75
314.165	465.75
314.394	461.75
314.624	486.75
314.853	465.75
315.083	469.75
315.312	476.75
315.542	461.75
315.771	468.75
316.001	453.75
316.23	467.75
316.46	461.75
316.689	485.75
316.919	458.75
317.148	453.75
317.377	473.75
317.607	468.75
317.836	464.75
318.065	451.75
318.295	463.75
318.524	464.75
318.753	448.75
318.983	453.75
319.212	462.75
319.441	455.75
319.67	477.75
319.9	474.75
320.129	449.75
320.358	487.75
320.587	468.75
320.816	472.75
321.046	462.75
321.275	485.75
321.504	470.75
321.733	472.75
321.962	496.75
322.191	515.75
322.42	501.75
322.649	501.75
322.878	520.75
323.108	528.75
323.337	549.75
323.566	535.75
323.795	559.75
324.024	586.75
324.253	663.75
324.482	874.75
324.71	1209.75
324.939	1776.75
325.168	1564.75
325.397	857.75
325.626	639.75
325.855	601.75
326.084	583.75
326.313	559.75
326.542	579.75
326.77	593.75
326.999	641.75
327.228	821.75
327.457	1125.75
327.686	1436.75
327.914	977.75
328.143	692.75
328.372	637.75
328.6	625.75
328.829	596.75
329.058	615.75
329.287	615.75
329.515	597.75
329.744	558.75
329.972	595.75
330.201	587.75
330.43	616.75
330.658	612.75
330.887	650.75
331.115	641.75
331.344	592.75
331.572	559.75
331.801	562.75
332.03	601.75
332.258	581.75
332.486	564.75
332.715	579.75
332.943	619.75
333.172	607.75
333.4	620.75
333.629	647.75
333.857	649.75
334.085	657.75
334.314	649.75
334.542	665.75
334.771	693.75
334.999	653.75
335.227	618.75
335.455	608.75
335.684	613.75
335.912	590.75
336.14	588.75
336.369	580.75
336.597	577.75
336.825	577.75
337.053	569.75
337.281	580.75
337.51	565.75
337.738	586.75
337.966	549.75
338.194	559.75
338.422	554.75
338.65	550.75
338.878	555.75
339.106	543.75
339.334	560.75
339.562	544.75
339.79	548.75
340.018	532.75
340.246	553.75
340.474	553.75
340.702	540.75
340.93	548.75
341.158	528.75
341.386	544.75
341.614	529.75
341.842	538.75
342.07	539.75
342.298	503.75
342.526	515.75
342.754	499.75
342.981	529.75
343.209	529.75
343.437	545.75
343.665	560.75
343.893	582.75
344.12	600.75
344.348	589.75
344.576	581.75
344.804	563.75
345.031	575.75
345.259	558.75
345.487	540.75
345.714	554.75
345.942	510.75
346.17	544.75
346.397	524.75
346.625	508.75
346.853	504.75
347.08	499.75
347.308	502.75
347.535	533.75
347.763	536.75
347.99	535.75
348.218	516.75
348.445	507.75
348.673	508.75
348.9	528.75
349.128	511.75
349.355	494.75
349.583	519.75
349.81	488.75
350.037	501.75
350.265	496.75
350.492	507.75
350.72	519.75
350.947	512.75
351.174	496.75
351.402	488.75
351.629	511.75
351.856	513.75
352.083	508.75
352.311	492.75
352.538	525.75
352.765	505.75
352.992	523.75
353.22	495.75
353.447	495.75
353.674	512.75
353.901	506.75
354.128	508.75
354.355	484.75
354.583	497.75
354.81	503.75
355.037	507.75
355.264	488.75
355.491	496.75
355.718	497.75
355.945	476.75
356.172	481.75
356.399	464.75
356.626	496.75
356.853	486.75
357.08	480.75
357.307	479.75
357.534	495.75
357.761	494.75
357.988	500.75
358.215	486.75
358.441	483.75
358.668	487.75
358.895	492.75
359.122	486.75
359.349	488.75
359.576	496.75
359.802	534.75
360.029	541.75
360.256	564.75
360.483	524.75
360.709	518.75
360.936	521.75
361.163	523.75
361.39	506.75
361.616	518.75
361.843	528.75
362.07	548.75
362.296	528.75
362.523	525.75
362.749	510.75
362.976	508.75
363.203	486.75
363.429	510.75
363.656	492.75
363.882	485.75
364.109	507.75
364.335	511.75
364.562	502.75
364.788	473.75
365.015	517.75
365.241	482.75
365.468	490.75
365.694	494.75
365.92	491.75
366.147	500.75
366.373	480.75
366.599	503.75
366.826	503.75
367.052	501.75
367.278	493.75
367.505	499.75
367.731	519.75
367.957	495.75
368.184	478.75
368.41	496.75
368.636	495.75
368.862	532.75
369.089	505.75
369.315	510.75
369.541	502.75
369.767	512.75
369.993	523.75
370.219	494.75
370.445	526.75
370.672	529.75
370.898	494.75
371.124	496.75
371.35	537.75
371.576	539.75
371.802	512.75
372.028	529.75
372.254	537.75
372.48	531.75
372.706	520.75
372.932	538.75
373.158	542.75
373.384	525.75
373.61	523.75
373.835	529.75
374.061	522.75
374.287	528.75
374.513	532.75
374.739	548.75
374.965	545.75
375.191	577.75
375.416	545.75
375.642	542.75
375.868	519.75
376.094	551.75
376.319	512.75
376.545	534.75
376.771	530.75
376.997	527.75
377.222	502.75
377.448	527.75
377.674	518.75
377.899	525.75
378.125	506.75
378.35	518.75
378.576	514.75
378.802	515.75
379.027	544.75
379.253	526.75
379.478	520.75
379.704	518.75
379.929	528.75
380.155	533.75
380.38	526.75
380.606	523.75
380.831	528.75
381.057	536.75
381.282	520.75
381.507	532.75
381.733	519.75
381.958	517.75
382.184	533.75
382.409	532.75
382.634	535.75
382.86	536.75
383.085	552.75
383.31	552.75
383.535	553.75
383.761	555.75
383.986	561.75
384.211	556.75
384.436	585.75
384.662	578.75
384.887	607.75
385.112	592.75
385.337	597.75
385.562	587.75
385.787	591.75
386.013	606.75
386.238	615.75
386.463	617.75
386.688	594.75
386.913	604.75
387.138	587.75
387.363	599.75
387.588	598.75
387.813	623.75
388.038	591.75
388.263	615.75
388.488	599.75
388.713	601.75
388.938	597.75
389.163	595.75
389.387	601.75
389.612	584.75
389.837	596.75
390.062	560.75
390.287	585.75
390.512	594.75
390.736	584.75
390.961	595.75
391.186	615.75
391.411	639.75
391.636	630.75
391.86	632.75
392.085	670.75
392.31	664.75
392.534	646.75
392.759	624.75
392.984	614.75
393.208	629.75
393.433	635.75
393.658	614.75
393.882	623.75
394.107	603.75
394.331	633.75
394.556	606.75
394.78	627.75
395.005	624.75
395.229	645.75
395.454	637.75
395.678	656.75
395.903	669.75
396.127	673.75
396.352	683.75
396.576	632.75
396.801	623.75
397.025	658.75
397.249	647.75
397.474	667.75
397.698	651.75
397.922	686.75
398.147	691.75
398.371	698.75
398.595	687.75
398.82	712.75
399.044	749.75
399.268	797.75
399.492	857.75
399.717	971.75
399.941	977.75
400.165	919.75
400.389	876.75
400.613	802.75
400.837	774.75
401.062	732.75
401.286	735.75
401.51	727.75
401.734	694.75
401.958	724.75
402.182	721.75
402.406	755.75
402.63	774.75
402.854	764.75
403.078	745.75
403.302	747.75
403.526	771.75
403.75	799.75
403.974	772.75
404.198	801.75
404.422	796.75
404.645	800.75
404.869	786.75
405.093	797.75
405.317	835.75
405.541	869.75
405.765	813.75
405.988	813.75
406.212	761.75
406.436	825.75
406.66	831.75
406.883	836.75
407.107	841.75
407.331	924.75
407.555	980.75
407.778	982.75
408.002	893.75
408.226	859.75
408.449	813.75
408.673	805.75
408.896	839.75
409.12	851.75
409.344	821.75
409.567	798.75
409.791	791.75
410.014	780.75
410.238	750.75
410.461	758.75
410.685	754.75
410.908	735.75
411.132	780.75
411.355	795.75
411.578	785.75
411.802	759.75
412.025	736.75
412.249	755.75
412.472	760.75
412.695	811.75
412.919	748.75
413.142	726.75
413.365	720.75
413.589	715.75
413.812	733.75
414.035	715.75
414.258	700.75
414.482	697.75
414.705	715.75
414.928	699.75
415.151	714.75
415.374	710.75
415.597	714.75
415.821	701.75
416.044	721.75
416.267	709.75
416.49	724.75
416.713	709.75
416.936	715.75
417.159	712.75
417.382	687.75
417.605	710.75
417.828	728.75
418.051	734.75
418.274	732.75
418.497	711.75
418.72	722.75
418.943	709.75
419.166	759.75
419.389	805.75
419.611	791.75
419.834	777.75
420.057	765.75
420.28	721.75
420.503	714.75
420.726	742.75
420.948	734.75
421.171	778.75
421.394	807.75
421.617	730.75
421.839	726.75
422.062	729.75
422.285	746.75
422.507	756.75
422.73	825.75
422.953	840.75
423.175	762.75
423.398	764.75
423.621	732.75
423.843	776.75
424.066	776.75
424.288	792.75
424.511	785.75
424.733	807.75
424.956	880.75
425.178	847.75
425.401	848.75
425.623	828.75
425.846	776.75
426.068	724.75
426.291	722.75
426.513	724.75
426.735	744.75
426.958	769.75
427.18	807.75
427.402	921.75
427.625	997.75
427.847	860.75
428.069	789.75
428.292	751.75
428.514	703.75
428.736	657.75
428.958	683.75
429.181	676.75
429.403	670.75
429.625	680.75
429.847	695.75
430.069	750.75
430.292	772.75
430.514	662.75
430.736	646.75
430.958	657.75
431.18	653.75
431.402	654.75
431.624	666.75
431.846	636.75
432.068	663.75
432.29	643.75
432.512	662.75
432.734	658.75
432.956	667.75
433.178	650.75
433.4	657.75
433.622	672.75
433.844	663.75
434.066	670.75
434.287	669.75
434.509	662.75
434.731	698.75
434.953	696.75
435.175	706.75
435.397	735.75
435.618	727.75
435.84	773.75
436.062	827.75
436.284	875.75
436.505	775.75
436.727	707.75
436.949	699.75
437.17	680.75
437.392	689.75
437.614	683.75
437.835	678.75
438.057	761.75
438.278	866.75
438.5	871.75
438.721	914.75
438.943	880.75
439.165	757.75
439.386	699.75
439.608	719.75
439.829	707.75
440.05	727.75
440.272	761.75
440.493	733.75
440.715	707.75
440.936	699.75
441.158	676.75
441.379	704.75
441.6	703.75
441.822	721.75
442.043	779.75
442.264	821.75
442.486	877.75
442.707	793.75
442.928	782.75
443.149	762.75
443.371	768.75
443.592	802.75
443.813	879.75
444.034	925.75
444.255	841.75
444.476	808.75
444.698	837.75
444.919	807.75
445.14	904.75
445.361	841.75
445.582	788.75
445.803	852.75
446.024	881.75
446.245	869.75
446.466	833.75
446.687	741.75
446.908	737.75
447.129	677.75
447.35	664.75
447.571	650.75
447.792	637.75
448.013	673.75
448.234	667.75
448.455	693.75
448.675	785.75
448.896	887.75
449.117	765.75
449.338	733.75
449.559	837.75
449.779	938.75
450	775.75
450.221	673.75
450.442	641.75
450.662	632.75
450.883	651.75
451.104	661.75
451.324	637.75
451.545	628.75
451.766	601.75
451.986	596.75
452.207	589.75
452.428	600.75
452.648	601.75
452.869	605.75
453.089	620.75
453.31	624.75
453.53	590.75
453.751	606.75
453.971	584.75
454.192	596.75
454.412	592.75
454.633	575.75
454.853	590.75
455.073	592.75
455.294	597.75
455.514	644.75
455.734	651.75
455.955	594.75
456.175	587.75
456.395	557.75
456.616	559.75
456.836	568.75
457.056	537.75
457.276	552.75
457.497	575.75
457.717	571.75
457.937	588.75
458.157	583.75
458.377	605.75
458.598	607.75
458.818	653.75
459.038	708.75
459.258	776.75
459.478	697.75
459.698	680.75
459.918	696.75
460.138	692.75
460.358	719.75
460.578	718.75
460.798	713.75
461.018	731.75
461.238	718.75
461.458	726.75
461.678	716.75
461.898	725.75
462.118	740.75
462.338	741.75
462.558	745.75
462.777	795.75
462.997	835.75
463.217	879.75
463.437	872.75
463.657	841.75
463.876	828.75
464.096	809.75
464.316	784.75
464.536	796.75
464.755	779.75
464.975	773.75
465.195	774.75
465.414	809.75
465.634	757.75
465.854	686.75
466.073	671.75
466.293	661.75
466.512	649.75
466.732	630.75
466.951	625.75
467.171	620.75
467.391	639.75
467.61	613.75
467.829	649.75
468.049	633.75
468.268	629.75
468.488	619.75
468.707	624.75
468.927	627.75
469.146	605.75
469.365	623.75
469.585	639.75
469.804	635.75
470.023	645.75
470.243	650.75
470.462	653.75
470.681	662.75
470.901	687.75
471.12	658.75
471.339	680.75
471.558	632.75
471.777	644.75
471.997	663.75
472.216	636.75
472.435	637.75
472.654	634.75
472.873	651.75
473.092	604.75
473.311	623.75
473.53	598.75
473.749	611.75
473.968	662.75
474.187	745.75
474.406	747.75
474.625	665.75
474.844	629.75
475.063	618.75
475.282	617.75
475.501	615.75
475.72	662.75
475.939	638.75
476.158	635.75
476.377	627.75
476.596	613.75
476.814	673.75
477.033	682.75
477.252	670.75
477.471	686.75
477.69	697.75
477.908	717.75
478.127	699.75
478.346	696.75
478.564	716.75
478.783	748.75
479.002	766.75
479.22	739.75
479.439	753.75
479.658	768.75
479.876	769.75
480.095	802.75
480.313	831.75
480.532	815.75
480.751	806.75
480.969	816.75
481.188	824.75
481.406	869.75
481.624	798.75
481.843	745.75
482.061	737.75
482.28	741.75
482.498	729.75
482.717	744.75
482.935	742.75
483.153	734.75
483.372	732.75
483.59	741.75
483.808	731.75
484.027	711.75
484.245	721.75
484.463	739.75
484.681	765.75
484.9	738.75
485.118	759.75
485.336	728.75
485.554	771.75
485.772	761.75
485.99	747.75
486.209	781.75
486.427	778.75
486.645	773.75
486.863	762.75
487.081	793.75
487.299	762.75
487.517	776.75
487.735	780.75
487.953	760.75
488.171	781.75
488.389	757.75
488.607	759.75
488.825	772.75
489.043	774.75
489.261	767.75
489.479	781.75
489.696	791.75
489.914	800.75
490.132	798.75
490.35	823.75
490.568	812.75
490.786	829.75
491.003	804.75
491.221	840.75
491.439	850.75
491.657	858.75
491.874	848.75
492.092	897.75
492.31	825.75
492.527	890.75
492.745	875.75
492.963	866.75
493.18	889.75
493.398	864.75
493.615	892.75
493.833	885.75
494.05	875.75
494.268	905.75
494.485	912.75
494.703	895.75
494.92	905.75
495.138	896.75
495.355	896.75
495.573	907.75
495.79	928.75
496.008	933.75
496.225	905.75
496.442	922.75
496.66	911.75
496.877	938.75
497.094	922.75
497.312	953.75
497.529	957.75
497.746	977.75
497.963	994.75
498.181	1029.75
498.398	1022.75
498.615	1082.75
498.832	1139.75
499.049	1228.75
499.267	1248.75
499.484	1325.75
499.701	1437.75
499.918	1522.75
500.135	1635.75
500.352	1766.75
500.569	1855.75
500.786	1841.75
501.003	1795.75
501.22	1653.75
501.437	1524.75
501.654	1433.75
