Data from 1963.PennyLincolnUp.Lamp.En5.5.200Scan.071719.P1._HRD10591_14-00-30-064.txt Node
Date: Thu Jul 18 14:00:30 EDT 2019
User: cochatt
Spectrometer: HR+D1059
Trigger mode: 1
Integration Time (sec): 1.000000E-1
Scans to average: 1
Electric dark correction enabled: true
Nonlinearity correction enabled: false
Boxcar width: 0
XAxis mode: Wavelengths
Number of Pixels in Spectrum: 2048
>>>>>Begin Spectral Data<<<<<
223.165	-18.19
223.4	-18.19
223.635	-18.19
223.869	-9.19
224.104	-19.19
224.338	-15.19
224.573	-10.19
224.808	-9.19
225.042	-10.19
225.277	0.81
225.511	-0.19
225.746	6.81
225.98	1.81
226.215	2.81
226.449	20.81
226.683	10.81
226.918	19.81
227.152	27.81
227.387	43.81
227.621	40.81
227.856	43.81
228.09	51.81
228.324	54.81
228.559	54.81
228.793	54.81
229.027	84.81
229.262	94.81
229.496	115.81
229.73	137.81
229.964	152.81
230.199	118.81
230.433	123.81
230.667	127.81
230.901	123.81
231.136	119.81
231.37	124.81
231.604	127.81
231.838	107.81
232.072	121.81
232.306	133.81
232.541	131.81
232.775	124.81
233.009	113.81
233.243	109.81
233.477	133.81
233.711	112.81
233.945	141.81
234.179	117.81
234.413	130.81
234.647	128.81
234.881	109.81
235.115	117.81
235.349	132.81
235.583	127.81
235.817	124.81
236.051	139.81
236.285	124.81
236.519	124.81
236.753	132.81
236.987	133.81
237.221	170.81
237.455	215.81
237.689	189.81
237.922	157.81
238.156	149.81
238.39	128.81
238.624	127.81
238.858	145.81
239.091	139.81
239.325	131.81
239.559	152.81
239.793	156.81
240.027	163.81
240.26	159.81
240.494	172.81
240.728	165.81
240.961	145.81
241.195	142.81
241.429	163.81
241.662	149.81
241.896	154.81
242.13	159.81
242.363	132.81
242.597	155.81
242.83	163.81
243.064	156.81
243.298	163.81
243.531	163.81
243.765	153.81
243.998	155.81
244.232	148.81
244.465	157.81
244.699	156.81
244.932	171.81
245.166	173.81
245.399	168.81
245.633	159.81
245.866	170.81
246.099	181.81
246.333	166.81
246.566	175.81
246.8	160.81
247.033	166.81
247.266	186.81
247.5	177.81
247.733	173.81
247.966	201.81
248.2	179.81
248.433	211.81
248.666	173.81
248.899	198.81
249.133	193.81
249.366	210.81
249.599	223.81
249.832	196.81
250.066	204.81
250.299	217.81
250.532	206.81
250.765	237.81
250.998	232.81
251.231	243.81
251.465	227.81
251.698	221.81
251.931	209.81
252.164	215.81
252.397	197.81
252.63	210.81
252.863	224.81
253.096	228.81
253.329	259.81
253.562	243.81
253.795	241.81
254.028	250.81
254.261	220.81
254.494	226.81
254.727	264.81
254.96	277.81
255.193	286.81
255.426	263.81
255.659	264.81
255.892	253.81
256.124	251.81
256.357	267.81
256.59	251.81
256.823	224.81
257.056	233.81
257.289	223.81
257.521	245.81
257.754	228.81
257.987	224.81
258.22	227.81
258.452	220.81
258.685	227.81
258.918	233.81
259.151	233.81
259.383	256.81
259.616	255.81
259.849	267.81
260.081	250.81
260.314	269.81
260.547	281.81
260.779	264.81
261.012	277.81
261.244	251.81
261.477	276.81
261.71	258.81
261.942	258.81
262.175	285.81
262.407	245.81
262.64	243.81
262.872	242.81
263.105	229.81
263.337	230.81
263.57	253.81
263.802	255.81
264.035	236.81
264.267	241.81
264.499	241.81
264.732	244.81
264.964	245.81
265.197	234.81
265.429	253.81
265.661	258.81
265.894	243.81
266.126	284.81
266.358	249.81
266.591	244.81
266.823	269.81
267.055	267.81
267.287	260.81
267.52	265.81
267.752	270.81
267.984	277.81
268.216	275.81
268.448	272.81
268.681	261.81
268.913	276.81
269.145	303.81
269.377	313.81
269.609	311.81
269.841	282.81
270.073	303.81
270.306	324.81
270.538	344.81
270.77	324.81
271.002	330.81
271.234	335.81
271.466	333.81
271.698	331.81
271.93	348.81
272.162	358.81
272.394	356.81
272.626	327.81
272.858	339.81
273.09	321.81
273.322	297.81
273.553	326.81
273.785	311.81
274.017	297.81
274.249	315.81
274.481	284.81
274.713	306.81
274.945	316.81
275.176	309.81
275.408	309.81
275.64	321.81
275.872	313.81
276.104	308.81
276.335	311.81
276.567	323.81
276.799	337.81
277.031	339.81
277.262	346.81
277.494	367.81
277.726	336.81
277.957	347.81
278.189	327.81
278.421	326.81
278.652	319.81
278.884	285.81
279.115	309.81
279.347	333.81
279.579	325.81
279.81	339.81
280.042	326.81
280.273	336.81
280.505	328.81
280.736	320.81
280.968	324.81
281.199	328.81
281.431	331.81
281.662	327.81
281.894	340.81
282.125	328.81
282.356	336.81
282.588	363.81
282.819	363.81
283.051	332.81
283.282	320.81
283.513	342.81
283.745	339.81
283.976	337.81
284.207	343.81
284.439	341.81
284.67	361.81
284.901	347.81
285.132	344.81
285.364	333.81
285.595	340.81
285.826	324.81
286.057	360.81
286.288	367.81
286.52	330.81
286.751	343.81
286.982	343.81
287.213	368.81
287.444	368.81
287.675	347.81
287.906	367.81
288.138	381.81
288.369	371.81
288.6	379.81
288.831	378.81
289.062	379.81
289.293	368.81
289.524	378.81
289.755	361.81
289.986	375.81
290.217	387.81
290.448	370.81
290.679	375.81
290.91	357.81
291.141	355.81
291.371	371.81
291.602	388.81
291.833	368.81
292.064	383.81
292.295	362.81
292.526	383.81
292.757	396.81
292.987	368.81
293.218	348.81
293.449	385.81
293.68	362.81
293.91	371.81
294.141	357.81
294.372	363.81
294.603	363.81
294.833	382.81
295.064	391.81
295.295	382.81
295.525	374.81
295.756	387.81
295.987	411.81
296.217	407.81
296.448	399.81
296.679	376.81
296.909	399.81
297.14	376.81
297.37	379.81
297.601	398.81
297.831	378.81
298.062	385.81
298.292	377.81
298.523	382.81
298.753	404.81
298.984	421.81
299.214	396.81
299.445	413.81
299.675	377.81
299.905	397.81
300.136	402.81
300.366	392.81
300.597	411.81
300.827	405.81
301.057	409.81
301.288	431.81
301.518	439.81
301.748	428.81
301.979	436.81
302.209	433.81
302.439	434.81
302.669	422.81
302.9	412.81
303.13	411.81
303.36	427.81
303.59	420.81
303.82	424.81
304.051	435.81
304.281	427.81
304.511	420.81
304.741	405.81
304.971	418.81
305.201	397.81
305.431	426.81
305.661	449.81
305.891	431.81
306.121	425.81
306.352	423.81
306.582	422.81
306.812	413.81
307.042	413.81
307.272	423.81
307.502	419.81
307.731	433.81
307.961	419.81
308.191	411.81
308.421	442.81
308.651	433.81
308.881	419.81
309.111	421.81
309.341	433.81
309.571	442.81
309.8	467.81
310.03	455.81
310.26	454.81
310.49	437.81
310.72	454.81
310.949	468.81
311.179	476.81
311.409	445.81
311.639	442.81
311.868	452.81
312.098	461.81
312.328	451.81
312.557	476.81
312.787	472.81
313.017	488.81
313.246	477.81
313.476	463.81
313.706	452.81
313.935	470.81
314.165	476.81
314.394	498.81
314.624	488.81
314.853	481.81
315.083	482.81
315.312	475.81
315.542	472.81
315.771	452.81
316.001	465.81
316.23	474.81
316.46	455.81
316.689	469.81
316.919	481.81
317.148	457.81
317.377	479.81
317.607	459.81
317.836	439.81
318.065	477.81
318.295	452.81
318.524	481.81
318.753	465.81
318.983	465.81
319.212	465.81
319.441	456.81
319.67	488.81
319.9	493.81
320.129	480.81
320.358	455.81
320.587	492.81
320.816	483.81
321.046	480.81
321.275	485.81
321.504	492.81
321.733	509.81
321.962	479.81
322.191	486.81
322.42	499.81
322.649	495.81
322.878	500.81
323.108	538.81
323.337	534.81
323.566	515.81
323.795	552.81
324.024	585.81
324.253	668.81
324.482	859.81
324.71	1256.81
324.939	1793.81
325.168	1595.81
325.397	913.81
325.626	673.81
325.855	609.81
326.084	587.81
326.313	570.81
326.542	580.81
326.77	598.81
326.999	657.81
327.228	835.81
327.457	1203.81
327.686	1452.81
327.914	980.81
328.143	716.81
328.372	666.81
328.6	630.81
328.829	606.81
329.058	603.81
329.287	625.81
329.515	609.81
329.744	559.81
329.972	593.81
330.201	587.81
330.43	634.81
330.658	647.81
330.887	648.81
331.115	639.81
331.344	612.81
331.572	602.81
331.801	580.81
332.03	576.81
332.258	563.81
332.486	582.81
332.715	582.81
332.943	604.81
333.172	632.81
333.4	649.81
333.629	643.81
333.857	640.81
334.085	645.81
334.314	659.81
334.542	684.81
334.771	701.81
334.999	644.81
335.227	607.81
335.455	609.81
335.684	614.81
335.912	588.81
336.14	589.81
336.369	586.81
336.597	594.81
336.825	597.81
337.053	578.81
337.281	569.81
337.51	583.81
337.738	583.81
337.966	568.81
338.194	573.81
338.422	550.81
338.65	593.81
338.878	553.81
339.106	558.81
339.334	556.81
339.562	575.81
339.79	556.81
340.018	561.81
340.246	536.81
340.474	537.81
340.702	564.81
340.93	563.81
341.158	538.81
341.386	558.81
341.614	550.81
341.842	524.81
342.07	541.81
342.298	514.81
342.526	514.81
342.754	530.81
342.981	522.81
343.209	530.81
343.437	548.81
343.665	579.81
343.893	605.81
344.12	613.81
344.348	611.81
344.576	611.81
344.804	562.81
345.031	563.81
345.259	574.81
345.487	565.81
345.714	548.81
345.942	539.81
346.17	549.81
346.397	515.81
346.625	514.81
346.853	518.81
347.08	516.81
347.308	516.81
347.535	524.81
347.763	526.81
347.99	535.81
348.218	525.81
348.445	529.81
348.673	543.81
348.9	529.81
349.128	535.81
349.355	490.81
349.583	511.81
349.81	505.81
350.037	511.81
350.265	491.81
350.492	515.81
350.72	508.81
350.947	512.81
351.174	498.81
351.402	519.81
351.629	524.81
351.856	495.81
352.083	513.81
352.311	522.81
352.538	503.81
352.765	524.81
352.992	536.81
353.22	517.81
353.447	484.81
353.674	528.81
353.901	495.81
354.128	489.81
354.355	503.81
354.583	488.81
354.81	491.81
355.037	490.81
355.264	505.81
355.491	490.81
355.718	497.81
355.945	503.81
356.172	485.81
356.399	490.81
356.626	498.81
356.853	502.81
357.08	511.81
357.307	493.81
357.534	511.81
357.761	485.81
357.988	511.81
358.215	497.81
358.441	500.81
358.668	500.81
358.895	489.81
359.122	513.81
359.349	502.81
359.576	529.81
359.802	532.81
360.029	544.81
360.256	548.81
360.483	541.81
360.709	516.81
360.936	539.81
361.163	523.81
361.39	520.81
361.616	521.81
361.843	523.81
362.07	500.81
362.296	511.81
362.523	525.81
362.749	524.81
362.976	514.81
363.203	524.81
363.429	482.81
363.656	514.81
363.882	499.81
364.109	512.81
364.335	511.81
364.562	498.81
364.788	511.81
365.015	520.81
365.241	511.81
365.468	499.81
365.694	491.81
365.92	504.81
366.147	499.81
366.373	486.81
366.599	507.81
366.826	507.81
367.052	509.81
367.278	515.81
367.505	513.81
367.731	500.81
367.957	502.81
368.184	490.81
368.41	509.81
368.636	520.81
368.862	539.81
369.089	532.81
369.315	526.81
369.541	522.81
369.767	521.81
369.993	529.81
370.219	525.81
370.445	511.81
370.672	518.81
370.898	526.81
371.124	519.81
371.35	520.81
371.576	513.81
371.802	519.81
372.028	528.81
372.254	518.81
372.48	536.81
372.706	533.81
372.932	560.81
373.158	534.81
373.384	550.81
373.61	509.81
373.835	537.81
374.061	529.81
374.287	550.81
374.513	526.81
374.739	539.81
374.965	549.81
375.191	546.81
375.416	552.81
375.642	551.81
375.868	531.81
376.094	558.81
376.319	555.81
376.545	538.81
376.771	538.81
376.997	509.81
377.222	516.81
377.448	511.81
377.674	514.81
377.899	517.81
378.125	533.81
378.35	518.81
378.576	506.81
378.802	519.81
379.027	528.81
379.253	535.81
379.478	526.81
379.704	518.81
379.929	517.81
380.155	543.81
380.38	530.81
380.606	533.81
380.831	525.81
381.057	511.81
381.282	524.81
381.507	525.81
381.733	545.81
381.958	513.81
382.184	508.81
382.409	537.81
382.634	518.81
382.86	530.81
383.085	568.81
383.31	549.81
383.535	567.81
383.761	561.81
383.986	574.81
384.211	581.81
384.436	595.81
384.662	572.81
384.887	581.81
385.112	579.81
385.337	603.81
385.562	608.81
385.787	584.81
386.013	615.81
386.238	599.81
386.463	611.81
386.688	591.81
386.913	610.81
387.138	593.81
387.363	593.81
387.588	606.81
387.813	611.81
388.038	597.81
388.263	612.81
388.488	618.81
388.713	631.81
388.938	609.81
389.163	611.81
389.387	600.81
389.612	603.81
389.837	605.81
390.062	587.81
390.287	597.81
390.512	577.81
390.736	604.81
390.961	581.81
391.186	623.81
391.411	612.81
391.636	643.81
391.86	671.81
392.085	657.81
392.31	655.81
392.534	633.81
392.759	625.81
392.984	621.81
393.208	625.81
393.433	629.81
393.658	646.81
393.882	610.81
394.107	615.81
394.331	652.81
394.556	635.81
394.78	605.81
395.005	645.81
395.229	603.81
395.454	647.81
395.678	657.81
395.903	657.81
396.127	687.81
396.352	683.81
396.576	652.81
396.801	638.81
397.025	635.81
397.249	668.81
397.474	646.81
397.698	661.81
397.922	684.81
398.147	687.81
398.371	675.81
398.595	702.81
398.82	719.81
399.044	744.81
399.268	786.81
399.492	866.81
399.717	953.81
399.941	977.81
400.165	938.81
400.389	896.81
400.613	856.81
400.837	808.81
401.062	755.81
401.286	723.81
401.51	739.81
401.734	716.81
401.958	732.81
402.182	745.81
402.406	727.81
402.63	766.81
402.854	749.81
403.078	763.81
403.302	740.81
403.526	779.81
403.75	788.81
403.974	797.81
404.198	776.81
404.422	800.81
404.645	799.81
404.869	781.81
405.093	816.81
405.317	852.81
405.541	892.81
405.765	814.81
405.988	807.81
406.212	816.81
406.436	819.81
406.66	821.81
406.883	788.81
407.107	871.81
407.331	907.81
407.555	983.81
407.778	979.81
408.002	921.81
408.226	851.81
408.449	846.81
408.673	815.81
408.896	844.81
409.12	889.81
409.344	829.81
409.567	761.81
409.791	799.81
410.014	772.81
410.238	765.81
410.461	772.81
410.685	744.81
410.908	770.81
411.132	799.81
411.355	823.81
411.578	795.81
411.802	726.81
412.025	752.81
412.249	756.81
412.472	766.81
412.695	819.81
412.919	802.81
413.142	765.81
413.365	741.81
413.589	754.81
413.812	711.81
414.035	721.81
414.258	709.81
414.482	714.81
414.705	715.81
414.928	724.81
415.151	732.81
415.374	723.81
415.597	718.81
415.821	709.81
416.044	718.81
416.267	716.81
416.49	727.81
416.713	717.81
416.936	695.81
417.159	678.81
417.382	708.81
417.605	707.81
417.828	723.81
418.051	745.81
418.274	740.81
418.497	743.81
418.72	725.81
418.943	698.81
419.166	751.81
419.389	779.81
419.611	806.81
419.834	768.81
420.057	777.81
420.28	755.81
420.503	732.81
420.726	722.81
420.948	737.81
421.171	783.81
421.394	805.81
421.617	744.81
421.839	728.81
422.062	708.81
422.285	703.81
422.507	792.81
422.73	843.81
422.953	831.81
423.175	778.81
423.398	759.81
423.621	761.81
423.843	799.81
424.066	795.81
424.288	787.81
424.511	785.81
424.733	826.81
424.956	873.81
425.178	847.81
425.401	863.81
425.623	901.81
425.846	753.81
426.068	754.81
426.291	731.81
426.513	756.81
426.735	743.81
426.958	793.81
427.18	833.81
427.402	960.81
427.625	993.81
427.847	895.81
428.069	819.81
428.292	764.81
428.514	714.81
428.736	689.81
428.958	691.81
429.181	682.81
429.403	671.81
429.625	669.81
429.847	716.81
430.069	769.81
430.292	753.81
430.514	674.81
430.736	685.81
430.958	675.81
431.18	672.81
431.402	679.81
431.624	671.81
431.846	646.81
432.068	665.81
432.29	669.81
432.512	691.81
432.734	673.81
432.956	666.81
433.178	708.81
433.4	670.81
433.622	663.81
433.844	678.81
434.066	672.81
434.287	680.81
434.509	684.81
434.731	716.81
434.953	714.81
435.175	741.81
435.397	737.81
435.618	773.81
435.84	755.81
436.062	820.81
436.284	900.81
436.505	763.81
436.727	712.81
436.949	679.81
437.17	692.81
437.392	676.81
437.614	663.81
437.835	699.81
438.057	755.81
438.278	864.81
438.5	871.81
438.721	948.81
438.943	892.81
439.165	782.81
439.386	740.81
439.608	717.81
439.829	709.81
440.05	716.81
440.272	768.81
440.493	730.81
440.715	727.81
440.936	704.81
441.158	698.81
441.379	703.81
441.6	748.81
441.822	748.81
442.043	777.81
442.264	841.81
442.486	883.81
442.707	767.81
442.928	789.81
443.149	757.81
443.371	778.81
443.592	816.81
443.813	889.81
444.034	965.81
444.255	850.81
444.476	841.81
444.698	828.81
444.919	827.81
445.14	885.81
445.361	852.81
445.582	803.81
445.803	850.81
446.024	911.81
446.245	908.81
446.466	859.81
446.687	743.81
446.908	744.81
447.129	703.81
447.35	677.81
447.571	690.81
447.792	655.81
448.013	655.81
448.234	663.81
448.455	711.81
448.675	803.81
448.896	929.81
449.117	791.81
449.338	730.81
449.559	820.81
449.779	961.81
450	763.81
450.221	689.81
450.442	657.81
450.662	639.81
450.883	671.81
451.104	667.81
451.324	637.81
451.545	628.81
451.766	607.81
451.986	599.81
452.207	625.81
452.428	628.81
452.648	614.81
452.869	616.81
453.089	624.81
453.31	632.81
453.53	610.81
453.751	608.81
453.971	592.81
454.192	624.81
454.412	596.81
454.633	603.81
454.853	597.81
455.073	586.81
455.294	613.81
455.514	673.81
455.734	640.81
455.955	614.81
456.175	595.81
456.395	576.81
456.616	580.81
456.836	577.81
457.056	569.81
457.276	561.81
457.497	572.81
457.717	602.81
457.937	588.81
458.157	573.81
458.377	599.81
458.598	610.81
458.818	675.81
459.038	754.81
459.258	783.81
459.478	701.81
459.698	689.81
459.918	688.81
460.138	697.81
460.358	718.81
460.578	725.81
460.798	723.81
461.018	733.81
461.238	704.81
461.458	723.81
461.678	728.81
461.898	723.81
462.118	731.81
462.338	768.81
462.558	777.81
462.777	775.81
462.997	846.81
463.217	894.81
463.437	900.81
463.657	846.81
463.876	821.81
464.096	808.81
464.316	796.81
464.536	837.81
464.755	801.81
464.975	795.81
465.195	767.81
465.414	809.81
465.634	745.81
465.854	698.81
466.073	666.81
466.293	675.81
466.512	657.81
466.732	645.81
466.951	645.81
467.171	659.81
467.391	655.81
467.61	653.81
467.829	629.81
468.049	616.81
468.268	635.81
468.488	663.81
468.707	595.81
468.927	601.81
469.146	617.81
469.365	602.81
469.585	620.81
469.804	641.81
470.023	654.81
470.243	643.81
470.462	677.81
470.681	660.81
470.901	660.81
471.12	653.81
471.339	680.81
471.558	647.81
471.777	646.81
471.997	655.81
472.216	652.81
472.435	687.81
472.654	643.81
472.873	611.81
473.092	633.81
473.311	650.81
473.53	637.81
473.749	634.81
473.968	651.81
474.187	730.81
474.406	755.81
474.625	672.81
474.844	627.81
475.063	638.81
475.282	624.81
475.501	621.81
475.72	623.81
475.939	629.81
476.158	653.81
476.377	643.81
476.596	664.81
476.814	659.81
477.033	691.81
477.252	671.81
477.471	672.81
477.69	721.81
477.908	685.81
478.127	728.81
478.346	722.81
478.564	724.81
478.783	763.81
479.002	781.81
479.22	771.81
479.439	766.81
479.658	780.81
479.876	805.81
480.095	804.81
480.313	817.81
480.532	822.81
480.751	847.81
480.969	838.81
481.188	868.81
481.406	899.81
481.624	791.81
481.843	788.81
482.061	763.81
482.28	736.81
482.498	743.81
482.717	737.81
482.935	737.81
483.153	729.81
483.372	711.81
483.59	736.81
483.808	751.81
484.027	751.81
484.245	726.81
484.463	738.81
484.681	764.81
484.9	745.81
485.118	746.81
485.336	743.81
485.554	723.81
485.772	772.81
485.99	767.81
486.209	777.81
486.427	774.81
486.645	817.81
486.863	823.81
487.081	787.81
487.299	797.81
487.517	790.81
487.735	787.81
487.953	794.81
488.171	776.81
488.389	800.81
488.607	797.81
488.825	794.81
489.043	772.81
489.261	796.81
489.479	769.81
489.696	793.81
489.914	799.81
490.132	824.81
490.35	801.81
490.568	791.81
490.786	841.81
491.003	848.81
491.221	875.81
491.439	873.81
491.657	874.81
491.874	867.81
492.092	870.81
492.31	886.81
492.527	879.81
492.745	917.81
492.963	929.81
493.18	896.81
493.398	891.81
493.615	925.81
493.833	902.81
494.05	931.81
494.268	925.81
494.485	887.81
494.703	921.81
494.92	914.81
495.138	921.81
495.355	917.81
495.573	911.81
495.79	938.81
496.008	909.81
496.225	914.81
496.442	924.81
496.66	921.81
496.877	948.81
497.094	959.81
497.312	964.81
497.529	991.81
497.746	1001.81
497.963	1018.81
498.181	1059.81
498.398	1083.81
498.615	1115.81
498.832	1168.81
499.049	1213.81
499.267	1226.81
499.484	1351.81
499.701	1418.81
499.918	1543.81
500.135	1660.81
500.352	1811.81
500.569	1841.81
500.786	1835.81
501.003	1811.81
501.22	1681.81
501.437	1571.81
501.654	1425.81
