Data from 1963.PennyLincolnUp.Lamp.En5.5.200Scan.071719.P1._HRD10591_13-59-30-063.txt Node
Date: Thu Jul 18 13:59:30 EDT 2019
User: cochatt
Spectrometer: HR+D1059
Trigger mode: 1
Integration Time (sec): 1.000000E-1
Scans to average: 1
Electric dark correction enabled: true
Nonlinearity correction enabled: false
Boxcar width: 0
XAxis mode: Wavelengths
Number of Pixels in Spectrum: 2048
>>>>>Begin Spectral Data<<<<<
223.165	-13.88
223.4	-13.88
223.635	-13.88
223.869	-24.88
224.104	-27.88
224.338	-21.88
224.573	-20.88
224.808	1.12
225.042	-6.88
225.277	-9.88
225.511	7.12
225.746	4.12
225.98	13.12
226.215	8.12
226.449	8.12
226.683	22.12
226.918	22.12
227.152	40.12
227.387	20.12
227.621	43.12
227.856	42.12
228.09	52.12
228.324	38.12
228.559	57.12
228.793	90.12
229.027	94.12
229.262	110.12
229.496	102.12
229.73	118.12
229.964	140.12
230.199	132.12
230.433	123.12
230.667	118.12
230.901	127.12
231.136	120.12
231.37	99.12
231.604	120.12
231.838	127.12
232.072	116.12
232.306	120.12
232.541	123.12
232.775	127.12
233.009	131.12
233.243	108.12
233.477	126.12
233.711	118.12
233.945	122.12
234.179	126.12
234.413	130.12
234.647	124.12
234.881	122.12
235.115	123.12
235.349	129.12
235.583	128.12
235.817	122.12
236.051	134.12
236.285	140.12
236.519	119.12
236.753	138.12
236.987	134.12
237.221	181.12
237.455	210.12
237.689	176.12
237.922	144.12
238.156	151.12
238.39	141.12
238.624	152.12
238.858	145.12
239.091	136.12
239.325	145.12
239.559	138.12
239.793	137.12
240.027	155.12
240.26	148.12
240.494	157.12
240.728	151.12
240.961	176.12
241.195	159.12
241.429	155.12
241.662	143.12
241.896	151.12
242.13	153.12
242.363	162.12
242.597	165.12
242.83	154.12
243.064	156.12
243.298	135.12
243.531	152.12
243.765	173.12
243.998	166.12
244.232	165.12
244.465	173.12
244.699	171.12
244.932	182.12
245.166	164.12
245.399	159.12
245.633	156.12
245.866	173.12
246.099	164.12
246.333	161.12
246.566	163.12
246.8	166.12
247.033	189.12
247.266	162.12
247.5	164.12
247.733	193.12
247.966	182.12
248.2	194.12
248.433	187.12
248.666	186.12
248.899	196.12
249.133	215.12
249.366	216.12
249.599	214.12
249.832	207.12
250.066	224.12
250.299	207.12
250.532	226.12
250.765	231.12
250.998	235.12
251.231	237.12
251.465	228.12
251.698	227.12
251.931	209.12
252.164	222.12
252.397	210.12
252.63	202.12
252.863	219.12
253.096	219.12
253.329	243.12
253.562	258.12
253.795	235.12
254.028	226.12
254.261	248.12
254.494	246.12
254.727	258.12
254.96	280.12
255.193	287.12
255.426	264.12
255.659	232.12
255.892	248.12
256.124	245.12
256.357	270.12
256.59	254.12
256.823	238.12
257.056	223.12
257.289	233.12
257.521	240.12
257.754	244.12
257.987	237.12
258.22	249.12
258.452	244.12
258.685	224.12
258.918	246.12
259.151	237.12
259.383	240.12
259.616	240.12
259.849	255.12
260.081	256.12
260.314	264.12
260.547	286.12
260.779	264.12
261.012	244.12
261.244	260.12
261.477	245.12
261.71	239.12
261.942	243.12
262.175	260.12
262.407	270.12
262.64	234.12
262.872	253.12
263.105	244.12
263.337	250.12
263.57	236.12
263.802	249.12
264.035	263.12
264.267	238.12
264.499	235.12
264.732	234.12
264.964	239.12
265.197	244.12
265.429	237.12
265.661	251.12
265.894	253.12
266.126	244.12
266.358	267.12
266.591	245.12
266.823	260.12
267.055	244.12
267.287	271.12
267.52	259.12
267.752	278.12
267.984	263.12
268.216	292.12
268.448	272.12
268.681	271.12
268.913	288.12
269.145	309.12
269.377	309.12
269.609	310.12
269.841	310.12
270.073	296.12
270.306	310.12
270.538	338.12
270.77	339.12
271.002	332.12
271.234	313.12
271.466	337.12
271.698	334.12
271.93	332.12
272.162	333.12
272.394	322.12
272.626	325.12
272.858	336.12
273.09	301.12
273.322	325.12
273.553	299.12
273.785	290.12
274.017	297.12
274.249	315.12
274.481	286.12
274.713	281.12
274.945	295.12
275.176	306.12
275.408	307.12
275.64	299.12
275.872	328.12
276.104	308.12
276.335	316.12
276.567	315.12
276.799	336.12
277.031	330.12
277.262	331.12
277.494	346.12
277.726	347.12
277.957	327.12
278.189	330.12
278.421	315.12
278.652	334.12
278.884	330.12
279.115	297.12
279.347	318.12
279.579	327.12
279.81	318.12
280.042	313.12
280.273	315.12
280.505	317.12
280.736	316.12
280.968	325.12
281.199	322.12
281.431	330.12
281.662	308.12
281.894	327.12
282.125	316.12
282.356	350.12
282.588	318.12
282.819	346.12
283.051	327.12
283.282	335.12
283.513	322.12
283.745	348.12
283.976	340.12
284.207	332.12
284.439	334.12
284.67	335.12
284.901	350.12
285.132	340.12
285.364	334.12
285.595	337.12
285.826	344.12
286.057	349.12
286.288	344.12
286.52	360.12
286.751	336.12
286.982	357.12
287.213	322.12
287.444	341.12
287.675	354.12
287.906	362.12
288.138	382.12
288.369	372.12
288.6	363.12
288.831	346.12
289.062	367.12
289.293	372.12
289.524	365.12
289.755	361.12
289.986	360.12
290.217	362.12
290.448	369.12
290.679	344.12
290.91	358.12
291.141	360.12
291.371	359.12
291.602	387.12
291.833	362.12
292.064	375.12
292.295	388.12
292.526	361.12
292.757	363.12
292.987	356.12
293.218	378.12
293.449	383.12
293.68	381.12
293.91	372.12
294.141	362.12
294.372	396.12
294.603	372.12
294.833	366.12
295.064	357.12
295.295	363.12
295.525	396.12
295.756	368.12
295.987	366.12
296.217	391.12
296.448	410.12
296.679	382.12
296.909	377.12
297.14	380.12
297.37	376.12
297.601	381.12
297.831	359.12
298.062	386.12
298.292	390.12
298.523	398.12
298.753	384.12
298.984	396.12
299.214	384.12
299.445	375.12
299.675	397.12
299.905	406.12
300.136	382.12
300.366	392.12
300.597	400.12
300.827	396.12
301.057	436.12
301.288	417.12
301.518	419.12
301.748	412.12
301.979	411.12
302.209	426.12
302.439	417.12
302.669	383.12
302.9	430.12
303.13	427.12
303.36	415.12
303.59	407.12
303.82	422.12
304.051	423.12
304.281	423.12
304.511	391.12
304.741	413.12
304.971	408.12
305.201	408.12
305.431	412.12
305.661	422.12
305.891	407.12
306.121	405.12
306.352	403.12
306.582	421.12
306.812	420.12
307.042	410.12
307.272	403.12
307.502	413.12
307.731	429.12
307.961	435.12
308.191	419.12
308.421	434.12
308.651	440.12
308.881	430.12
309.111	420.12
309.341	415.12
309.571	420.12
309.8	448.12
310.03	450.12
310.26	440.12
310.49	414.12
310.72	428.12
310.949	415.12
311.179	458.12
311.409	464.12
311.639	440.12
311.868	455.12
312.098	455.12
312.328	447.12
312.557	447.12
312.787	473.12
313.017	472.12
313.246	467.12
313.476	460.12
313.706	459.12
313.935	471.12
314.165	476.12
314.394	462.12
314.624	454.12
314.853	468.12
315.083	466.12
315.312	463.12
315.542	445.12
315.771	471.12
316.001	474.12
316.23	472.12
316.46	479.12
316.689	443.12
316.919	444.12
317.148	468.12
317.377	463.12
317.607	486.12
317.836	482.12
318.065	475.12
318.295	458.12
318.524	460.12
318.753	451.12
318.983	464.12
319.212	446.12
319.441	464.12
319.67	476.12
319.9	482.12
320.129	460.12
320.358	476.12
320.587	461.12
320.816	470.12
321.046	477.12
321.275	475.12
321.504	477.12
321.733	469.12
321.962	464.12
322.191	496.12
322.42	489.12
322.649	504.12
322.878	506.12
323.108	525.12
323.337	534.12
323.566	534.12
323.795	537.12
324.024	579.12
324.253	641.12
324.482	842.12
324.71	1225.12
324.939	1725.12
325.168	1538.12
325.397	866.12
325.626	617.12
325.855	558.12
326.084	551.12
326.313	543.12
326.542	554.12
326.77	580.12
326.999	633.12
327.228	805.12
327.457	1162.12
327.686	1370.12
327.914	928.12
328.143	679.12
328.372	631.12
328.6	616.12
328.829	598.12
329.058	605.12
329.287	618.12
329.515	564.12
329.744	562.12
329.972	564.12
330.201	593.12
330.43	620.12
330.658	621.12
330.887	628.12
331.115	644.12
331.344	592.12
331.572	580.12
331.801	587.12
332.03	600.12
332.258	593.12
332.486	573.12
332.715	593.12
332.943	590.12
333.172	598.12
333.4	612.12
333.629	616.12
333.857	647.12
334.085	642.12
334.314	654.12
334.542	665.12
334.771	682.12
334.999	632.12
335.227	633.12
335.455	611.12
335.684	593.12
335.912	590.12
336.14	581.12
336.369	586.12
336.597	580.12
336.825	600.12
337.053	572.12
337.281	564.12
337.51	556.12
337.738	569.12
337.966	566.12
338.194	560.12
338.422	565.12
338.65	574.12
338.878	547.12
339.106	566.12
339.334	557.12
339.562	537.12
339.79	552.12
340.018	525.12
340.246	528.12
340.474	526.12
340.702	559.12
340.93	538.12
341.158	533.12
341.386	523.12
341.614	541.12
341.842	522.12
342.07	534.12
342.298	532.12
342.526	516.12
342.754	534.12
342.981	522.12
343.209	551.12
343.437	527.12
343.665	566.12
343.893	593.12
344.12	613.12
344.348	570.12
344.576	580.12
344.804	592.12
345.031	585.12
345.259	554.12
345.487	552.12
345.714	538.12
345.942	518.12
346.17	519.12
346.397	490.12
346.625	508.12
346.853	491.12
347.08	517.12
347.308	516.12
347.535	504.12
347.763	523.12
347.99	517.12
348.218	534.12
348.445	519.12
348.673	528.12
348.9	509.12
349.128	516.12
349.355	503.12
349.583	499.12
349.81	498.12
350.037	480.12
350.265	487.12
350.492	483.12
350.72	497.12
350.947	492.12
351.174	527.12
351.402	511.12
351.629	492.12
351.856	501.12
352.083	494.12
352.311	520.12
352.538	508.12
352.765	501.12
352.992	499.12
353.22	519.12
353.447	506.12
353.674	501.12
353.901	471.12
354.128	502.12
354.355	471.12
354.583	493.12
354.81	503.12
355.037	494.12
355.264	499.12
355.491	502.12
355.718	477.12
355.945	463.12
356.172	483.12
356.399	484.12
356.626	483.12
356.853	511.12
357.08	486.12
357.307	484.12
357.534	492.12
357.761	492.12
357.988	499.12
358.215	454.12
358.441	473.12
358.668	492.12
358.895	500.12
359.122	508.12
359.349	494.12
359.576	509.12
359.802	510.12
360.029	542.12
360.256	529.12
360.483	535.12
360.709	516.12
360.936	522.12
361.163	505.12
361.39	502.12
361.616	515.12
361.843	493.12
362.07	508.12
362.296	522.12
362.523	506.12
362.749	520.12
362.976	503.12
363.203	485.12
363.429	490.12
363.656	504.12
363.882	514.12
364.109	511.12
364.335	498.12
364.562	503.12
364.788	501.12
365.015	477.12
365.241	485.12
365.468	502.12
365.694	504.12
365.92	507.12
366.147	501.12
366.373	506.12
366.599	485.12
366.826	502.12
367.052	490.12
367.278	503.12
367.505	494.12
367.731	490.12
367.957	495.12
368.184	491.12
368.41	494.12
368.636	520.12
368.862	510.12
369.089	522.12
369.315	512.12
369.541	502.12
369.767	498.12
369.993	517.12
370.219	506.12
370.445	499.12
370.672	505.12
370.898	534.12
371.124	524.12
371.35	532.12
371.576	519.12
371.802	496.12
372.028	525.12
372.254	516.12
372.48	508.12
372.706	554.12
372.932	548.12
373.158	544.12
373.384	524.12
373.61	536.12
373.835	500.12
374.061	529.12
374.287	551.12
374.513	520.12
374.739	547.12
374.965	554.12
375.191	535.12
375.416	552.12
375.642	562.12
375.868	552.12
376.094	540.12
376.319	516.12
376.545	529.12
376.771	514.12
376.997	521.12
377.222	520.12
377.448	519.12
377.674	520.12
377.899	516.12
378.125	495.12
378.35	516.12
378.576	505.12
378.802	529.12
379.027	536.12
379.253	515.12
379.478	514.12
379.704	511.12
379.929	500.12
380.155	520.12
380.38	531.12
380.606	516.12
380.831	507.12
381.057	507.12
381.282	503.12
381.507	547.12
381.733	511.12
381.958	526.12
382.184	527.12
382.409	554.12
382.634	535.12
382.86	534.12
383.085	534.12
383.31	534.12
383.535	540.12
383.761	568.12
383.986	542.12
384.211	554.12
384.436	553.12
384.662	592.12
384.887	582.12
385.112	584.12
385.337	598.12
385.562	597.12
385.787	590.12
386.013	605.12
386.238	641.12
386.463	601.12
386.688	586.12
386.913	596.12
387.138	606.12
387.363	614.12
387.588	575.12
387.813	584.12
388.038	575.12
388.263	591.12
388.488	586.12
388.713	602.12
388.938	596.12
389.163	592.12
389.387	588.12
389.612	602.12
389.837	611.12
390.062	592.12
390.287	575.12
390.512	586.12
390.736	570.12
390.961	582.12
391.186	601.12
391.411	650.12
391.636	623.12
391.86	634.12
392.085	656.12
392.31	643.12
392.534	626.12
392.759	636.12
392.984	616.12
393.208	636.12
393.433	626.12
393.658	624.12
393.882	638.12
394.107	597.12
394.331	623.12
394.556	632.12
394.78	616.12
395.005	611.12
395.229	616.12
395.454	645.12
395.678	664.12
395.903	654.12
396.127	653.12
396.352	661.12
396.576	632.12
396.801	638.12
397.025	646.12
397.249	646.12
397.474	668.12
397.698	658.12
397.922	666.12
398.147	664.12
398.371	685.12
398.595	684.12
398.82	692.12
399.044	754.12
399.268	792.12
399.492	891.12
399.717	948.12
399.941	959.12
400.165	925.12
400.389	911.12
400.613	813.12
400.837	772.12
401.062	756.12
401.286	754.12
401.51	735.12
401.734	718.12
401.958	723.12
402.182	724.12
402.406	749.12
402.63	756.12
402.854	741.12
403.078	759.12
403.302	782.12
403.526	770.12
403.75	805.12
403.974	783.12
404.198	790.12
404.422	765.12
404.645	780.12
404.869	746.12
405.093	814.12
405.317	839.12
405.541	892.12
405.765	815.12
405.988	811.12
406.212	784.12
406.436	792.12
406.66	815.12
406.883	811.12
407.107	844.12
407.331	896.12
407.555	965.12
407.778	969.12
408.002	899.12
408.226	875.12
408.449	831.12
408.673	802.12
408.896	836.12
409.12	867.12
409.344	847.12
409.567	788.12
409.791	784.12
410.014	756.12
410.238	782.12
410.461	791.12
410.685	773.12
410.908	788.12
411.132	788.12
411.355	816.12
411.578	806.12
411.802	747.12
412.025	767.12
412.249	762.12
412.472	803.12
412.695	806.12
412.919	788.12
413.142	743.12
413.365	723.12
413.589	734.12
413.812	739.12
414.035	706.12
414.258	706.12
414.482	710.12
414.705	734.12
414.928	720.12
415.151	710.12
415.374	717.12
415.597	725.12
415.821	702.12
416.044	701.12
416.267	690.12
416.49	687.12
416.713	704.12
416.936	710.12
417.159	690.12
417.382	701.12
417.605	721.12
417.828	731.12
418.051	749.12
418.274	726.12
418.497	693.12
418.72	747.12
418.943	738.12
419.166	753.12
419.389	798.12
419.611	767.12
419.834	749.12
420.057	743.12
420.28	735.12
420.503	710.12
420.726	718.12
420.948	733.12
421.171	763.12
421.394	790.12
421.617	731.12
421.839	716.12
422.062	736.12
422.285	738.12
422.507	801.12
422.73	853.12
422.953	831.12
423.175	745.12
423.398	749.12
423.621	760.12
423.843	760.12
424.066	784.12
424.288	792.12
424.511	800.12
424.733	809.12
424.956	884.12
425.178	876.12
425.401	859.12
425.623	883.12
425.846	784.12
426.068	737.12
426.291	742.12
426.513	736.12
426.735	753.12
426.958	744.12
427.18	806.12
427.402	917.12
427.625	980.12
427.847	902.12
428.069	802.12
428.292	746.12
428.514	700.12
428.736	699.12
428.958	714.12
429.181	666.12
429.403	679.12
429.625	679.12
429.847	692.12
430.069	742.12
430.292	743.12
430.514	675.12
430.736	674.12
430.958	667.12
431.18	649.12
431.402	652.12
431.624	656.12
431.846	679.12
432.068	672.12
432.29	664.12
432.512	683.12
432.734	700.12
432.956	649.12
433.178	657.12
433.4	668.12
433.622	647.12
433.844	656.12
434.066	664.12
434.287	662.12
434.509	682.12
434.731	729.12
434.953	716.12
435.175	714.12
435.397	760.12
435.618	717.12
435.84	756.12
436.062	822.12
436.284	854.12
436.505	767.12
436.727	724.12
436.949	695.12
437.17	672.12
437.392	659.12
437.614	662.12
437.835	697.12
438.057	776.12
438.278	843.12
438.5	843.12
438.721	908.12
438.943	896.12
439.165	750.12
439.386	705.12
439.608	702.12
439.829	711.12
440.05	718.12
440.272	750.12
440.493	734.12
440.715	721.12
440.936	676.12
441.158	701.12
441.379	686.12
441.6	700.12
441.822	758.12
442.043	806.12
442.264	823.12
442.486	872.12
442.707	802.12
442.928	766.12
443.149	749.12
443.371	754.12
443.592	810.12
443.813	902.12
444.034	932.12
444.255	822.12
444.476	800.12
444.698	800.12
444.919	798.12
445.14	930.12
445.361	853.12
445.582	811.12
445.803	811.12
446.024	884.12
446.245	862.12
446.466	794.12
446.687	719.12
446.908	695.12
447.129	692.12
447.35	673.12
447.571	640.12
447.792	648.12
448.013	635.12
448.234	669.12
448.455	725.12
448.675	793.12
448.896	862.12
449.117	740.12
449.338	737.12
449.559	830.12
449.779	922.12
450	772.12
450.221	682.12
450.442	670.12
450.662	636.12
450.883	632.12
451.104	657.12
451.324	634.12
451.545	624.12
451.766	634.12
451.986	600.12
452.207	613.12
452.428	590.12
452.648	627.12
452.869	601.12
453.089	598.12
453.31	614.12
453.53	600.12
453.751	573.12
453.971	581.12
454.192	614.12
454.412	607.12
454.633	610.12
454.853	594.12
455.073	573.12
455.294	603.12
455.514	660.12
455.734	642.12
455.955	572.12
456.175	562.12
456.395	610.12
456.616	571.12
456.836	588.12
457.056	544.12
457.276	546.12
457.497	548.12
457.717	557.12
457.937	600.12
458.157	606.12
458.377	587.12
458.598	619.12
458.818	657.12
459.038	725.12
459.258	738.12
459.478	666.12
459.698	666.12
459.918	669.12
460.138	677.12
460.358	718.12
460.578	732.12
460.798	706.12
461.018	724.12
461.238	729.12
461.458	703.12
461.678	716.12
461.898	726.12
462.118	747.12
462.338	759.12
462.558	775.12
462.777	812.12
462.997	818.12
463.217	912.12
463.437	887.12
463.657	848.12
463.876	811.12
464.096	830.12
464.316	804.12
464.536	803.12
464.755	774.12
464.975	771.12
465.195	804.12
465.414	792.12
465.634	730.12
465.854	688.12
466.073	680.12
466.293	655.12
466.512	647.12
466.732	618.12
466.951	642.12
467.171	626.12
467.391	652.12
467.61	650.12
467.829	629.12
468.049	635.12
468.268	645.12
468.488	646.12
468.707	600.12
468.927	628.12
469.146	599.12
469.365	615.12
469.585	637.12
469.804	654.12
470.023	678.12
470.243	651.12
470.462	650.12
470.681	656.12
470.901	652.12
471.12	653.12
471.339	632.12
471.558	637.12
471.777	624.12
471.997	656.12
472.216	616.12
472.435	672.12
472.654	627.12
472.873	633.12
473.092	640.12
473.311	624.12
473.53	613.12
473.749	622.12
473.968	664.12
474.187	730.12
474.406	784.12
474.625	674.12
474.844	622.12
475.063	641.12
475.282	644.12
475.501	633.12
475.72	626.12
475.939	639.12
476.158	666.12
476.377	644.12
476.596	628.12
476.814	653.12
477.033	657.12
477.252	650.12
477.471	663.12
477.69	670.12
477.908	668.12
478.127	723.12
478.346	708.12
478.564	736.12
478.783	731.12
479.002	744.12
479.22	752.12
479.439	761.12
479.658	773.12
479.876	771.12
480.095	803.12
480.313	815.12
480.532	822.12
480.751	820.12
480.969	824.12
481.188	833.12
481.406	858.12
481.624	784.12
481.843	740.12
482.061	749.12
482.28	729.12
482.498	733.12
482.717	725.12
482.935	704.12
483.153	696.12
483.372	740.12
483.59	724.12
483.808	716.12
484.027	721.12
484.245	726.12
484.463	717.12
484.681	754.12
484.9	741.12
485.118	730.12
485.336	747.12
485.554	788.12
485.772	761.12
485.99	779.12
486.209	778.12
486.427	798.12
486.645	782.12
486.863	761.12
487.081	767.12
487.299	787.12
487.517	761.12
487.735	747.12
487.953	772.12
488.171	768.12
488.389	799.12
488.607	766.12
488.825	763.12
489.043	767.12
489.261	780.12
489.479	776.12
489.696	802.12
489.914	799.12
490.132	789.12
490.35	786.12
490.568	819.12
490.786	837.12
491.003	811.12
491.221	836.12
491.439	861.12
491.657	857.12
491.874	854.12
492.092	856.12
492.31	868.12
492.527	878.12
492.745	862.12
492.963	915.12
493.18	895.12
493.398	913.12
493.615	903.12
493.833	896.12
494.05	890.12
494.268	906.12
494.485	905.12
494.703	903.12
494.92	892.12
495.138	948.12
495.355	904.12
495.573	899.12
495.79	901.12
496.008	904.12
496.225	904.12
496.442	903.12
496.66	936.12
496.877	902.12
497.094	928.12
497.312	956.12
497.529	965.12
497.746	980.12
497.963	990.12
498.181	1048.12
498.398	1071.12
498.615	1093.12
498.832	1125.12
499.049	1181.12
499.267	1240.12
499.484	1312.12
499.701	1410.12
499.918	1531.12
500.135	1641.12
500.352	1781.12
500.569	1818.12
500.786	1796.12
501.003	1744.12
501.22	1623.12
501.437	1515.12
501.654	1400.12
