Data from 1963.PennyLincolnUp.Lamp.En5.5.200Scan.071719.P1._HRD10591_13-59-43-063.txt Node
Date: Thu Jul 18 13:59:43 EDT 2019
User: cochatt
Spectrometer: HR+D1059
Trigger mode: 1
Integration Time (sec): 1.000000E-1
Scans to average: 1
Electric dark correction enabled: true
Nonlinearity correction enabled: false
Boxcar width: 0
XAxis mode: Wavelengths
Number of Pixels in Spectrum: 2048
>>>>>Begin Spectral Data<<<<<
223.165	-10.31
223.4	-10.31
223.635	-10.31
223.869	-11.31
224.104	-16.31
224.338	-9.31
224.573	-12.31
224.808	-28.31
225.042	-13.31
225.277	-7.31
225.511	-7.31
225.746	7.69
225.98	13.69
226.215	5.69
226.449	15.69
226.683	20.69
226.918	20.69
227.152	31.69
227.387	29.69
227.621	40.69
227.856	52.69
228.09	50.69
228.324	50.69
228.559	59.69
228.793	69.69
229.027	89.69
229.262	98.69
229.496	107.69
229.73	128.69
229.964	135.69
230.199	131.69
230.433	117.69
230.667	117.69
230.901	107.69
231.136	94.69
231.37	99.69
231.604	116.69
231.838	122.69
232.072	114.69
232.306	134.69
232.541	111.69
232.775	117.69
233.009	128.69
233.243	122.69
233.477	128.69
233.711	137.69
233.945	124.69
234.179	126.69
234.413	153.69
234.647	130.69
234.881	114.69
235.115	120.69
235.349	124.69
235.583	136.69
235.817	120.69
236.051	120.69
236.285	122.69
236.519	138.69
236.753	126.69
236.987	147.69
237.221	170.69
237.455	211.69
237.689	192.69
237.922	154.69
238.156	133.69
238.39	136.69
238.624	134.69
238.858	125.69
239.091	154.69
239.325	144.69
239.559	127.69
239.793	145.69
240.027	146.69
240.26	152.69
240.494	166.69
240.728	158.69
240.961	165.69
241.195	150.69
241.429	166.69
241.662	154.69
241.896	151.69
242.13	144.69
242.363	146.69
242.597	164.69
242.83	153.69
243.064	160.69
243.298	152.69
243.531	161.69
243.765	151.69
243.998	167.69
244.232	166.69
244.465	168.69
244.699	165.69
244.932	154.69
245.166	172.69
245.399	167.69
245.633	174.69
245.866	157.69
246.099	172.69
246.333	152.69
246.566	175.69
246.8	175.69
247.033	165.69
247.266	157.69
247.5	174.69
247.733	187.69
247.966	182.69
248.2	174.69
248.433	186.69
248.666	174.69
248.899	190.69
249.133	216.69
249.366	211.69
249.599	222.69
249.832	195.69
250.066	210.69
250.299	186.69
250.532	192.69
250.765	208.69
250.998	209.69
251.231	232.69
251.465	246.69
251.698	230.69
251.931	212.69
252.164	214.69
252.397	203.69
252.63	218.69
252.863	199.69
253.096	215.69
253.329	235.69
253.562	252.69
253.795	238.69
254.028	219.69
254.261	230.69
254.494	239.69
254.727	250.69
254.96	283.69
255.193	275.69
255.426	262.69
255.659	250.69
255.892	248.69
256.124	262.69
256.357	240.69
256.59	241.69
256.823	223.69
257.056	222.69
257.289	224.69
257.521	220.69
257.754	228.69
257.987	222.69
258.22	237.69
258.452	248.69
258.685	215.69
258.918	231.69
259.151	250.69
259.383	238.69
259.616	233.69
259.849	238.69
260.081	269.69
260.314	274.69
260.547	277.69
260.779	254.69
261.012	251.69
261.244	239.69
261.477	250.69
261.71	229.69
261.942	258.69
262.175	249.69
262.407	246.69
262.64	248.69
262.872	255.69
263.105	233.69
263.337	254.69
263.57	233.69
263.802	250.69
264.035	258.69
264.267	246.69
264.499	246.69
264.732	246.69
264.964	246.69
265.197	245.69
265.429	248.69
265.661	242.69
265.894	253.69
266.126	244.69
266.358	263.69
266.591	265.69
266.823	284.69
267.055	263.69
267.287	257.69
267.52	266.69
267.752	271.69
267.984	267.69
268.216	262.69
268.448	260.69
268.681	247.69
268.913	279.69
269.145	302.69
269.377	296.69
269.609	318.69
269.841	288.69
270.073	309.69
270.306	308.69
270.538	334.69
270.77	326.69
271.002	319.69
271.234	336.69
271.466	311.69
271.698	340.69
271.93	332.69
272.162	348.69
272.394	332.69
272.626	333.69
272.858	320.69
273.09	303.69
273.322	310.69
273.553	302.69
273.785	315.69
274.017	297.69
274.249	295.69
274.481	308.69
274.713	307.69
274.945	312.69
275.176	318.69
275.408	300.69
275.64	278.69
275.872	308.69
276.104	307.69
276.335	303.69
276.567	321.69
276.799	326.69
277.031	343.69
277.262	342.69
277.494	343.69
277.726	352.69
277.957	323.69
278.189	319.69
278.421	318.69
278.652	310.69
278.884	324.69
279.115	314.69
279.347	325.69
279.579	326.69
279.81	303.69
280.042	319.69
280.273	322.69
280.505	331.69
280.736	316.69
280.968	328.69
281.199	311.69
281.431	325.69
281.662	319.69
281.894	318.69
282.125	322.69
282.356	350.69
282.588	374.69
282.819	356.69
283.051	328.69
283.282	333.69
283.513	314.69
283.745	334.69
283.976	343.69
284.207	358.69
284.439	345.69
284.67	343.69
284.901	335.69
285.132	339.69
285.364	352.69
285.595	337.69
285.826	341.69
286.057	344.69
286.288	349.69
286.52	348.69
286.751	360.69
286.982	354.69
287.213	340.69
287.444	340.69
287.675	366.69
287.906	355.69
288.138	370.69
288.369	356.69
288.6	353.69
288.831	342.69
289.062	369.69
289.293	361.69
289.524	355.69
289.755	371.69
289.986	360.69
290.217	342.69
290.448	359.69
290.679	378.69
290.91	349.69
291.141	354.69
291.371	364.69
291.602	364.69
291.833	346.69
292.064	362.69
292.295	374.69
292.526	357.69
292.757	368.69
292.987	367.69
293.218	384.69
293.449	388.69
293.68	384.69
293.91	370.69
294.141	365.69
294.372	375.69
294.603	382.69
294.833	370.69
295.064	360.69
295.295	372.69
295.525	366.69
295.756	390.69
295.987	354.69
296.217	386.69
296.448	396.69
296.679	384.69
296.909	380.69
297.14	368.69
297.37	386.69
297.601	370.69
297.831	387.69
298.062	376.69
298.292	386.69
298.523	394.69
298.753	393.69
298.984	378.69
299.214	411.69
299.445	391.69
299.675	392.69
299.905	403.69
300.136	405.69
300.366	399.69
300.597	389.69
300.827	405.69
301.057	427.69
301.288	407.69
301.518	408.69
301.748	421.69
301.979	413.69
302.209	422.69
302.439	422.69
302.669	404.69
302.9	411.69
303.13	423.69
303.36	407.69
303.59	409.69
303.82	428.69
304.051	434.69
304.281	438.69
304.511	410.69
304.741	394.69
304.971	402.69
305.201	420.69
305.431	427.69
305.661	404.69
305.891	417.69
306.121	391.69
306.352	429.69
306.582	419.69
306.812	410.69
307.042	401.69
307.272	417.69
307.502	403.69
307.731	412.69
307.961	407.69
308.191	414.69
308.421	412.69
308.651	400.69
308.881	399.69
309.111	432.69
309.341	422.69
309.571	414.69
309.8	429.69
310.03	438.69
310.26	444.69
310.49	422.69
310.72	443.69
310.949	446.69
311.179	459.69
311.409	455.69
311.639	424.69
311.868	452.69
312.098	446.69
312.328	453.69
312.557	485.69
312.787	506.69
313.017	462.69
313.246	458.69
313.476	472.69
313.706	449.69
313.935	470.69
314.165	460.69
314.394	478.69
314.624	462.69
314.853	460.69
315.083	449.69
315.312	472.69
315.542	465.69
315.771	459.69
316.001	452.69
316.23	459.69
316.46	460.69
316.689	455.69
316.919	473.69
317.148	472.69
317.377	470.69
317.607	460.69
317.836	446.69
318.065	463.69
318.295	476.69
318.524	443.69
318.753	442.69
318.983	450.69
319.212	464.69
319.441	455.69
319.67	474.69
319.9	464.69
320.129	476.69
320.358	455.69
320.587	443.69
320.816	456.69
321.046	471.69
321.275	462.69
321.504	480.69
321.733	465.69
321.962	498.69
322.191	485.69
322.42	494.69
322.649	495.69
322.878	519.69
323.108	509.69
323.337	508.69
323.566	535.69
323.795	562.69
324.024	587.69
324.253	655.69
324.482	825.69
324.71	1198.69
324.939	1716.69
325.168	1549.69
325.397	838.69
325.626	638.69
325.855	576.69
326.084	565.69
326.313	557.69
326.542	557.69
326.77	575.69
326.999	640.69
327.228	791.69
327.457	1140.69
327.686	1354.69
327.914	962.69
328.143	692.69
328.372	629.69
328.6	610.69
328.829	611.69
329.058	591.69
329.287	603.69
329.515	583.69
329.744	574.69
329.972	580.69
330.201	580.69
330.43	607.69
330.658	623.69
330.887	634.69
331.115	632.69
331.344	600.69
331.572	580.69
331.801	581.69
332.03	583.69
332.258	580.69
332.486	573.69
332.715	580.69
332.943	588.69
333.172	589.69
333.4	618.69
333.629	619.69
333.857	628.69
334.085	650.69
334.314	652.69
334.542	662.69
334.771	676.69
334.999	670.69
335.227	648.69
335.455	626.69
335.684	578.69
335.912	598.69
336.14	589.69
336.369	571.69
336.597	586.69
336.825	583.69
337.053	568.69
337.281	570.69
337.51	573.69
337.738	578.69
337.966	556.69
338.194	561.69
338.422	564.69
338.65	524.69
338.878	547.69
339.106	536.69
339.334	546.69
339.562	532.69
339.79	534.69
340.018	543.69
340.246	524.69
340.474	535.69
340.702	542.69
340.93	516.69
341.158	526.69
341.386	532.69
341.614	531.69
341.842	519.69
342.07	531.69
342.298	524.69
342.526	546.69
342.754	518.69
342.981	517.69
343.209	559.69
343.437	543.69
343.665	572.69
343.893	581.69
344.12	612.69
344.348	597.69
344.576	565.69
344.804	550.69
345.031	540.69
345.259	536.69
345.487	548.69
345.714	518.69
345.942	520.69
346.17	518.69
346.397	519.69
346.625	534.69
346.853	526.69
347.08	506.69
347.308	522.69
347.535	517.69
347.763	519.69
347.99	512.69
348.218	531.69
348.445	533.69
348.673	523.69
348.9	512.69
349.128	493.69
349.355	502.69
349.583	473.69
349.81	518.69
350.037	491.69
350.265	485.69
350.492	500.69
350.72	502.69
350.947	486.69
351.174	524.69
351.402	554.69
351.629	506.69
351.856	502.69
352.083	493.69
352.311	506.69
352.538	519.69
352.765	511.69
352.992	517.69
353.22	520.69
353.447	489.69
353.674	485.69
353.901	501.69
354.128	500.69
354.355	482.69
354.583	474.69
354.81	501.69
355.037	498.69
355.264	488.69
355.491	485.69
355.718	496.69
355.945	487.69
356.172	469.69
356.399	500.69
356.626	481.69
356.853	461.69
357.08	480.69
357.307	493.69
357.534	482.69
357.761	484.69
357.988	490.69
358.215	498.69
358.441	511.69
358.668	493.69
358.895	507.69
359.122	495.69
359.349	493.69
359.576	489.69
359.802	513.69
360.029	514.69
360.256	536.69
360.483	509.69
360.709	509.69
360.936	499.69
361.163	488.69
361.39	510.69
361.616	487.69
361.843	511.69
362.07	503.69
362.296	522.69
362.523	517.69
362.749	506.69
362.976	519.69
363.203	487.69
363.429	498.69
363.656	498.69
363.882	483.69
364.109	490.69
364.335	500.69
364.562	490.69
364.788	498.69
365.015	518.69
365.241	512.69
365.468	502.69
365.694	497.69
365.92	484.69
366.147	484.69
366.373	491.69
366.599	487.69
366.826	507.69
367.052	499.69
367.278	503.69
367.505	489.69
367.731	495.69
367.957	482.69
368.184	519.69
368.41	508.69
368.636	508.69
368.862	504.69
369.089	521.69
369.315	490.69
369.541	502.69
369.767	532.69
369.993	495.69
370.219	516.69
370.445	507.69
370.672	520.69
370.898	502.69
371.124	521.69
371.35	542.69
371.576	508.69
371.802	535.69
372.028	529.69
372.254	543.69
372.48	524.69
372.706	562.69
372.932	555.69
373.158	548.69
373.384	550.69
373.61	508.69
373.835	527.69
374.061	540.69
374.287	526.69
374.513	534.69
374.739	529.69
374.965	565.69
375.191	556.69
375.416	548.69
375.642	519.69
375.868	542.69
376.094	553.69
376.319	505.69
376.545	534.69
376.771	520.69
376.997	509.69
377.222	518.69
377.448	526.69
377.674	535.69
377.899	512.69
378.125	503.69
378.35	518.69
378.576	520.69
378.802	524.69
379.027	523.69
379.253	506.69
379.478	518.69
379.704	518.69
379.929	512.69
380.155	514.69
380.38	524.69
380.606	503.69
380.831	529.69
381.057	521.69
381.282	522.69
381.507	525.69
381.733	524.69
381.958	529.69
382.184	510.69
382.409	546.69
382.634	528.69
382.86	536.69
383.085	551.69
383.31	548.69
383.535	550.69
383.761	548.69
383.986	580.69
384.211	570.69
384.436	575.69
384.662	583.69
384.887	606.69
385.112	572.69
385.337	590.69
385.562	606.69
385.787	585.69
386.013	617.69
386.238	605.69
386.463	599.69
386.688	606.69
386.913	605.69
387.138	589.69
387.363	596.69
387.588	600.69
387.813	598.69
388.038	607.69
388.263	597.69
388.488	627.69
388.713	614.69
388.938	586.69
389.163	584.69
389.387	593.69
389.612	596.69
389.837	592.69
390.062	594.69
390.287	589.69
390.512	578.69
390.736	613.69
390.961	597.69
391.186	601.69
391.411	618.69
391.636	627.69
391.86	632.69
392.085	645.69
392.31	599.69
392.534	637.69
392.759	650.69
392.984	636.69
393.208	617.69
393.433	614.69
393.658	624.69
393.882	603.69
394.107	607.69
394.331	613.69
394.556	612.69
394.78	637.69
395.005	612.69
395.229	613.69
395.454	652.69
395.678	666.69
395.903	655.69
396.127	666.69
396.352	637.69
396.576	639.69
396.801	630.69
397.025	640.69
397.249	641.69
397.474	650.69
397.698	652.69
397.922	663.69
398.147	662.69
398.371	674.69
398.595	676.69
398.82	674.69
399.044	734.69
399.268	784.69
399.492	866.69
399.717	942.69
399.941	969.69
400.165	918.69
400.389	886.69
400.613	813.69
400.837	776.69
401.062	727.69
401.286	718.69
401.51	700.69
401.734	695.69
401.958	704.69
402.182	723.69
402.406	742.69
402.63	743.69
402.854	752.69
403.078	756.69
403.302	778.69
403.526	784.69
403.75	746.69
403.974	781.69
404.198	739.69
404.422	793.69
404.645	784.69
404.869	810.69
405.093	804.69
405.317	823.69
405.541	853.69
405.765	798.69
405.988	794.69
406.212	796.69
406.436	803.69
406.66	827.69
406.883	805.69
407.107	858.69
407.331	892.69
407.555	949.69
407.778	954.69
408.002	898.69
408.226	845.69
408.449	826.69
408.673	825.69
408.896	836.69
409.12	866.69
409.344	835.69
409.567	792.69
409.791	761.69
410.014	758.69
410.238	749.69
410.461	760.69
410.685	782.69
410.908	757.69
411.132	800.69
411.355	810.69
411.578	774.69
411.802	751.69
412.025	740.69
412.249	742.69
412.472	792.69
412.695	788.69
412.919	780.69
413.142	774.69
413.365	732.69
413.589	715.69
413.812	679.69
414.035	679.69
414.258	685.69
414.482	701.69
414.705	710.69
414.928	691.69
415.151	702.69
415.374	705.69
415.597	688.69
415.821	709.69
416.044	679.69
416.267	685.69
416.49	698.69
416.713	677.69
416.936	703.69
417.159	694.69
417.382	706.69
417.605	710.69
417.828	706.69
418.051	727.69
418.274	726.69
418.497	730.69
418.72	714.69
418.943	715.69
419.166	741.69
419.389	806.69
419.611	754.69
419.834	752.69
420.057	754.69
420.28	718.69
420.503	722.69
420.726	718.69
420.948	733.69
421.171	746.69
421.394	784.69
421.617	747.69
421.839	701.69
422.062	719.69
422.285	741.69
422.507	787.69
422.73	835.69
422.953	826.69
423.175	750.69
423.398	767.69
423.621	728.69
423.843	777.69
424.066	760.69
424.288	769.69
424.511	799.69
424.733	828.69
424.956	873.69
425.178	843.69
425.401	863.69
425.623	864.69
425.846	783.69
426.068	758.69
426.291	714.69
426.513	717.69
426.735	735.69
426.958	756.69
427.18	820.69
427.402	910.69
427.625	999.69
427.847	872.69
428.069	809.69
428.292	708.69
428.514	704.69
428.736	690.69
428.958	673.69
429.181	655.69
429.403	673.69
429.625	667.69
429.847	704.69
430.069	745.69
430.292	732.69
430.514	697.69
430.736	668.69
430.958	661.69
431.18	642.69
431.402	661.69
431.624	654.69
431.846	639.69
432.068	631.69
432.29	672.69
432.512	675.69
432.734	644.69
432.956	670.69
433.178	651.69
433.4	640.69
433.622	664.69
433.844	653.69
434.066	672.69
434.287	631.69
434.509	660.69
434.731	717.69
434.953	721.69
435.175	735.69
435.397	723.69
435.618	730.69
435.84	727.69
436.062	796.69
436.284	857.69
436.505	749.69
436.727	710.69
436.949	657.69
437.17	665.69
437.392	686.69
437.614	665.69
437.835	701.69
438.057	801.69
438.278	828.69
438.5	826.69
438.721	920.69
438.943	890.69
439.165	768.69
439.386	675.69
439.608	699.69
439.829	697.69
440.05	728.69
440.272	760.69
440.493	742.69
440.715	690.69
440.936	693.69
441.158	699.69
441.379	701.69
441.6	714.69
441.822	736.69
442.043	778.69
442.264	822.69
442.486	848.69
442.707	758.69
442.928	726.69
443.149	751.69
443.371	771.69
443.592	788.69
443.813	894.69
444.034	925.69
444.255	854.69
444.476	809.69
444.698	788.69
444.919	809.69
445.14	906.69
445.361	836.69
445.582	782.69
445.803	806.69
446.024	872.69
446.245	880.69
446.466	827.69
446.687	746.69
446.908	702.69
447.129	656.69
447.35	627.69
447.571	674.69
447.792	646.69
448.013	644.69
448.234	658.69
448.455	688.69
448.675	775.69
448.896	874.69
449.117	778.69
449.338	732.69
449.559	817.69
449.779	920.69
450	761.69
450.221	680.69
450.442	631.69
450.662	625.69
450.883	636.69
451.104	651.69
451.324	629.69
451.545	618.69
451.766	624.69
451.986	587.69
452.207	593.69
452.428	597.69
452.648	579.69
452.869	577.69
453.089	582.69
453.31	622.69
453.53	596.69
453.751	584.69
453.971	581.69
454.192	602.69
454.412	589.69
454.633	568.69
454.853	584.69
455.073	564.69
455.294	606.69
455.514	660.69
455.734	639.69
455.955	599.69
456.175	558.69
456.395	563.69
456.616	577.69
456.836	567.69
457.056	570.69
457.276	562.69
457.497	560.69
457.717	566.69
457.937	575.69
458.157	582.69
458.377	603.69
458.598	595.69
458.818	651.69
459.038	711.69
459.258	729.69
459.478	695.69
459.698	670.69
459.918	675.69
460.138	681.69
460.358	693.69
460.578	722.69
460.798	677.69
461.018	725.69
461.238	726.69
461.458	734.69
461.678	706.69
461.898	727.69
462.118	709.69
462.338	762.69
462.558	738.69
462.777	766.69
462.997	840.69
463.217	867.69
463.437	878.69
463.657	843.69
463.876	799.69
464.096	813.69
464.316	790.69
464.536	823.69
464.755	780.69
464.975	766.69
465.195	778.69
465.414	795.69
465.634	749.69
465.854	676.69
466.073	664.69
466.293	644.69
466.512	628.69
466.732	633.69
466.951	597.69
467.171	635.69
467.391	626.69
467.61	630.69
467.829	624.69
468.049	635.69
468.268	617.69
468.488	621.69
468.707	602.69
468.927	611.69
469.146	615.69
469.365	587.69
469.585	626.69
469.804	646.69
470.023	647.69
470.243	628.69
470.462	664.69
470.681	660.69
470.901	657.69
471.12	644.69
471.339	646.69
471.558	640.69
471.777	646.69
471.997	628.69
472.216	630.69
472.435	673.69
472.654	607.69
472.873	621.69
473.092	618.69
473.311	621.69
473.53	613.69
473.749	637.69
473.968	642.69
474.187	729.69
474.406	724.69
474.625	668.69
474.844	634.69
475.063	622.69
475.282	618.69
475.501	611.69
475.72	626.69
475.939	632.69
476.158	632.69
476.377	650.69
476.596	627.69
476.814	631.69
477.033	653.69
477.252	683.69
477.471	675.69
477.69	664.69
477.908	685.69
478.127	694.69
478.346	706.69
478.564	697.69
478.783	719.69
479.002	728.69
479.22	734.69
479.439	758.69
479.658	741.69
479.876	739.69
480.095	801.69
480.313	831.69
480.532	811.69
480.751	835.69
480.969	800.69
481.188	838.69
481.406	854.69
481.624	788.69
481.843	771.69
482.061	710.69
482.28	701.69
482.498	724.69
482.717	729.69
482.935	732.69
483.153	727.69
483.372	726.69
483.59	731.69
483.808	726.69
484.027	732.69
484.245	731.69
484.463	702.69
484.681	772.69
484.9	744.69
485.118	735.69
485.336	708.69
485.554	758.69
485.772	756.69
485.99	748.69
486.209	762.69
486.427	755.69
486.645	756.69
486.863	793.69
487.081	775.69
487.299	768.69
487.517	770.69
487.735	780.69
487.953	777.69
488.171	774.69
488.389	764.69
488.607	756.69
488.825	776.69
489.043	794.69
489.261	778.69
489.479	751.69
489.696	806.69
489.914	783.69
490.132	797.69
490.35	789.69
490.568	816.69
490.786	832.69
491.003	792.69
491.221	832.69
491.439	811.69
491.657	858.69
491.874	843.69
492.092	858.69
492.31	861.69
492.527	841.69
492.745	848.69
492.963	866.69
493.18	876.69
493.398	861.69
493.615	909.69
493.833	888.69
494.05	874.69
494.268	922.69
494.485	909.69
494.703	904.69
494.92	898.69
495.138	890.69
495.355	889.69
495.573	882.69
495.79	918.69
496.008	916.69
496.225	885.69
496.442	922.69
496.66	922.69
496.877	902.69
497.094	958.69
497.312	931.69
497.529	960.69
497.746	977.69
497.963	975.69
498.181	1014.69
498.398	1068.69
498.615	1082.69
498.832	1134.69
499.049	1191.69
499.267	1265.69
499.484	1310.69
499.701	1390.69
499.918	1479.69
500.135	1621.69
500.352	1752.69
500.569	1844.69
500.786	1814.69
501.003	1778.69
501.22	1616.69
501.437	1536.69
501.654	1432.69
