Data from 1963.PennyLincolnUp.Lamp.En5.5.200Scan.071719.P1._HRD10591_13-59-02-063.txt Node
Date: Thu Jul 18 13:59:02 EDT 2019
User: cochatt
Spectrometer: HR+D1059
Trigger mode: 1
Integration Time (sec): 1.000000E-1
Scans to average: 1
Electric dark correction enabled: true
Nonlinearity correction enabled: false
Boxcar width: 0
XAxis mode: Wavelengths
Number of Pixels in Spectrum: 2048
>>>>>Begin Spectral Data<<<<<
223.165	-19.94
223.4	-19.94
223.635	-19.94
223.869	-21.94
224.104	-16.94
224.338	0.06
224.573	-26.94
224.808	-11.94
225.042	-5.94
225.277	-1.94
225.511	9.06
225.746	16.06
225.98	1.06
226.215	4.06
226.449	12.06
226.683	15.06
226.918	16.06
227.152	32.06
227.387	37.06
227.621	33.06
227.856	53.06
228.09	55.06
228.324	50.06
228.559	69.06
228.793	64.06
229.027	89.06
229.262	90.06
229.496	107.06
229.73	126.06
229.964	135.06
230.199	132.06
230.433	124.06
230.667	126.06
230.901	116.06
231.136	124.06
231.37	115.06
231.604	121.06
231.838	103.06
232.072	123.06
232.306	129.06
232.541	126.06
232.775	124.06
233.009	125.06
233.243	139.06
233.477	122.06
233.711	143.06
233.945	125.06
234.179	130.06
234.413	117.06
234.647	117.06
234.881	125.06
235.115	134.06
235.349	128.06
235.583	145.06
235.817	124.06
236.051	127.06
236.285	134.06
236.519	128.06
236.753	124.06
236.987	139.06
237.221	180.06
237.455	213.06
237.689	166.06
237.922	154.06
238.156	144.06
238.39	133.06
238.624	143.06
238.858	135.06
239.091	128.06
239.325	120.06
239.559	120.06
239.793	147.06
240.027	134.06
240.26	160.06
240.494	139.06
240.728	148.06
240.961	149.06
241.195	159.06
241.429	155.06
241.662	142.06
241.896	136.06
242.13	153.06
242.363	134.06
242.597	166.06
242.83	151.06
243.064	163.06
243.298	142.06
243.531	138.06
243.765	147.06
243.998	137.06
244.232	145.06
244.465	158.06
244.699	164.06
244.932	159.06
245.166	153.06
245.399	165.06
245.633	170.06
245.866	171.06
246.099	161.06
246.333	163.06
246.566	176.06
246.8	157.06
247.033	183.06
247.266	185.06
247.5	170.06
247.733	192.06
247.966	181.06
248.2	195.06
248.433	186.06
248.666	196.06
248.899	188.06
249.133	218.06
249.366	229.06
249.599	209.06
249.832	198.06
250.066	181.06
250.299	205.06
250.532	202.06
250.765	221.06
250.998	255.06
251.231	232.06
251.465	215.06
251.698	201.06
251.931	208.06
252.164	211.06
252.397	210.06
252.63	220.06
252.863	216.06
253.096	224.06
253.329	247.06
253.562	257.06
253.795	229.06
254.028	214.06
254.261	225.06
254.494	226.06
254.727	263.06
254.96	268.06
255.193	263.06
255.426	261.06
255.659	248.06
255.892	251.06
256.124	249.06
256.357	259.06
256.59	251.06
256.823	247.06
257.056	245.06
257.289	226.06
257.521	228.06
257.754	238.06
257.987	222.06
258.22	249.06
258.452	255.06
258.685	222.06
258.918	232.06
259.151	240.06
259.383	247.06
259.616	250.06
259.849	234.06
260.081	257.06
260.314	262.06
260.547	276.06
260.779	261.06
261.012	232.06
261.244	251.06
261.477	250.06
261.71	251.06
261.942	242.06
262.175	247.06
262.407	264.06
262.64	222.06
262.872	235.06
263.105	226.06
263.337	236.06
263.57	244.06
263.802	237.06
264.035	244.06
264.267	233.06
264.499	254.06
264.732	255.06
264.964	250.06
265.197	232.06
265.429	253.06
265.661	252.06
265.894	238.06
266.126	250.06
266.358	237.06
266.591	253.06
266.823	245.06
267.055	260.06
267.287	270.06
267.52	261.06
267.752	271.06
267.984	261.06
268.216	254.06
268.448	269.06
268.681	273.06
268.913	271.06
269.145	289.06
269.377	279.06
269.609	281.06
269.841	300.06
270.073	284.06
270.306	299.06
270.538	325.06
270.77	318.06
271.002	318.06
271.234	312.06
271.466	322.06
271.698	323.06
271.93	332.06
272.162	340.06
272.394	322.06
272.626	315.06
272.858	308.06
273.09	310.06
273.322	312.06
273.553	299.06
273.785	285.06
274.017	316.06
274.249	287.06
274.481	312.06
274.713	297.06
274.945	306.06
275.176	306.06
275.408	310.06
275.64	315.06
275.872	312.06
276.104	313.06
276.335	308.06
276.567	316.06
276.799	296.06
277.031	331.06
277.262	343.06
277.494	342.06
277.726	334.06
277.957	335.06
278.189	316.06
278.421	324.06
278.652	315.06
278.884	321.06
279.115	304.06
279.347	303.06
279.579	308.06
279.81	319.06
280.042	321.06
280.273	318.06
280.505	324.06
280.736	322.06
280.968	310.06
281.199	326.06
281.431	314.06
281.662	320.06
281.894	328.06
282.125	300.06
282.356	335.06
282.588	344.06
282.819	340.06
283.051	328.06
283.282	344.06
283.513	328.06
283.745	336.06
283.976	318.06
284.207	326.06
284.439	342.06
284.67	343.06
284.901	339.06
285.132	325.06
285.364	328.06
285.595	332.06
285.826	339.06
286.057	339.06
286.288	340.06
286.52	356.06
286.751	325.06
286.982	347.06
287.213	337.06
287.444	331.06
287.675	344.06
287.906	337.06
288.138	373.06
288.369	375.06
288.6	364.06
288.831	367.06
289.062	365.06
289.293	342.06
289.524	373.06
289.755	347.06
289.986	353.06
290.217	339.06
290.448	352.06
290.679	359.06
290.91	360.06
291.141	355.06
291.371	366.06
291.602	363.06
291.833	363.06
292.064	357.06
292.295	367.06
292.526	362.06
292.757	359.06
292.987	352.06
293.218	354.06
293.449	362.06
293.68	349.06
293.91	363.06
294.141	347.06
294.372	377.06
294.603	364.06
294.833	380.06
295.064	366.06
295.295	378.06
295.525	370.06
295.756	366.06
295.987	361.06
296.217	385.06
296.448	390.06
296.679	378.06
296.909	362.06
297.14	380.06
297.37	382.06
297.601	386.06
297.831	396.06
298.062	379.06
298.292	372.06
298.523	399.06
298.753	401.06
298.984	397.06
299.214	400.06
299.445	403.06
299.675	385.06
299.905	388.06
300.136	393.06
300.366	384.06
300.597	391.06
300.827	410.06
301.057	418.06
301.288	436.06
301.518	410.06
301.748	432.06
301.979	427.06
302.209	412.06
302.439	416.06
302.669	422.06
302.9	411.06
303.13	429.06
303.36	421.06
303.59	419.06
303.82	404.06
304.051	421.06
304.281	400.06
304.511	400.06
304.741	408.06
304.971	410.06
305.201	391.06
305.431	410.06
305.661	402.06
305.891	409.06
306.121	404.06
306.352	413.06
306.582	405.06
306.812	414.06
307.042	395.06
307.272	394.06
307.502	409.06
307.731	420.06
307.961	412.06
308.191	429.06
308.421	415.06
308.651	415.06
308.881	404.06
309.111	418.06
309.341	404.06
309.571	415.06
309.8	427.06
310.03	427.06
310.26	436.06
310.49	428.06
310.72	460.06
310.949	459.06
311.179	446.06
311.409	455.06
311.639	450.06
311.868	468.06
312.098	454.06
312.328	469.06
312.557	453.06
312.787	436.06
313.017	466.06
313.246	468.06
313.476	440.06
313.706	454.06
313.935	455.06
314.165	460.06
314.394	488.06
314.624	470.06
314.853	463.06
315.083	464.06
315.312	459.06
315.542	459.06
315.771	443.06
316.001	442.06
316.23	444.06
316.46	471.06
316.689	456.06
316.919	454.06
317.148	458.06
317.377	470.06
317.607	459.06
317.836	447.06
318.065	444.06
318.295	443.06
318.524	443.06
318.753	456.06
318.983	441.06
319.212	452.06
319.441	452.06
319.67	468.06
319.9	447.06
320.129	474.06
320.358	465.06
320.587	466.06
320.816	443.06
321.046	453.06
321.275	456.06
321.504	465.06
321.733	474.06
321.962	471.06
322.191	455.06
322.42	481.06
322.649	493.06
322.878	499.06
323.108	486.06
323.337	522.06
323.566	529.06
323.795	517.06
324.024	572.06
324.253	638.06
324.482	812.06
324.71	1154.06
324.939	1687.06
325.168	1448.06
325.397	826.06
325.626	629.06
325.855	558.06
326.084	549.06
326.313	555.06
326.542	540.06
326.77	564.06
326.999	635.06
327.228	786.06
327.457	1108.06
327.686	1325.06
327.914	922.06
328.143	658.06
328.372	622.06
328.6	592.06
328.829	582.06
329.058	578.06
329.287	594.06
329.515	578.06
329.744	547.06
329.972	549.06
330.201	576.06
330.43	599.06
330.658	611.06
330.887	600.06
331.115	636.06
331.344	597.06
331.572	562.06
331.801	560.06
332.03	542.06
332.258	562.06
332.486	587.06
332.715	556.06
332.943	598.06
333.172	590.06
333.4	596.06
333.629	614.06
333.857	635.06
334.085	621.06
334.314	640.06
334.542	672.06
334.771	656.06
334.999	639.06
335.227	597.06
335.455	588.06
335.684	596.06
335.912	570.06
336.14	564.06
336.369	593.06
336.597	582.06
336.825	580.06
337.053	593.06
337.281	567.06
337.51	555.06
337.738	540.06
337.966	548.06
338.194	516.06
338.422	543.06
338.65	552.06
338.878	540.06
339.106	514.06
339.334	536.06
339.562	548.06
339.79	542.06
340.018	539.06
340.246	532.06
340.474	506.06
340.702	534.06
340.93	542.06
341.158	527.06
341.386	563.06
341.614	530.06
341.842	540.06
342.07	533.06
342.298	536.06
342.526	519.06
342.754	506.06
342.981	508.06
343.209	514.06
343.437	550.06
343.665	545.06
343.893	566.06
344.12	588.06
344.348	575.06
344.576	553.06
344.804	558.06
345.031	554.06
345.259	555.06
345.487	511.06
345.714	526.06
345.942	522.06
346.17	514.06
346.397	506.06
346.625	521.06
346.853	513.06
347.08	488.06
347.308	533.06
347.535	512.06
347.763	506.06
347.99	505.06
348.218	520.06
348.445	504.06
348.673	513.06
348.9	504.06
349.128	524.06
349.355	494.06
349.583	491.06
349.81	490.06
350.037	506.06
350.265	495.06
350.492	490.06
350.72	501.06
350.947	495.06
351.174	519.06
351.402	512.06
351.629	489.06
351.856	494.06
352.083	480.06
352.311	501.06
352.538	519.06
352.765	514.06
352.992	523.06
353.22	476.06
353.447	499.06
353.674	498.06
353.901	487.06
354.128	488.06
354.355	476.06
354.583	488.06
354.81	494.06
355.037	483.06
355.264	492.06
355.491	477.06
355.718	475.06
355.945	490.06
356.172	464.06
356.399	487.06
356.626	478.06
356.853	477.06
357.08	477.06
357.307	484.06
357.534	481.06
357.761	477.06
357.988	487.06
358.215	487.06
358.441	483.06
358.668	483.06
358.895	494.06
359.122	486.06
359.349	499.06
359.576	488.06
359.802	499.06
360.029	523.06
360.256	539.06
360.483	538.06
360.709	519.06
360.936	524.06
361.163	492.06
361.39	506.06
361.616	493.06
361.843	519.06
362.07	507.06
362.296	512.06
362.523	498.06
362.749	477.06
362.976	514.06
363.203	483.06
363.429	486.06
363.656	499.06
363.882	466.06
364.109	492.06
364.335	488.06
364.562	480.06
364.788	490.06
365.015	494.06
365.241	481.06
365.468	515.06
365.694	489.06
365.92	502.06
366.147	495.06
366.373	494.06
366.599	505.06
366.826	499.06
367.052	493.06
367.278	470.06
367.505	530.06
367.731	489.06
367.957	482.06
368.184	484.06
368.41	484.06
368.636	501.06
368.862	512.06
369.089	523.06
369.315	529.06
369.541	500.06
369.767	485.06
369.993	490.06
370.219	486.06
370.445	501.06
370.672	514.06
370.898	516.06
371.124	523.06
371.35	519.06
371.576	506.06
371.802	516.06
372.028	510.06
372.254	516.06
372.48	509.06
372.706	543.06
372.932	516.06
373.158	540.06
373.384	554.06
373.61	520.06
373.835	509.06
374.061	501.06
374.287	522.06
374.513	506.06
374.739	543.06
374.965	544.06
375.191	557.06
375.416	550.06
375.642	512.06
375.868	562.06
376.094	543.06
376.319	512.06
376.545	528.06
376.771	510.06
376.997	535.06
377.222	503.06
377.448	508.06
377.674	521.06
377.899	487.06
378.125	485.06
378.35	518.06
378.576	498.06
378.802	487.06
379.027	508.06
379.253	514.06
379.478	504.06
379.704	492.06
379.929	507.06
380.155	493.06
380.38	529.06
380.606	542.06
380.831	526.06
381.057	516.06
381.282	503.06
381.507	524.06
381.733	524.06
381.958	532.06
382.184	514.06
382.409	504.06
382.634	535.06
382.86	524.06
383.085	524.06
383.31	537.06
383.535	542.06
383.761	561.06
383.986	555.06
384.211	550.06
384.436	573.06
384.662	570.06
384.887	574.06
385.112	586.06
385.337	603.06
385.562	593.06
385.787	586.06
386.013	601.06
386.238	602.06
386.463	597.06
386.688	602.06
386.913	602.06
387.138	576.06
387.363	576.06
387.588	588.06
387.813	592.06
388.038	600.06
388.263	592.06
388.488	613.06
388.713	596.06
388.938	588.06
389.163	566.06
389.387	585.06
389.612	580.06
389.837	576.06
390.062	576.06
390.287	591.06
390.512	614.06
390.736	602.06
390.961	590.06
391.186	605.06
391.411	600.06
391.636	637.06
391.86	634.06
392.085	644.06
392.31	664.06
392.534	636.06
392.759	615.06
392.984	605.06
393.208	621.06
393.433	596.06
393.658	624.06
393.882	613.06
394.107	608.06
394.331	588.06
394.556	620.06
394.78	627.06
395.005	624.06
395.229	640.06
395.454	621.06
395.678	633.06
395.903	658.06
396.127	631.06
396.352	669.06
396.576	632.06
396.801	617.06
397.025	644.06
397.249	627.06
397.474	646.06
397.698	644.06
397.922	667.06
398.147	682.06
398.371	662.06
398.595	686.06
398.82	703.06
399.044	746.06
399.268	763.06
399.492	866.06
399.717	933.06
399.941	951.06
400.165	937.06
400.389	851.06
400.613	813.06
400.837	754.06
401.062	718.06
401.286	726.06
401.51	718.06
401.734	716.06
401.958	731.06
402.182	727.06
402.406	729.06
402.63	747.06
402.854	739.06
403.078	742.06
403.302	775.06
403.526	755.06
403.75	777.06
403.974	774.06
404.198	774.06
404.422	771.06
404.645	792.06
404.869	800.06
405.093	814.06
405.317	853.06
405.541	863.06
405.765	819.06
405.988	784.06
406.212	793.06
406.436	822.06
406.66	834.06
406.883	803.06
407.107	830.06
407.331	890.06
407.555	943.06
407.778	939.06
408.002	910.06
408.226	826.06
408.449	815.06
408.673	790.06
408.896	822.06
409.12	854.06
409.344	837.06
409.567	756.06
409.791	772.06
410.014	761.06
410.238	737.06
410.461	744.06
410.685	723.06
410.908	792.06
411.132	775.06
411.355	772.06
411.578	774.06
411.802	758.06
412.025	737.06
412.249	739.06
412.472	740.06
412.695	798.06
412.919	776.06
413.142	734.06
413.365	727.06
413.589	730.06
413.812	708.06
414.035	700.06
414.258	701.06
414.482	710.06
414.705	700.06
414.928	693.06
415.151	720.06
415.374	712.06
415.597	689.06
415.821	675.06
416.044	682.06
416.267	700.06
416.49	675.06
416.713	682.06
416.936	693.06
417.159	687.06
417.382	712.06
417.605	698.06
417.828	694.06
418.051	727.06
418.274	719.06
418.497	706.06
418.72	707.06
418.943	699.06
419.166	728.06
419.389	793.06
419.611	772.06
419.834	758.06
420.057	752.06
420.28	735.06
420.503	694.06
420.726	718.06
420.948	732.06
421.171	759.06
421.394	800.06
421.617	709.06
421.839	690.06
422.062	725.06
422.285	713.06
422.507	772.06
422.73	824.06
422.953	826.06
423.175	757.06
423.398	749.06
423.621	747.06
423.843	760.06
424.066	765.06
424.288	770.06
424.511	772.06
424.733	821.06
424.956	866.06
425.178	818.06
425.401	832.06
425.623	821.06
425.846	757.06
426.068	718.06
426.291	710.06
426.513	723.06
426.735	711.06
426.958	762.06
427.18	821.06
427.402	946.06
427.625	965.06
427.847	858.06
428.069	780.06
428.292	730.06
428.514	709.06
428.736	660.06
428.958	684.06
429.181	663.06
429.403	632.06
429.625	658.06
429.847	682.06
430.069	728.06
430.292	738.06
430.514	686.06
430.736	651.06
430.958	651.06
431.18	668.06
431.402	645.06
431.624	644.06
431.846	648.06
432.068	676.06
432.29	652.06
432.512	648.06
432.734	648.06
432.956	664.06
433.178	652.06
433.4	648.06
433.622	668.06
433.844	668.06
434.066	654.06
434.287	657.06
434.509	679.06
434.731	666.06
434.953	702.06
435.175	718.06
435.397	750.06
435.618	727.06
435.84	749.06
436.062	814.06
436.284	850.06
436.505	748.06
436.727	700.06
436.949	682.06
437.17	652.06
437.392	660.06
437.614	686.06
437.835	662.06
438.057	752.06
438.278	833.06
438.5	814.06
438.721	892.06
438.943	856.06
439.165	734.06
439.386	699.06
439.608	711.06
439.829	700.06
440.05	716.06
440.272	743.06
440.493	708.06
440.715	713.06
440.936	669.06
441.158	696.06
441.379	700.06
441.6	717.06
441.822	737.06
442.043	784.06
442.264	812.06
442.486	840.06
442.707	755.06
442.928	717.06
443.149	762.06
443.371	762.06
443.592	795.06
443.813	863.06
444.034	926.06
444.255	826.06
444.476	767.06
444.698	795.06
444.919	817.06
445.14	931.06
445.361	839.06
445.582	779.06
445.803	809.06
446.024	874.06
446.245	892.06
446.466	805.06
446.687	732.06
446.908	719.06
447.129	662.06
447.35	652.06
447.571	647.06
447.792	632.06
448.013	649.06
448.234	667.06
448.455	683.06
448.675	771.06
448.896	863.06
449.117	787.06
449.338	741.06
449.559	836.06
449.779	877.06
450	753.06
450.221	670.06
450.442	649.06
450.662	627.06
450.883	654.06
451.104	630.06
451.324	628.06
451.545	625.06
451.766	612.06
451.986	591.06
452.207	596.06
452.428	613.06
452.648	598.06
452.869	607.06
453.089	604.06
453.31	622.06
453.53	598.06
453.751	608.06
453.971	586.06
454.192	602.06
454.412	569.06
454.633	571.06
454.853	580.06
455.073	571.06
455.294	616.06
455.514	656.06
455.734	634.06
455.955	573.06
456.175	576.06
456.395	579.06
456.616	566.06
456.836	548.06
457.056	570.06
457.276	554.06
457.497	570.06
457.717	574.06
457.937	582.06
458.157	575.06
458.377	571.06
458.598	605.06
458.818	657.06
459.038	712.06
459.258	735.06
459.478	672.06
459.698	668.06
459.918	672.06
460.138	715.06
460.358	696.06
460.578	716.06
460.798	714.06
461.018	718.06
461.238	711.06
461.458	708.06
461.678	712.06
461.898	725.06
462.118	734.06
462.338	746.06
462.558	786.06
462.777	785.06
462.997	828.06
463.217	873.06
463.437	862.06
463.657	852.06
463.876	804.06
464.096	809.06
464.316	795.06
464.536	795.06
464.755	781.06
464.975	750.06
465.195	767.06
465.414	813.06
465.634	746.06
465.854	683.06
466.073	642.06
466.293	649.06
466.512	673.06
466.732	626.06
466.951	622.06
467.171	639.06
467.391	631.06
467.61	627.06
467.829	634.06
468.049	650.06
468.268	613.06
468.488	613.06
468.707	598.06
468.927	611.06
469.146	598.06
469.365	605.06
469.585	616.06
469.804	615.06
470.023	635.06
470.243	641.06
470.462	652.06
470.681	672.06
470.901	650.06
471.12	621.06
471.339	638.06
471.558	603.06
471.777	624.06
471.997	619.06
472.216	619.06
472.435	653.06
472.654	634.06
472.873	624.06
473.092	628.06
473.311	605.06
473.53	611.06
473.749	609.06
473.968	621.06
474.187	730.06
474.406	700.06
474.625	640.06
474.844	612.06
475.063	606.06
475.282	618.06
475.501	620.06
475.72	615.06
475.939	634.06
476.158	638.06
476.377	629.06
476.596	632.06
476.814	647.06
477.033	650.06
477.252	642.06
477.471	653.06
477.69	674.06
477.908	694.06
478.127	702.06
478.346	714.06
478.564	684.06
478.783	736.06
479.002	746.06
479.22	758.06
479.439	747.06
479.658	743.06
479.876	750.06
480.095	756.06
480.313	786.06
480.532	798.06
480.751	807.06
480.969	805.06
481.188	848.06
481.406	854.06
481.624	760.06
481.843	733.06
482.061	739.06
482.28	732.06
482.498	715.06
482.717	710.06
482.935	738.06
483.153	720.06
483.372	711.06
483.59	726.06
483.808	734.06
484.027	740.06
484.245	740.06
484.463	735.06
484.681	726.06
484.9	727.06
485.118	727.06
485.336	743.06
485.554	764.06
485.772	736.06
485.99	733.06
486.209	769.06
486.427	762.06
486.645	755.06
486.863	780.06
487.081	786.06
487.299	749.06
487.517	763.06
487.735	758.06
487.953	782.06
488.171	768.06
488.389	779.06
488.607	743.06
488.825	769.06
489.043	750.06
489.261	752.06
489.479	779.06
489.696	774.06
489.914	791.06
490.132	790.06
490.35	786.06
490.568	796.06
490.786	796.06
491.003	817.06
491.221	844.06
491.439	854.06
491.657	859.06
491.874	839.06
492.092	856.06
492.31	852.06
492.527	854.06
492.745	869.06
492.963	868.06
493.18	863.06
493.398	882.06
493.615	872.06
493.833	884.06
494.05	886.06
494.268	907.06
494.485	900.06
494.703	894.06
494.92	859.06
495.138	854.06
495.355	885.06
495.573	919.06
495.79	898.06
496.008	890.06
496.225	876.06
496.442	884.06
496.66	906.06
496.877	921.06
497.094	918.06
497.312	920.06
497.529	972.06
497.746	949.06
497.963	964.06
498.181	997.06
498.398	1003.06
498.615	1088.06
498.832	1129.06
499.049	1149.06
499.267	1212.06
499.484	1334.06
499.701	1382.06
499.918	1509.06
500.135	1637.06
500.352	1748.06
500.569	1853.06
500.786	1832.06
501.003	1760.06
501.22	1656.06
501.437	1546.06
501.654	1408.06
