Data from 1963.PennyLincolnUp.Lamp.En5.5.200Scan.071719.P1._HRD10591_13-58-12-062.txt Node
Date: Thu Jul 18 13:58:12 EDT 2019
User: cochatt
Spectrometer: HR+D1059
Trigger mode: 1
Integration Time (sec): 1.000000E-1
Scans to average: 1
Electric dark correction enabled: true
Nonlinearity correction enabled: false
Boxcar width: 0
XAxis mode: Wavelengths
Number of Pixels in Spectrum: 2048
>>>>>Begin Spectral Data<<<<<
223.165	-9.19
223.4	-9.19
223.635	-9.19
223.869	-17.19
224.104	-25.19
224.338	-20.19
224.573	-16.19
224.808	-2.19
225.042	-24.19
225.277	0.81
225.511	3.81
225.746	1.81
225.98	6.81
226.215	8.81
226.449	20.81
226.683	18.81
226.918	25.81
227.152	26.81
227.387	34.81
227.621	38.81
227.856	36.81
228.09	50.81
228.324	55.81
228.559	56.81
228.793	69.81
229.027	90.81
229.262	99.81
229.496	107.81
229.73	133.81
229.964	141.81
230.199	119.81
230.433	119.81
230.667	125.81
230.901	103.81
231.136	106.81
231.37	124.81
231.604	113.81
231.838	111.81
232.072	129.81
232.306	125.81
232.541	110.81
232.775	121.81
233.009	121.81
233.243	118.81
233.477	117.81
233.711	116.81
233.945	129.81
234.179	128.81
234.413	125.81
234.647	123.81
234.881	122.81
235.115	130.81
235.349	118.81
235.583	127.81
235.817	124.81
236.051	133.81
236.285	139.81
236.519	118.81
236.753	141.81
236.987	155.81
237.221	155.81
237.455	191.81
237.689	189.81
237.922	140.81
238.156	152.81
238.39	144.81
238.624	149.81
238.858	144.81
239.091	143.81
239.325	138.81
239.559	131.81
239.793	151.81
240.027	126.81
240.26	153.81
240.494	159.81
240.728	154.81
240.961	147.81
241.195	142.81
241.429	155.81
241.662	148.81
241.896	148.81
242.13	150.81
242.363	145.81
242.597	143.81
242.83	166.81
243.064	149.81
243.298	154.81
243.531	143.81
243.765	160.81
243.998	155.81
244.232	160.81
244.465	165.81
244.699	158.81
244.932	158.81
245.166	166.81
245.399	157.81
245.633	174.81
245.866	166.81
246.099	169.81
246.333	181.81
246.566	177.81
246.8	174.81
247.033	182.81
247.266	176.81
247.5	167.81
247.733	174.81
247.966	184.81
248.2	198.81
248.433	198.81
248.666	169.81
248.899	196.81
249.133	220.81
249.366	200.81
249.599	185.81
249.832	187.81
250.066	200.81
250.299	193.81
250.532	198.81
250.765	215.81
250.998	212.81
251.231	227.81
251.465	215.81
251.698	192.81
251.931	222.81
252.164	205.81
252.397	216.81
252.63	224.81
252.863	212.81
253.096	217.81
253.329	230.81
253.562	231.81
253.795	230.81
254.028	224.81
254.261	210.81
254.494	245.81
254.727	233.81
254.96	263.81
255.193	233.81
255.426	237.81
255.659	236.81
255.892	245.81
256.124	227.81
256.357	243.81
256.59	235.81
256.823	228.81
257.056	217.81
257.289	240.81
257.521	224.81
257.754	217.81
257.987	229.81
258.22	233.81
258.452	232.81
258.685	219.81
258.918	227.81
259.151	221.81
259.383	244.81
259.616	230.81
259.849	241.81
260.081	243.81
260.314	257.81
260.547	264.81
260.779	277.81
261.012	241.81
261.244	240.81
261.477	250.81
261.71	257.81
261.942	225.81
262.175	272.81
262.407	251.81
262.64	252.81
262.872	245.81
263.105	222.81
263.337	230.81
263.57	263.81
263.802	251.81
264.035	233.81
264.267	241.81
264.499	235.81
264.732	233.81
264.964	244.81
265.197	241.81
265.429	243.81
265.661	237.81
265.894	224.81
266.126	265.81
266.358	245.81
266.591	249.81
266.823	263.81
267.055	265.81
267.287	240.81
267.52	259.81
267.752	248.81
267.984	257.81
268.216	255.81
268.448	260.81
268.681	269.81
268.913	282.81
269.145	269.81
269.377	278.81
269.609	309.81
269.841	279.81
270.073	261.81
270.306	314.81
270.538	309.81
270.77	314.81
271.002	321.81
271.234	303.81
271.466	315.81
271.698	325.81
271.93	323.81
272.162	324.81
272.394	301.81
272.626	300.81
272.858	311.81
273.09	302.81
273.322	295.81
273.553	295.81
273.785	270.81
274.017	287.81
274.249	295.81
274.481	288.81
274.713	299.81
274.945	286.81
275.176	292.81
275.408	300.81
275.64	298.81
275.872	309.81
276.104	307.81
276.335	292.81
276.567	299.81
276.799	319.81
277.031	309.81
277.262	338.81
277.494	323.81
277.726	324.81
277.957	308.81
278.189	304.81
278.421	300.81
278.652	323.81
278.884	325.81
279.115	331.81
279.347	327.81
279.579	309.81
279.81	310.81
280.042	312.81
280.273	316.81
280.505	301.81
280.736	334.81
280.968	313.81
281.199	316.81
281.431	330.81
281.662	332.81
281.894	311.81
282.125	316.81
282.356	337.81
282.588	329.81
282.819	340.81
283.051	324.81
283.282	307.81
283.513	321.81
283.745	327.81
283.976	338.81
284.207	337.81
284.439	325.81
284.67	314.81
284.901	340.81
285.132	342.81
285.364	337.81
285.595	333.81
285.826	335.81
286.057	319.81
286.288	313.81
286.52	361.81
286.751	343.81
286.982	338.81
287.213	348.81
287.444	347.81
287.675	337.81
287.906	350.81
288.138	336.81
288.369	348.81
288.6	363.81
288.831	340.81
289.062	376.81
289.293	371.81
289.524	360.81
289.755	355.81
289.986	348.81
290.217	357.81
290.448	366.81
290.679	385.81
290.91	350.81
291.141	348.81
291.371	364.81
291.602	353.81
291.833	357.81
292.064	340.81
292.295	355.81
292.526	353.81
292.757	347.81
292.987	356.81
293.218	342.81
293.449	367.81
293.68	367.81
293.91	356.81
294.141	345.81
294.372	367.81
294.603	360.81
294.833	353.81
295.064	358.81
295.295	344.81
295.525	355.81
295.756	369.81
295.987	377.81
296.217	380.81
296.448	354.81
296.679	371.81
296.909	387.81
297.14	357.81
297.37	373.81
297.601	368.81
297.831	375.81
298.062	381.81
298.292	386.81
298.523	368.81
298.753	391.81
298.984	378.81
299.214	394.81
299.445	390.81
299.675	398.81
299.905	382.81
300.136	394.81
300.366	396.81
300.597	372.81
300.827	377.81
301.057	404.81
301.288	414.81
301.518	393.81
301.748	388.81
301.979	408.81
302.209	413.81
302.439	401.81
302.669	398.81
302.9	414.81
303.13	401.81
303.36	415.81
303.59	407.81
303.82	407.81
304.051	418.81
304.281	412.81
304.511	400.81
304.741	411.81
304.971	411.81
305.201	407.81
305.431	399.81
305.661	391.81
305.891	410.81
306.121	391.81
306.352	406.81
306.582	393.81
306.812	415.81
307.042	397.81
307.272	416.81
307.502	422.81
307.731	406.81
307.961	401.81
308.191	437.81
308.421	402.81
308.651	420.81
308.881	419.81
309.111	417.81
309.341	418.81
309.571	419.81
309.8	420.81
310.03	400.81
310.26	427.81
310.49	441.81
310.72	433.81
310.949	443.81
311.179	445.81
311.409	440.81
311.639	435.81
311.868	439.81
312.098	452.81
312.328	432.81
312.557	435.81
312.787	447.81
313.017	471.81
313.246	464.81
313.476	417.81
313.706	443.81
313.935	452.81
314.165	469.81
314.394	460.81
314.624	454.81
314.853	469.81
315.083	486.81
315.312	442.81
315.542	435.81
315.771	445.81
316.001	448.81
316.23	432.81
316.46	454.81
316.689	460.81
316.919	437.81
317.148	462.81
317.377	464.81
317.607	463.81
317.836	440.81
318.065	435.81
318.295	417.81
318.524	435.81
318.753	422.81
318.983	435.81
319.212	445.81
319.441	432.81
319.67	437.81
319.9	441.81
320.129	452.81
320.358	468.81
320.587	456.81
320.816	445.81
321.046	467.81
321.275	454.81
321.504	444.81
321.733	447.81
321.962	463.81
322.191	506.81
322.42	480.81
322.649	479.81
322.878	474.81
323.108	481.81
323.337	502.81
323.566	511.81
323.795	517.81
324.024	552.81
324.253	595.81
324.482	773.81
324.71	1062.81
324.939	1512.81
325.168	1361.81
325.397	787.81
325.626	608.81
325.855	559.81
326.084	524.81
326.313	522.81
326.542	502.81
326.77	542.81
326.999	593.81
327.228	733.81
327.457	984.81
327.686	1201.81
327.914	864.81
328.143	635.81
328.372	614.81
328.6	599.81
328.829	557.81
329.058	539.81
329.287	559.81
329.515	560.81
329.744	563.81
329.972	551.81
330.201	545.81
330.43	568.81
330.658	589.81
330.887	604.81
331.115	591.81
331.344	553.81
331.572	554.81
331.801	554.81
332.03	543.81
332.258	535.81
332.486	544.81
332.715	554.81
332.943	575.81
333.172	593.81
333.4	588.81
333.629	624.81
333.857	622.81
334.085	635.81
334.314	608.81
334.542	636.81
334.771	649.81
334.999	619.81
335.227	603.81
335.455	585.81
335.684	569.81
335.912	565.81
336.14	559.81
336.369	553.81
336.597	556.81
336.825	559.81
337.053	585.81
337.281	559.81
337.51	515.81
337.738	522.81
337.966	552.81
338.194	537.81
338.422	535.81
338.65	547.81
338.878	528.81
339.106	544.81
339.334	534.81
339.562	536.81
339.79	511.81
340.018	527.81
340.246	519.81
340.474	512.81
340.702	528.81
340.93	520.81
341.158	502.81
341.386	514.81
341.614	493.81
341.842	507.81
342.07	500.81
342.298	519.81
342.526	499.81
342.754	510.81
342.981	506.81
343.209	517.81
343.437	517.81
343.665	556.81
343.893	574.81
344.12	595.81
344.348	579.81
344.576	574.81
344.804	555.81
345.031	540.81
345.259	533.81
345.487	526.81
345.714	483.81
345.942	513.81
346.17	488.81
346.397	489.81
346.625	503.81
346.853	494.81
347.08	515.81
347.308	507.81
347.535	499.81
347.763	477.81
347.99	523.81
348.218	506.81
348.445	509.81
348.673	517.81
348.9	499.81
349.128	489.81
349.355	486.81
349.583	470.81
349.81	494.81
350.037	471.81
350.265	467.81
350.492	461.81
350.72	508.81
350.947	489.81
351.174	493.81
351.402	521.81
351.629	481.81
351.856	493.81
352.083	488.81
352.311	512.81
352.538	508.81
352.765	503.81
352.992	506.81
353.22	484.81
353.447	452.81
353.674	488.81
353.901	483.81
354.128	464.81
354.355	467.81
354.583	462.81
354.81	480.81
355.037	486.81
355.264	459.81
355.491	504.81
355.718	465.81
355.945	490.81
356.172	472.81
356.399	480.81
356.626	478.81
356.853	483.81
357.08	484.81
357.307	484.81
357.534	461.81
357.761	450.81
357.988	479.81
358.215	503.81
358.441	486.81
358.668	471.81
358.895	487.81
359.122	488.81
359.349	481.81
359.576	497.81
359.802	508.81
360.029	503.81
360.256	527.81
360.483	504.81
360.709	489.81
360.936	489.81
361.163	473.81
361.39	485.81
361.616	492.81
361.843	477.81
362.07	476.81
362.296	510.81
362.523	501.81
362.749	494.81
362.976	506.81
363.203	484.81
363.429	477.81
363.656	468.81
363.882	468.81
364.109	489.81
364.335	481.81
364.562	480.81
364.788	492.81
365.015	484.81
365.241	465.81
365.468	483.81
365.694	481.81
365.92	462.81
366.147	491.81
366.373	470.81
366.599	479.81
366.826	476.81
367.052	463.81
367.278	489.81
367.505	477.81
367.731	471.81
367.957	484.81
368.184	485.81
368.41	487.81
368.636	488.81
368.862	530.81
369.089	495.81
369.315	502.81
369.541	488.81
369.767	481.81
369.993	500.81
370.219	487.81
370.445	504.81
370.672	480.81
370.898	495.81
371.124	503.81
371.35	519.81
371.576	495.81
371.802	522.81
372.028	494.81
372.254	480.81
372.48	522.81
372.706	507.81
372.932	511.81
373.158	536.81
373.384	519.81
373.61	513.81
373.835	528.81
374.061	517.81
374.287	545.81
374.513	528.81
374.739	528.81
374.965	539.81
375.191	532.81
375.416	548.81
375.642	525.81
375.868	525.81
376.094	524.81
376.319	511.81
376.545	504.81
376.771	511.81
376.997	493.81
377.222	505.81
377.448	521.81
377.674	503.81
377.899	496.81
378.125	499.81
378.35	495.81
378.576	488.81
378.802	481.81
379.027	509.81
379.253	494.81
379.478	515.81
379.704	507.81
379.929	514.81
380.155	535.81
380.38	506.81
380.606	503.81
380.831	507.81
381.057	521.81
381.282	509.81
381.507	489.81
381.733	529.81
381.958	499.81
382.184	506.81
382.409	521.81
382.634	528.81
382.86	533.81
383.085	525.81
383.31	534.81
383.535	534.81
383.761	528.81
383.986	551.81
384.211	548.81
384.436	565.81
384.662	576.81
384.887	593.81
385.112	593.81
385.337	587.81
385.562	584.81
385.787	595.81
386.013	622.81
386.238	608.81
386.463	611.81
386.688	591.81
386.913	565.81
387.138	579.81
387.363	580.81
387.588	584.81
387.813	569.81
388.038	553.81
388.263	579.81
388.488	612.81
388.713	570.81
388.938	593.81
389.163	569.81
389.387	587.81
389.612	573.81
389.837	570.81
390.062	591.81
390.287	580.81
390.512	559.81
390.736	590.81
390.961	585.81
391.186	591.81
391.411	619.81
391.636	613.81
391.86	611.81
392.085	641.81
392.31	643.81
392.534	639.81
392.759	632.81
392.984	597.81
393.208	617.81
393.433	603.81
393.658	618.81
393.882	605.81
394.107	618.81
394.331	614.81
394.556	593.81
394.78	616.81
395.005	613.81
395.229	608.81
395.454	632.81
395.678	637.81
395.903	615.81
396.127	645.81
396.352	649.81
396.576	606.81
396.801	621.81
397.025	609.81
397.249	625.81
397.474	641.81
397.698	631.81
397.922	638.81
398.147	679.81
398.371	657.81
398.595	669.81
398.82	695.81
399.044	734.81
399.268	759.81
399.492	843.81
399.717	919.81
399.941	945.81
400.165	896.81
400.389	847.81
400.613	813.81
400.837	729.81
401.062	697.81
401.286	690.81
401.51	695.81
401.734	703.81
401.958	712.81
402.182	715.81
402.406	715.81
402.63	721.81
402.854	747.81
403.078	725.81
403.302	750.81
403.526	738.81
403.75	752.81
403.974	760.81
404.198	756.81
404.422	766.81
404.645	756.81
404.869	746.81
405.093	783.81
405.317	825.81
405.541	842.81
405.765	781.81
405.988	768.81
406.212	779.81
406.436	805.81
406.66	802.81
406.883	752.81
407.107	841.81
407.331	859.81
407.555	933.81
407.778	933.81
408.002	861.81
408.226	823.81
408.449	798.81
408.673	804.81
408.896	798.81
409.12	841.81
409.344	796.81
409.567	755.81
409.791	741.81
410.014	727.81
410.238	743.81
410.461	737.81
410.685	747.81
410.908	737.81
411.132	744.81
411.355	783.81
411.578	741.81
411.802	707.81
412.025	719.81
412.249	742.81
412.472	741.81
412.695	791.81
412.919	763.81
413.142	704.81
413.365	691.81
413.589	695.81
413.812	712.81
414.035	674.81
414.258	685.81
414.482	699.81
414.705	712.81
414.928	677.81
415.151	673.81
415.374	690.81
415.597	684.81
415.821	673.81
416.044	683.81
416.267	688.81
416.49	673.81
416.713	671.81
416.936	687.81
417.159	663.81
417.382	684.81
417.605	681.81
417.828	680.81
418.051	725.81
418.274	705.81
418.497	675.81
418.72	711.81
418.943	667.81
419.166	711.81
419.389	790.81
419.611	768.81
419.834	734.81
420.057	741.81
420.28	718.81
420.503	691.81
420.726	693.81
420.948	710.81
421.171	762.81
421.394	757.81
421.617	714.81
421.839	711.81
422.062	683.81
422.285	723.81
422.507	759.81
422.73	816.81
422.953	789.81
423.175	728.81
423.398	719.81
423.621	747.81
423.843	724.81
424.066	749.81
424.288	734.81
424.511	750.81
424.733	795.81
424.956	827.81
425.178	840.81
425.401	787.81
425.623	815.81
425.846	753.81
426.068	732.81
426.291	713.81
426.513	719.81
426.735	707.81
426.958	731.81
427.18	778.81
427.402	903.81
427.625	927.81
427.847	804.81
428.069	734.81
428.292	710.81
428.514	665.81
428.736	636.81
428.958	651.81
429.181	649.81
429.403	640.81
429.625	663.81
429.847	665.81
430.069	686.81
430.292	695.81
430.514	643.81
430.736	627.81
430.958	643.81
431.18	645.81
431.402	640.81
431.624	638.81
431.846	640.81
432.068	635.81
432.29	638.81
432.512	632.81
432.734	657.81
432.956	625.81
433.178	647.81
433.4	675.81
433.622	646.81
433.844	643.81
434.066	627.81
434.287	649.81
434.509	666.81
434.731	693.81
434.953	677.81
435.175	709.81
435.397	737.81
435.618	711.81
435.84	725.81
436.062	734.81
436.284	801.81
436.505	732.81
436.727	705.81
436.949	643.81
437.17	663.81
437.392	645.81
437.614	675.81
437.835	678.81
438.057	737.81
438.278	794.81
438.5	784.81
438.721	853.81
438.943	837.81
439.165	709.81
439.386	677.81
439.608	693.81
439.829	679.81
440.05	692.81
440.272	723.81
440.493	698.81
440.715	679.81
440.936	675.81
441.158	639.81
441.379	653.81
441.6	688.81
441.822	698.81
442.043	725.81
442.264	793.81
442.486	823.81
442.707	745.81
442.928	729.81
443.149	731.81
443.371	745.81
443.592	744.81
443.813	822.81
444.034	878.81
444.255	812.81
444.476	778.81
444.698	781.81
444.919	798.81
445.14	885.81
445.361	808.81
445.582	756.81
445.803	777.81
446.024	796.81
446.245	842.81
446.466	781.81
446.687	725.81
446.908	678.81
447.129	633.81
447.35	644.81
447.571	624.81
447.792	641.81
448.013	623.81
448.234	650.81
448.455	642.81
448.675	768.81
448.896	845.81
449.117	745.81
449.338	705.81
449.559	787.81
449.779	875.81
450	734.81
450.221	646.81
450.442	616.81
450.662	609.81
450.883	631.81
451.104	612.81
451.324	609.81
451.545	611.81
451.766	608.81
451.986	583.81
452.207	577.81
452.428	581.81
452.648	592.81
452.869	573.81
453.089	574.81
453.31	602.81
453.53	588.81
453.751	582.81
453.971	573.81
454.192	573.81
454.412	568.81
454.633	585.81
454.853	571.81
455.073	559.81
455.294	563.81
455.514	637.81
455.734	605.81
455.955	563.81
456.175	545.81
456.395	559.81
456.616	549.81
456.836	552.81
457.056	544.81
457.276	542.81
457.497	568.81
457.717	571.81
457.937	557.81
458.157	558.81
458.377	564.81
458.598	612.81
458.818	639.81
459.038	697.81
459.258	701.81
459.478	658.81
459.698	646.81
459.918	659.81
460.138	661.81
460.358	700.81
460.578	713.81
460.798	705.81
461.018	706.81
461.238	697.81
461.458	707.81
461.678	676.81
461.898	749.81
462.118	728.81
462.338	717.81
462.558	739.81
462.777	782.81
462.997	811.81
463.217	843.81
463.437	856.81
463.657	848.81
463.876	807.81
464.096	759.81
464.316	781.81
464.536	791.81
464.755	758.81
464.975	776.81
465.195	761.81
465.414	772.81
465.634	713.81
465.854	669.81
466.073	632.81
466.293	656.81
466.512	637.81
466.732	632.81
466.951	596.81
467.171	606.81
467.391	620.81
467.61	626.81
467.829	622.81
468.049	617.81
468.268	613.81
468.488	597.81
468.707	581.81
468.927	589.81
469.146	591.81
469.365	594.81
469.585	588.81
469.804	606.81
470.023	641.81
470.243	622.81
470.462	643.81
470.681	624.81
470.901	635.81
471.12	622.81
471.339	627.81
471.558	629.81
471.777	589.81
471.997	611.81
472.216	589.81
472.435	627.81
472.654	635.81
472.873	605.81
473.092	585.81
473.311	581.81
473.53	604.81
473.749	611.81
473.968	648.81
474.187	667.81
474.406	675.81
474.625	631.81
474.844	613.81
475.063	592.81
475.282	584.81
475.501	602.81
475.72	621.81
475.939	612.81
476.158	617.81
476.377	620.81
476.596	614.81
476.814	628.81
477.033	627.81
477.252	649.81
477.471	629.81
477.69	651.81
477.908	676.81
478.127	698.81
478.346	685.81
478.564	725.81
478.783	714.81
479.002	716.81
479.22	735.81
479.439	737.81
479.658	718.81
479.876	733.81
480.095	758.81
480.313	791.81
480.532	778.81
480.751	779.81
480.969	784.81
481.188	802.81
481.406	821.81
481.624	776.81
481.843	727.81
482.061	713.81
482.28	718.81
482.498	681.81
482.717	687.81
482.935	693.81
483.153	704.81
483.372	702.81
483.59	708.81
483.808	713.81
484.027	701.81
484.245	703.81
484.463	707.81
484.681	721.81
484.9	699.81
485.118	715.81
485.336	735.81
485.554	716.81
485.772	727.81
485.99	725.81
486.209	756.81
486.427	745.81
486.645	731.81
486.863	759.81
487.081	760.81
487.299	757.81
487.517	739.81
487.735	751.81
487.953	752.81
488.171	757.81
488.389	735.81
488.607	755.81
488.825	750.81
489.043	723.81
489.261	739.81
489.479	766.81
489.696	765.81
489.914	762.81
490.132	777.81
490.35	775.81
490.568	773.81
490.786	760.81
491.003	775.81
491.221	829.81
491.439	795.81
491.657	825.81
491.874	808.81
492.092	833.81
492.31	827.81
492.527	820.81
492.745	833.81
492.963	857.81
493.18	837.81
493.398	848.81
493.615	864.81
493.833	875.81
494.05	829.81
494.268	861.81
494.485	868.81
494.703	864.81
494.92	860.81
495.138	853.81
495.355	847.81
495.573	878.81
495.79	864.81
496.008	880.81
496.225	896.81
496.442	861.81
496.66	880.81
496.877	871.81
497.094	872.81
497.312	887.81
497.529	899.81
497.746	934.81
497.963	966.81
498.181	982.81
498.398	1012.81
498.615	1089.81
498.832	1119.81
499.049	1114.81
499.267	1191.81
499.484	1307.81
499.701	1351.81
499.918	1446.81
500.135	1595.81
500.352	1732.81
500.569	1765.81
500.786	1715.81
501.003	1721.81
501.22	1591.81
501.437	1499.81
501.654	1402.81
501.871	1343.81
