Data from 1963.PennyLincolnUp.Lamp.En5.5.200Scan.071719.P1._HRD10591_13-59-06-063.txt Node
Date: Thu Jul 18 13:59:06 EDT 2019
User: cochatt
Spectrometer: HR+D1059
Trigger mode: 1
Integration Time (sec): 1.000000E-1
Scans to average: 1
Electric dark correction enabled: true
Nonlinearity correction enabled: false
Boxcar width: 0
XAxis mode: Wavelengths
Number of Pixels in Spectrum: 2048
>>>>>Begin Spectral Data<<<<<
223.165	-19.75
223.4	-19.75
223.635	-19.75
223.869	-23.75
224.104	-20.75
224.338	-8.75
224.573	-23.75
224.808	6.25
225.042	0.25
225.277	1.25
225.511	2.25
225.746	19.25
225.98	-7.75
226.215	15.25
226.449	11.25
226.683	7.25
226.918	15.25
227.152	26.25
227.387	16.25
227.621	36.25
227.856	52.25
228.09	43.25
228.324	47.25
228.559	51.25
228.793	72.25
229.027	103.25
229.262	115.25
229.496	110.25
229.73	111.25
229.964	149.25
230.199	136.25
230.433	129.25
230.667	121.25
230.901	111.25
231.136	107.25
231.37	121.25
231.604	120.25
231.838	110.25
232.072	120.25
232.306	125.25
232.541	115.25
232.775	127.25
233.009	112.25
233.243	118.25
233.477	124.25
233.711	124.25
233.945	131.25
234.179	111.25
234.413	126.25
234.647	125.25
234.881	126.25
235.115	126.25
235.349	129.25
235.583	121.25
235.817	120.25
236.051	144.25
236.285	134.25
236.519	111.25
236.753	131.25
236.987	151.25
237.221	178.25
237.455	212.25
237.689	165.25
237.922	158.25
238.156	156.25
238.39	141.25
238.624	140.25
238.858	156.25
239.091	145.25
239.325	130.25
239.559	135.25
239.793	136.25
240.027	139.25
240.26	150.25
240.494	169.25
240.728	167.25
240.961	170.25
241.195	127.25
241.429	144.25
241.662	157.25
241.896	156.25
242.13	143.25
242.363	154.25
242.597	154.25
242.83	154.25
243.064	152.25
243.298	150.25
243.531	162.25
243.765	154.25
243.998	157.25
244.232	166.25
244.465	159.25
244.699	156.25
244.932	181.25
245.166	169.25
245.399	157.25
245.633	162.25
245.866	143.25
246.099	148.25
246.333	165.25
246.566	170.25
246.8	159.25
247.033	167.25
247.266	161.25
247.5	188.25
247.733	175.25
247.966	186.25
248.2	180.25
248.433	177.25
248.666	191.25
248.899	212.25
249.133	207.25
249.366	200.25
249.599	205.25
249.832	207.25
250.066	206.25
250.299	192.25
250.532	215.25
250.765	224.25
250.998	243.25
251.231	226.25
251.465	220.25
251.698	226.25
251.931	206.25
252.164	204.25
252.397	222.25
252.63	197.25
252.863	221.25
253.096	230.25
253.329	236.25
253.562	244.25
253.795	244.25
254.028	227.25
254.261	249.25
254.494	233.25
254.727	258.25
254.96	279.25
255.193	262.25
255.426	258.25
255.659	237.25
255.892	244.25
256.124	259.25
256.357	278.25
256.59	234.25
256.823	235.25
257.056	240.25
257.289	241.25
257.521	247.25
257.754	247.25
257.987	221.25
258.22	232.25
258.452	227.25
258.685	230.25
258.918	229.25
259.151	239.25
259.383	228.25
259.616	254.25
259.849	240.25
260.081	243.25
260.314	256.25
260.547	276.25
260.779	262.25
261.012	250.25
261.244	260.25
261.477	258.25
261.71	246.25
261.942	245.25
262.175	240.25
262.407	243.25
262.64	246.25
262.872	242.25
263.105	232.25
263.337	236.25
263.57	245.25
263.802	242.25
264.035	250.25
264.267	252.25
264.499	230.25
264.732	250.25
264.964	244.25
265.197	258.25
265.429	244.25
265.661	255.25
265.894	267.25
266.126	258.25
266.358	258.25
266.591	260.25
266.823	252.25
267.055	267.25
267.287	276.25
267.52	258.25
267.752	274.25
267.984	284.25
268.216	267.25
268.448	266.25
268.681	270.25
268.913	279.25
269.145	298.25
269.377	298.25
269.609	284.25
269.841	292.25
270.073	287.25
270.306	328.25
270.538	339.25
270.77	356.25
271.002	329.25
271.234	320.25
271.466	332.25
271.698	350.25
271.93	354.25
272.162	322.25
272.394	361.25
272.626	333.25
272.858	314.25
273.09	327.25
273.322	301.25
273.553	312.25
273.785	316.25
274.017	291.25
274.249	308.25
274.481	305.25
274.713	304.25
274.945	322.25
275.176	308.25
275.408	320.25
275.64	302.25
275.872	318.25
276.104	302.25
276.335	336.25
276.567	311.25
276.799	340.25
277.031	357.25
277.262	346.25
277.494	357.25
277.726	331.25
277.957	325.25
278.189	323.25
278.421	311.25
278.652	316.25
278.884	314.25
279.115	324.25
279.347	332.25
279.579	323.25
279.81	325.25
280.042	314.25
280.273	330.25
280.505	325.25
280.736	333.25
280.968	310.25
281.199	326.25
281.431	332.25
281.662	319.25
281.894	359.25
282.125	333.25
282.356	341.25
282.588	348.25
282.819	355.25
283.051	340.25
283.282	342.25
283.513	332.25
283.745	340.25
283.976	348.25
284.207	359.25
284.439	342.25
284.67	334.25
284.901	345.25
285.132	330.25
285.364	328.25
285.595	336.25
285.826	361.25
286.057	350.25
286.288	364.25
286.52	376.25
286.751	336.25
286.982	380.25
287.213	347.25
287.444	355.25
287.675	360.25
287.906	362.25
288.138	368.25
288.369	382.25
288.6	374.25
288.831	364.25
289.062	361.25
289.293	349.25
289.524	365.25
289.755	357.25
289.986	328.25
290.217	382.25
290.448	365.25
290.679	350.25
290.91	392.25
291.141	351.25
291.371	366.25
291.602	356.25
291.833	361.25
292.064	358.25
292.295	351.25
292.526	354.25
292.757	374.25
292.987	382.25
293.218	365.25
293.449	368.25
293.68	349.25
293.91	357.25
294.141	364.25
294.372	366.25
294.603	391.25
294.833	379.25
295.064	378.25
295.295	364.25
295.525	386.25
295.756	374.25
295.987	384.25
296.217	403.25
296.448	397.25
296.679	389.25
296.909	385.25
297.14	379.25
297.37	379.25
297.601	394.25
297.831	368.25
298.062	392.25
298.292	396.25
298.523	393.25
298.753	390.25
298.984	415.25
299.214	386.25
299.445	384.25
299.675	390.25
299.905	396.25
300.136	407.25
300.366	395.25
300.597	407.25
300.827	403.25
301.057	414.25
301.288	413.25
301.518	424.25
301.748	427.25
301.979	412.25
302.209	413.25
302.439	429.25
302.669	411.25
302.9	403.25
303.13	405.25
303.36	419.25
303.59	414.25
303.82	409.25
304.051	422.25
304.281	424.25
304.511	422.25
304.741	411.25
304.971	423.25
305.201	404.25
305.431	411.25
305.661	430.25
305.891	421.25
306.121	418.25
306.352	429.25
306.582	420.25
306.812	443.25
307.042	423.25
307.272	410.25
307.502	415.25
307.731	426.25
307.961	417.25
308.191	388.25
308.421	428.25
308.651	432.25
308.881	413.25
309.111	413.25
309.341	428.25
309.571	381.25
309.8	427.25
310.03	445.25
310.26	444.25
310.49	440.25
310.72	454.25
310.949	459.25
311.179	463.25
311.409	457.25
311.639	446.25
311.868	447.25
312.098	457.25
312.328	442.25
312.557	460.25
312.787	474.25
313.017	474.25
313.246	477.25
313.476	473.25
313.706	464.25
313.935	473.25
314.165	468.25
314.394	455.25
314.624	479.25
314.853	482.25
315.083	455.25
315.312	478.25
315.542	448.25
315.771	483.25
316.001	465.25
316.23	440.25
316.46	450.25
316.689	454.25
316.919	469.25
317.148	471.25
317.377	448.25
317.607	463.25
317.836	470.25
318.065	453.25
318.295	451.25
318.524	459.25
318.753	448.25
318.983	464.25
319.212	454.25
319.441	475.25
319.67	474.25
319.9	452.25
320.129	458.25
320.358	471.25
320.587	466.25
320.816	442.25
321.046	473.25
321.275	473.25
321.504	467.25
321.733	458.25
321.962	476.25
322.191	491.25
322.42	501.25
322.649	500.25
322.878	503.25
323.108	526.25
323.337	542.25
323.566	536.25
323.795	550.25
324.024	541.25
324.253	642.25
324.482	806.25
324.71	1174.25
324.939	1671.25
325.168	1511.25
325.397	822.25
325.626	612.25
325.855	586.25
326.084	548.25
326.313	544.25
326.542	532.25
326.77	592.25
326.999	662.25
327.228	794.25
327.457	1121.25
327.686	1332.25
327.914	935.25
328.143	684.25
328.372	633.25
328.6	607.25
328.829	600.25
329.058	603.25
329.287	583.25
329.515	574.25
329.744	529.25
329.972	546.25
330.201	592.25
330.43	613.25
330.658	617.25
330.887	621.25
331.115	607.25
331.344	586.25
331.572	570.25
331.801	591.25
332.03	587.25
332.258	588.25
332.486	589.25
332.715	569.25
332.943	607.25
333.172	614.25
333.4	622.25
333.629	613.25
333.857	631.25
334.085	621.25
334.314	672.25
334.542	671.25
334.771	668.25
334.999	630.25
335.227	610.25
335.455	611.25
335.684	600.25
335.912	617.25
336.14	563.25
336.369	569.25
336.597	565.25
336.825	580.25
337.053	584.25
337.281	570.25
337.51	568.25
337.738	577.25
337.966	545.25
338.194	557.25
338.422	563.25
338.65	551.25
338.878	555.25
339.106	564.25
339.334	541.25
339.562	537.25
339.79	533.25
340.018	514.25
340.246	540.25
340.474	548.25
340.702	545.25
340.93	559.25
341.158	529.25
341.386	550.25
341.614	525.25
341.842	530.25
342.07	525.25
342.298	508.25
342.526	522.25
342.754	534.25
342.981	522.25
343.209	531.25
343.437	555.25
343.665	554.25
343.893	593.25
344.12	610.25
344.348	574.25
344.576	576.25
344.804	554.25
345.031	542.25
345.259	548.25
345.487	562.25
345.714	534.25
345.942	526.25
346.17	517.25
346.397	523.25
346.625	518.25
346.853	504.25
347.08	498.25
347.308	514.25
347.535	511.25
347.763	500.25
347.99	509.25
348.218	517.25
348.445	527.25
348.673	528.25
348.9	508.25
349.128	497.25
349.355	474.25
349.583	510.25
349.81	498.25
350.037	499.25
350.265	483.25
350.492	519.25
350.72	499.25
350.947	505.25
351.174	513.25
351.402	547.25
351.629	496.25
351.856	496.25
352.083	513.25
352.311	508.25
352.538	521.25
352.765	524.25
352.992	517.25
353.22	523.25
353.447	505.25
353.674	524.25
353.901	492.25
354.128	483.25
354.355	495.25
354.583	478.25
354.81	477.25
355.037	485.25
355.264	481.25
355.491	475.25
355.718	503.25
355.945	508.25
356.172	501.25
356.399	506.25
356.626	496.25
356.853	502.25
357.08	488.25
357.307	494.25
357.534	479.25
357.761	505.25
357.988	482.25
358.215	495.25
358.441	487.25
358.668	503.25
358.895	494.25
359.122	476.25
359.349	503.25
359.576	504.25
359.802	523.25
360.029	539.25
360.256	555.25
360.483	540.25
360.709	502.25
360.936	522.25
361.163	504.25
361.39	496.25
361.616	511.25
361.843	504.25
362.07	531.25
362.296	536.25
362.523	514.25
362.749	508.25
362.976	500.25
363.203	525.25
363.429	514.25
363.656	498.25
363.882	501.25
364.109	500.25
364.335	491.25
364.562	493.25
364.788	487.25
365.015	495.25
365.241	523.25
365.468	488.25
365.694	498.25
365.92	521.25
366.147	499.25
366.373	508.25
366.599	496.25
366.826	519.25
367.052	514.25
367.278	491.25
367.505	498.25
367.731	505.25
367.957	479.25
368.184	513.25
368.41	499.25
368.636	510.25
368.862	526.25
369.089	512.25
369.315	508.25
369.541	469.25
369.767	502.25
369.993	520.25
370.219	518.25
370.445	525.25
370.672	492.25
370.898	522.25
371.124	511.25
371.35	518.25
371.576	511.25
371.802	520.25
372.028	514.25
372.254	517.25
372.48	546.25
372.706	534.25
372.932	524.25
373.158	528.25
373.384	529.25
373.61	518.25
373.835	520.25
374.061	529.25
374.287	518.25
374.513	522.25
374.739	575.25
374.965	578.25
375.191	555.25
375.416	554.25
375.642	553.25
375.868	536.25
376.094	543.25
376.319	543.25
376.545	542.25
376.771	524.25
376.997	519.25
377.222	508.25
377.448	518.25
377.674	512.25
377.899	513.25
378.125	519.25
378.35	516.25
378.576	509.25
378.802	509.25
379.027	508.25
379.253	531.25
379.478	527.25
379.704	485.25
379.929	508.25
380.155	499.25
380.38	509.25
380.606	493.25
380.831	510.25
381.057	518.25
381.282	492.25
381.507	521.25
381.733	516.25
381.958	543.25
382.184	526.25
382.409	531.25
382.634	527.25
382.86	533.25
383.085	558.25
383.31	547.25
383.535	558.25
383.761	585.25
383.986	591.25
384.211	562.25
384.436	567.25
384.662	590.25
384.887	598.25
385.112	573.25
385.337	589.25
385.562	576.25
385.787	600.25
386.013	610.25
386.238	595.25
386.463	586.25
386.688	596.25
386.913	587.25
387.138	607.25
387.363	609.25
387.588	592.25
387.813	587.25
388.038	598.25
388.263	600.25
388.488	591.25
388.713	608.25
388.938	580.25
389.163	596.25
389.387	576.25
389.612	587.25
389.837	588.25
390.062	592.25
390.287	610.25
390.512	596.25
390.736	592.25
390.961	608.25
391.186	599.25
391.411	614.25
391.636	649.25
391.86	622.25
392.085	655.25
392.31	669.25
392.534	626.25
392.759	633.25
392.984	617.25
393.208	621.25
393.433	632.25
393.658	617.25
393.882	610.25
394.107	597.25
394.331	593.25
394.556	587.25
394.78	624.25
395.005	597.25
395.229	630.25
395.454	634.25
395.678	658.25
395.903	661.25
396.127	665.25
396.352	656.25
396.576	655.25
396.801	621.25
397.025	625.25
397.249	622.25
397.474	692.25
397.698	642.25
397.922	648.25
398.147	692.25
398.371	698.25
398.595	689.25
398.82	734.25
399.044	719.25
399.268	795.25
399.492	892.25
399.717	953.25
399.941	975.25
400.165	942.25
400.389	911.25
400.613	802.25
400.837	754.25
401.062	733.25
401.286	712.25
401.51	716.25
401.734	706.25
401.958	741.25
402.182	747.25
402.406	756.25
402.63	768.25
402.854	774.25
403.078	763.25
403.302	775.25
403.526	775.25
403.75	790.25
403.974	802.25
404.198	792.25
404.422	799.25
404.645	781.25
404.869	799.25
405.093	816.25
405.317	837.25
405.541	873.25
405.765	822.25
405.988	775.25
406.212	802.25
406.436	807.25
406.66	835.25
406.883	829.25
407.107	870.25
407.331	914.25
407.555	952.25
407.778	960.25
408.002	901.25
408.226	860.25
408.449	839.25
408.673	814.25
408.896	839.25
409.12	842.25
409.344	855.25
409.567	784.25
409.791	775.25
410.014	771.25
410.238	751.25
410.461	747.25
410.685	778.25
410.908	762.25
411.132	772.25
411.355	813.25
411.578	790.25
411.802	754.25
412.025	744.25
412.249	748.25
412.472	776.25
412.695	805.25
412.919	788.25
413.142	742.25
413.365	733.25
413.589	726.25
413.812	714.25
414.035	723.25
414.258	710.25
414.482	701.25
414.705	694.25
414.928	712.25
415.151	699.25
415.374	690.25
415.597	711.25
415.821	707.25
416.044	704.25
416.267	682.25
416.49	719.25
416.713	712.25
416.936	719.25
417.159	702.25
417.382	707.25
417.605	721.25
417.828	730.25
418.051	726.25
418.274	728.25
418.497	728.25
418.72	699.25
418.943	707.25
419.166	743.25
419.389	812.25
419.611	761.25
419.834	741.25
420.057	764.25
420.28	732.25
420.503	715.25
420.726	736.25
420.948	720.25
421.171	758.25
421.394	807.25
421.617	748.25
421.839	721.25
422.062	712.25
422.285	730.25
422.507	788.25
422.73	820.25
422.953	813.25
423.175	780.25
423.398	758.25
423.621	765.25
423.843	783.25
424.066	781.25
424.288	779.25
424.511	780.25
424.733	814.25
424.956	881.25
425.178	836.25
425.401	822.25
425.623	853.25
425.846	783.25
426.068	736.25
426.291	708.25
426.513	724.25
426.735	733.25
426.958	774.25
427.18	812.25
427.402	930.25
427.625	976.25
427.847	902.25
428.069	797.25
428.292	739.25
428.514	710.25
428.736	672.25
428.958	690.25
429.181	680.25
429.403	664.25
429.625	685.25
429.847	706.25
430.069	742.25
430.292	751.25
430.514	662.25
430.736	662.25
430.958	668.25
431.18	680.25
431.402	667.25
431.624	654.25
431.846	649.25
432.068	631.25
432.29	660.25
432.512	651.25
432.734	668.25
432.956	686.25
433.178	671.25
433.4	678.25
433.622	666.25
433.844	675.25
434.066	679.25
434.287	676.25
434.509	659.25
434.731	703.25
434.953	707.25
435.175	733.25
435.397	773.25
435.618	711.25
435.84	757.25
436.062	838.25
436.284	884.25
436.505	750.25
436.727	704.25
436.949	676.25
437.17	660.25
437.392	680.25
437.614	658.25
437.835	683.25
438.057	776.25
438.278	847.25
438.5	871.25
438.721	911.25
438.943	893.25
439.165	750.25
439.386	708.25
439.608	718.25
439.829	702.25
440.05	717.25
440.272	759.25
440.493	742.25
440.715	706.25
440.936	677.25
441.158	664.25
441.379	690.25
441.6	730.25
441.822	723.25
442.043	757.25
442.264	851.25
442.486	846.25
442.707	789.25
442.928	739.25
443.149	766.25
443.371	742.25
443.592	814.25
443.813	876.25
444.034	939.25
444.255	842.25
444.476	805.25
444.698	808.25
444.919	823.25
445.14	908.25
445.361	838.25
445.582	802.25
445.803	820.25
446.024	894.25
446.245	876.25
446.466	839.25
446.687	751.25
446.908	683.25
447.129	678.25
447.35	671.25
447.571	650.25
447.792	672.25
448.013	653.25
448.234	660.25
448.455	700.25
448.675	783.25
448.896	906.25
449.117	776.25
449.338	746.25
449.559	862.25
449.779	922.25
450	783.25
450.221	696.25
450.442	630.25
450.662	644.25
450.883	637.25
451.104	664.25
451.324	654.25
451.545	637.25
451.766	623.25
451.986	592.25
452.207	601.25
452.428	626.25
452.648	605.25
452.869	594.25
453.089	614.25
453.31	626.25
453.53	587.25
453.751	596.25
453.971	603.25
454.192	612.25
454.412	600.25
454.633	591.25
454.853	578.25
455.073	583.25
455.294	601.25
455.514	636.25
455.734	658.25
455.955	597.25
456.175	594.25
456.395	584.25
456.616	572.25
456.836	572.25
457.056	582.25
457.276	555.25
457.497	592.25
457.717	555.25
457.937	596.25
458.157	590.25
458.377	590.25
458.598	613.25
458.818	638.25
459.038	706.25
459.258	749.25
459.478	697.25
459.698	679.25
459.918	681.25
460.138	693.25
460.358	704.25
460.578	728.25
460.798	715.25
461.018	722.25
461.238	724.25
461.458	705.25
461.678	714.25
461.898	731.25
462.118	743.25
462.338	814.25
462.558	781.25
462.777	780.25
462.997	842.25
463.217	902.25
463.437	870.25
463.657	822.25
463.876	815.25
464.096	807.25
464.316	841.25
464.536	808.25
464.755	774.25
464.975	760.25
465.195	770.25
465.414	809.25
465.634	716.25
465.854	692.25
466.073	650.25
466.293	667.25
466.512	634.25
466.732	654.25
466.951	628.25
467.171	607.25
467.391	623.25
467.61	634.25
467.829	640.25
468.049	608.25
468.268	630.25
468.488	630.25
468.707	613.25
468.927	618.25
469.146	634.25
469.365	617.25
469.585	627.25
469.804	636.25
470.023	663.25
470.243	676.25
470.462	639.25
470.681	670.25
470.901	672.25
471.12	659.25
471.339	628.25
471.558	646.25
471.777	630.25
471.997	624.25
472.216	628.25
472.435	666.25
472.654	647.25
472.873	635.25
473.092	622.25
473.311	626.25
473.53	620.25
473.749	622.25
473.968	654.25
474.187	727.25
474.406	728.25
474.625	660.25
474.844	630.25
475.063	626.25
475.282	620.25
475.501	644.25
475.72	630.25
475.939	639.25
476.158	620.25
476.377	633.25
476.596	620.25
476.814	650.25
477.033	629.25
477.252	650.25
477.471	654.25
477.69	694.25
477.908	686.25
478.127	723.25
478.346	696.25
478.564	716.25
478.783	730.25
479.002	764.25
479.22	736.25
479.439	768.25
479.658	779.25
479.876	794.25
480.095	763.25
480.313	808.25
480.532	830.25
480.751	827.25
480.969	795.25
481.188	837.25
481.406	862.25
481.624	796.25
481.843	735.25
482.061	743.25
482.28	741.25
482.498	738.25
482.717	711.25
482.935	724.25
483.153	723.25
483.372	743.25
483.59	742.25
483.808	720.25
484.027	727.25
484.245	737.25
484.463	742.25
484.681	750.25
484.9	756.25
485.118	757.25
485.336	749.25
485.554	756.25
485.772	764.25
485.99	748.25
486.209	764.25
486.427	790.25
486.645	743.25
486.863	770.25
487.081	782.25
487.299	785.25
487.517	786.25
487.735	765.25
487.953	762.25
488.171	808.25
488.389	746.25
488.607	773.25
488.825	756.25
489.043	775.25
489.261	773.25
489.479	780.25
489.696	789.25
489.914	798.25
490.132	799.25
490.35	815.25
490.568	819.25
490.786	830.25
491.003	824.25
491.221	826.25
491.439	823.25
491.657	827.25
491.874	853.25
492.092	847.25
492.31	877.25
492.527	887.25
492.745	896.25
492.963	873.25
493.18	910.25
493.398	875.25
493.615	900.25
493.833	884.25
494.05	898.25
494.268	895.25
494.485	890.25
494.703	905.25
494.92	877.25
495.138	869.25
495.355	905.25
495.573	894.25
495.79	913.25
496.008	900.25
496.225	885.25
496.442	902.25
496.66	923.25
496.877	915.25
497.094	963.25
497.312	963.25
497.529	969.25
497.746	964.25
497.963	984.25
498.181	1011.25
498.398	1030.25
498.615	1099.25
498.832	1112.25
499.049	1190.25
499.267	1269.25
499.484	1348.25
499.701	1408.25
499.918	1487.25
500.135	1641.25
500.352	1794.25
500.569	1864.25
500.786	1820.25
501.003	1757.25
501.22	1607.25
501.437	1496.25
501.654	1428.25
