Data from 1963.PennyLincolnUp.Lamp.En5.5.200Scan.071719.P1._HRD10591_13-59-21-063.txt Node
Date: Thu Jul 18 13:59:21 EDT 2019
User: cochatt
Spectrometer: HR+D1059
Trigger mode: 1
Integration Time (sec): 1.000000E-1
Scans to average: 1
Electric dark correction enabled: true
Nonlinearity correction enabled: false
Boxcar width: 0
XAxis mode: Wavelengths
Number of Pixels in Spectrum: 2048
>>>>>Begin Spectral Data<<<<<
223.165	-24.69
223.4	-24.69
223.635	-24.69
223.869	-13.69
224.104	-15.69
224.338	-1.69
224.573	-28.69
224.808	-1.69
225.042	-14.69
225.277	1.31
225.511	-8.69
225.746	5.31
225.98	7.31
226.215	13.31
226.449	9.31
226.683	22.31
226.918	23.31
227.152	27.31
227.387	38.31
227.621	29.31
227.856	44.31
228.09	54.31
228.324	47.31
228.559	53.31
228.793	71.31
229.027	90.31
229.262	104.31
229.496	123.31
229.73	128.31
229.964	142.31
230.199	108.31
230.433	99.31
230.667	102.31
230.901	113.31
231.136	109.31
231.37	103.31
231.604	112.31
231.838	112.31
232.072	126.31
232.306	116.31
232.541	119.31
232.775	129.31
233.009	117.31
233.243	127.31
233.477	116.31
233.711	107.31
233.945	131.31
234.179	120.31
234.413	121.31
234.647	121.31
234.881	127.31
235.115	109.31
235.349	129.31
235.583	126.31
235.817	123.31
236.051	132.31
236.285	137.31
236.519	129.31
236.753	146.31
236.987	143.31
237.221	174.31
237.455	221.31
237.689	168.31
237.922	134.31
238.156	131.31
238.39	139.31
238.624	142.31
238.858	141.31
239.091	132.31
239.325	137.31
239.559	128.31
239.793	129.31
240.027	144.31
240.26	162.31
240.494	175.31
240.728	149.31
240.961	157.31
241.195	153.31
241.429	164.31
241.662	151.31
241.896	156.31
242.13	162.31
242.363	144.31
242.597	144.31
242.83	146.31
243.064	149.31
243.298	133.31
243.531	153.31
243.765	159.31
243.998	161.31
244.232	157.31
244.465	166.31
244.699	155.31
244.932	157.31
245.166	139.31
245.399	160.31
245.633	142.31
245.866	149.31
246.099	161.31
246.333	179.31
246.566	178.31
246.8	166.31
247.033	188.31
247.266	173.31
247.5	179.31
247.733	183.31
247.966	188.31
248.2	180.31
248.433	197.31
248.666	189.31
248.899	189.31
249.133	194.31
249.366	219.31
249.599	210.31
249.832	194.31
250.066	208.31
250.299	181.31
250.532	219.31
250.765	215.31
250.998	223.31
251.231	242.31
251.465	222.31
251.698	250.31
251.931	224.31
252.164	220.31
252.397	212.31
252.63	227.31
252.863	212.31
253.096	237.31
253.329	241.31
253.562	255.31
253.795	223.31
254.028	231.31
254.261	227.31
254.494	255.31
254.727	266.31
254.96	285.31
255.193	285.31
255.426	275.31
255.659	243.31
255.892	244.31
256.124	229.31
256.357	267.31
256.59	251.31
256.823	247.31
257.056	240.31
257.289	233.31
257.521	233.31
257.754	245.31
257.987	243.31
258.22	254.31
258.452	234.31
258.685	227.31
258.918	241.31
259.151	231.31
259.383	236.31
259.616	237.31
259.849	247.31
260.081	247.31
260.314	279.31
260.547	272.31
260.779	287.31
261.012	269.31
261.244	238.31
261.477	257.31
261.71	244.31
261.942	251.31
262.175	266.31
262.407	244.31
262.64	257.31
262.872	224.31
263.105	244.31
263.337	263.31
263.57	260.31
263.802	260.31
264.035	267.31
264.267	246.31
264.499	246.31
264.732	265.31
264.964	244.31
265.197	269.31
265.429	255.31
265.661	249.31
265.894	255.31
266.126	252.31
266.358	250.31
266.591	251.31
266.823	233.31
267.055	268.31
267.287	242.31
267.52	245.31
267.752	266.31
267.984	263.31
268.216	272.31
268.448	293.31
268.681	274.31
268.913	285.31
269.145	300.31
269.377	309.31
269.609	302.31
269.841	294.31
270.073	297.31
270.306	336.31
270.538	321.31
270.77	325.31
271.002	333.31
271.234	315.31
271.466	334.31
271.698	313.31
271.93	319.31
272.162	334.31
272.394	314.31
272.626	310.31
272.858	320.31
273.09	317.31
273.322	310.31
273.553	301.31
273.785	335.31
274.017	304.31
274.249	311.31
274.481	311.31
274.713	312.31
274.945	301.31
275.176	307.31
275.408	308.31
275.64	302.31
275.872	298.31
276.104	311.31
276.335	323.31
276.567	305.31
276.799	320.31
277.031	318.31
277.262	340.31
277.494	334.31
277.726	339.31
277.957	335.31
278.189	326.31
278.421	323.31
278.652	320.31
278.884	336.31
279.115	332.31
279.347	320.31
279.579	317.31
279.81	332.31
280.042	321.31
280.273	327.31
280.505	340.31
280.736	315.31
280.968	323.31
281.199	323.31
281.431	340.31
281.662	325.31
281.894	317.31
282.125	327.31
282.356	331.31
282.588	358.31
282.819	346.31
283.051	334.31
283.282	330.31
283.513	329.31
283.745	345.31
283.976	332.31
284.207	341.31
284.439	362.31
284.67	331.31
284.901	326.31
285.132	351.31
285.364	337.31
285.595	339.31
285.826	347.31
286.057	332.31
286.288	349.31
286.52	345.31
286.751	347.31
286.982	346.31
287.213	359.31
287.444	358.31
287.675	361.31
287.906	367.31
288.138	361.31
288.369	364.31
288.6	365.31
288.831	356.31
289.062	364.31
289.293	349.31
289.524	366.31
289.755	359.31
289.986	364.31
290.217	335.31
290.448	361.31
290.679	362.31
290.91	353.31
291.141	360.31
291.371	358.31
291.602	357.31
291.833	348.31
292.064	363.31
292.295	374.31
292.526	357.31
292.757	358.31
292.987	369.31
293.218	349.31
293.449	353.31
293.68	374.31
293.91	369.31
294.141	359.31
294.372	369.31
294.603	372.31
294.833	379.31
295.064	391.31
295.295	365.31
295.525	385.31
295.756	383.31
295.987	383.31
296.217	381.31
296.448	388.31
296.679	383.31
296.909	385.31
297.14	375.31
297.37	383.31
297.601	375.31
297.831	389.31
298.062	389.31
298.292	388.31
298.523	394.31
298.753	396.31
298.984	385.31
299.214	390.31
299.445	395.31
299.675	397.31
299.905	387.31
300.136	395.31
300.366	390.31
300.597	412.31
300.827	418.31
301.057	413.31
301.288	415.31
301.518	435.31
301.748	421.31
301.979	411.31
302.209	417.31
302.439	430.31
302.669	418.31
302.9	416.31
303.13	415.31
303.36	428.31
303.59	410.31
303.82	417.31
304.051	425.31
304.281	411.31
304.511	417.31
304.741	423.31
304.971	389.31
305.201	405.31
305.431	439.31
305.661	429.31
305.891	411.31
306.121	427.31
306.352	409.31
306.582	417.31
306.812	411.31
307.042	430.31
307.272	421.31
307.502	411.31
307.731	413.31
307.961	439.31
308.191	415.31
308.421	393.31
308.651	423.31
308.881	427.31
309.111	422.31
309.341	435.31
309.571	415.31
309.8	436.31
310.03	430.31
310.26	417.31
310.49	433.31
310.72	466.31
310.949	454.31
311.179	461.31
311.409	463.31
311.639	450.31
311.868	444.31
312.098	441.31
312.328	465.31
312.557	462.31
312.787	482.31
313.017	469.31
313.246	491.31
313.476	472.31
313.706	471.31
313.935	480.31
314.165	477.31
314.394	464.31
314.624	471.31
314.853	461.31
315.083	480.31
315.312	460.31
315.542	457.31
315.771	443.31
316.001	456.31
316.23	441.31
316.46	444.31
316.689	457.31
316.919	437.31
317.148	458.31
317.377	473.31
317.607	484.31
317.836	463.31
318.065	465.31
318.295	457.31
318.524	457.31
318.753	435.31
318.983	456.31
319.212	473.31
319.441	453.31
319.67	471.31
319.9	474.31
320.129	461.31
320.358	465.31
320.587	468.31
320.816	461.31
321.046	474.31
321.275	473.31
321.504	497.31
321.733	485.31
321.962	475.31
322.191	467.31
322.42	492.31
322.649	498.31
322.878	487.31
323.108	532.31
323.337	509.31
323.566	533.31
323.795	547.31
324.024	578.31
324.253	633.31
324.482	819.31
324.71	1197.31
324.939	1703.31
325.168	1489.31
325.397	856.31
325.626	653.31
325.855	590.31
326.084	565.31
326.313	539.31
326.542	564.31
326.77	566.31
326.999	639.31
327.228	803.31
327.457	1151.31
327.686	1345.31
327.914	957.31
328.143	686.31
328.372	641.31
328.6	606.31
328.829	577.31
329.058	610.31
329.287	606.31
329.515	591.31
329.744	581.31
329.972	572.31
330.201	559.31
330.43	606.31
330.658	610.31
330.887	652.31
331.115	641.31
331.344	592.31
331.572	547.31
331.801	589.31
332.03	588.31
332.258	555.31
332.486	595.31
332.715	577.31
332.943	584.31
333.172	620.31
333.4	639.31
333.629	637.31
333.857	603.31
334.085	645.31
334.314	647.31
334.542	655.31
334.771	683.31
334.999	633.31
335.227	629.31
335.455	622.31
335.684	601.31
335.912	596.31
336.14	565.31
336.369	564.31
336.597	584.31
336.825	563.31
337.053	567.31
337.281	556.31
337.51	558.31
337.738	556.31
337.966	546.31
338.194	566.31
338.422	567.31
338.65	541.31
338.878	558.31
339.106	544.31
339.334	550.31
339.562	540.31
339.79	538.31
340.018	527.31
340.246	531.31
340.474	535.31
340.702	537.31
340.93	521.31
341.158	538.31
341.386	531.31
341.614	552.31
341.842	529.31
342.07	528.31
342.298	537.31
342.526	532.31
342.754	536.31
342.981	502.31
343.209	528.31
343.437	548.31
343.665	553.31
343.893	593.31
344.12	609.31
344.348	577.31
344.576	572.31
344.804	580.31
345.031	572.31
345.259	549.31
345.487	549.31
345.714	523.31
345.942	522.31
346.17	537.31
346.397	510.31
346.625	509.31
346.853	513.31
347.08	489.31
347.308	513.31
347.535	519.31
347.763	497.31
347.99	515.31
348.218	522.31
348.445	527.31
348.673	506.31
348.9	504.31
349.128	511.31
349.355	507.31
349.583	507.31
349.81	490.31
350.037	492.31
350.265	513.31
350.492	509.31
350.72	501.31
350.947	499.31
351.174	525.31
351.402	506.31
351.629	509.31
351.856	497.31
352.083	520.31
352.311	526.31
352.538	491.31
352.765	515.31
352.992	527.31
353.22	525.31
353.447	505.31
353.674	506.31
353.901	493.31
354.128	480.31
354.355	481.31
354.583	477.31
354.81	504.31
355.037	479.31
355.264	488.31
355.491	496.31
355.718	497.31
355.945	491.31
356.172	501.31
356.399	499.31
356.626	492.31
356.853	491.31
357.08	492.31
357.307	478.31
357.534	481.31
357.761	505.31
357.988	505.31
358.215	476.31
358.441	494.31
358.668	483.31
358.895	502.31
359.122	492.31
359.349	487.31
359.576	517.31
359.802	516.31
360.029	518.31
360.256	547.31
360.483	543.31
360.709	525.31
360.936	511.31
361.163	517.31
361.39	495.31
361.616	505.31
361.843	517.31
362.07	511.31
362.296	514.31
362.523	503.31
362.749	491.31
362.976	515.31
363.203	500.31
363.429	476.31
363.656	501.31
363.882	488.31
364.109	479.31
364.335	474.31
364.562	511.31
364.788	505.31
365.015	478.31
365.241	488.31
365.468	497.31
365.694	501.31
365.92	501.31
366.147	498.31
366.373	491.31
366.599	505.31
366.826	477.31
367.052	498.31
367.278	518.31
367.505	491.31
367.731	510.31
367.957	498.31
368.184	511.31
368.41	494.31
368.636	505.31
368.862	503.31
369.089	511.31
369.315	508.31
369.541	469.31
369.767	509.31
369.993	512.31
370.219	527.31
370.445	501.31
370.672	531.31
370.898	526.31
371.124	499.31
371.35	509.31
371.576	513.31
371.802	530.31
372.028	521.31
372.254	517.31
372.48	513.31
372.706	517.31
372.932	539.31
373.158	529.31
373.384	519.31
373.61	515.31
373.835	535.31
374.061	514.31
374.287	523.31
374.513	524.31
374.739	546.31
374.965	557.31
375.191	553.31
375.416	545.31
375.642	524.31
375.868	559.31
376.094	523.31
376.319	525.31
376.545	515.31
376.771	525.31
376.997	519.31
377.222	504.31
377.448	551.31
377.674	510.31
377.899	527.31
378.125	522.31
378.35	514.31
378.576	530.31
378.802	516.31
379.027	528.31
379.253	525.31
379.478	525.31
379.704	515.31
379.929	516.31
380.155	490.31
380.38	518.31
380.606	550.31
380.831	502.31
381.057	533.31
381.282	527.31
381.507	521.31
381.733	510.31
381.958	537.31
382.184	515.31
382.409	525.31
382.634	551.31
382.86	535.31
383.085	544.31
383.31	579.31
383.535	563.31
383.761	579.31
383.986	561.31
384.211	545.31
384.436	563.31
384.662	575.31
384.887	590.31
385.112	577.31
385.337	603.31
385.562	581.31
385.787	596.31
386.013	596.31
386.238	600.31
386.463	591.31
386.688	594.31
386.913	583.31
387.138	588.31
387.363	603.31
387.588	597.31
387.813	606.31
388.038	609.31
388.263	581.31
388.488	607.31
388.713	601.31
388.938	594.31
389.163	585.31
389.387	597.31
389.612	606.31
389.837	595.31
390.062	583.31
390.287	573.31
390.512	604.31
390.736	621.31
390.961	594.31
391.186	614.31
391.411	625.31
391.636	649.31
391.86	655.31
392.085	639.31
392.31	654.31
392.534	636.31
392.759	627.31
392.984	634.31
393.208	625.31
393.433	653.31
393.658	606.31
393.882	637.31
394.107	633.31
394.331	620.31
394.556	608.31
394.78	614.31
395.005	636.31
395.229	637.31
395.454	629.31
395.678	666.31
395.903	654.31
396.127	655.31
396.352	650.31
396.576	626.31
396.801	643.31
397.025	619.31
397.249	630.31
397.474	670.31
397.698	655.31
397.922	670.31
398.147	706.31
398.371	701.31
398.595	714.31
398.82	722.31
399.044	770.31
399.268	775.31
399.492	889.31
399.717	940.31
399.941	966.31
400.165	927.31
400.389	854.31
400.613	798.31
400.837	737.31
401.062	721.31
401.286	722.31
401.51	712.31
401.734	733.31
401.958	713.31
402.182	709.31
402.406	727.31
402.63	723.31
402.854	744.31
403.078	759.31
403.302	783.31
403.526	782.31
403.75	790.31
403.974	776.31
404.198	777.31
404.422	799.31
404.645	806.31
404.869	783.31
405.093	799.31
405.317	801.31
405.541	860.31
405.765	837.31
405.988	779.31
406.212	789.31
406.436	825.31
406.66	855.31
406.883	799.31
407.107	868.31
407.331	903.31
407.555	973.31
407.778	952.31
408.002	913.31
408.226	851.31
408.449	821.31
408.673	822.31
408.896	832.31
409.12	861.31
409.344	825.31
409.567	781.31
409.791	825.31
410.014	794.31
410.238	776.31
410.461	775.31
410.685	740.31
410.908	775.31
411.132	795.31
411.355	787.31
411.578	769.31
411.802	735.31
412.025	741.31
412.249	770.31
412.472	772.31
412.695	783.31
412.919	794.31
413.142	750.31
413.365	737.31
413.589	726.31
413.812	725.31
414.035	711.31
414.258	701.31
414.482	724.31
414.705	713.31
414.928	730.31
415.151	715.31
415.374	693.31
415.597	711.31
415.821	694.31
416.044	684.31
416.267	701.31
416.49	702.31
416.713	697.31
416.936	686.31
417.159	709.31
417.382	713.31
417.605	703.31
417.828	729.31
418.051	726.31
418.274	700.31
418.497	719.31
418.72	711.31
418.943	685.31
419.166	730.31
419.389	781.31
419.611	783.31
419.834	766.31
420.057	777.31
420.28	725.31
420.503	705.31
420.726	716.31
420.948	707.31
421.171	762.31
421.394	799.31
421.617	738.31
421.839	707.31
422.062	724.31
422.285	709.31
422.507	799.31
422.73	843.31
422.953	807.31
423.175	782.31
423.398	745.31
423.621	725.31
423.843	769.31
424.066	778.31
424.288	749.31
424.511	771.31
424.733	797.31
424.956	881.31
425.178	839.31
425.401	847.31
425.623	838.31
425.846	776.31
426.068	757.31
426.291	769.31
426.513	756.31
426.735	732.31
426.958	751.31
427.18	807.31
427.402	939.31
427.625	996.31
427.847	902.31
428.069	773.31
428.292	749.31
428.514	690.31
428.736	683.31
428.958	693.31
429.181	682.31
429.403	654.31
429.625	684.31
429.847	682.31
430.069	749.31
430.292	729.31
430.514	689.31
430.736	669.31
430.958	687.31
431.18	643.31
431.402	646.31
431.624	641.31
431.846	652.31
432.068	651.31
432.29	680.31
432.512	665.31
432.734	673.31
432.956	647.31
433.178	669.31
433.4	662.31
433.622	662.31
433.844	661.31
434.066	657.31
434.287	665.31
434.509	681.31
434.731	693.31
434.953	719.31
435.175	710.31
435.397	760.31
435.618	728.31
435.84	776.31
436.062	813.31
436.284	890.31
436.505	753.31
436.727	723.31
436.949	677.31
437.17	691.31
437.392	673.31
437.614	681.31
437.835	679.31
438.057	773.31
438.278	826.31
438.5	845.31
438.721	932.31
438.943	885.31
439.165	754.31
439.386	695.31
439.608	725.31
439.829	711.31
440.05	718.31
440.272	748.31
440.493	754.31
440.715	702.31
440.936	672.31
441.158	687.31
441.379	710.31
441.6	718.31
441.822	737.31
442.043	780.31
442.264	840.31
442.486	836.31
442.707	766.31
442.928	751.31
443.149	741.31
443.371	771.31
443.592	795.31
443.813	874.31
444.034	956.31
444.255	843.31
444.476	809.31
444.698	815.31
444.919	793.31
445.14	910.31
445.361	843.31
445.582	808.31
445.803	829.31
446.024	861.31
446.245	874.31
446.466	842.31
446.687	745.31
446.908	709.31
447.129	670.31
447.35	672.31
447.571	658.31
447.792	633.31
448.013	661.31
448.234	676.31
448.455	701.31
448.675	781.31
448.896	865.31
449.117	771.31
449.338	759.31
449.559	830.31
449.779	915.31
450	780.31
450.221	681.31
450.442	667.31
450.662	621.31
450.883	629.31
451.104	651.31
451.324	635.31
451.545	610.31
451.766	589.31
451.986	613.31
452.207	613.31
452.428	591.31
452.648	602.31
452.869	582.31
453.089	627.31
453.31	645.31
453.53	617.31
453.751	610.31
453.971	593.31
454.192	597.31
454.412	575.31
454.633	588.31
454.853	596.31
455.073	595.31
455.294	599.31
455.514	667.31
455.734	630.31
455.955	597.31
456.175	555.31
456.395	555.31
456.616	566.31
456.836	547.31
457.056	561.31
457.276	562.31
457.497	583.31
457.717	575.31
457.937	583.31
458.157	554.31
458.377	618.31
458.598	610.31
458.818	643.31
459.038	719.31
459.258	725.31
459.478	699.31
459.698	674.31
459.918	660.31
460.138	682.31
460.358	709.31
460.578	741.31
460.798	714.31
461.018	749.31
461.238	731.31
461.458	743.31
461.678	706.31
461.898	726.31
462.118	720.31
462.338	772.31
462.558	761.31
462.777	768.31
462.997	825.31
463.217	881.31
463.437	874.31
463.657	830.31
463.876	807.31
464.096	823.31
464.316	797.31
464.536	804.31
464.755	794.31
464.975	787.31
465.195	783.31
465.414	808.31
465.634	732.31
465.854	689.31
466.073	669.31
466.293	636.31
466.512	656.31
466.732	634.31
466.951	649.31
467.171	653.31
467.391	627.31
467.61	618.31
467.829	637.31
468.049	618.31
468.268	620.31
468.488	615.31
468.707	614.31
468.927	606.31
469.146	601.31
469.365	608.31
469.585	612.31
469.804	639.31
470.023	635.31
470.243	636.31
470.462	614.31
470.681	657.31
470.901	659.31
471.12	661.31
471.339	631.31
471.558	643.31
471.777	645.31
471.997	653.31
472.216	625.31
472.435	636.31
472.654	619.31
472.873	632.31
473.092	624.31
473.311	617.31
473.53	623.31
473.749	614.31
473.968	653.31
474.187	694.31
474.406	732.31
474.625	675.31
474.844	627.31
475.063	622.31
475.282	633.31
475.501	621.31
475.72	613.31
475.939	628.31
476.158	644.31
476.377	646.31
476.596	619.31
476.814	651.31
477.033	670.31
477.252	660.31
477.471	688.31
477.69	677.31
477.908	704.31
478.127	714.31
478.346	735.31
478.564	719.31
478.783	723.31
479.002	727.31
479.22	739.31
479.439	727.31
479.658	743.31
479.876	764.31
480.095	807.31
480.313	814.31
480.532	835.31
480.751	797.31
480.969	792.31
481.188	850.31
481.406	846.31
481.624	782.31
481.843	732.31
482.061	759.31
482.28	748.31
482.498	713.31
482.717	723.31
482.935	726.31
483.153	724.31
483.372	717.31
483.59	719.31
483.808	722.31
484.027	704.31
484.245	743.31
484.463	723.31
484.681	773.31
484.9	741.31
485.118	750.31
485.336	748.31
485.554	744.31
485.772	767.31
485.99	761.31
486.209	751.31
486.427	757.31
486.645	779.31
486.863	785.31
487.081	754.31
487.299	772.31
487.517	766.31
487.735	775.31
487.953	755.31
488.171	757.31
488.389	769.31
488.607	794.31
488.825	777.31
489.043	793.31
489.261	779.31
489.479	805.31
489.696	777.31
489.914	799.31
490.132	818.31
490.35	805.31
490.568	807.31
490.786	819.31
491.003	818.31
491.221	855.31
491.439	839.31
491.657	869.31
491.874	856.31
492.092	848.31
492.31	844.31
492.527	866.31
492.745	852.31
492.963	870.31
493.18	891.31
493.398	894.31
493.615	882.31
493.833	909.31
494.05	910.31
494.268	901.31
494.485	889.31
494.703	887.31
494.92	885.31
495.138	891.31
495.355	885.31
495.573	901.31
495.79	919.31
496.008	904.31
496.225	922.31
496.442	918.31
496.66	893.31
496.877	909.31
497.094	964.31
497.312	955.31
497.529	967.31
497.746	960.31
497.963	976.31
498.181	1007.31
498.398	1065.31
498.615	1073.31
498.832	1130.31
499.049	1194.31
499.267	1258.31
499.484	1324.31
499.701	1420.31
499.918	1513.31
500.135	1621.31
500.352	1813.31
500.569	1849.31
500.786	1832.31
501.003	1725.31
501.22	1646.31
501.437	1531.31
501.654	1414.31
