Data from 1963.PennyLincolnUp.Lamp.En5.5.200Scan.071719.P1._HRD10591_13-58-25-063.txt Node
Date: Thu Jul 18 13:58:25 EDT 2019
User: cochatt
Spectrometer: HR+D1059
Trigger mode: 1
Integration Time (sec): 1.000000E-1
Scans to average: 1
Electric dark correction enabled: true
Nonlinearity correction enabled: false
Boxcar width: 0
XAxis mode: Wavelengths
Number of Pixels in Spectrum: 2048
>>>>>Begin Spectral Data<<<<<
223.165	-7.12
223.4	-7.12
223.635	-7.12
223.869	-23.12
224.104	-20.12
224.338	-17.12
224.573	-3.12
224.808	-19.12
225.042	3.88
225.277	-5.12
225.511	-17.12
225.746	-1.12
225.98	-0.12
226.215	21.88
226.449	18.88
226.683	16.88
226.918	12.88
227.152	38.88
227.387	35.88
227.621	39.88
227.856	53.88
228.09	36.88
228.324	46.88
228.559	65.88
228.793	77.88
229.027	103.88
229.262	103.88
229.496	97.88
229.73	131.88
229.964	143.88
230.199	129.88
230.433	123.88
230.667	116.88
230.901	113.88
231.136	121.88
231.37	104.88
231.604	131.88
231.838	119.88
232.072	112.88
232.306	123.88
232.541	129.88
232.775	120.88
233.009	121.88
233.243	130.88
233.477	132.88
233.711	119.88
233.945	122.88
234.179	135.88
234.413	131.88
234.647	132.88
234.881	121.88
235.115	120.88
235.349	123.88
235.583	113.88
235.817	119.88
236.051	135.88
236.285	127.88
236.519	126.88
236.753	126.88
236.987	131.88
237.221	169.88
237.455	189.88
237.689	171.88
237.922	153.88
238.156	151.88
238.39	132.88
238.624	126.88
238.858	134.88
239.091	140.88
239.325	144.88
239.559	132.88
239.793	129.88
240.027	145.88
240.26	148.88
240.494	165.88
240.728	155.88
240.961	150.88
241.195	135.88
241.429	155.88
241.662	152.88
241.896	153.88
242.13	142.88
242.363	149.88
242.597	154.88
242.83	170.88
243.064	149.88
243.298	153.88
243.531	156.88
243.765	164.88
243.998	158.88
244.232	141.88
244.465	161.88
244.699	176.88
244.932	163.88
245.166	175.88
245.399	165.88
245.633	168.88
245.866	162.88
246.099	156.88
246.333	165.88
246.566	169.88
246.8	173.88
247.033	151.88
247.266	159.88
247.5	179.88
247.733	159.88
247.966	170.88
248.2	163.88
248.433	183.88
248.666	180.88
248.899	189.88
249.133	211.88
249.366	203.88
249.599	195.88
249.832	192.88
250.066	203.88
250.299	185.88
250.532	210.88
250.765	211.88
250.998	223.88
251.231	229.88
251.465	220.88
251.698	214.88
251.931	208.88
252.164	193.88
252.397	218.88
252.63	215.88
252.863	223.88
253.096	225.88
253.329	231.88
253.562	219.88
253.795	230.88
254.028	234.88
254.261	231.88
254.494	223.88
254.727	242.88
254.96	288.88
255.193	268.88
255.426	242.88
255.659	233.88
255.892	233.88
256.124	247.88
256.357	242.88
256.59	232.88
256.823	247.88
257.056	229.88
257.289	209.88
257.521	206.88
257.754	236.88
257.987	249.88
258.22	230.88
258.452	213.88
258.685	212.88
258.918	227.88
259.151	226.88
259.383	231.88
259.616	232.88
259.849	243.88
260.081	240.88
260.314	262.88
260.547	263.88
260.779	242.88
261.012	232.88
261.244	251.88
261.477	227.88
261.71	225.88
261.942	248.88
262.175	250.88
262.407	248.88
262.64	243.88
262.872	221.88
263.105	223.88
263.337	243.88
263.57	232.88
263.802	221.88
264.035	230.88
264.267	251.88
264.499	251.88
264.732	237.88
264.964	238.88
265.197	243.88
265.429	255.88
265.661	232.88
265.894	219.88
266.126	254.88
266.358	266.88
266.591	240.88
266.823	243.88
267.055	260.88
267.287	256.88
267.52	245.88
267.752	263.88
267.984	260.88
268.216	252.88
268.448	260.88
268.681	265.88
268.913	271.88
269.145	280.88
269.377	303.88
269.609	266.88
269.841	287.88
270.073	301.88
270.306	299.88
270.538	305.88
270.77	316.88
271.002	318.88
271.234	314.88
271.466	297.88
271.698	307.88
271.93	321.88
272.162	333.88
272.394	320.88
272.626	307.88
272.858	302.88
273.09	307.88
273.322	297.88
273.553	294.88
273.785	289.88
274.017	287.88
274.249	291.88
274.481	283.88
274.713	303.88
274.945	287.88
275.176	286.88
275.408	300.88
275.64	311.88
275.872	279.88
276.104	304.88
276.335	311.88
276.567	300.88
276.799	319.88
277.031	333.88
277.262	355.88
277.494	325.88
277.726	329.88
277.957	309.88
278.189	309.88
278.421	297.88
278.652	313.88
278.884	299.88
279.115	305.88
279.347	323.88
279.579	314.88
279.81	315.88
280.042	314.88
280.273	312.88
280.505	310.88
280.736	310.88
280.968	323.88
281.199	319.88
281.431	315.88
281.662	318.88
281.894	313.88
282.125	322.88
282.356	331.88
282.588	350.88
282.819	349.88
283.051	324.88
283.282	330.88
283.513	317.88
283.745	348.88
283.976	332.88
284.207	320.88
284.439	330.88
284.67	319.88
284.901	346.88
285.132	336.88
285.364	327.88
285.595	312.88
285.826	352.88
286.057	331.88
286.288	331.88
286.52	348.88
286.751	335.88
286.982	335.88
287.213	322.88
287.444	355.88
287.675	336.88
287.906	356.88
288.138	359.88
288.369	356.88
288.6	365.88
288.831	357.88
289.062	346.88
289.293	343.88
289.524	342.88
289.755	342.88
289.986	346.88
290.217	367.88
290.448	349.88
290.679	344.88
290.91	337.88
291.141	348.88
291.371	346.88
291.602	367.88
291.833	358.88
292.064	349.88
292.295	352.88
292.526	350.88
292.757	350.88
292.987	365.88
293.218	351.88
293.449	371.88
293.68	355.88
293.91	347.88
294.141	362.88
294.372	347.88
294.603	356.88
294.833	333.88
295.064	383.88
295.295	357.88
295.525	334.88
295.756	379.88
295.987	377.88
296.217	391.88
296.448	399.88
296.679	365.88
296.909	360.88
297.14	356.88
297.37	381.88
297.601	383.88
297.831	385.88
298.062	357.88
298.292	386.88
298.523	383.88
298.753	385.88
298.984	386.88
299.214	379.88
299.445	391.88
299.675	401.88
299.905	381.88
300.136	377.88
300.366	393.88
300.597	378.88
300.827	401.88
301.057	401.88
301.288	418.88
301.518	389.88
301.748	396.88
301.979	416.88
302.209	421.88
302.439	413.88
302.669	411.88
302.9	408.88
303.13	419.88
303.36	393.88
303.59	406.88
303.82	402.88
304.051	419.88
304.281	414.88
304.511	402.88
304.741	413.88
304.971	413.88
305.201	405.88
305.431	404.88
305.661	396.88
305.891	410.88
306.121	418.88
306.352	406.88
306.582	393.88
306.812	400.88
307.042	405.88
307.272	393.88
307.502	412.88
307.731	411.88
307.961	416.88
308.191	396.88
308.421	396.88
308.651	402.88
308.881	399.88
309.111	385.88
309.341	429.88
309.571	427.88
309.8	415.88
310.03	409.88
310.26	413.88
310.49	420.88
310.72	420.88
310.949	444.88
311.179	440.88
311.409	417.88
311.639	408.88
311.868	431.88
312.098	431.88
312.328	444.88
312.557	439.88
312.787	458.88
313.017	474.88
313.246	452.88
313.476	444.88
313.706	457.88
313.935	439.88
314.165	461.88
314.394	464.88
314.624	456.88
314.853	451.88
315.083	459.88
315.312	447.88
315.542	442.88
315.771	448.88
316.001	455.88
316.23	441.88
316.46	443.88
316.689	432.88
316.919	456.88
317.148	460.88
317.377	438.88
317.607	460.88
317.836	453.88
318.065	437.88
318.295	460.88
318.524	436.88
318.753	419.88
318.983	437.88
319.212	448.88
319.441	451.88
319.67	458.88
319.9	454.88
320.129	441.88
320.358	447.88
320.587	440.88
320.816	465.88
321.046	468.88
321.275	456.88
321.504	466.88
321.733	474.88
321.962	457.88
322.191	462.88
322.42	479.88
322.649	476.88
322.878	473.88
323.108	468.88
323.337	501.88
323.566	524.88
323.795	489.88
324.024	532.88
324.253	592.88
324.482	733.88
324.71	1081.88
324.939	1494.88
325.168	1332.88
325.397	757.88
325.626	600.88
325.855	553.88
326.084	527.88
326.313	504.88
326.542	525.88
326.77	543.88
326.999	593.88
327.228	721.88
327.457	989.88
327.686	1182.88
327.914	837.88
328.143	634.88
328.372	592.88
328.6	580.88
328.829	555.88
329.058	537.88
329.287	584.88
329.515	565.88
329.744	559.88
329.972	517.88
330.201	574.88
330.43	581.88
330.658	589.88
330.887	588.88
331.115	610.88
331.344	573.88
331.572	564.88
331.801	553.88
332.03	548.88
332.258	574.88
332.486	556.88
332.715	541.88
332.943	569.88
333.172	569.88
333.4	591.88
333.629	590.88
333.857	617.88
334.085	595.88
334.314	617.88
334.542	647.88
334.771	663.88
334.999	637.88
335.227	608.88
335.455	569.88
335.684	592.88
335.912	596.88
336.14	578.88
336.369	564.88
336.597	556.88
336.825	576.88
337.053	524.88
337.281	552.88
337.51	561.88
337.738	534.88
337.966	533.88
338.194	549.88
338.422	543.88
338.65	555.88
338.878	537.88
339.106	541.88
339.334	536.88
339.562	528.88
339.79	517.88
340.018	520.88
340.246	524.88
340.474	532.88
340.702	505.88
340.93	522.88
341.158	518.88
341.386	533.88
341.614	530.88
341.842	523.88
342.07	503.88
342.298	483.88
342.526	502.88
342.754	517.88
342.981	525.88
343.209	497.88
343.437	521.88
343.665	541.88
343.893	573.88
344.12	574.88
344.348	561.88
344.576	543.88
344.804	554.88
345.031	536.88
345.259	540.88
345.487	548.88
345.714	505.88
345.942	502.88
346.17	512.88
346.397	482.88
346.625	496.88
346.853	498.88
347.08	494.88
347.308	499.88
347.535	498.88
347.763	517.88
347.99	491.88
348.218	511.88
348.445	493.88
348.673	494.88
348.9	499.88
349.128	496.88
349.355	488.88
349.583	478.88
349.81	481.88
350.037	480.88
350.265	464.88
350.492	487.88
350.72	499.88
350.947	490.88
351.174	500.88
351.402	476.88
351.629	489.88
351.856	489.88
352.083	505.88
352.311	493.88
352.538	477.88
352.765	503.88
352.992	488.88
353.22	493.88
353.447	486.88
353.674	506.88
353.901	471.88
354.128	469.88
354.355	485.88
354.583	488.88
354.81	483.88
355.037	465.88
355.264	479.88
355.491	458.88
355.718	464.88
355.945	486.88
356.172	484.88
356.399	496.88
356.626	462.88
356.853	472.88
357.08	475.88
357.307	459.88
357.534	463.88
357.761	470.88
357.988	464.88
358.215	455.88
358.441	481.88
358.668	488.88
358.895	492.88
359.122	496.88
359.349	471.88
359.576	505.88
359.802	509.88
360.029	489.88
360.256	522.88
360.483	528.88
360.709	480.88
360.936	485.88
361.163	490.88
361.39	469.88
361.616	496.88
361.843	503.88
362.07	503.88
362.296	490.88
362.523	488.88
362.749	497.88
362.976	510.88
363.203	477.88
363.429	488.88
363.656	492.88
363.882	499.88
364.109	474.88
364.335	466.88
364.562	489.88
364.788	481.88
365.015	469.88
365.241	479.88
365.468	490.88
365.694	485.88
365.92	494.88
366.147	483.88
366.373	480.88
366.599	484.88
366.826	455.88
367.052	481.88
367.278	469.88
367.505	488.88
367.731	479.88
367.957	482.88
368.184	500.88
368.41	503.88
368.636	491.88
368.862	485.88
369.089	518.88
369.315	501.88
369.541	499.88
369.767	481.88
369.993	498.88
370.219	507.88
370.445	480.88
370.672	491.88
370.898	497.88
371.124	515.88
371.35	513.88
371.576	513.88
371.802	496.88
372.028	519.88
372.254	512.88
372.48	495.88
372.706	501.88
372.932	529.88
373.158	516.88
373.384	521.88
373.61	526.88
373.835	512.88
374.061	520.88
374.287	522.88
374.513	519.88
374.739	528.88
374.965	528.88
375.191	540.88
375.416	539.88
375.642	532.88
375.868	520.88
376.094	512.88
376.319	497.88
376.545	515.88
376.771	513.88
376.997	518.88
377.222	515.88
377.448	504.88
377.674	486.88
377.899	491.88
378.125	505.88
378.35	494.88
378.576	508.88
378.802	521.88
379.027	503.88
379.253	528.88
379.478	487.88
379.704	507.88
379.929	499.88
380.155	493.88
380.38	489.88
380.606	514.88
380.831	499.88
381.057	514.88
381.282	507.88
381.507	508.88
381.733	540.88
381.958	520.88
382.184	497.88
382.409	511.88
382.634	517.88
382.86	502.88
383.085	520.88
383.31	540.88
383.535	548.88
383.761	549.88
383.986	570.88
384.211	570.88
384.436	550.88
384.662	593.88
384.887	575.88
385.112	574.88
385.337	578.88
385.562	560.88
385.787	565.88
386.013	592.88
386.238	597.88
386.463	590.88
386.688	585.88
386.913	597.88
387.138	565.88
387.363	586.88
387.588	573.88
387.813	572.88
388.038	589.88
388.263	575.88
388.488	588.88
388.713	574.88
388.938	560.88
389.163	570.88
389.387	591.88
389.612	597.88
389.837	561.88
390.062	537.88
390.287	555.88
390.512	571.88
390.736	583.88
390.961	611.88
391.186	577.88
391.411	594.88
391.636	609.88
391.86	624.88
392.085	635.88
392.31	638.88
392.534	651.88
392.759	618.88
392.984	597.88
393.208	595.88
393.433	593.88
393.658	604.88
393.882	614.88
394.107	597.88
394.331	613.88
394.556	618.88
394.78	619.88
395.005	633.88
395.229	590.88
395.454	617.88
395.678	621.88
395.903	647.88
396.127	641.88
396.352	643.88
396.576	623.88
396.801	618.88
397.025	622.88
397.249	627.88
397.474	622.88
397.698	632.88
397.922	637.88
398.147	637.88
398.371	670.88
398.595	683.88
398.82	682.88
399.044	749.88
399.268	772.88
399.492	851.88
399.717	899.88
399.941	935.88
400.165	883.88
400.389	864.88
400.613	781.88
400.837	719.88
401.062	716.88
401.286	701.88
401.51	720.88
401.734	695.88
401.958	703.88
402.182	709.88
402.406	698.88
402.63	729.88
402.854	711.88
403.078	716.88
403.302	748.88
403.526	766.88
403.75	768.88
403.974	768.88
404.198	777.88
404.422	759.88
404.645	776.88
404.869	778.88
405.093	792.88
405.317	814.88
405.541	838.88
405.765	800.88
405.988	785.88
406.212	786.88
406.436	785.88
406.66	808.88
406.883	775.88
407.107	828.88
407.331	855.88
407.555	913.88
407.778	917.88
408.002	870.88
408.226	853.88
408.449	805.88
408.673	792.88
408.896	807.88
409.12	834.88
409.344	813.88
409.567	767.88
409.791	763.88
410.014	763.88
410.238	716.88
410.461	729.88
410.685	719.88
410.908	753.88
411.132	748.88
411.355	746.88
411.578	781.88
411.802	716.88
412.025	734.88
412.249	739.88
412.472	730.88
412.695	755.88
412.919	775.88
413.142	706.88
413.365	717.88
413.589	716.88
413.812	710.88
414.035	684.88
414.258	681.88
414.482	703.88
414.705	707.88
414.928	681.88
415.151	713.88
415.374	676.88
415.597	680.88
415.821	673.88
416.044	692.88
416.267	670.88
416.49	685.88
416.713	682.88
416.936	704.88
417.159	703.88
417.382	683.88
417.605	699.88
417.828	680.88
418.051	690.88
418.274	699.88
418.497	711.88
418.72	709.88
418.943	676.88
419.166	752.88
419.389	750.88
419.611	785.88
419.834	740.88
420.057	728.88
420.28	727.88
420.503	720.88
420.726	703.88
420.948	698.88
421.171	750.88
421.394	744.88
421.617	725.88
421.839	717.88
422.062	705.88
422.285	712.88
422.507	724.88
422.73	797.88
422.953	783.88
423.175	747.88
423.398	725.88
423.621	701.88
423.843	762.88
424.066	749.88
424.288	748.88
424.511	773.88
424.733	793.88
424.956	841.88
425.178	806.88
425.401	805.88
425.623	847.88
425.846	759.88
426.068	728.88
426.291	711.88
426.513	693.88
426.735	692.88
426.958	729.88
427.18	797.88
427.402	881.88
427.625	928.88
427.847	821.88
428.069	772.88
428.292	715.88
428.514	673.88
428.736	649.88
428.958	661.88
429.181	646.88
429.403	625.88
429.625	643.88
429.847	665.88
430.069	721.88
430.292	748.88
430.514	667.88
430.736	654.88
430.958	649.88
431.18	656.88
431.402	619.88
431.624	629.88
431.846	629.88
432.068	656.88
432.29	663.88
432.512	651.88
432.734	642.88
432.956	646.88
433.178	640.88
433.4	666.88
433.622	648.88
433.844	633.88
434.066	635.88
434.287	658.88
434.509	665.88
434.731	679.88
434.953	701.88
435.175	707.88
435.397	723.88
435.618	714.88
435.84	709.88
436.062	768.88
436.284	815.88
436.505	719.88
436.727	687.88
436.949	672.88
437.17	641.88
437.392	650.88
437.614	663.88
437.835	644.88
438.057	748.88
438.278	801.88
438.5	823.88
438.721	831.88
438.943	841.88
439.165	709.88
439.386	681.88
439.608	697.88
439.829	681.88
440.05	699.88
440.272	725.88
440.493	684.88
440.715	659.88
440.936	680.88
441.158	655.88
441.379	681.88
441.6	681.88
441.822	715.88
442.043	731.88
442.264	797.88
442.486	824.88
442.707	772.88
442.928	711.88
443.149	727.88
443.371	759.88
443.592	769.88
443.813	848.88
444.034	891.88
444.255	808.88
444.476	785.88
444.698	785.88
444.919	805.88
445.14	897.88
445.361	804.88
445.582	759.88
445.803	793.88
446.024	855.88
446.245	808.88
446.466	778.88
446.687	688.88
446.908	663.88
447.129	639.88
447.35	625.88
447.571	621.88
447.792	608.88
448.013	645.88
448.234	643.88
448.455	653.88
448.675	750.88
448.896	829.88
449.117	719.88
449.338	720.88
449.559	779.88
449.779	835.88
450	715.88
450.221	679.88
450.442	622.88
450.662	596.88
450.883	606.88
451.104	619.88
451.324	616.88
451.545	599.88
451.766	592.88
451.986	571.88
452.207	575.88
452.428	570.88
452.648	585.88
452.869	600.88
453.089	573.88
453.31	587.88
453.53	581.88
453.751	564.88
453.971	552.88
454.192	582.88
454.412	586.88
454.633	564.88
454.853	584.88
455.073	576.88
455.294	570.88
455.514	612.88
455.734	631.88
455.955	547.88
456.175	553.88
456.395	552.88
456.616	551.88
456.836	560.88
457.056	556.88
457.276	565.88
457.497	541.88
457.717	538.88
457.937	577.88
458.157	570.88
458.377	565.88
458.598	593.88
458.818	643.88
459.038	696.88
459.258	679.88
459.478	659.88
459.698	643.88
459.918	634.88
460.138	663.88
460.358	698.88
460.578	699.88
460.798	698.88
461.018	703.88
461.238	715.88
461.458	715.88
461.678	672.88
461.898	715.88
462.118	719.88
462.338	717.88
462.558	728.88
462.777	765.88
462.997	790.88
463.217	849.88
463.437	844.88
463.657	815.88
463.876	789.88
464.096	784.88
464.316	761.88
464.536	792.88
464.755	766.88
464.975	763.88
465.195	752.88
465.414	765.88
465.634	687.88
465.854	673.88
466.073	651.88
466.293	649.88
466.512	630.88
466.732	604.88
466.951	608.88
467.171	610.88
467.391	653.88
467.61	607.88
467.829	618.88
468.049	609.88
468.268	604.88
468.488	592.88
468.707	590.88
468.927	579.88
469.146	590.88
469.365	628.88
469.585	604.88
469.804	645.88
470.023	623.88
470.243	646.88
470.462	613.88
470.681	639.88
470.901	611.88
471.12	637.88
471.339	609.88
471.558	628.88
471.777	612.88
471.997	599.88
472.216	611.88
472.435	616.88
472.654	621.88
472.873	609.88
473.092	606.88
473.311	592.88
473.53	588.88
473.749	589.88
473.968	629.88
474.187	701.88
474.406	723.88
474.625	645.88
474.844	608.88
475.063	604.88
475.282	591.88
475.501	603.88
475.72	596.88
475.939	634.88
476.158	611.88
476.377	603.88
476.596	632.88
476.814	635.88
477.033	606.88
477.252	627.88
477.471	669.88
477.69	673.88
477.908	682.88
478.127	678.88
478.346	693.88
478.564	703.88
478.783	714.88
479.002	704.88
479.22	735.88
479.439	743.88
479.658	748.88
479.876	744.88
480.095	741.88
480.313	791.88
480.532	767.88
480.751	771.88
480.969	789.88
481.188	806.88
481.406	804.88
481.624	745.88
481.843	735.88
482.061	717.88
482.28	692.88
482.498	679.88
482.717	691.88
482.935	713.88
483.153	694.88
483.372	691.88
483.59	700.88
483.808	709.88
484.027	673.88
484.245	713.88
484.463	703.88
484.681	727.88
484.9	717.88
485.118	723.88
485.336	746.88
485.554	716.88
485.772	716.88
485.99	719.88
486.209	739.88
486.427	746.88
486.645	777.88
486.863	755.88
487.081	753.88
487.299	763.88
487.517	755.88
487.735	721.88
487.953	728.88
488.171	743.88
488.389	725.88
488.607	743.88
488.825	754.88
489.043	756.88
489.261	743.88
489.479	722.88
489.696	728.88
489.914	747.88
490.132	769.88
490.35	785.88
490.568	791.88
490.786	781.88
491.003	801.88
491.221	781.88
491.439	797.88
491.657	804.88
491.874	811.88
492.092	830.88
492.31	832.88
492.527	820.88
492.745	837.88
492.963	844.88
493.18	846.88
493.398	859.88
493.615	843.88
493.833	868.88
494.05	856.88
494.268	870.88
494.485	859.88
494.703	844.88
494.92	856.88
495.138	836.88
495.355	861.88
495.573	873.88
495.79	870.88
496.008	851.88
496.225	868.88
496.442	873.88
496.66	920.88
496.877	891.88
497.094	881.88
497.312	891.88
497.529	942.88
497.746	938.88
497.963	952.88
498.181	965.88
498.398	1004.88
498.615	1029.88
498.832	1096.88
499.049	1141.88
499.267	1172.88
499.484	1273.88
499.701	1361.88
499.918	1437.88
500.135	1603.88
500.352	1724.88
500.569	1785.88
500.786	1775.88
501.003	1687.88
501.22	1587.88
501.437	1488.88
501.654	1358.88
