Data from 1963.PennyLincolnUp.Lamp.En5.5.200Scan.071719.P1._HRD10591_13-57-45-063.txt Node
Date: Thu Jul 18 13:57:45 EDT 2019
User: cochatt
Spectrometer: HR+D1059
Trigger mode: 1
Integration Time (sec): 1.000000E-1
Scans to average: 1
Electric dark correction enabled: true
Nonlinearity correction enabled: false
Boxcar width: 0
XAxis mode: Wavelengths
Number of Pixels in Spectrum: 2048
>>>>>Begin Spectral Data<<<<<
223.165	-5.31
223.4	-5.31
223.635	-5.31
223.869	-24.31
224.104	-6.31
224.338	-18.31
224.573	-24.31
224.808	-11.31
225.042	-9.31
225.277	-5.31
225.511	6.69
225.746	-1.31
225.98	6.69
226.215	14.69
226.449	13.69
226.683	20.69
226.918	14.69
227.152	28.69
227.387	41.69
227.621	31.69
227.856	41.69
228.09	56.69
228.324	59.69
228.559	59.69
228.793	73.69
229.027	86.69
229.262	104.69
229.496	85.69
229.73	108.69
229.964	113.69
230.199	111.69
230.433	104.69
230.667	104.69
230.901	114.69
231.136	97.69
231.37	114.69
231.604	115.69
231.838	105.69
232.072	109.69
232.306	116.69
232.541	110.69
232.775	117.69
233.009	129.69
233.243	119.69
233.477	117.69
233.711	121.69
233.945	113.69
234.179	114.69
234.413	124.69
234.647	124.69
234.881	123.69
235.115	128.69
235.349	120.69
235.583	107.69
235.817	106.69
236.051	131.69
236.285	121.69
236.519	123.69
236.753	120.69
236.987	138.69
237.221	155.69
237.455	181.69
237.689	169.69
237.922	123.69
238.156	128.69
238.39	127.69
238.624	145.69
238.858	122.69
239.091	125.69
239.325	119.69
239.559	125.69
239.793	142.69
240.027	136.69
240.26	138.69
240.494	140.69
240.728	140.69
240.961	147.69
241.195	143.69
241.429	144.69
241.662	156.69
241.896	149.69
242.13	143.69
242.363	154.69
242.597	149.69
242.83	138.69
243.064	153.69
243.298	147.69
243.531	160.69
243.765	139.69
243.998	141.69
244.232	147.69
244.465	145.69
244.699	153.69
244.932	150.69
245.166	150.69
245.399	156.69
245.633	149.69
245.866	165.69
246.099	151.69
246.333	153.69
246.566	153.69
246.8	184.69
247.033	163.69
247.266	147.69
247.5	142.69
247.733	165.69
247.966	169.69
248.2	176.69
248.433	172.69
248.666	179.69
248.899	187.69
249.133	184.69
249.366	176.69
249.599	211.69
249.832	189.69
250.066	183.69
250.299	189.69
250.532	191.69
250.765	208.69
250.998	193.69
251.231	222.69
251.465	191.69
251.698	219.69
251.931	197.69
252.164	203.69
252.397	195.69
252.63	199.69
252.863	189.69
253.096	216.69
253.329	228.69
253.562	229.69
253.795	225.69
254.028	220.69
254.261	213.69
254.494	223.69
254.727	234.69
254.96	240.69
255.193	255.69
255.426	233.69
255.659	212.69
255.892	237.69
256.124	226.69
256.357	239.69
256.59	233.69
256.823	215.69
257.056	220.69
257.289	218.69
257.521	237.69
257.754	237.69
257.987	208.69
258.22	209.69
258.452	207.69
258.685	221.69
258.918	218.69
259.151	216.69
259.383	221.69
259.616	224.69
259.849	255.69
260.081	242.69
260.314	259.69
260.547	246.69
260.779	231.69
261.012	222.69
261.244	235.69
261.477	236.69
261.71	228.69
261.942	203.69
262.175	235.69
262.407	220.69
262.64	233.69
262.872	222.69
263.105	216.69
263.337	219.69
263.57	241.69
263.802	228.69
264.035	229.69
264.267	241.69
264.499	237.69
264.732	241.69
264.964	229.69
265.197	240.69
265.429	223.69
265.661	232.69
265.894	242.69
266.126	236.69
266.358	230.69
266.591	259.69
266.823	263.69
267.055	240.69
267.287	252.69
267.52	240.69
267.752	249.69
267.984	258.69
268.216	249.69
268.448	236.69
268.681	255.69
268.913	259.69
269.145	268.69
269.377	277.69
269.609	276.69
269.841	273.69
270.073	275.69
270.306	300.69
270.538	307.69
270.77	280.69
271.002	296.69
271.234	282.69
271.466	279.69
271.698	314.69
271.93	321.69
272.162	291.69
272.394	300.69
272.626	307.69
272.858	281.69
273.09	268.69
273.322	299.69
273.553	296.69
273.785	287.69
274.017	275.69
274.249	294.69
274.481	296.69
274.713	288.69
274.945	305.69
275.176	302.69
275.408	296.69
275.64	288.69
275.872	283.69
276.104	300.69
276.335	301.69
276.567	303.69
276.799	296.69
277.031	294.69
277.262	301.69
277.494	292.69
277.726	324.69
277.957	303.69
278.189	296.69
278.421	308.69
278.652	286.69
278.884	293.69
279.115	303.69
279.347	307.69
279.579	293.69
279.81	290.69
280.042	297.69
280.273	306.69
280.505	317.69
280.736	291.69
280.968	299.69
281.199	305.69
281.431	308.69
281.662	310.69
281.894	315.69
282.125	312.69
282.356	313.69
282.588	328.69
282.819	328.69
283.051	316.69
283.282	317.69
283.513	315.69
283.745	321.69
283.976	324.69
284.207	323.69
284.439	321.69
284.67	317.69
284.901	319.69
285.132	317.69
285.364	337.69
285.595	321.69
285.826	337.69
286.057	331.69
286.288	325.69
286.52	323.69
286.751	328.69
286.982	353.69
287.213	338.69
287.444	344.69
287.675	322.69
287.906	332.69
288.138	324.69
288.369	338.69
288.6	330.69
288.831	333.69
289.062	349.69
289.293	339.69
289.524	348.69
289.755	337.69
289.986	344.69
290.217	358.69
290.448	329.69
290.679	342.69
290.91	330.69
291.141	341.69
291.371	347.69
291.602	344.69
291.833	342.69
292.064	331.69
292.295	342.69
292.526	348.69
292.757	337.69
292.987	360.69
293.218	338.69
293.449	341.69
293.68	346.69
293.91	341.69
294.141	332.69
294.372	339.69
294.603	357.69
294.833	359.69
295.064	346.69
295.295	346.69
295.525	335.69
295.756	341.69
295.987	345.69
296.217	358.69
296.448	372.69
296.679	381.69
296.909	369.69
297.14	370.69
297.37	364.69
297.601	367.69
297.831	369.69
298.062	360.69
298.292	366.69
298.523	372.69
298.753	361.69
298.984	375.69
299.214	376.69
299.445	371.69
299.675	385.69
299.905	375.69
300.136	377.69
300.366	391.69
300.597	361.69
300.827	393.69
301.057	385.69
301.288	410.69
301.518	395.69
301.748	379.69
301.979	383.69
302.209	395.69
302.439	392.69
302.669	385.69
302.9	388.69
303.13	393.69
303.36	390.69
303.59	382.69
303.82	396.69
304.051	402.69
304.281	390.69
304.511	384.69
304.741	396.69
304.971	386.69
305.201	390.69
305.431	403.69
305.661	401.69
305.891	389.69
306.121	389.69
306.352	388.69
306.582	403.69
306.812	401.69
307.042	389.69
307.272	380.69
307.502	396.69
307.731	381.69
307.961	392.69
308.191	390.69
308.421	393.69
308.651	406.69
308.881	381.69
309.111	388.69
309.341	370.69
309.571	411.69
309.8	428.69
310.03	387.69
310.26	409.69
310.49	399.69
310.72	413.69
310.949	440.69
311.179	442.69
311.409	421.69
311.639	409.69
311.868	405.69
312.098	407.69
312.328	405.69
312.557	431.69
312.787	435.69
313.017	437.69
313.246	425.69
313.476	434.69
313.706	421.69
313.935	458.69
314.165	443.69
314.394	437.69
314.624	448.69
314.853	431.69
315.083	424.69
315.312	433.69
315.542	452.69
315.771	439.69
316.001	433.69
316.23	433.69
316.46	440.69
316.689	447.69
316.919	450.69
317.148	441.69
317.377	427.69
317.607	429.69
317.836	437.69
318.065	417.69
318.295	431.69
318.524	429.69
318.753	410.69
318.983	422.69
319.212	412.69
319.441	445.69
319.67	440.69
319.9	435.69
320.129	428.69
320.358	437.69
320.587	423.69
320.816	445.69
321.046	443.69
321.275	459.69
321.504	439.69
321.733	450.69
321.962	445.69
322.191	451.69
322.42	472.69
322.649	462.69
322.878	461.69
323.108	463.69
323.337	490.69
323.566	487.69
323.795	515.69
324.024	534.69
324.253	565.69
324.482	682.69
324.71	965.69
324.939	1363.69
325.168	1223.69
325.397	688.69
325.626	567.69
325.855	490.69
326.084	499.69
326.313	499.69
326.542	499.69
326.77	520.69
326.999	572.69
327.228	682.69
327.457	937.69
327.686	1124.69
327.914	780.69
328.143	582.69
328.372	547.69
328.6	544.69
328.829	535.69
329.058	572.69
329.287	543.69
329.515	561.69
329.744	477.69
329.972	534.69
330.201	543.69
330.43	555.69
330.658	567.69
330.887	557.69
331.115	572.69
331.344	535.69
331.572	536.69
331.801	534.69
332.03	530.69
332.258	536.69
332.486	531.69
332.715	545.69
332.943	565.69
333.172	563.69
333.4	565.69
333.629	579.69
333.857	586.69
334.085	598.69
334.314	626.69
334.542	603.69
334.771	636.69
334.999	589.69
335.227	575.69
335.455	579.69
335.684	563.69
335.912	556.69
336.14	535.69
336.369	561.69
336.597	553.69
336.825	545.69
337.053	539.69
337.281	545.69
337.51	527.69
337.738	549.69
337.966	521.69
338.194	515.69
338.422	514.69
338.65	514.69
338.878	528.69
339.106	513.69
339.334	521.69
339.562	527.69
339.79	507.69
340.018	521.69
340.246	496.69
340.474	501.69
340.702	496.69
340.93	486.69
341.158	488.69
341.386	494.69
341.614	491.69
341.842	490.69
342.07	498.69
342.298	474.69
342.526	486.69
342.754	484.69
342.981	479.69
343.209	484.69
343.437	533.69
343.665	522.69
343.893	563.69
344.12	578.69
344.348	582.69
344.576	548.69
344.804	542.69
345.031	514.69
345.259	501.69
345.487	480.69
345.714	506.69
345.942	481.69
346.17	490.69
346.397	477.69
346.625	457.69
346.853	469.69
347.08	475.69
347.308	468.69
347.535	467.69
347.763	490.69
347.99	499.69
348.218	476.69
348.445	500.69
348.673	466.69
348.9	477.69
349.128	484.69
349.355	477.69
349.583	460.69
349.81	476.69
350.037	459.69
350.265	477.69
350.492	452.69
350.72	449.69
350.947	458.69
351.174	472.69
351.402	473.69
351.629	477.69
351.856	464.69
352.083	482.69
352.311	473.69
352.538	469.69
352.765	469.69
352.992	510.69
353.22	495.69
353.447	474.69
353.674	481.69
353.901	472.69
354.128	447.69
354.355	449.69
354.583	450.69
354.81	455.69
355.037	468.69
355.264	442.69
355.491	471.69
355.718	459.69
355.945	458.69
356.172	471.69
356.399	451.69
356.626	464.69
356.853	468.69
357.08	460.69
357.307	465.69
357.534	461.69
357.761	459.69
357.988	466.69
358.215	466.69
358.441	461.69
358.668	484.69
358.895	463.69
359.122	471.69
359.349	476.69
359.576	485.69
359.802	492.69
360.029	501.69
360.256	518.69
360.483	501.69
360.709	485.69
360.936	475.69
361.163	479.69
361.39	462.69
361.616	485.69
361.843	505.69
362.07	467.69
362.296	462.69
362.523	479.69
362.749	488.69
362.976	456.69
363.203	468.69
363.429	479.69
363.656	451.69
363.882	465.69
364.109	469.69
364.335	459.69
364.562	480.69
364.788	470.69
365.015	491.69
365.241	479.69
365.468	447.69
365.694	490.69
365.92	467.69
366.147	472.69
366.373	471.69
366.599	471.69
366.826	485.69
367.052	454.69
367.278	465.69
367.505	457.69
367.731	481.69
367.957	468.69
368.184	479.69
368.41	479.69
368.636	480.69
368.862	487.69
369.089	488.69
369.315	467.69
369.541	472.69
369.767	506.69
369.993	468.69
370.219	496.69
370.445	500.69
370.672	500.69
370.898	489.69
371.124	487.69
371.35	489.69
371.576	507.69
371.802	489.69
372.028	487.69
372.254	477.69
372.48	503.69
372.706	480.69
372.932	489.69
373.158	514.69
373.384	492.69
373.61	498.69
373.835	495.69
374.061	507.69
374.287	505.69
374.513	510.69
374.739	512.69
374.965	533.69
375.191	519.69
375.416	503.69
375.642	501.69
375.868	503.69
376.094	503.69
376.319	488.69
376.545	492.69
376.771	500.69
376.997	515.69
377.222	505.69
377.448	492.69
377.674	515.69
377.899	486.69
378.125	488.69
378.35	480.69
378.576	473.69
378.802	492.69
379.027	485.69
379.253	496.69
379.478	489.69
379.704	473.69
379.929	485.69
380.155	508.69
380.38	484.69
380.606	487.69
380.831	497.69
381.057	482.69
381.282	508.69
381.507	481.69
381.733	507.69
381.958	500.69
382.184	514.69
382.409	513.69
382.634	515.69
382.86	502.69
383.085	537.69
383.31	527.69
383.535	499.69
383.761	533.69
383.986	543.69
384.211	534.69
384.436	530.69
384.662	549.69
384.887	553.69
385.112	556.69
385.337	563.69
385.562	555.69
385.787	570.69
386.013	577.69
386.238	559.69
386.463	583.69
386.688	572.69
386.913	564.69
387.138	551.69
387.363	579.69
387.588	565.69
387.813	558.69
388.038	556.69
388.263	563.69
388.488	571.69
388.713	580.69
388.938	539.69
389.163	561.69
389.387	573.69
389.612	561.69
389.837	577.69
390.062	573.69
390.287	568.69
390.512	576.69
390.736	559.69
390.961	573.69
391.186	573.69
391.411	585.69
391.636	615.69
391.86	599.69
392.085	603.69
392.31	602.69
392.534	594.69
392.759	598.69
392.984	593.69
393.208	608.69
393.433	583.69
393.658	569.69
393.882	599.69
394.107	600.69
394.331	602.69
394.556	579.69
394.78	593.69
395.005	608.69
395.229	603.69
395.454	590.69
395.678	607.69
395.903	631.69
396.127	649.69
396.352	609.69
396.576	599.69
396.801	608.69
397.025	624.69
397.249	610.69
397.474	593.69
397.698	625.69
397.922	648.69
398.147	641.69
398.371	635.69
398.595	677.69
398.82	681.69
399.044	682.69
399.268	744.69
399.492	818.69
399.717	895.69
399.941	913.69
400.165	899.69
400.389	819.69
400.613	777.69
400.837	731.69
401.062	694.69
401.286	683.69
401.51	690.69
401.734	691.69
401.958	702.69
402.182	697.69
402.406	679.69
402.63	688.69
402.854	695.69
403.078	699.69
403.302	722.69
403.526	736.69
403.75	737.69
403.974	747.69
404.198	764.69
404.422	769.69
404.645	768.69
404.869	745.69
405.093	754.69
405.317	803.69
405.541	804.69
405.765	763.69
405.988	755.69
406.212	742.69
406.436	760.69
406.66	775.69
406.883	765.69
407.107	799.69
407.331	835.69
407.555	888.69
407.778	893.69
408.002	842.69
408.226	790.69
408.449	797.69
408.673	769.69
408.896	767.69
409.12	811.69
409.344	810.69
409.567	752.69
409.791	747.69
410.014	734.69
410.238	741.69
410.461	706.69
410.685	726.69
410.908	716.69
411.132	731.69
411.355	745.69
411.578	724.69
411.802	697.69
412.025	712.69
412.249	700.69
412.472	765.69
412.695	740.69
412.919	730.69
413.142	705.69
413.365	677.69
413.589	687.69
413.812	683.69
414.035	708.69
414.258	671.69
414.482	673.69
414.705	683.69
414.928	663.69
415.151	676.69
415.374	684.69
415.597	661.69
415.821	651.69
416.044	655.69
416.267	657.69
416.49	634.69
416.713	654.69
416.936	662.69
417.159	666.69
417.382	661.69
417.605	677.69
417.828	674.69
418.051	674.69
418.274	672.69
418.497	667.69
418.72	678.69
418.943	659.69
419.166	706.69
419.389	746.69
419.611	735.69
419.834	704.69
420.057	723.69
420.28	715.69
420.503	682.69
420.726	683.69
420.948	674.69
421.171	695.69
421.394	741.69
421.617	705.69
421.839	680.69
422.062	691.69
422.285	683.69
422.507	740.69
422.73	787.69
422.953	748.69
423.175	698.69
423.398	697.69
423.621	701.69
423.843	729.69
424.066	738.69
424.288	727.69
424.511	745.69
424.733	733.69
424.956	793.69
425.178	780.69
425.401	790.69
425.623	809.69
425.846	721.69
426.068	699.69
426.291	677.69
426.513	684.69
426.735	692.69
426.958	712.69
427.18	765.69
427.402	854.69
427.625	903.69
427.847	793.69
428.069	722.69
428.292	687.69
428.514	655.69
428.736	633.69
428.958	643.69
429.181	633.69
429.403	606.69
429.625	636.69
429.847	641.69
430.069	670.69
430.292	678.69
430.514	635.69
430.736	637.69
430.958	634.69
431.18	592.69
431.402	617.69
431.624	609.69
431.846	615.69
432.068	625.69
432.29	613.69
432.512	622.69
432.734	652.69
432.956	611.69
433.178	621.69
433.4	607.69
433.622	641.69
433.844	633.69
434.066	630.69
434.287	653.69
434.509	648.69
434.731	670.69
434.953	661.69
435.175	673.69
435.397	724.69
435.618	673.69
435.84	708.69
436.062	758.69
436.284	811.69
436.505	701.69
436.727	680.69
436.949	647.69
437.17	647.69
437.392	627.69
437.614	639.69
437.835	657.69
438.057	697.69
438.278	777.69
438.5	785.69
438.721	841.69
438.943	808.69
439.165	676.69
439.386	647.69
439.608	649.69
439.829	656.69
440.05	667.69
440.272	697.69
440.493	698.69
440.715	640.69
440.936	657.69
441.158	634.69
441.379	653.69
441.6	649.69
441.822	679.69
442.043	720.69
442.264	771.69
442.486	826.69
442.707	731.69
442.928	688.69
443.149	695.69
443.371	722.69
443.592	763.69
443.813	828.69
444.034	868.69
444.255	761.69
444.476	739.69
444.698	760.69
444.919	757.69
445.14	872.69
445.361	803.69
445.582	759.69
445.803	741.69
446.024	802.69
446.245	819.69
446.466	756.69
446.687	665.69
446.908	655.69
447.129	622.69
447.35	633.69
447.571	595.69
447.792	609.69
448.013	605.69
448.234	615.69
448.455	635.69
448.675	705.69
448.896	805.69
449.117	697.69
449.338	683.69
449.559	772.69
449.779	832.69
450	721.69
450.221	612.69
450.442	616.69
450.662	573.69
450.883	602.69
451.104	621.69
451.324	583.69
451.545	591.69
451.766	577.69
451.986	563.69
452.207	562.69
452.428	574.69
452.648	566.69
452.869	575.69
453.089	586.69
453.31	559.69
453.53	560.69
453.751	561.69
453.971	556.69
454.192	578.69
454.412	543.69
454.633	541.69
454.853	545.69
455.073	545.69
455.294	574.69
455.514	625.69
455.734	593.69
455.955	559.69
456.175	550.69
456.395	540.69
456.616	541.69
456.836	554.69
457.056	527.69
457.276	532.69
457.497	522.69
457.717	544.69
457.937	560.69
458.157	542.69
458.377	548.69
458.598	563.69
458.818	607.69
459.038	657.69
459.258	700.69
459.478	635.69
459.698	653.69
459.918	657.69
460.138	657.69
460.358	692.69
460.578	697.69
460.798	682.69
461.018	702.69
461.238	688.69
461.458	688.69
461.678	691.69
461.898	708.69
462.118	660.69
462.338	700.69
462.558	736.69
462.777	770.69
462.997	811.69
463.217	827.69
463.437	838.69
463.657	823.69
463.876	787.69
464.096	767.69
464.316	773.69
464.536	744.69
464.755	724.69
464.975	689.69
465.195	723.69
465.414	764.69
465.634	711.69
465.854	631.69
466.073	636.69
466.293	623.69
466.512	601.69
466.732	604.69
466.951	590.69
467.171	583.69
467.391	595.69
467.61	609.69
467.829	599.69
468.049	603.69
468.268	588.69
468.488	579.69
468.707	572.69
468.927	579.69
469.146	561.69
469.365	593.69
469.585	597.69
469.804	610.69
470.023	592.69
470.243	626.69
470.462	629.69
470.681	613.69
470.901	617.69
471.12	624.69
471.339	604.69
471.558	600.69
471.777	595.69
471.997	609.69
472.216	588.69
472.435	619.69
472.654	609.69
472.873	574.69
473.092	599.69
473.311	588.69
473.53	564.69
473.749	595.69
473.968	602.69
474.187	675.69
474.406	651.69
474.625	612.69
474.844	595.69
475.063	569.69
475.282	600.69
475.501	584.69
475.72	600.69
475.939	604.69
476.158	597.69
476.377	626.69
476.596	611.69
476.814	631.69
477.033	617.69
477.252	608.69
477.471	643.69
477.69	635.69
477.908	628.69
478.127	659.69
478.346	683.69
478.564	697.69
478.783	698.69
479.002	695.69
479.22	704.69
479.439	717.69
479.658	713.69
479.876	744.69
480.095	728.69
480.313	781.69
480.532	789.69
480.751	779.69
480.969	759.69
481.188	791.69
481.406	807.69
481.624	731.69
481.843	703.69
482.061	703.69
482.28	712.69
482.498	680.69
482.717	689.69
482.935	688.69
483.153	669.69
483.372	677.69
483.59	668.69
483.808	658.69
484.027	678.69
484.245	698.69
484.463	692.69
484.681	716.69
484.9	697.69
485.118	702.69
485.336	679.69
485.554	716.69
485.772	697.69
485.99	723.69
486.209	711.69
486.427	735.69
486.645	710.69
486.863	740.69
487.081	725.69
487.299	741.69
487.517	743.69
487.735	707.69
487.953	752.69
488.171	734.69
488.389	736.69
488.607	723.69
488.825	712.69
489.043	698.69
489.261	729.69
489.479	721.69
489.696	753.69
489.914	714.69
490.132	727.69
490.35	735.69
490.568	755.69
490.786	782.69
491.003	787.69
491.221	767.69
491.439	785.69
491.657	790.69
491.874	819.69
492.092	803.69
492.31	787.69
492.527	771.69
492.745	819.69
492.963	815.69
493.18	834.69
493.398	820.69
493.615	815.69
493.833	826.69
494.05	822.69
494.268	851.69
494.485	823.69
494.703	861.69
494.92	817.69
495.138	827.69
495.355	856.69
495.573	825.69
495.79	817.69
496.008	845.69
496.225	857.69
496.442	841.69
496.66	856.69
496.877	887.69
497.094	862.69
497.312	884.69
497.529	883.69
497.746	905.69
497.963	935.69
498.181	972.69
498.398	964.69
498.615	997.69
498.832	1047.69
499.049	1130.69
499.267	1179.69
499.484	1233.69
499.701	1336.69
499.918	1420.69
500.135	1576.69
500.352	1671.69
500.569	1746.69
500.786	1731.69
501.003	1670.69
501.22	1515.69
501.437	1461.69
501.654	1331.69
501.871	1287.69
