Data from 1963.PennyLincolnUp.Lamp.En5.5.200Scan.071719.P1._HRD10591_13-57-20-062.txt Node
Date: Thu Jul 18 13:57:20 EDT 2019
User: cochatt
Spectrometer: HR+D1059
Trigger mode: 1
Integration Time (sec): 1.000000E-1
Scans to average: 1
Electric dark correction enabled: true
Nonlinearity correction enabled: false
Boxcar width: 0
XAxis mode: Wavelengths
Number of Pixels in Spectrum: 2048
>>>>>Begin Spectral Data<<<<<
223.165	-18.12
223.4	-18.12
223.635	-18.12
223.869	-22.12
224.104	-20.12
224.338	-25.12
224.573	-4.12
224.808	-10.12
225.042	-2.12
225.277	-11.12
225.511	0.88
225.746	-11.12
225.98	-1.12
226.215	17.88
226.449	11.88
226.683	35.88
226.918	20.88
227.152	37.88
227.387	26.88
227.621	42.88
227.856	50.88
228.09	54.88
228.324	45.88
228.559	49.88
228.793	52.88
229.027	97.88
229.262	99.88
229.496	102.88
229.73	113.88
229.964	129.88
230.199	112.88
230.433	112.88
230.667	113.88
230.901	113.88
231.136	101.88
231.37	114.88
231.604	119.88
231.838	112.88
232.072	118.88
232.306	103.88
232.541	124.88
232.775	124.88
233.009	128.88
233.243	112.88
233.477	102.88
233.711	110.88
233.945	116.88
234.179	126.88
234.413	115.88
234.647	123.88
234.881	116.88
235.115	102.88
235.349	114.88
235.583	122.88
235.817	120.88
236.051	117.88
236.285	135.88
236.519	116.88
236.753	120.88
236.987	123.88
237.221	144.88
237.455	175.88
237.689	180.88
237.922	139.88
238.156	130.88
238.39	127.88
238.624	118.88
238.858	127.88
239.091	130.88
239.325	120.88
239.559	128.88
239.793	136.88
240.027	142.88
240.26	147.88
240.494	145.88
240.728	144.88
240.961	139.88
241.195	148.88
241.429	141.88
241.662	140.88
241.896	144.88
242.13	153.88
242.363	132.88
242.597	144.88
242.83	152.88
243.064	141.88
243.298	144.88
243.531	148.88
243.765	149.88
243.998	167.88
244.232	164.88
244.465	147.88
244.699	153.88
244.932	155.88
245.166	159.88
245.399	167.88
245.633	155.88
245.866	163.88
246.099	163.88
246.333	157.88
246.566	164.88
246.8	150.88
247.033	163.88
247.266	175.88
247.5	163.88
247.733	181.88
247.966	171.88
248.2	189.88
248.433	185.88
248.666	190.88
248.899	175.88
249.133	192.88
249.366	191.88
249.599	176.88
249.832	180.88
250.066	188.88
250.299	192.88
250.532	205.88
250.765	202.88
250.998	221.88
251.231	203.88
251.465	207.88
251.698	207.88
251.931	203.88
252.164	189.88
252.397	191.88
252.63	198.88
252.863	218.88
253.096	214.88
253.329	208.88
253.562	226.88
253.795	217.88
254.028	210.88
254.261	222.88
254.494	228.88
254.727	225.88
254.96	243.88
255.193	247.88
255.426	246.88
255.659	236.88
255.892	235.88
256.124	211.88
256.357	240.88
256.59	221.88
256.823	217.88
257.056	219.88
257.289	218.88
257.521	215.88
257.754	222.88
257.987	230.88
258.22	213.88
258.452	225.88
258.685	209.88
258.918	219.88
259.151	202.88
259.383	226.88
259.616	225.88
259.849	213.88
260.081	240.88
260.314	227.88
260.547	259.88
260.779	240.88
261.012	236.88
261.244	221.88
261.477	228.88
261.71	215.88
261.942	222.88
262.175	243.88
262.407	231.88
262.64	232.88
262.872	244.88
263.105	211.88
263.337	231.88
263.57	225.88
263.802	220.88
264.035	218.88
264.267	258.88
264.499	225.88
264.732	227.88
264.964	241.88
265.197	234.88
265.429	248.88
265.661	234.88
265.894	234.88
266.126	241.88
266.358	230.88
266.591	219.88
266.823	247.88
267.055	245.88
267.287	244.88
267.52	247.88
267.752	239.88
267.984	261.88
268.216	249.88
268.448	259.88
268.681	243.88
268.913	261.88
269.145	269.88
269.377	264.88
269.609	288.88
269.841	276.88
270.073	288.88
270.306	295.88
270.538	306.88
270.77	311.88
271.002	275.88
271.234	274.88
271.466	291.88
271.698	296.88
271.93	307.88
272.162	310.88
272.394	298.88
272.626	300.88
272.858	292.88
273.09	291.88
273.322	290.88
273.553	295.88
273.785	279.88
274.017	282.88
274.249	268.88
274.481	289.88
274.713	273.88
274.945	281.88
275.176	282.88
275.408	269.88
275.64	285.88
275.872	277.88
276.104	276.88
276.335	293.88
276.567	280.88
276.799	263.88
277.031	311.88
277.262	306.88
277.494	320.88
277.726	315.88
277.957	307.88
278.189	312.88
278.421	300.88
278.652	313.88
278.884	305.88
279.115	303.88
279.347	295.88
279.579	308.88
279.81	318.88
280.042	308.88
280.273	293.88
280.505	313.88
280.736	294.88
280.968	315.88
281.199	288.88
281.431	299.88
281.662	320.88
281.894	295.88
282.125	307.88
282.356	311.88
282.588	329.88
282.819	323.88
283.051	311.88
283.282	319.88
283.513	315.88
283.745	315.88
283.976	310.88
284.207	324.88
284.439	342.88
284.67	317.88
284.901	338.88
285.132	330.88
285.364	318.88
285.595	327.88
285.826	320.88
286.057	323.88
286.288	336.88
286.52	332.88
286.751	322.88
286.982	325.88
287.213	328.88
287.444	327.88
287.675	346.88
287.906	328.88
288.138	338.88
288.369	363.88
288.6	354.88
288.831	337.88
289.062	329.88
289.293	328.88
289.524	334.88
289.755	340.88
289.986	334.88
290.217	344.88
290.448	343.88
290.679	354.88
290.91	349.88
291.141	343.88
291.371	361.88
291.602	354.88
291.833	330.88
292.064	345.88
292.295	350.88
292.526	350.88
292.757	373.88
292.987	312.88
293.218	341.88
293.449	353.88
293.68	355.88
293.91	333.88
294.141	349.88
294.372	338.88
294.603	343.88
294.833	349.88
295.064	385.88
295.295	342.88
295.525	355.88
295.756	365.88
295.987	354.88
296.217	361.88
296.448	375.88
296.679	367.88
296.909	376.88
297.14	348.88
297.37	359.88
297.601	365.88
297.831	357.88
298.062	340.88
298.292	369.88
298.523	381.88
298.753	378.88
298.984	370.88
299.214	369.88
299.445	364.88
299.675	367.88
299.905	373.88
300.136	380.88
300.366	382.88
300.597	373.88
300.827	383.88
301.057	378.88
301.288	383.88
301.518	352.88
301.748	389.88
301.979	400.88
302.209	380.88
302.439	374.88
302.669	409.88
302.9	405.88
303.13	382.88
303.36	387.88
303.59	395.88
303.82	401.88
304.051	389.88
304.281	399.88
304.511	374.88
304.741	391.88
304.971	392.88
305.201	396.88
305.431	379.88
305.661	393.88
305.891	391.88
306.121	400.88
306.352	405.88
306.582	390.88
306.812	397.88
307.042	391.88
307.272	403.88
307.502	384.88
307.731	420.88
307.961	398.88
308.191	411.88
308.421	380.88
308.651	409.88
308.881	402.88
309.111	385.88
309.341	395.88
309.571	382.88
309.8	402.88
310.03	390.88
310.26	405.88
310.49	401.88
310.72	398.88
310.949	414.88
311.179	416.88
311.409	421.88
311.639	417.88
311.868	394.88
312.098	424.88
312.328	411.88
312.557	427.88
312.787	425.88
313.017	432.88
313.246	411.88
313.476	425.88
313.706	425.88
313.935	433.88
314.165	455.88
314.394	447.88
314.624	441.88
314.853	425.88
315.083	449.88
315.312	431.88
315.542	437.88
315.771	428.88
316.001	429.88
316.23	428.88
316.46	433.88
316.689	415.88
316.919	428.88
317.148	438.88
317.377	445.88
317.607	438.88
317.836	437.88
318.065	440.88
318.295	425.88
318.524	431.88
318.753	431.88
318.983	432.88
319.212	415.88
319.441	434.88
319.67	434.88
319.9	443.88
320.129	428.88
320.358	421.88
320.587	415.88
320.816	443.88
321.046	433.88
321.275	433.88
321.504	434.88
321.733	417.88
321.962	431.88
322.191	473.88
322.42	447.88
322.649	457.88
322.878	464.88
323.108	451.88
323.337	483.88
323.566	468.88
323.795	480.88
324.024	502.88
324.253	546.88
324.482	640.88
324.71	857.88
324.939	1215.88
325.168	1074.88
325.397	643.88
325.626	516.88
325.855	501.88
326.084	493.88
326.313	481.88
326.542	504.88
326.77	495.88
326.999	538.88
327.228	636.88
327.457	839.88
327.686	979.88
327.914	736.88
328.143	572.88
328.372	551.88
328.6	538.88
328.829	519.88
329.058	536.88
329.287	544.88
329.515	486.88
329.744	511.88
329.972	517.88
330.201	524.88
330.43	545.88
330.658	547.88
330.887	540.88
331.115	556.88
331.344	545.88
331.572	521.88
331.801	532.88
332.03	525.88
332.258	543.88
332.486	516.88
332.715	548.88
332.943	523.88
333.172	568.88
333.4	592.88
333.629	596.88
333.857	599.88
334.085	610.88
334.314	601.88
334.542	621.88
334.771	587.88
334.999	607.88
335.227	580.88
335.455	564.88
335.684	553.88
335.912	537.88
336.14	544.88
336.369	548.88
336.597	559.88
336.825	526.88
337.053	551.88
337.281	533.88
337.51	535.88
337.738	543.88
337.966	531.88
338.194	500.88
338.422	530.88
338.65	513.88
338.878	515.88
339.106	521.88
339.334	501.88
339.562	500.88
339.79	500.88
340.018	487.88
340.246	487.88
340.474	481.88
340.702	490.88
340.93	483.88
341.158	484.88
341.386	476.88
341.614	488.88
341.842	492.88
342.07	505.88
342.298	465.88
342.526	484.88
342.754	472.88
342.981	496.88
343.209	510.88
343.437	523.88
343.665	535.88
343.893	569.88
344.12	566.88
344.348	576.88
344.576	525.88
344.804	548.88
345.031	500.88
345.259	527.88
345.487	517.88
345.714	488.88
345.942	483.88
346.17	479.88
346.397	488.88
346.625	489.88
346.853	463.88
347.08	486.88
347.308	475.88
347.535	479.88
347.763	464.88
347.99	474.88
348.218	469.88
348.445	445.88
348.673	474.88
348.9	457.88
349.128	473.88
349.355	460.88
349.583	486.88
349.81	484.88
350.037	471.88
350.265	461.88
350.492	464.88
350.72	480.88
350.947	465.88
351.174	458.88
351.402	483.88
351.629	475.88
351.856	466.88
352.083	466.88
352.311	480.88
352.538	483.88
352.765	467.88
352.992	471.88
353.22	454.88
353.447	455.88
353.674	467.88
353.901	438.88
354.128	469.88
354.355	448.88
354.583	451.88
354.81	456.88
355.037	464.88
355.264	472.88
355.491	463.88
355.718	460.88
355.945	456.88
356.172	483.88
356.399	476.88
356.626	463.88
356.853	450.88
357.08	466.88
357.307	458.88
357.534	452.88
357.761	464.88
357.988	473.88
358.215	462.88
358.441	470.88
358.668	472.88
358.895	463.88
359.122	491.88
359.349	474.88
359.576	467.88
359.802	471.88
360.029	509.88
360.256	507.88
360.483	499.88
360.709	458.88
360.936	475.88
361.163	456.88
361.39	484.88
361.616	462.88
361.843	487.88
362.07	493.88
362.296	480.88
362.523	462.88
362.749	470.88
362.976	479.88
363.203	475.88
363.429	446.88
363.656	471.88
363.882	467.88
364.109	454.88
364.335	476.88
364.562	464.88
364.788	469.88
365.015	469.88
365.241	456.88
365.468	471.88
365.694	473.88
365.92	465.88
366.147	473.88
366.373	454.88
366.599	451.88
366.826	460.88
367.052	457.88
367.278	480.88
367.505	471.88
367.731	467.88
367.957	483.88
368.184	471.88
368.41	484.88
368.636	474.88
368.862	472.88
369.089	469.88
369.315	468.88
369.541	461.88
369.767	482.88
369.993	477.88
370.219	467.88
370.445	474.88
370.672	480.88
370.898	487.88
371.124	500.88
371.35	496.88
371.576	505.88
371.802	475.88
372.028	478.88
372.254	470.88
372.48	499.88
372.706	492.88
372.932	515.88
373.158	495.88
373.384	511.88
373.61	523.88
373.835	508.88
374.061	489.88
374.287	502.88
374.513	527.88
374.739	501.88
374.965	520.88
375.191	532.88
375.416	532.88
375.642	522.88
375.868	507.88
376.094	509.88
376.319	492.88
376.545	492.88
376.771	501.88
376.997	504.88
377.222	473.88
377.448	489.88
377.674	493.88
377.899	499.88
378.125	496.88
378.35	492.88
378.576	486.88
378.802	515.88
379.027	490.88
379.253	486.88
379.478	480.88
379.704	485.88
379.929	482.88
380.155	493.88
380.38	513.88
380.606	475.88
380.831	481.88
381.057	501.88
381.282	503.88
381.507	513.88
381.733	481.88
381.958	501.88
382.184	531.88
382.409	517.88
382.634	506.88
382.86	515.88
383.085	525.88
383.31	516.88
383.535	546.88
383.761	545.88
383.986	541.88
384.211	555.88
384.436	532.88
384.662	573.88
384.887	583.88
385.112	566.88
385.337	579.88
385.562	555.88
385.787	572.88
386.013	577.88
386.238	564.88
386.463	579.88
386.688	611.88
386.913	590.88
387.138	583.88
387.363	564.88
387.588	581.88
387.813	568.88
388.038	576.88
388.263	566.88
388.488	575.88
388.713	571.88
388.938	588.88
389.163	587.88
389.387	563.88
389.612	562.88
389.837	568.88
390.062	569.88
390.287	564.88
390.512	569.88
390.736	567.88
390.961	583.88
391.186	560.88
391.411	589.88
391.636	589.88
391.86	607.88
392.085	599.88
392.31	623.88
392.534	588.88
392.759	593.88
392.984	585.88
393.208	576.88
393.433	605.88
393.658	609.88
393.882	596.88
394.107	575.88
394.331	586.88
394.556	590.88
394.78	593.88
395.005	600.88
395.229	585.88
395.454	616.88
395.678	639.88
395.903	633.88
396.127	619.88
396.352	626.88
396.576	612.88
396.801	610.88
397.025	620.88
397.249	616.88
397.474	641.88
397.698	616.88
397.922	633.88
398.147	611.88
398.371	635.88
398.595	653.88
398.82	665.88
399.044	701.88
399.268	733.88
399.492	844.88
399.717	922.88
399.941	927.88
400.165	871.88
400.389	806.88
400.613	758.88
400.837	703.88
401.062	702.88
401.286	677.88
401.51	695.88
401.734	664.88
401.958	683.88
402.182	679.88
402.406	696.88
402.63	700.88
402.854	714.88
403.078	718.88
403.302	723.88
403.526	724.88
403.75	712.88
403.974	735.88
404.198	724.88
404.422	740.88
404.645	745.88
404.869	722.88
405.093	746.88
405.317	791.88
405.541	825.88
405.765	754.88
405.988	740.88
406.212	751.88
406.436	771.88
406.66	788.88
406.883	757.88
407.107	811.88
407.331	832.88
407.555	897.88
407.778	891.88
408.002	833.88
408.226	787.88
408.449	787.88
408.673	744.88
408.896	787.88
409.12	799.88
409.344	806.88
409.567	748.88
409.791	722.88
410.014	737.88
410.238	716.88
410.461	715.88
410.685	717.88
410.908	722.88
411.132	744.88
411.355	737.88
411.578	739.88
411.802	707.88
412.025	705.88
412.249	741.88
412.472	731.88
412.695	719.88
412.919	712.88
413.142	708.88
413.365	704.88
413.589	693.88
413.812	666.88
414.035	682.88
414.258	668.88
414.482	651.88
414.705	693.88
414.928	674.88
415.151	660.88
415.374	662.88
415.597	688.88
415.821	666.88
416.044	650.88
416.267	667.88
416.49	671.88
416.713	664.88
416.936	678.88
417.159	657.88
417.382	669.88
417.605	671.88
417.828	658.88
418.051	693.88
418.274	700.88
418.497	654.88
418.72	660.88
418.943	667.88
419.166	718.88
419.389	767.88
419.611	737.88
419.834	696.88
420.057	705.88
420.28	696.88
420.503	665.88
420.726	679.88
420.948	683.88
421.171	705.88
421.394	733.88
421.617	687.88
421.839	676.88
422.062	680.88
422.285	675.88
422.507	737.88
422.73	796.88
422.953	756.88
423.175	705.88
423.398	705.88
423.621	699.88
423.843	697.88
424.066	713.88
424.288	706.88
424.511	729.88
424.733	739.88
424.956	778.88
425.178	749.88
425.401	743.88
425.623	775.88
425.846	721.88
426.068	679.88
426.291	675.88
426.513	700.88
426.735	666.88
426.958	724.88
427.18	735.88
427.402	830.88
427.625	880.88
427.847	769.88
428.069	711.88
428.292	655.88
428.514	659.88
428.736	646.88
428.958	623.88
429.181	629.88
429.403	616.88
429.625	603.88
429.847	649.88
430.069	681.88
430.292	712.88
430.514	645.88
430.736	612.88
430.958	625.88
431.18	613.88
431.402	605.88
431.624	615.88
431.846	630.88
432.068	598.88
432.29	631.88
432.512	618.88
432.734	649.88
432.956	637.88
433.178	657.88
433.4	635.88
433.622	601.88
433.844	600.88
434.066	625.88
434.287	606.88
434.509	621.88
434.731	657.88
434.953	663.88
435.175	691.88
435.397	695.88
435.618	683.88
435.84	691.88
436.062	727.88
436.284	748.88
436.505	700.88
436.727	651.88
436.949	642.88
437.17	605.88
437.392	620.88
437.614	613.88
437.835	653.88
438.057	705.88
438.278	747.88
438.5	749.88
438.721	820.88
438.943	772.88
439.165	673.88
439.386	636.88
439.608	620.88
439.829	630.88
440.05	663.88
440.272	688.88
440.493	663.88
440.715	643.88
440.936	659.88
441.158	631.88
441.379	629.88
441.6	676.88
441.822	673.88
442.043	697.88
442.264	782.88
442.486	762.88
442.707	711.88
442.928	687.88
443.149	705.88
443.371	699.88
443.592	707.88
443.813	801.88
444.034	834.88
444.255	783.88
444.476	766.88
444.698	757.88
444.919	767.88
445.14	870.88
445.361	786.88
445.582	714.88
445.803	715.88
446.024	788.88
446.245	776.88
446.466	740.88
446.687	678.88
446.908	656.88
447.129	602.88
447.35	591.88
447.571	597.88
447.792	584.88
448.013	595.88
448.234	578.88
448.455	631.88
448.675	683.88
448.896	780.88
449.117	700.88
449.338	661.88
449.559	739.88
449.779	800.88
450	669.88
450.221	627.88
450.442	571.88
450.662	607.88
450.883	590.88
451.104	600.88
451.324	571.88
451.545	556.88
451.766	567.88
451.986	558.88
452.207	562.88
452.428	537.88
452.648	560.88
452.869	565.88
453.089	549.88
453.31	591.88
453.53	561.88
453.751	547.88
453.971	564.88
454.192	555.88
454.412	535.88
454.633	547.88
454.853	559.88
455.073	529.88
455.294	572.88
455.514	613.88
455.734	580.88
455.955	528.88
456.175	534.88
456.395	553.88
456.616	545.88
456.836	546.88
457.056	551.88
457.276	535.88
457.497	539.88
457.717	536.88
457.937	534.88
458.157	563.88
458.377	569.88
458.598	584.88
458.818	607.88
459.038	653.88
459.258	699.88
459.478	633.88
459.698	634.88
459.918	621.88
460.138	649.88
460.358	681.88
460.578	683.88
460.798	696.88
461.018	691.88
461.238	677.88
461.458	676.88
461.678	688.88
461.898	685.88
462.118	701.88
462.338	710.88
462.558	730.88
462.777	733.88
462.997	784.88
463.217	850.88
463.437	844.88
463.657	793.88
463.876	758.88
464.096	784.88
464.316	759.88
464.536	770.88
464.755	761.88
464.975	735.88
465.195	730.88
465.414	736.88
465.634	677.88
465.854	670.88
466.073	640.88
466.293	620.88
466.512	607.88
466.732	580.88
466.951	596.88
467.171	579.88
467.391	587.88
467.61	608.88
467.829	587.88
468.049	591.88
468.268	591.88
468.488	597.88
468.707	577.88
468.927	587.88
469.146	560.88
469.365	579.88
469.585	567.88
469.804	588.88
470.023	607.88
470.243	602.88
470.462	614.88
470.681	613.88
470.901	589.88
471.12	613.88
471.339	625.88
471.558	587.88
471.777	589.88
471.997	573.88
472.216	581.88
472.435	615.88
472.654	586.88
472.873	587.88
473.092	591.88
473.311	587.88
473.53	595.88
473.749	588.88
473.968	616.88
474.187	649.88
474.406	666.88
474.625	600.88
474.844	596.88
475.063	599.88
475.282	603.88
475.501	612.88
475.72	601.88
475.939	608.88
476.158	593.88
476.377	593.88
476.596	596.88
476.814	607.88
477.033	615.88
477.252	631.88
477.471	622.88
477.69	641.88
477.908	664.88
478.127	671.88
478.346	659.88
478.564	695.88
478.783	695.88
479.002	698.88
479.22	722.88
479.439	723.88
479.658	727.88
479.876	716.88
480.095	712.88
480.313	767.88
480.532	753.88
480.751	757.88
480.969	738.88
481.188	761.88
481.406	753.88
481.624	718.88
481.843	704.88
482.061	710.88
482.28	678.88
482.498	695.88
482.717	693.88
482.935	683.88
483.153	681.88
483.372	691.88
483.59	674.88
483.808	683.88
484.027	700.88
484.245	699.88
484.463	678.88
484.681	709.88
484.9	696.88
485.118	709.88
485.336	714.88
485.554	717.88
485.772	721.88
485.99	711.88
486.209	728.88
486.427	711.88
486.645	738.88
486.863	719.88
487.081	746.88
487.299	737.88
487.517	758.88
487.735	749.88
487.953	738.88
488.171	727.88
488.389	724.88
488.607	712.88
488.825	724.88
489.043	720.88
489.261	709.88
489.479	745.88
489.696	731.88
489.914	764.88
490.132	716.88
490.35	729.88
490.568	732.88
490.786	742.88
491.003	760.88
491.221	780.88
491.439	796.88
491.657	773.88
491.874	820.88
492.092	780.88
492.31	827.88
492.527	817.88
492.745	807.88
492.963	792.88
493.18	819.88
493.398	813.88
493.615	830.88
493.833	800.88
494.05	802.88
494.268	832.88
494.485	813.88
494.703	793.88
494.92	819.88
495.138	826.88
495.355	834.88
495.573	803.88
495.79	818.88
496.008	849.88
496.225	868.88
496.442	849.88
496.66	831.88
496.877	853.88
497.094	852.88
497.312	865.88
497.529	866.88
497.746	906.88
497.963	915.88
498.181	944.88
498.398	959.88
498.615	1041.88
498.832	1072.88
499.049	1116.88
499.267	1213.88
499.484	1252.88
499.701	1351.88
499.918	1442.88
500.135	1567.88
500.352	1689.88
500.569	1804.88
500.786	1757.88
501.003	1671.88
501.22	1592.88
501.437	1439.88
501.654	1371.88
