Data from 1963.PennyLincolnUp.Lamp.En5.5.200Scan.071719.P1._HRD10591_13-58-56-063.txt Node
Date: Thu Jul 18 13:58:56 EDT 2019
User: cochatt
Spectrometer: HR+D1059
Trigger mode: 1
Integration Time (sec): 1.000000E-1
Scans to average: 1
Electric dark correction enabled: true
Nonlinearity correction enabled: false
Boxcar width: 0
XAxis mode: Wavelengths
Number of Pixels in Spectrum: 2048
>>>>>Begin Spectral Data<<<<<
223.165	-17.5
223.4	-17.5
223.635	-17.5
223.869	6.5
224.104	-23.5
224.338	-14.5
224.573	-21.5
224.808	-13.5
225.042	-8.5
225.277	-4.5
225.511	-11.5
225.746	3.5
225.98	-2.5
226.215	15.5
226.449	2.5
226.683	13.5
226.918	36.5
227.152	39.5
227.387	38.5
227.621	38.5
227.856	43.5
228.09	39.5
228.324	70.5
228.559	59.5
228.793	65.5
229.027	89.5
229.262	114.5
229.496	109.5
229.73	127.5
229.964	143.5
230.199	122.5
230.433	120.5
230.667	108.5
230.901	122.5
231.136	107.5
231.37	120.5
231.604	124.5
231.838	129.5
232.072	132.5
232.306	121.5
232.541	120.5
232.775	110.5
233.009	132.5
233.243	126.5
233.477	117.5
233.711	112.5
233.945	136.5
234.179	130.5
234.413	125.5
234.647	126.5
234.881	131.5
235.115	125.5
235.349	130.5
235.583	114.5
235.817	128.5
236.051	100.5
236.285	122.5
236.519	128.5
236.753	141.5
236.987	150.5
237.221	174.5
237.455	220.5
237.689	183.5
237.922	151.5
238.156	134.5
238.39	131.5
238.624	151.5
238.858	127.5
239.091	138.5
239.325	150.5
239.559	124.5
239.793	147.5
240.027	145.5
240.26	144.5
240.494	148.5
240.728	156.5
240.961	143.5
241.195	150.5
241.429	144.5
241.662	158.5
241.896	150.5
242.13	139.5
242.363	150.5
242.597	134.5
242.83	158.5
243.064	145.5
243.298	167.5
243.531	159.5
243.765	151.5
243.998	152.5
244.232	148.5
244.465	165.5
244.699	158.5
244.932	162.5
245.166	169.5
245.399	173.5
245.633	163.5
245.866	160.5
246.099	165.5
246.333	161.5
246.566	172.5
246.8	161.5
247.033	188.5
247.266	180.5
247.5	178.5
247.733	186.5
247.966	200.5
248.2	186.5
248.433	175.5
248.666	190.5
248.899	201.5
249.133	206.5
249.366	216.5
249.599	211.5
249.832	200.5
250.066	196.5
250.299	189.5
250.532	210.5
250.765	216.5
250.998	217.5
251.231	256.5
251.465	228.5
251.698	216.5
251.931	218.5
252.164	209.5
252.397	212.5
252.63	209.5
252.863	210.5
253.096	232.5
253.329	209.5
253.562	231.5
253.795	239.5
254.028	221.5
254.261	229.5
254.494	247.5
254.727	256.5
254.96	278.5
255.193	260.5
255.426	246.5
255.659	232.5
255.892	260.5
256.124	227.5
256.357	254.5
256.59	250.5
256.823	243.5
257.056	222.5
257.289	223.5
257.521	236.5
257.754	242.5
257.987	236.5
258.22	247.5
258.452	233.5
258.685	258.5
258.918	233.5
259.151	231.5
259.383	225.5
259.616	248.5
259.849	244.5
260.081	252.5
260.314	271.5
260.547	268.5
260.779	264.5
261.012	259.5
261.244	263.5
261.477	228.5
261.71	251.5
261.942	247.5
262.175	238.5
262.407	241.5
262.64	230.5
262.872	225.5
263.105	235.5
263.337	246.5
263.57	248.5
263.802	227.5
264.035	245.5
264.267	236.5
264.499	260.5
264.732	255.5
264.964	235.5
265.197	230.5
265.429	228.5
265.661	242.5
265.894	267.5
266.126	245.5
266.358	259.5
266.591	254.5
266.823	270.5
267.055	276.5
267.287	279.5
267.52	260.5
267.752	260.5
267.984	262.5
268.216	264.5
268.448	239.5
268.681	262.5
268.913	280.5
269.145	303.5
269.377	291.5
269.609	293.5
269.841	295.5
270.073	294.5
270.306	310.5
270.538	333.5
270.77	339.5
271.002	314.5
271.234	296.5
271.466	334.5
271.698	314.5
271.93	356.5
272.162	335.5
272.394	346.5
272.626	335.5
272.858	304.5
273.09	313.5
273.322	307.5
273.553	301.5
273.785	300.5
274.017	313.5
274.249	298.5
274.481	298.5
274.713	284.5
274.945	293.5
275.176	316.5
275.408	314.5
275.64	315.5
275.872	314.5
276.104	312.5
276.335	305.5
276.567	309.5
276.799	317.5
277.031	341.5
277.262	348.5
277.494	322.5
277.726	336.5
277.957	318.5
278.189	315.5
278.421	320.5
278.652	316.5
278.884	323.5
279.115	325.5
279.347	315.5
279.579	323.5
279.81	316.5
280.042	304.5
280.273	313.5
280.505	324.5
280.736	308.5
280.968	317.5
281.199	322.5
281.431	308.5
281.662	330.5
281.894	328.5
282.125	329.5
282.356	340.5
282.588	361.5
282.819	354.5
283.051	322.5
283.282	338.5
283.513	336.5
283.745	332.5
283.976	339.5
284.207	347.5
284.439	336.5
284.67	335.5
284.901	352.5
285.132	354.5
285.364	336.5
285.595	335.5
285.826	353.5
286.057	315.5
286.288	346.5
286.52	343.5
286.751	344.5
286.982	356.5
287.213	341.5
287.444	359.5
287.675	351.5
287.906	354.5
288.138	361.5
288.369	358.5
288.6	368.5
288.831	338.5
289.062	367.5
289.293	346.5
289.524	369.5
289.755	381.5
289.986	367.5
290.217	362.5
290.448	352.5
290.679	340.5
290.91	350.5
291.141	338.5
291.371	365.5
291.602	361.5
291.833	368.5
292.064	363.5
292.295	350.5
292.526	386.5
292.757	371.5
292.987	369.5
293.218	352.5
293.449	357.5
293.68	378.5
293.91	354.5
294.141	368.5
294.372	360.5
294.603	354.5
294.833	372.5
295.064	356.5
295.295	366.5
295.525	378.5
295.756	378.5
295.987	377.5
296.217	392.5
296.448	377.5
296.679	371.5
296.909	375.5
297.14	379.5
297.37	377.5
297.601	376.5
297.831	370.5
298.062	386.5
298.292	375.5
298.523	390.5
298.753	390.5
298.984	397.5
299.214	364.5
299.445	406.5
299.675	405.5
299.905	418.5
300.136	383.5
300.366	391.5
300.597	392.5
300.827	418.5
301.057	405.5
301.288	400.5
301.518	410.5
301.748	419.5
301.979	418.5
302.209	418.5
302.439	405.5
302.669	444.5
302.9	423.5
303.13	414.5
303.36	419.5
303.59	404.5
303.82	409.5
304.051	435.5
304.281	406.5
304.511	399.5
304.741	414.5
304.971	410.5
305.201	407.5
305.431	404.5
305.661	427.5
305.891	406.5
306.121	418.5
306.352	410.5
306.582	422.5
306.812	410.5
307.042	421.5
307.272	403.5
307.502	412.5
307.731	415.5
307.961	422.5
308.191	394.5
308.421	408.5
308.651	427.5
308.881	423.5
309.111	413.5
309.341	391.5
309.571	427.5
309.8	442.5
310.03	423.5
310.26	431.5
310.49	413.5
310.72	443.5
310.949	470.5
311.179	444.5
311.409	442.5
311.639	445.5
311.868	455.5
312.098	447.5
312.328	449.5
312.557	459.5
312.787	473.5
313.017	482.5
313.246	471.5
313.476	458.5
313.706	451.5
313.935	467.5
314.165	465.5
314.394	468.5
314.624	468.5
314.853	464.5
315.083	455.5
315.312	447.5
315.542	449.5
315.771	450.5
316.001	449.5
316.23	445.5
316.46	450.5
316.689	439.5
316.919	425.5
317.148	466.5
317.377	458.5
317.607	453.5
317.836	452.5
318.065	447.5
318.295	466.5
318.524	460.5
318.753	442.5
318.983	443.5
319.212	486.5
319.441	474.5
319.67	459.5
319.9	457.5
320.129	443.5
320.358	450.5
320.587	453.5
320.816	486.5
321.046	467.5
321.275	483.5
321.504	474.5
321.733	486.5
321.962	464.5
322.191	470.5
322.42	470.5
322.649	496.5
322.878	492.5
323.108	519.5
323.337	542.5
323.566	531.5
323.795	526.5
324.024	584.5
324.253	641.5
324.482	806.5
324.71	1153.5
324.939	1610.5
325.168	1453.5
325.397	804.5
325.626	627.5
325.855	576.5
326.084	568.5
326.313	538.5
326.542	543.5
326.77	567.5
326.999	612.5
327.228	784.5
327.457	1075.5
327.686	1284.5
327.914	887.5
328.143	691.5
328.372	605.5
328.6	601.5
328.829	580.5
329.058	595.5
329.287	574.5
329.515	554.5
329.744	538.5
329.972	541.5
330.201	576.5
330.43	590.5
330.658	601.5
330.887	629.5
331.115	629.5
331.344	559.5
331.572	553.5
331.801	559.5
332.03	575.5
332.258	561.5
332.486	564.5
332.715	575.5
332.943	592.5
333.172	588.5
333.4	616.5
333.629	624.5
333.857	635.5
334.085	659.5
334.314	632.5
334.542	656.5
334.771	670.5
334.999	633.5
335.227	600.5
335.455	589.5
335.684	613.5
335.912	578.5
336.14	579.5
336.369	566.5
336.597	586.5
336.825	573.5
337.053	567.5
337.281	530.5
337.51	558.5
337.738	571.5
337.966	566.5
338.194	517.5
338.422	559.5
338.65	547.5
338.878	555.5
339.106	534.5
339.334	535.5
339.562	533.5
339.79	539.5
340.018	548.5
340.246	539.5
340.474	522.5
340.702	538.5
340.93	551.5
341.158	534.5
341.386	520.5
341.614	532.5
341.842	537.5
342.07	517.5
342.298	517.5
342.526	528.5
342.754	534.5
342.981	516.5
343.209	540.5
343.437	546.5
343.665	550.5
343.893	578.5
344.12	590.5
344.348	583.5
344.576	562.5
344.804	554.5
345.031	536.5
345.259	542.5
345.487	526.5
345.714	504.5
345.942	538.5
346.17	511.5
346.397	534.5
346.625	511.5
346.853	508.5
347.08	522.5
347.308	503.5
347.535	517.5
347.763	510.5
347.99	511.5
348.218	525.5
348.445	532.5
348.673	517.5
348.9	513.5
349.128	493.5
349.355	494.5
349.583	487.5
349.81	492.5
350.037	496.5
350.265	475.5
350.492	501.5
350.72	520.5
350.947	473.5
351.174	510.5
351.402	518.5
351.629	506.5
351.856	488.5
352.083	481.5
352.311	522.5
352.538	498.5
352.765	508.5
352.992	501.5
353.22	491.5
353.447	500.5
353.674	488.5
353.901	484.5
354.128	486.5
354.355	480.5
354.583	461.5
354.81	484.5
355.037	488.5
355.264	487.5
355.491	490.5
355.718	506.5
355.945	473.5
356.172	477.5
356.399	493.5
356.626	483.5
356.853	486.5
357.08	463.5
357.307	458.5
357.534	480.5
357.761	475.5
357.988	482.5
358.215	490.5
358.441	486.5
358.668	466.5
358.895	487.5
359.122	472.5
359.349	494.5
359.576	507.5
359.802	523.5
360.029	519.5
360.256	534.5
360.483	536.5
360.709	521.5
360.936	505.5
361.163	482.5
361.39	494.5
361.616	509.5
361.843	481.5
362.07	510.5
362.296	493.5
362.523	486.5
362.749	506.5
362.976	520.5
363.203	518.5
363.429	484.5
363.656	520.5
363.882	510.5
364.109	502.5
364.335	491.5
364.562	486.5
364.788	483.5
365.015	501.5
365.241	492.5
365.468	512.5
365.694	500.5
365.92	493.5
366.147	492.5
366.373	494.5
366.599	498.5
366.826	491.5
367.052	488.5
367.278	498.5
367.505	493.5
367.731	512.5
367.957	503.5
368.184	480.5
368.41	500.5
368.636	508.5
368.862	527.5
369.089	519.5
369.315	506.5
369.541	497.5
369.767	518.5
369.993	502.5
370.219	493.5
370.445	502.5
370.672	504.5
370.898	500.5
371.124	496.5
371.35	499.5
371.576	509.5
371.802	519.5
372.028	530.5
372.254	532.5
372.48	523.5
372.706	534.5
372.932	554.5
373.158	526.5
373.384	554.5
373.61	516.5
373.835	537.5
374.061	502.5
374.287	537.5
374.513	538.5
374.739	536.5
374.965	550.5
375.191	554.5
375.416	544.5
375.642	553.5
375.868	531.5
376.094	506.5
376.319	501.5
376.545	526.5
376.771	527.5
376.997	501.5
377.222	514.5
377.448	526.5
377.674	502.5
377.899	507.5
378.125	515.5
378.35	497.5
378.576	522.5
378.802	492.5
379.027	509.5
379.253	500.5
379.478	518.5
379.704	514.5
379.929	494.5
380.155	513.5
380.38	510.5
380.606	522.5
380.831	539.5
381.057	534.5
381.282	516.5
381.507	518.5
381.733	533.5
381.958	528.5
382.184	527.5
382.409	548.5
382.634	536.5
382.86	532.5
383.085	549.5
383.31	571.5
383.535	551.5
383.761	541.5
383.986	539.5
384.211	573.5
384.436	557.5
384.662	595.5
384.887	570.5
385.112	583.5
385.337	572.5
385.562	582.5
385.787	584.5
386.013	601.5
386.238	617.5
386.463	600.5
386.688	605.5
386.913	603.5
387.138	582.5
387.363	595.5
387.588	597.5
387.813	588.5
388.038	600.5
388.263	613.5
388.488	583.5
388.713	604.5
388.938	593.5
389.163	581.5
389.387	591.5
389.612	598.5
389.837	575.5
390.062	583.5
390.287	590.5
390.512	559.5
390.736	599.5
390.961	579.5
391.186	619.5
391.411	627.5
391.636	605.5
391.86	646.5
392.085	628.5
392.31	645.5
392.534	629.5
392.759	636.5
392.984	639.5
393.208	629.5
393.433	624.5
393.658	622.5
393.882	606.5
394.107	613.5
394.331	623.5
394.556	584.5
394.78	612.5
395.005	617.5
395.229	633.5
395.454	634.5
395.678	647.5
395.903	634.5
396.127	664.5
396.352	653.5
396.576	624.5
396.801	644.5
397.025	636.5
397.249	634.5
397.474	631.5
397.698	643.5
397.922	679.5
398.147	676.5
398.371	687.5
398.595	679.5
398.82	720.5
399.044	740.5
399.268	790.5
399.492	871.5
399.717	912.5
399.941	962.5
400.165	950.5
400.389	892.5
400.613	782.5
400.837	747.5
401.062	746.5
401.286	718.5
401.51	735.5
401.734	715.5
401.958	753.5
402.182	718.5
402.406	747.5
402.63	711.5
402.854	739.5
403.078	752.5
403.302	755.5
403.526	770.5
403.75	777.5
403.974	780.5
404.198	781.5
404.422	756.5
404.645	788.5
404.869	798.5
405.093	818.5
405.317	813.5
405.541	852.5
405.765	836.5
405.988	789.5
406.212	778.5
406.436	774.5
406.66	820.5
406.883	809.5
407.107	866.5
407.331	895.5
407.555	955.5
407.778	928.5
408.002	904.5
408.226	852.5
408.449	828.5
408.673	806.5
408.896	850.5
409.12	868.5
409.344	843.5
409.567	792.5
409.791	748.5
410.014	759.5
410.238	743.5
410.461	733.5
410.685	774.5
410.908	768.5
411.132	784.5
411.355	826.5
411.578	776.5
411.802	759.5
412.025	756.5
412.249	739.5
412.472	767.5
412.695	798.5
412.919	783.5
413.142	731.5
413.365	728.5
413.589	724.5
413.812	728.5
414.035	703.5
414.258	702.5
414.482	720.5
414.705	726.5
414.928	698.5
415.151	702.5
415.374	701.5
415.597	678.5
415.821	692.5
416.044	686.5
416.267	700.5
416.49	683.5
416.713	692.5
416.936	698.5
417.159	696.5
417.382	696.5
417.605	695.5
417.828	734.5
418.051	712.5
418.274	714.5
418.497	703.5
418.72	713.5
418.943	708.5
419.166	742.5
419.389	762.5
419.611	776.5
419.834	741.5
420.057	755.5
420.28	754.5
420.503	724.5
420.726	696.5
420.948	716.5
421.171	748.5
421.394	785.5
421.617	718.5
421.839	728.5
422.062	716.5
422.285	739.5
422.507	744.5
422.73	845.5
422.953	820.5
423.175	770.5
423.398	771.5
423.621	750.5
423.843	777.5
424.066	790.5
424.288	759.5
424.511	798.5
424.733	806.5
424.956	866.5
425.178	849.5
425.401	824.5
425.623	825.5
425.846	740.5
426.068	744.5
426.291	726.5
426.513	712.5
426.735	750.5
426.958	742.5
427.18	806.5
427.402	907.5
427.625	972.5
427.847	859.5
428.069	815.5
428.292	726.5
428.514	702.5
428.736	696.5
428.958	658.5
429.181	677.5
429.403	672.5
429.625	682.5
429.847	716.5
430.069	751.5
430.292	759.5
430.514	672.5
430.736	657.5
430.958	643.5
431.18	658.5
431.402	668.5
431.624	638.5
431.846	657.5
432.068	660.5
432.29	668.5
432.512	660.5
432.734	661.5
432.956	669.5
433.178	659.5
433.4	667.5
433.622	660.5
433.844	642.5
434.066	639.5
434.287	650.5
434.509	664.5
434.731	701.5
434.953	703.5
435.175	714.5
435.397	784.5
435.618	754.5
435.84	747.5
436.062	810.5
436.284	860.5
436.505	730.5
436.727	686.5
436.949	699.5
437.17	669.5
437.392	684.5
437.614	691.5
437.835	672.5
438.057	752.5
438.278	831.5
438.5	809.5
438.721	895.5
438.943	858.5
439.165	739.5
439.386	699.5
439.608	699.5
439.829	695.5
440.05	727.5
440.272	744.5
440.493	751.5
440.715	690.5
440.936	690.5
441.158	697.5
441.379	699.5
441.6	726.5
441.822	742.5
442.043	755.5
442.264	846.5
442.486	877.5
442.707	788.5
442.928	752.5
443.149	758.5
443.371	783.5
443.592	802.5
443.813	891.5
444.034	910.5
444.255	837.5
444.476	788.5
444.698	796.5
444.919	802.5
445.14	922.5
445.361	834.5
445.582	789.5
445.803	803.5
446.024	886.5
446.245	864.5
446.466	815.5
446.687	733.5
446.908	691.5
447.129	668.5
447.35	650.5
447.571	628.5
447.792	628.5
448.013	639.5
448.234	673.5
448.455	710.5
448.675	774.5
448.896	891.5
449.117	764.5
449.338	730.5
449.559	814.5
449.779	902.5
450	743.5
450.221	684.5
450.442	642.5
450.662	648.5
450.883	640.5
451.104	624.5
451.324	616.5
451.545	610.5
451.766	596.5
451.986	595.5
452.207	601.5
452.428	595.5
452.648	587.5
452.869	602.5
453.089	614.5
453.31	610.5
453.53	584.5
453.751	585.5
453.971	586.5
454.192	595.5
454.412	567.5
454.633	575.5
454.853	585.5
455.073	605.5
455.294	594.5
455.514	642.5
455.734	646.5
455.955	583.5
456.175	557.5
456.395	554.5
456.616	578.5
456.836	561.5
457.056	565.5
457.276	539.5
457.497	577.5
457.717	579.5
457.937	546.5
458.157	570.5
458.377	591.5
458.598	616.5
458.818	656.5
459.038	700.5
459.258	727.5
459.478	662.5
459.698	669.5
459.918	690.5
460.138	692.5
460.358	700.5
460.578	691.5
460.798	735.5
461.018	733.5
461.238	731.5
461.458	736.5
461.678	721.5
461.898	764.5
462.118	723.5
462.338	738.5
462.558	760.5
462.777	769.5
462.997	838.5
463.217	876.5
463.437	860.5
463.657	824.5
463.876	805.5
464.096	798.5
464.316	794.5
464.536	795.5
464.755	778.5
464.975	781.5
465.195	771.5
465.414	793.5
465.634	712.5
465.854	706.5
466.073	641.5
466.293	654.5
466.512	632.5
466.732	621.5
466.951	608.5
467.171	607.5
467.391	636.5
467.61	639.5
467.829	610.5
468.049	634.5
468.268	629.5
468.488	616.5
468.707	597.5
468.927	607.5
469.146	604.5
469.365	628.5
469.585	633.5
469.804	632.5
470.023	607.5
470.243	643.5
470.462	646.5
470.681	670.5
470.901	656.5
471.12	633.5
471.339	650.5
471.558	637.5
471.777	631.5
471.997	611.5
472.216	627.5
472.435	668.5
472.654	636.5
472.873	613.5
473.092	612.5
473.311	617.5
473.53	610.5
473.749	614.5
473.968	634.5
474.187	702.5
474.406	740.5
474.625	650.5
474.844	624.5
475.063	624.5
475.282	630.5
475.501	621.5
475.72	628.5
475.939	624.5
476.158	619.5
476.377	634.5
476.596	632.5
476.814	655.5
477.033	660.5
477.252	659.5
477.471	663.5
477.69	704.5
477.908	692.5
478.127	699.5
478.346	711.5
478.564	709.5
478.783	730.5
479.002	758.5
479.22	740.5
479.439	756.5
479.658	787.5
479.876	740.5
480.095	756.5
480.313	826.5
480.532	795.5
480.751	796.5
480.969	787.5
481.188	815.5
481.406	840.5
481.624	804.5
481.843	752.5
482.061	739.5
482.28	750.5
482.498	723.5
482.717	706.5
482.935	711.5
483.153	723.5
483.372	710.5
483.59	727.5
483.808	724.5
484.027	692.5
484.245	710.5
484.463	699.5
484.681	738.5
484.9	738.5
485.118	730.5
485.336	742.5
485.554	742.5
485.772	785.5
485.99	735.5
486.209	743.5
486.427	777.5
486.645	764.5
486.863	782.5
487.081	762.5
487.299	746.5
487.517	763.5
487.735	754.5
487.953	762.5
488.171	770.5
488.389	772.5
488.607	763.5
488.825	761.5
489.043	761.5
489.261	778.5
489.479	787.5
489.696	772.5
489.914	793.5
490.132	804.5
490.35	797.5
490.568	809.5
490.786	780.5
491.003	801.5
491.221	791.5
491.439	842.5
491.657	842.5
491.874	844.5
492.092	827.5
492.31	848.5
492.527	851.5
492.745	854.5
492.963	855.5
493.18	851.5
493.398	863.5
493.615	866.5
493.833	864.5
494.05	902.5
494.268	886.5
494.485	868.5
494.703	879.5
494.92	882.5
495.138	896.5
495.355	886.5
495.573	906.5
495.79	879.5
496.008	894.5
496.225	895.5
496.442	905.5
496.66	898.5
496.877	884.5
497.094	928.5
497.312	940.5
497.529	936.5
497.746	983.5
497.963	979.5
498.181	1041.5
498.398	1070.5
498.615	1082.5
498.832	1094.5
499.049	1164.5
499.267	1226.5
499.484	1286.5
499.701	1406.5
499.918	1501.5
500.135	1603.5
500.352	1755.5
500.569	1870.5
500.786	1814.5
501.003	1741.5
501.22	1611.5
501.437	1536.5
501.654	1398.5
501.871	1339.5
502.088	1239.5
502.305	1156.5
502.522	1152.5
502.739	1117.5
502.956	1076.5
503.172	1023.5
503.389	1008.5
503.606	973.5
503.823	962.5
504.04	921.5
504.256	973.5
504.473	950.5
504.69	970.5
504.907	957.5
505.123	942.5
505.34	898.5
505.557	877.5
505.773	878.5
505.99	856.5
506.207	853.5
506.423	837.5
506.64	829.5
506.856	822.5
507.073	831.5
507.289	815.5
507.506	814.5
507.722	823.5
507.939	824.5
508.155	809.5
508.372	809.5
508.588	792.5
508.805	765.5
509.021	802.5
509.238	809.5
509.454	787.5
509.67	774.5
509.887	770.5
510.103	772.5
510.319	768.5
510.536	843.5
510.752	1156.5
510.968	1037.5
511.184	769.5
511.401	747.5
511.617	750.5
511.833	727.5
512.049	744.5
512.265	765.5
512.481	747.5
512.698	731.5
512.914	698.5
513.13	725.5
513.346	716.5
513.562	709.5
513.778	732.5
513.994	731.5
514.21	751.5
514.426	766.5
514.642	783.5
514.858	791.5
515.074	799.5
515.29	894.5
515.506	1208.5
515.721	1057.5
515.937	868.5
516.153	809.5
516.369	803.5
516.585	799.5
516.801	830.5
517.016	831.5
517.232	866.5
517.448	883.5
517.664	920.5
517.879	891.5
518.095	885.5
518.311	869.5
518.527	866.5
518.742	875.5
518.958	814.5
519.173	806.5
519.389	799.5
