Data from 1963.PennyLincolnUp.Lamp.En5.5.200Scan.071719.P1._HRD10591_13-59-38-065.txt Node
Date: Thu Jul 18 13:59:38 EDT 2019
User: cochatt
Spectrometer: HR+D1059
Trigger mode: 1
Integration Time (sec): 1.000000E-1
Scans to average: 1
Electric dark correction enabled: true
Nonlinearity correction enabled: false
Boxcar width: 0
XAxis mode: Wavelengths
Number of Pixels in Spectrum: 2048
>>>>>Begin Spectral Data<<<<<
223.165	-19.75
223.4	-19.75
223.635	-19.75
223.869	-11.75
224.104	-25.75
224.338	-9.75
224.573	-20.75
224.808	-7.75
225.042	-0.75
225.277	-6.75
225.511	-7.75
225.746	9.25
225.98	8.25
226.215	0.25
226.449	15.25
226.683	19.25
226.918	17.25
227.152	41.25
227.387	39.25
227.621	33.25
227.856	37.25
228.09	49.25
228.324	49.25
228.559	57.25
228.793	66.25
229.027	102.25
229.262	100.25
229.496	102.25
229.73	129.25
229.964	152.25
230.199	129.25
230.433	121.25
230.667	130.25
230.901	121.25
231.136	111.25
231.37	123.25
231.604	117.25
231.838	113.25
232.072	122.25
232.306	109.25
232.541	116.25
232.775	120.25
233.009	120.25
233.243	116.25
233.477	115.25
233.711	119.25
233.945	120.25
234.179	113.25
234.413	119.25
234.647	140.25
234.881	124.25
235.115	129.25
235.349	130.25
235.583	124.25
235.817	128.25
236.051	127.25
236.285	145.25
236.519	139.25
236.753	136.25
236.987	146.25
237.221	179.25
237.455	238.25
237.689	200.25
237.922	155.25
238.156	124.25
238.39	136.25
238.624	134.25
238.858	141.25
239.091	141.25
239.325	141.25
239.559	139.25
239.793	128.25
240.027	142.25
240.26	151.25
240.494	176.25
240.728	162.25
240.961	163.25
241.195	160.25
241.429	150.25
241.662	141.25
241.896	146.25
242.13	162.25
242.363	143.25
242.597	150.25
242.83	155.25
243.064	154.25
243.298	151.25
243.531	151.25
243.765	160.25
243.998	155.25
244.232	164.25
244.465	179.25
244.699	167.25
244.932	183.25
245.166	162.25
245.399	162.25
245.633	164.25
245.866	136.25
246.099	157.25
246.333	164.25
246.566	171.25
246.8	167.25
247.033	189.25
247.266	180.25
247.5	167.25
247.733	177.25
247.966	186.25
248.2	184.25
248.433	181.25
248.666	196.25
248.899	203.25
249.133	208.25
249.366	219.25
249.599	215.25
249.832	199.25
250.066	210.25
250.299	208.25
250.532	203.25
250.765	210.25
250.998	261.25
251.231	249.25
251.465	235.25
251.698	232.25
251.931	211.25
252.164	215.25
252.397	226.25
252.63	221.25
252.863	238.25
253.096	228.25
253.329	223.25
253.562	257.25
253.795	248.25
254.028	230.25
254.261	229.25
254.494	244.25
254.727	278.25
254.96	302.25
255.193	264.25
255.426	272.25
255.659	267.25
255.892	248.25
256.124	256.25
256.357	246.25
256.59	249.25
256.823	238.25
257.056	240.25
257.289	212.25
257.521	221.25
257.754	240.25
257.987	229.25
258.22	249.25
258.452	241.25
258.685	260.25
258.918	242.25
259.151	245.25
259.383	264.25
259.616	241.25
259.849	247.25
260.081	264.25
260.314	275.25
260.547	277.25
260.779	270.25
261.012	251.25
261.244	254.25
261.477	254.25
261.71	252.25
261.942	249.25
262.175	241.25
262.407	240.25
262.64	255.25
262.872	252.25
263.105	225.25
263.337	258.25
263.57	260.25
263.802	241.25
264.035	248.25
264.267	242.25
264.499	231.25
264.732	260.25
264.964	249.25
265.197	239.25
265.429	246.25
265.661	244.25
265.894	249.25
266.126	252.25
266.358	249.25
266.591	260.25
266.823	265.25
267.055	257.25
267.287	279.25
267.52	264.25
267.752	267.25
267.984	268.25
268.216	290.25
268.448	282.25
268.681	279.25
268.913	291.25
269.145	297.25
269.377	303.25
269.609	318.25
269.841	294.25
270.073	284.25
270.306	316.25
270.538	342.25
270.77	328.25
271.002	346.25
271.234	333.25
271.466	332.25
271.698	336.25
271.93	335.25
272.162	348.25
272.394	335.25
272.626	344.25
272.858	316.25
273.09	300.25
273.322	336.25
273.553	312.25
273.785	315.25
274.017	285.25
274.249	303.25
274.481	294.25
274.713	312.25
274.945	306.25
275.176	307.25
275.408	302.25
275.64	304.25
275.872	316.25
276.104	312.25
276.335	296.25
276.567	329.25
276.799	321.25
277.031	347.25
277.262	364.25
277.494	368.25
277.726	355.25
277.957	338.25
278.189	312.25
278.421	318.25
278.652	312.25
278.884	321.25
279.115	328.25
279.347	312.25
279.579	324.25
279.81	335.25
280.042	332.25
280.273	318.25
280.505	338.25
280.736	318.25
280.968	307.25
281.199	314.25
281.431	342.25
281.662	338.25
281.894	335.25
282.125	320.25
282.356	323.25
282.588	359.25
282.819	343.25
283.051	336.25
283.282	330.25
283.513	360.25
283.745	326.25
283.976	354.25
284.207	345.25
284.439	360.25
284.67	341.25
284.901	362.25
285.132	348.25
285.364	353.25
285.595	356.25
285.826	342.25
286.057	349.25
286.288	373.25
286.52	356.25
286.751	358.25
286.982	374.25
287.213	353.25
287.444	339.25
287.675	349.25
287.906	348.25
288.138	380.25
288.369	356.25
288.6	374.25
288.831	357.25
289.062	366.25
289.293	368.25
289.524	370.25
289.755	361.25
289.986	363.25
290.217	374.25
290.448	352.25
290.679	364.25
290.91	367.25
291.141	361.25
291.371	361.25
291.602	377.25
291.833	349.25
292.064	358.25
292.295	372.25
292.526	365.25
292.757	352.25
292.987	372.25
293.218	350.25
293.449	365.25
293.68	357.25
293.91	374.25
294.141	368.25
294.372	364.25
294.603	366.25
294.833	377.25
295.064	380.25
295.295	365.25
295.525	374.25
295.756	376.25
295.987	387.25
296.217	379.25
296.448	405.25
296.679	383.25
296.909	384.25
297.14	381.25
297.37	387.25
297.601	377.25
297.831	395.25
298.062	407.25
298.292	388.25
298.523	390.25
298.753	386.25
298.984	395.25
299.214	416.25
299.445	391.25
299.675	406.25
299.905	414.25
300.136	381.25
300.366	401.25
300.597	402.25
300.827	408.25
301.057	424.25
301.288	416.25
301.518	431.25
301.748	409.25
301.979	438.25
302.209	430.25
302.439	430.25
302.669	416.25
302.9	436.25
303.13	417.25
303.36	415.25
303.59	428.25
303.82	423.25
304.051	417.25
304.281	431.25
304.511	424.25
304.741	408.25
304.971	393.25
305.201	421.25
305.431	411.25
305.661	413.25
305.891	415.25
306.121	415.25
306.352	411.25
306.582	431.25
306.812	394.25
307.042	414.25
307.272	425.25
307.502	400.25
307.731	426.25
307.961	408.25
308.191	400.25
308.421	428.25
308.651	412.25
308.881	401.25
309.111	418.25
309.341	412.25
309.571	440.25
309.8	450.25
310.03	429.25
310.26	428.25
310.49	439.25
310.72	447.25
310.949	478.25
311.179	460.25
311.409	452.25
311.639	462.25
311.868	451.25
312.098	456.25
312.328	454.25
312.557	465.25
312.787	483.25
313.017	474.25
313.246	474.25
313.476	472.25
313.706	456.25
313.935	477.25
314.165	480.25
314.394	492.25
314.624	478.25
314.853	470.25
315.083	464.25
315.312	472.25
315.542	470.25
315.771	486.25
316.001	476.25
316.23	476.25
316.46	484.25
316.689	452.25
316.919	473.25
317.148	483.25
317.377	492.25
317.607	499.25
317.836	471.25
318.065	454.25
318.295	459.25
318.524	472.25
318.753	468.25
318.983	464.25
319.212	481.25
319.441	466.25
319.67	476.25
319.9	472.25
320.129	496.25
320.358	493.25
320.587	473.25
320.816	488.25
321.046	476.25
321.275	503.25
321.504	493.25
321.733	484.25
321.962	473.25
322.191	493.25
322.42	490.25
322.649	502.25
322.878	502.25
323.108	488.25
323.337	558.25
323.566	540.25
323.795	557.25
324.024	602.25
324.253	681.25
324.482	860.25
324.71	1266.25
324.939	1802.25
325.168	1584.25
325.397	876.25
325.626	661.25
325.855	592.25
326.084	538.25
326.313	551.25
326.542	584.25
326.77	596.25
326.999	667.25
327.228	833.25
327.457	1146.25
327.686	1400.25
327.914	982.25
328.143	702.25
328.372	645.25
328.6	612.25
328.829	587.25
329.058	588.25
329.287	634.25
329.515	590.25
329.744	571.25
329.972	574.25
330.201	598.25
330.43	591.25
330.658	637.25
330.887	631.25
331.115	662.25
331.344	608.25
331.572	581.25
331.801	587.25
332.03	588.25
332.258	587.25
332.486	577.25
332.715	567.25
332.943	610.25
333.172	620.25
333.4	633.25
333.629	656.25
333.857	636.25
334.085	657.25
334.314	649.25
334.542	676.25
334.771	696.25
334.999	637.25
335.227	618.25
335.455	623.25
335.684	622.25
335.912	593.25
336.14	581.25
336.369	577.25
336.597	582.25
336.825	585.25
337.053	573.25
337.281	554.25
337.51	552.25
337.738	571.25
337.966	548.25
338.194	574.25
338.422	568.25
338.65	556.25
338.878	560.25
339.106	550.25
339.334	534.25
339.562	549.25
339.79	548.25
340.018	568.25
340.246	564.25
340.474	523.25
340.702	537.25
340.93	551.25
341.158	532.25
341.386	530.25
341.614	553.25
341.842	514.25
342.07	540.25
342.298	530.25
342.526	530.25
342.754	534.25
342.981	540.25
343.209	526.25
343.437	546.25
343.665	560.25
343.893	593.25
344.12	621.25
344.348	589.25
344.576	566.25
344.804	562.25
345.031	561.25
345.259	563.25
345.487	549.25
345.714	540.25
345.942	518.25
346.17	530.25
346.397	509.25
346.625	532.25
346.853	529.25
347.08	536.25
347.308	532.25
347.535	506.25
347.763	521.25
347.99	524.25
348.218	534.25
348.445	532.25
348.673	512.25
348.9	525.25
349.128	514.25
349.355	505.25
349.583	524.25
349.81	519.25
350.037	513.25
350.265	488.25
350.492	504.25
350.72	510.25
350.947	487.25
351.174	518.25
351.402	518.25
351.629	500.25
351.856	508.25
352.083	508.25
352.311	504.25
352.538	517.25
352.765	500.25
352.992	508.25
353.22	528.25
353.447	509.25
353.674	505.25
353.901	520.25
354.128	504.25
354.355	486.25
354.583	492.25
354.81	483.25
355.037	512.25
355.264	498.25
355.491	500.25
355.718	490.25
355.945	494.25
356.172	483.25
356.399	488.25
356.626	485.25
356.853	506.25
357.08	489.25
357.307	503.25
357.534	480.25
357.761	503.25
357.988	510.25
358.215	499.25
358.441	522.25
358.668	507.25
358.895	499.25
359.122	501.25
359.349	488.25
359.576	520.25
359.802	541.25
360.029	530.25
360.256	557.25
360.483	542.25
360.709	515.25
360.936	539.25
361.163	525.25
361.39	517.25
361.616	516.25
361.843	521.25
362.07	520.25
362.296	537.25
362.523	522.25
362.749	530.25
362.976	509.25
363.203	521.25
363.429	491.25
363.656	505.25
363.882	496.25
364.109	518.25
364.335	509.25
364.562	496.25
364.788	489.25
365.015	488.25
365.241	504.25
365.468	490.25
365.694	496.25
365.92	492.25
366.147	517.25
366.373	484.25
366.599	490.25
366.826	508.25
367.052	512.25
367.278	517.25
367.505	510.25
367.731	516.25
367.957	488.25
368.184	502.25
368.41	502.25
368.636	509.25
368.862	503.25
369.089	512.25
369.315	514.25
369.541	516.25
369.767	489.25
369.993	506.25
370.219	502.25
370.445	514.25
370.672	491.25
370.898	502.25
371.124	517.25
371.35	530.25
371.576	522.25
371.802	527.25
372.028	519.25
372.254	520.25
372.48	525.25
372.706	533.25
372.932	556.25
373.158	504.25
373.384	521.25
373.61	532.25
373.835	517.25
374.061	550.25
374.287	531.25
374.513	545.25
374.739	542.25
374.965	558.25
375.191	545.25
375.416	569.25
375.642	537.25
375.868	539.25
376.094	534.25
376.319	556.25
376.545	530.25
376.771	518.25
376.997	513.25
377.222	529.25
377.448	513.25
377.674	509.25
377.899	518.25
378.125	528.25
378.35	520.25
378.576	527.25
378.802	490.25
379.027	528.25
379.253	510.25
379.478	536.25
379.704	540.25
379.929	506.25
380.155	513.25
380.38	516.25
380.606	534.25
380.831	525.25
381.057	539.25
381.282	529.25
381.507	515.25
381.733	504.25
381.958	553.25
382.184	547.25
382.409	545.25
382.634	553.25
382.86	541.25
383.085	541.25
383.31	531.25
383.535	538.25
383.761	550.25
383.986	572.25
384.211	562.25
384.436	575.25
384.662	601.25
384.887	604.25
385.112	575.25
385.337	623.25
385.562	615.25
385.787	606.25
386.013	610.25
386.238	604.25
386.463	639.25
386.688	615.25
386.913	594.25
387.138	604.25
387.363	592.25
387.588	598.25
387.813	617.25
388.038	604.25
388.263	606.25
388.488	616.25
388.713	593.25
388.938	613.25
389.163	586.25
389.387	612.25
389.612	593.25
389.837	600.25
390.062	618.25
390.287	586.25
390.512	588.25
390.736	616.25
390.961	604.25
391.186	601.25
391.411	620.25
391.636	638.25
391.86	641.25
392.085	640.25
392.31	648.25
392.534	638.25
392.759	631.25
392.984	628.25
393.208	614.25
393.433	644.25
393.658	639.25
393.882	637.25
394.107	616.25
394.331	613.25
394.556	623.25
394.78	622.25
395.005	629.25
395.229	637.25
395.454	633.25
395.678	633.25
395.903	664.25
396.127	664.25
396.352	681.25
396.576	657.25
396.801	631.25
397.025	631.25
397.249	665.25
397.474	665.25
397.698	674.25
397.922	684.25
398.147	690.25
398.371	692.25
398.595	716.25
398.82	735.25
399.044	726.25
399.268	784.25
399.492	876.25
399.717	969.25
399.941	1001.25
400.165	947.25
400.389	882.25
400.613	808.25
400.837	770.25
401.062	736.25
401.286	750.25
401.51	743.25
401.734	731.25
401.958	727.25
402.182	751.25
402.406	743.25
402.63	756.25
402.854	760.25
403.078	777.25
403.302	764.25
403.526	788.25
403.75	760.25
403.974	810.25
404.198	804.25
404.422	807.25
404.645	832.25
404.869	782.25
405.093	857.25
405.317	832.25
405.541	882.25
405.765	827.25
405.988	795.25
406.212	811.25
406.436	811.25
406.66	846.25
406.883	832.25
407.107	839.25
407.331	866.25
407.555	967.25
407.778	983.25
408.002	908.25
408.226	874.25
408.449	832.25
408.673	833.25
408.896	869.25
409.12	873.25
409.344	842.25
409.567	784.25
409.791	779.25
410.014	786.25
410.238	780.25
410.461	766.25
410.685	789.25
410.908	764.25
411.132	788.25
411.355	804.25
411.578	793.25
411.802	774.25
412.025	761.25
412.249	765.25
412.472	766.25
412.695	825.25
412.919	784.25
413.142	760.25
413.365	751.25
413.589	756.25
413.812	712.25
414.035	712.25
414.258	713.25
414.482	709.25
414.705	727.25
414.928	747.25
415.151	716.25
415.374	711.25
415.597	695.25
415.821	685.25
416.044	705.25
416.267	722.25
416.49	708.25
416.713	687.25
416.936	696.25
417.159	710.25
417.382	717.25
417.605	710.25
417.828	746.25
418.051	732.25
418.274	722.25
418.497	715.25
418.72	730.25
418.943	722.25
419.166	753.25
419.389	780.25
419.611	792.25
419.834	750.25
420.057	751.25
420.28	746.25
420.503	747.25
420.726	735.25
420.948	731.25
421.171	765.25
421.394	792.25
421.617	746.25
421.839	726.25
422.062	751.25
422.285	738.25
422.507	789.25
422.73	842.25
422.953	833.25
423.175	746.25
423.398	749.25
423.621	759.25
423.843	774.25
424.066	791.25
424.288	780.25
424.511	810.25
424.733	826.25
424.956	859.25
425.178	826.25
425.401	854.25
425.623	873.25
425.846	798.25
426.068	733.25
426.291	741.25
426.513	729.25
426.735	738.25
426.958	779.25
427.18	824.25
427.402	932.25
427.625	1025.25
427.847	888.25
428.069	806.25
428.292	756.25
428.514	700.25
428.736	705.25
428.958	717.25
429.181	661.25
429.403	659.25
429.625	676.25
429.847	707.25
430.069	762.25
430.292	757.25
430.514	657.25
430.736	694.25
430.958	653.25
431.18	659.25
431.402	652.25
431.624	654.25
431.846	652.25
432.068	674.25
432.29	672.25
432.512	678.25
432.734	680.25
432.956	673.25
433.178	672.25
433.4	674.25
433.622	669.25
433.844	679.25
434.066	670.25
434.287	662.25
434.509	680.25
434.731	709.25
434.953	723.25
435.175	743.25
435.397	730.25
435.618	738.25
435.84	750.25
436.062	802.25
436.284	850.25
436.505	792.25
436.727	711.25
436.949	710.25
437.17	682.25
437.392	666.25
437.614	697.25
437.835	706.25
438.057	769.25
438.278	866.25
438.5	839.25
438.721	914.25
438.943	884.25
439.165	744.25
439.386	708.25
439.608	700.25
439.829	705.25
440.05	727.25
440.272	772.25
440.493	747.25
440.715	714.25
440.936	687.25
441.158	708.25
441.379	699.25
441.6	714.25
441.822	745.25
442.043	775.25
442.264	840.25
442.486	876.25
442.707	768.25
442.928	779.25
443.149	745.25
443.371	788.25
443.592	783.25
443.813	864.25
444.034	953.25
444.255	870.25
444.476	826.25
444.698	833.25
444.919	821.25
445.14	893.25
445.361	869.25
445.582	784.25
445.803	822.25
446.024	886.25
446.245	877.25
446.466	832.25
446.687	730.25
446.908	731.25
447.129	680.25
447.35	696.25
447.571	650.25
447.792	665.25
448.013	661.25
448.234	657.25
448.455	710.25
448.675	808.25
448.896	895.25
449.117	784.25
449.338	732.25
449.559	842.25
449.779	930.25
450	794.25
450.221	683.25
450.442	658.25
450.662	636.25
450.883	651.25
451.104	670.25
451.324	641.25
451.545	617.25
451.766	634.25
451.986	600.25
452.207	616.25
452.428	599.25
452.648	605.25
452.869	607.25
453.089	591.25
453.31	603.25
453.53	615.25
453.751	611.25
453.971	606.25
454.192	636.25
454.412	598.25
454.633	596.25
454.853	594.25
455.073	594.25
455.294	610.25
455.514	678.25
455.734	655.25
455.955	602.25
456.175	586.25
456.395	597.25
456.616	583.25
456.836	576.25
457.056	594.25
457.276	570.25
457.497	593.25
457.717	546.25
457.937	573.25
458.157	595.25
458.377	608.25
458.598	613.25
458.818	662.25
459.038	711.25
459.258	759.25
459.478	712.25
459.698	696.25
459.918	678.25
460.138	689.25
460.358	706.25
460.578	719.25
460.798	724.25
461.018	732.25
461.238	751.25
461.458	744.25
461.678	741.25
461.898	728.25
462.118	732.25
462.338	782.25
462.558	790.25
462.777	769.25
462.997	824.25
463.217	873.25
463.437	876.25
463.657	850.25
463.876	812.25
464.096	815.25
464.316	793.25
464.536	802.25
464.755	817.25
464.975	814.25
465.195	789.25
465.414	815.25
465.634	718.25
465.854	693.25
466.073	693.25
466.293	653.25
466.512	640.25
466.732	644.25
466.951	643.25
467.171	632.25
467.391	620.25
467.61	623.25
467.829	652.25
468.049	630.25
468.268	628.25
468.488	647.25
468.707	608.25
468.927	622.25
469.146	610.25
469.365	632.25
469.585	614.25
469.804	632.25
470.023	660.25
470.243	669.25
470.462	655.25
470.681	666.25
470.901	669.25
471.12	660.25
471.339	626.25
471.558	619.25
471.777	644.25
471.997	635.25
472.216	621.25
472.435	648.25
472.654	678.25
472.873	602.25
473.092	621.25
473.311	604.25
473.53	624.25
473.749	616.25
473.968	644.25
474.187	745.25
474.406	744.25
474.625	672.25
474.844	644.25
475.063	653.25
475.282	626.25
475.501	636.25
475.72	623.25
475.939	652.25
476.158	662.25
476.377	642.25
476.596	628.25
476.814	669.25
477.033	682.25
477.252	676.25
477.471	697.25
477.69	708.25
477.908	709.25
478.127	713.25
478.346	699.25
478.564	708.25
478.783	713.25
479.002	785.25
479.22	748.25
479.439	757.25
479.658	766.25
479.876	801.25
480.095	790.25
480.313	808.25
480.532	859.25
480.751	811.25
480.969	812.25
481.188	858.25
481.406	886.25
481.624	794.25
481.843	766.25
482.061	763.25
482.28	744.25
482.498	726.25
482.717	713.25
482.935	722.25
483.153	717.25
483.372	735.25
483.59	733.25
483.808	749.25
484.027	698.25
484.245	716.25
484.463	721.25
484.681	741.25
484.9	755.25
485.118	752.25
485.336	758.25
485.554	752.25
485.772	774.25
485.99	748.25
486.209	764.25
486.427	774.25
486.645	751.25
486.863	788.25
487.081	797.25
487.299	760.25
487.517	782.25
487.735	780.25
487.953	768.25
488.171	787.25
488.389	778.25
488.607	767.25
488.825	791.25
489.043	810.25
489.261	791.25
489.479	785.25
489.696	816.25
489.914	817.25
490.132	821.25
490.35	828.25
490.568	814.25
490.786	829.25
491.003	820.25
491.221	835.25
491.439	855.25
491.657	846.25
491.874	884.25
492.092	874.25
492.31	874.25
492.527	873.25
492.745	902.25
492.963	898.25
493.18	889.25
493.398	891.25
493.615	903.25
493.833	898.25
494.05	918.25
494.268	908.25
494.485	904.25
494.703	904.25
494.92	920.25
495.138	889.25
495.355	896.25
495.573	910.25
495.79	910.25
496.008	912.25
496.225	928.25
496.442	921.25
496.66	941.25
496.877	956.25
497.094	943.25
497.312	986.25
497.529	980.25
497.746	1017.25
497.963	1006.25
498.181	1052.25
498.398	1048.25
498.615	1090.25
498.832	1156.25
499.049	1221.25
499.267	1278.25
499.484	1344.25
499.701	1448.25
499.918	1525.25
500.135	1638.25
500.352	1799.25
500.569	1834.25
500.786	1822.25
501.003	1760.25
501.22	1683.25
501.437	1505.25
501.654	1389.25
