Data from 1963.PennyLincolnUp.Lamp.En5.5.200Scan.071719.P1._HRD10591_13-59-41-064.txt Node
Date: Thu Jul 18 13:59:41 EDT 2019
User: cochatt
Spectrometer: HR+D1059
Trigger mode: 1
Integration Time (sec): 1.000000E-1
Scans to average: 1
Electric dark correction enabled: true
Nonlinearity correction enabled: false
Boxcar width: 0
XAxis mode: Wavelengths
Number of Pixels in Spectrum: 2048
>>>>>Begin Spectral Data<<<<<
223.165	-16.56
223.4	-16.56
223.635	-16.56
223.869	-22.56
224.104	-4.56
224.338	-12.56
224.573	-11.56
224.808	-19.56
225.042	-19.56
225.277	4.44
225.511	-18.56
225.746	-3.56
225.98	1.44
226.215	7.44
226.449	34.44
226.683	21.44
226.918	23.44
227.152	36.44
227.387	38.44
227.621	36.44
227.856	40.44
228.09	48.44
228.324	63.44
228.559	75.44
228.793	61.44
229.027	91.44
229.262	115.44
229.496	126.44
229.73	129.44
229.964	149.44
230.199	122.44
230.433	116.44
230.667	119.44
230.901	110.44
231.136	126.44
231.37	115.44
231.604	127.44
231.838	103.44
232.072	118.44
232.306	127.44
232.541	127.44
232.775	119.44
233.009	128.44
233.243	123.44
233.477	123.44
233.711	128.44
233.945	130.44
234.179	133.44
234.413	135.44
234.647	123.44
234.881	119.44
235.115	126.44
235.349	128.44
235.583	142.44
235.817	132.44
236.051	126.44
236.285	135.44
236.519	128.44
236.753	129.44
236.987	144.44
237.221	158.44
237.455	206.44
237.689	182.44
237.922	145.44
238.156	139.44
238.39	129.44
238.624	131.44
238.858	133.44
239.091	156.44
239.325	126.44
239.559	138.44
239.793	134.44
240.027	133.44
240.26	155.44
240.494	165.44
240.728	170.44
240.961	151.44
241.195	145.44
241.429	150.44
241.662	147.44
241.896	147.44
242.13	145.44
242.363	151.44
242.597	145.44
242.83	168.44
243.064	140.44
243.298	170.44
243.531	154.44
243.765	157.44
243.998	145.44
244.232	160.44
244.465	159.44
244.699	140.44
244.932	169.44
245.166	170.44
245.399	175.44
245.633	163.44
245.866	174.44
246.099	166.44
246.333	166.44
246.566	171.44
246.8	168.44
247.033	167.44
247.266	181.44
247.5	169.44
247.733	189.44
247.966	173.44
248.2	183.44
248.433	185.44
248.666	195.44
248.899	205.44
249.133	223.44
249.366	219.44
249.599	222.44
249.832	203.44
250.066	195.44
250.299	217.44
250.532	195.44
250.765	205.44
250.998	229.44
251.231	228.44
251.465	223.44
251.698	230.44
251.931	224.44
252.164	221.44
252.397	237.44
252.63	220.44
252.863	223.44
253.096	226.44
253.329	247.44
253.562	234.44
253.795	219.44
254.028	214.44
254.261	225.44
254.494	249.44
254.727	260.44
254.96	267.44
255.193	283.44
255.426	247.44
255.659	224.44
255.892	235.44
256.124	236.44
256.357	255.44
256.59	247.44
256.823	215.44
257.056	236.44
257.289	235.44
257.521	231.44
257.754	223.44
257.987	223.44
258.22	238.44
258.452	238.44
258.685	243.44
258.918	231.44
259.151	232.44
259.383	243.44
259.616	229.44
259.849	243.44
260.081	249.44
260.314	247.44
260.547	277.44
260.779	256.44
261.012	243.44
261.244	264.44
261.477	267.44
261.71	269.44
261.942	254.44
262.175	249.44
262.407	267.44
262.64	246.44
262.872	261.44
263.105	237.44
263.337	260.44
263.57	263.44
263.802	234.44
264.035	257.44
264.267	232.44
264.499	247.44
264.732	245.44
264.964	246.44
265.197	260.44
265.429	250.44
265.661	245.44
265.894	261.44
266.126	238.44
266.358	247.44
266.591	255.44
266.823	253.44
267.055	246.44
267.287	259.44
267.52	248.44
267.752	254.44
267.984	249.44
268.216	274.44
268.448	261.44
268.681	277.44
268.913	281.44
269.145	288.44
269.377	297.44
269.609	307.44
269.841	302.44
270.073	309.44
270.306	300.44
270.538	352.44
270.77	337.44
271.002	323.44
271.234	333.44
271.466	311.44
271.698	323.44
271.93	321.44
272.162	320.44
272.394	331.44
272.626	314.44
272.858	312.44
273.09	307.44
273.322	319.44
273.553	311.44
273.785	305.44
274.017	292.44
274.249	287.44
274.481	303.44
274.713	313.44
274.945	290.44
275.176	304.44
275.408	302.44
275.64	292.44
275.872	288.44
276.104	298.44
276.335	292.44
276.567	302.44
276.799	317.44
277.031	352.44
277.262	363.44
277.494	359.44
277.726	344.44
277.957	334.44
278.189	334.44
278.421	319.44
278.652	314.44
278.884	322.44
279.115	313.44
279.347	306.44
279.579	320.44
279.81	303.44
280.042	317.44
280.273	328.44
280.505	322.44
280.736	305.44
280.968	299.44
281.199	314.44
281.431	328.44
281.662	327.44
281.894	315.44
282.125	332.44
282.356	336.44
282.588	348.44
282.819	369.44
283.051	335.44
283.282	340.44
283.513	334.44
283.745	316.44
283.976	341.44
284.207	351.44
284.439	329.44
284.67	341.44
284.901	342.44
285.132	320.44
285.364	332.44
285.595	330.44
285.826	346.44
286.057	327.44
286.288	331.44
286.52	345.44
286.751	351.44
286.982	335.44
287.213	362.44
287.444	363.44
287.675	356.44
287.906	357.44
288.138	351.44
288.369	380.44
288.6	374.44
288.831	362.44
289.062	365.44
289.293	365.44
289.524	342.44
289.755	355.44
289.986	351.44
290.217	363.44
290.448	336.44
290.679	371.44
290.91	331.44
291.141	373.44
291.371	366.44
291.602	351.44
291.833	369.44
292.064	369.44
292.295	353.44
292.526	351.44
292.757	349.44
292.987	364.44
293.218	352.44
293.449	356.44
293.68	343.44
293.91	369.44
294.141	378.44
294.372	342.44
294.603	373.44
294.833	366.44
295.064	373.44
295.295	371.44
295.525	373.44
295.756	389.44
295.987	369.44
296.217	405.44
296.448	408.44
296.679	385.44
296.909	357.44
297.14	382.44
297.37	362.44
297.601	360.44
297.831	391.44
298.062	382.44
298.292	395.44
298.523	392.44
298.753	405.44
298.984	397.44
299.214	394.44
299.445	405.44
299.675	379.44
299.905	399.44
300.136	388.44
300.366	384.44
300.597	391.44
300.827	414.44
301.057	409.44
301.288	422.44
301.518	407.44
301.748	416.44
301.979	412.44
302.209	410.44
302.439	412.44
302.669	413.44
302.9	410.44
303.13	407.44
303.36	395.44
303.59	408.44
303.82	430.44
304.051	429.44
304.281	426.44
304.511	414.44
304.741	430.44
304.971	412.44
305.201	417.44
305.431	420.44
305.661	414.44
305.891	410.44
306.121	407.44
306.352	400.44
306.582	419.44
306.812	430.44
307.042	408.44
307.272	431.44
307.502	406.44
307.731	429.44
307.961	433.44
308.191	404.44
308.421	413.44
308.651	429.44
308.881	410.44
309.111	421.44
309.341	439.44
309.571	413.44
309.8	436.44
310.03	436.44
310.26	445.44
310.49	439.44
310.72	417.44
310.949	442.44
311.179	475.44
311.409	444.44
311.639	441.44
311.868	441.44
312.098	442.44
312.328	438.44
312.557	463.44
312.787	471.44
313.017	481.44
313.246	459.44
313.476	442.44
313.706	481.44
313.935	468.44
314.165	485.44
314.394	499.44
314.624	483.44
314.853	461.44
315.083	463.44
315.312	463.44
315.542	468.44
315.771	459.44
316.001	466.44
316.23	460.44
316.46	462.44
316.689	445.44
316.919	470.44
317.148	461.44
317.377	482.44
317.607	451.44
317.836	447.44
318.065	464.44
318.295	446.44
318.524	439.44
318.753	457.44
318.983	485.44
319.212	453.44
319.441	462.44
319.67	477.44
319.9	467.44
320.129	452.44
320.358	474.44
320.587	474.44
320.816	453.44
321.046	451.44
321.275	464.44
321.504	456.44
321.733	464.44
321.962	471.44
322.191	485.44
322.42	490.44
322.649	488.44
322.878	486.44
323.108	527.44
323.337	500.44
323.566	533.44
323.795	535.44
324.024	555.44
324.253	632.44
324.482	833.44
324.71	1207.44
324.939	1700.44
325.168	1512.44
325.397	833.44
325.626	639.44
325.855	580.44
326.084	548.44
326.313	551.44
326.542	557.44
326.77	602.44
326.999	649.44
327.228	803.44
327.457	1161.44
327.686	1387.44
327.914	935.44
328.143	692.44
328.372	642.44
328.6	611.44
328.829	555.44
329.058	617.44
329.287	607.44
329.515	559.44
329.744	584.44
329.972	547.44
330.201	580.44
330.43	598.44
330.658	640.44
330.887	636.44
331.115	613.44
331.344	598.44
331.572	575.44
331.801	561.44
332.03	583.44
332.258	583.44
332.486	586.44
332.715	572.44
332.943	581.44
333.172	572.44
333.4	614.44
333.629	635.44
333.857	647.44
334.085	664.44
334.314	639.44
334.542	665.44
334.771	684.44
334.999	628.44
335.227	629.44
335.455	602.44
335.684	576.44
335.912	594.44
336.14	586.44
336.369	577.44
336.597	586.44
336.825	593.44
337.053	584.44
337.281	570.44
337.51	575.44
337.738	561.44
337.966	586.44
338.194	572.44
338.422	542.44
338.65	541.44
338.878	548.44
339.106	540.44
339.334	545.44
339.562	526.44
339.79	515.44
340.018	523.44
340.246	538.44
340.474	534.44
340.702	538.44
340.93	535.44
341.158	544.44
341.386	542.44
341.614	545.44
341.842	533.44
342.07	530.44
342.298	504.44
342.526	517.44
342.754	535.44
342.981	534.44
343.209	517.44
343.437	521.44
343.665	541.44
343.893	557.44
344.12	613.44
344.348	589.44
344.576	575.44
344.804	562.44
345.031	525.44
345.259	553.44
345.487	555.44
345.714	545.44
345.942	503.44
346.17	514.44
346.397	511.44
346.625	494.44
346.853	517.44
347.08	519.44
347.308	536.44
347.535	500.44
347.763	512.44
347.99	523.44
348.218	521.44
348.445	544.44
348.673	538.44
348.9	504.44
349.128	509.44
349.355	503.44
349.583	483.44
349.81	511.44
350.037	517.44
350.265	488.44
350.492	509.44
350.72	495.44
350.947	511.44
351.174	500.44
351.402	507.44
351.629	503.44
351.856	511.44
352.083	518.44
352.311	505.44
352.538	496.44
352.765	513.44
352.992	516.44
353.22	497.44
353.447	484.44
353.674	511.44
353.901	482.44
354.128	499.44
354.355	488.44
354.583	499.44
354.81	503.44
355.037	502.44
355.264	511.44
355.491	486.44
355.718	488.44
355.945	486.44
356.172	488.44
356.399	501.44
356.626	475.44
356.853	471.44
357.08	475.44
357.307	488.44
357.534	480.44
357.761	491.44
357.988	492.44
358.215	501.44
358.441	479.44
358.668	473.44
358.895	471.44
359.122	515.44
359.349	497.44
359.576	499.44
359.802	533.44
360.029	551.44
360.256	537.44
360.483	541.44
360.709	519.44
360.936	538.44
361.163	509.44
361.39	489.44
361.616	486.44
361.843	516.44
362.07	499.44
362.296	509.44
362.523	495.44
362.749	505.44
362.976	506.44
363.203	513.44
363.429	494.44
363.656	481.44
363.882	490.44
364.109	496.44
364.335	483.44
364.562	488.44
364.788	526.44
365.015	491.44
365.241	483.44
365.468	505.44
365.694	497.44
365.92	504.44
366.147	505.44
366.373	480.44
366.599	499.44
366.826	513.44
367.052	488.44
367.278	487.44
367.505	507.44
367.731	510.44
367.957	496.44
368.184	490.44
368.41	494.44
368.636	526.44
368.862	510.44
369.089	521.44
369.315	508.44
369.541	518.44
369.767	505.44
369.993	510.44
370.219	493.44
370.445	515.44
370.672	517.44
370.898	536.44
371.124	511.44
371.35	510.44
371.576	517.44
371.802	507.44
372.028	514.44
372.254	495.44
372.48	499.44
372.706	549.44
372.932	511.44
373.158	517.44
373.384	535.44
373.61	516.44
373.835	528.44
374.061	528.44
374.287	526.44
374.513	560.44
374.739	523.44
374.965	555.44
375.191	581.44
375.416	566.44
375.642	531.44
375.868	539.44
376.094	548.44
376.319	513.44
376.545	522.44
376.771	513.44
376.997	506.44
377.222	525.44
377.448	497.44
377.674	515.44
377.899	520.44
378.125	522.44
378.35	515.44
378.576	517.44
378.802	500.44
379.027	523.44
379.253	529.44
379.478	518.44
379.704	527.44
379.929	504.44
380.155	515.44
380.38	521.44
380.606	501.44
380.831	507.44
381.057	541.44
381.282	525.44
381.507	511.44
381.733	532.44
381.958	513.44
382.184	548.44
382.409	519.44
382.634	548.44
382.86	527.44
383.085	550.44
383.31	560.44
383.535	541.44
383.761	564.44
383.986	555.44
384.211	558.44
384.436	564.44
384.662	583.44
384.887	569.44
385.112	554.44
385.337	605.44
385.562	600.44
385.787	609.44
386.013	602.44
386.238	605.44
386.463	593.44
386.688	583.44
386.913	598.44
387.138	590.44
387.363	600.44
387.588	593.44
387.813	606.44
388.038	601.44
388.263	624.44
388.488	629.44
388.713	606.44
388.938	592.44
389.163	592.44
389.387	577.44
389.612	612.44
389.837	605.44
390.062	577.44
390.287	580.44
390.512	590.44
390.736	607.44
390.961	580.44
391.186	624.44
391.411	633.44
391.636	603.44
391.86	606.44
392.085	653.44
392.31	655.44
392.534	613.44
392.759	615.44
392.984	614.44
393.208	605.44
393.433	618.44
393.658	634.44
393.882	611.44
394.107	619.44
394.331	605.44
394.556	603.44
394.78	606.44
395.005	627.44
395.229	610.44
395.454	638.44
395.678	647.44
395.903	633.44
396.127	650.44
396.352	653.44
396.576	637.44
396.801	614.44
397.025	623.44
397.249	647.44
397.474	663.44
397.698	662.44
397.922	679.44
398.147	649.44
398.371	665.44
398.595	691.44
398.82	701.44
399.044	749.44
399.268	804.44
399.492	860.44
399.717	949.44
399.941	941.44
400.165	915.44
400.389	888.44
400.613	793.44
400.837	745.44
401.062	740.44
401.286	731.44
401.51	713.44
401.734	693.44
401.958	748.44
402.182	742.44
402.406	750.44
402.63	732.44
402.854	755.44
403.078	736.44
403.302	783.44
403.526	784.44
403.75	756.44
403.974	785.44
404.198	793.44
404.422	795.44
404.645	776.44
404.869	771.44
405.093	819.44
405.317	836.44
405.541	848.44
405.765	779.44
405.988	789.44
406.212	785.44
406.436	803.44
406.66	797.44
406.883	797.44
407.107	827.44
407.331	877.44
407.555	948.44
407.778	962.44
408.002	887.44
408.226	833.44
408.449	839.44
408.673	842.44
408.896	831.44
409.12	852.44
409.344	840.44
409.567	793.44
409.791	777.44
410.014	781.44
410.238	763.44
410.461	755.44
410.685	796.44
410.908	755.44
411.132	771.44
411.355	801.44
411.578	785.44
411.802	746.44
412.025	744.44
412.249	724.44
412.472	773.44
412.695	797.44
412.919	791.44
413.142	727.44
413.365	725.44
413.589	709.44
413.812	708.44
414.035	691.44
414.258	717.44
414.482	696.44
414.705	731.44
414.928	725.44
415.151	733.44
415.374	717.44
415.597	703.44
415.821	706.44
416.044	701.44
416.267	685.44
416.49	681.44
416.713	697.44
416.936	703.44
417.159	710.44
417.382	709.44
417.605	707.44
417.828	701.44
418.051	730.44
418.274	716.44
418.497	701.44
418.72	715.44
418.943	698.44
419.166	737.44
419.389	789.44
419.611	781.44
419.834	771.44
420.057	748.44
420.28	744.44
420.503	725.44
420.726	726.44
420.948	727.44
421.171	777.44
421.394	795.44
421.617	716.44
421.839	699.44
422.062	697.44
422.285	715.44
422.507	774.44
422.73	853.44
422.953	831.44
423.175	763.44
423.398	747.44
423.621	744.44
423.843	763.44
424.066	793.44
424.288	773.44
424.511	791.44
424.733	828.44
424.956	871.44
425.178	843.44
425.401	836.44
425.623	859.44
425.846	775.44
426.068	737.44
426.291	718.44
426.513	695.44
426.735	722.44
426.958	784.44
427.18	821.44
427.402	933.44
427.625	993.44
427.847	895.44
428.069	799.44
428.292	773.44
428.514	684.44
428.736	675.44
428.958	695.44
429.181	671.44
429.403	645.44
429.625	687.44
429.847	697.44
430.069	740.44
430.292	727.44
430.514	672.44
430.736	660.44
430.958	647.44
431.18	671.44
431.402	689.44
431.624	637.44
431.846	653.44
432.068	664.44
432.29	665.44
432.512	653.44
432.734	641.44
432.956	660.44
433.178	669.44
433.4	683.44
433.622	672.44
433.844	661.44
434.066	658.44
434.287	661.44
434.509	679.44
434.731	702.44
434.953	711.44
435.175	733.44
435.397	707.44
435.618	727.44
435.84	748.44
436.062	822.44
436.284	873.44
436.505	736.44
436.727	692.44
436.949	703.44
437.17	685.44
437.392	652.44
437.614	681.44
437.835	700.44
438.057	784.44
438.278	853.44
438.5	843.44
438.721	919.44
438.943	885.44
439.165	743.44
439.386	729.44
439.608	693.44
439.829	696.44
440.05	716.44
440.272	755.44
440.493	722.44
440.715	714.44
440.936	713.44
441.158	680.44
441.379	680.44
441.6	725.44
441.822	739.44
442.043	765.44
442.264	850.44
442.486	857.44
442.707	790.44
442.928	745.44
443.149	764.44
443.371	770.44
443.592	768.44
443.813	885.44
444.034	923.44
444.255	849.44
444.476	791.44
444.698	807.44
444.919	809.44
445.14	906.44
445.361	833.44
445.582	790.44
445.803	789.44
446.024	880.44
446.245	877.44
446.466	810.44
446.687	759.44
446.908	707.44
447.129	693.44
447.35	668.44
447.571	667.44
447.792	630.44
448.013	636.44
448.234	666.44
448.455	711.44
448.675	785.44
448.896	897.44
449.117	766.44
449.338	749.44
449.559	837.44
449.779	921.44
450	766.44
450.221	671.44
450.442	644.44
450.662	613.44
450.883	632.44
451.104	649.44
451.324	623.44
451.545	616.44
451.766	619.44
451.986	608.44
452.207	587.44
452.428	600.44
452.648	598.44
452.869	592.44
453.089	580.44
453.31	629.44
453.53	564.44
453.751	573.44
453.971	606.44
454.192	586.44
454.412	575.44
454.633	588.44
454.853	586.44
455.073	581.44
455.294	613.44
455.514	658.44
455.734	635.44
455.955	592.44
456.175	563.44
456.395	556.44
456.616	560.44
456.836	571.44
457.056	567.44
457.276	540.44
457.497	577.44
457.717	585.44
457.937	568.44
458.157	568.44
458.377	585.44
458.598	606.44
458.818	663.44
459.038	720.44
459.258	725.44
459.478	677.44
459.698	680.44
459.918	648.44
460.138	645.44
460.358	703.44
460.578	715.44
460.798	703.44
461.018	742.44
461.238	734.44
461.458	736.44
461.678	701.44
461.898	712.44
462.118	754.44
462.338	746.44
462.558	774.44
462.777	796.44
462.997	827.44
463.217	872.44
463.437	885.44
463.657	839.44
463.876	783.44
464.096	805.44
464.316	793.44
464.536	777.44
464.755	783.44
464.975	767.44
465.195	798.44
465.414	795.44
465.634	716.44
465.854	679.44
466.073	675.44
466.293	656.44
466.512	635.44
466.732	629.44
466.951	641.44
467.171	632.44
467.391	629.44
467.61	635.44
467.829	617.44
468.049	640.44
468.268	607.44
468.488	617.44
468.707	607.44
468.927	614.44
469.146	614.44
469.365	621.44
469.585	583.44
469.804	639.44
470.023	636.44
470.243	620.44
470.462	657.44
470.681	645.44
470.901	665.44
471.12	639.44
471.339	641.44
471.558	626.44
471.777	625.44
471.997	624.44
472.216	620.44
472.435	651.44
472.654	641.44
472.873	651.44
473.092	613.44
473.311	620.44
473.53	605.44
473.749	620.44
473.968	642.44
474.187	693.44
474.406	736.44
474.625	679.44
474.844	621.44
475.063	619.44
475.282	602.44
475.501	633.44
475.72	636.44
475.939	644.44
476.158	647.44
476.377	643.44
476.596	635.44
476.814	643.44
477.033	675.44
477.252	668.44
477.471	647.44
477.69	659.44
477.908	691.44
478.127	701.44
478.346	700.44
478.564	709.44
478.783	723.44
479.002	744.44
479.22	721.44
479.439	744.44
479.658	764.44
479.876	757.44
480.095	788.44
480.313	788.44
480.532	827.44
480.751	823.44
480.969	809.44
481.188	842.44
481.406	835.44
481.624	799.44
481.843	775.44
482.061	733.44
482.28	723.44
482.498	712.44
482.717	712.44
482.935	730.44
483.153	718.44
483.372	705.44
483.59	706.44
483.808	709.44
484.027	723.44
484.245	741.44
484.463	736.44
484.681	724.44
484.9	755.44
485.118	755.44
485.336	756.44
485.554	748.44
485.772	752.44
485.99	755.44
486.209	780.44
486.427	746.44
486.645	777.44
486.863	755.44
487.081	823.44
487.299	801.44
487.517	767.44
487.735	764.44
487.953	783.44
488.171	779.44
488.389	757.44
488.607	793.44
488.825	751.44
489.043	767.44
489.261	784.44
489.479	783.44
489.696	795.44
489.914	788.44
490.132	782.44
490.35	786.44
490.568	786.44
490.786	810.44
491.003	823.44
491.221	830.44
491.439	871.44
491.657	873.44
491.874	841.44
492.092	856.44
492.31	849.44
492.527	897.44
492.745	863.44
492.963	857.44
493.18	876.44
493.398	893.44
493.615	899.44
493.833	905.44
494.05	904.44
494.268	893.44
494.485	889.44
494.703	890.44
494.92	892.44
495.138	867.44
495.355	884.44
495.573	903.44
495.79	899.44
496.008	900.44
496.225	892.44
496.442	900.44
496.66	933.44
496.877	923.44
497.094	921.44
497.312	922.44
497.529	961.44
497.746	966.44
497.963	969.44
498.181	1032.44
498.398	1050.44
498.615	1071.44
498.832	1126.44
499.049	1185.44
499.267	1216.44
499.484	1320.44
499.701	1399.44
499.918	1516.44
500.135	1568.44
500.352	1752.44
500.569	1866.44
500.786	1848.44
501.003	1680.44
501.22	1604.44
501.437	1503.44
501.654	1403.44
