Data from 1963.PennyLincolnUp.Lamp.En5.5.200Scan.071719.P1._HRD10591_13-57-29-062.txt Node
Date: Thu Jul 18 13:57:29 EDT 2019
User: cochatt
Spectrometer: HR+D1059
Trigger mode: 1
Integration Time (sec): 1.000000E-1
Scans to average: 1
Electric dark correction enabled: true
Nonlinearity correction enabled: false
Boxcar width: 0
XAxis mode: Wavelengths
Number of Pixels in Spectrum: 2048
>>>>>Begin Spectral Data<<<<<
223.165	-15.56
223.4	-15.56
223.635	-15.56
223.869	-14.56
224.104	-25.56
224.338	-7.56
224.573	-26.56
224.808	-22.56
225.042	-9.56
225.277	-7.56
225.511	-8.56
225.746	6.44
225.98	10.44
226.215	7.44
226.449	20.44
226.683	30.44
226.918	22.44
227.152	40.44
227.387	35.44
227.621	30.44
227.856	35.44
228.09	31.44
228.324	46.44
228.559	45.44
228.793	75.44
229.027	90.44
229.262	88.44
229.496	106.44
229.73	119.44
229.964	140.44
230.199	107.44
230.433	110.44
230.667	134.44
230.901	103.44
231.136	107.44
231.37	117.44
231.604	112.44
231.838	121.44
232.072	96.44
232.306	101.44
232.541	105.44
232.775	130.44
233.009	106.44
233.243	119.44
233.477	106.44
233.711	122.44
233.945	112.44
234.179	116.44
234.413	114.44
234.647	115.44
234.881	113.44
235.115	121.44
235.349	121.44
235.583	126.44
235.817	108.44
236.051	118.44
236.285	124.44
236.519	121.44
236.753	122.44
236.987	126.44
237.221	140.44
237.455	188.44
237.689	159.44
237.922	143.44
238.156	125.44
238.39	121.44
238.624	129.44
238.858	113.44
239.091	123.44
239.325	131.44
239.559	120.44
239.793	129.44
240.027	134.44
240.26	141.44
240.494	157.44
240.728	141.44
240.961	141.44
241.195	140.44
241.429	131.44
241.662	137.44
241.896	138.44
242.13	133.44
242.363	150.44
242.597	130.44
242.83	147.44
243.064	151.44
243.298	127.44
243.531	148.44
243.765	146.44
243.998	135.44
244.232	150.44
244.465	154.44
244.699	153.44
244.932	156.44
245.166	152.44
245.399	171.44
245.633	155.44
245.866	151.44
246.099	160.44
246.333	156.44
246.566	159.44
246.8	163.44
247.033	161.44
247.266	163.44
247.5	155.44
247.733	192.44
247.966	180.44
248.2	186.44
248.433	172.44
248.666	174.44
248.899	180.44
249.133	186.44
249.366	188.44
249.599	187.44
249.832	185.44
250.066	191.44
250.299	173.44
250.532	176.44
250.765	211.44
250.998	218.44
251.231	202.44
251.465	211.44
251.698	193.44
251.931	193.44
252.164	206.44
252.397	201.44
252.63	199.44
252.863	215.44
253.096	209.44
253.329	217.44
253.562	212.44
253.795	234.44
254.028	196.44
254.261	226.44
254.494	217.44
254.727	224.44
254.96	253.44
255.193	231.44
255.426	241.44
255.659	228.44
255.892	234.44
256.124	227.44
256.357	244.44
256.59	217.44
256.823	223.44
257.056	212.44
257.289	205.44
257.521	210.44
257.754	226.44
257.987	220.44
258.22	210.44
258.452	201.44
258.685	220.44
258.918	215.44
259.151	204.44
259.383	229.44
259.616	228.44
259.849	226.44
260.081	245.44
260.314	230.44
260.547	254.44
260.779	249.44
261.012	219.44
261.244	230.44
261.477	242.44
261.71	230.44
261.942	243.44
262.175	225.44
262.407	230.44
262.64	225.44
262.872	206.44
263.105	226.44
263.337	210.44
263.57	240.44
263.802	220.44
264.035	223.44
264.267	207.44
264.499	219.44
264.732	223.44
264.964	236.44
265.197	238.44
265.429	214.44
265.661	242.44
265.894	250.44
266.126	239.44
266.358	242.44
266.591	251.44
266.823	239.44
267.055	241.44
267.287	262.44
267.52	257.44
267.752	238.44
267.984	235.44
268.216	256.44
268.448	254.44
268.681	251.44
268.913	252.44
269.145	275.44
269.377	279.44
269.609	261.44
269.841	266.44
270.073	275.44
270.306	284.44
270.538	299.44
270.77	302.44
271.002	304.44
271.234	299.44
271.466	302.44
271.698	292.44
271.93	311.44
272.162	312.44
272.394	298.44
272.626	311.44
272.858	285.44
273.09	296.44
273.322	286.44
273.553	279.44
273.785	254.44
274.017	301.44
274.249	292.44
274.481	270.44
274.713	267.44
274.945	299.44
275.176	282.44
275.408	292.44
275.64	279.44
275.872	293.44
276.104	284.44
276.335	286.44
276.567	280.44
276.799	279.44
277.031	303.44
277.262	309.44
277.494	309.44
277.726	307.44
277.957	299.44
278.189	304.44
278.421	294.44
278.652	306.44
278.884	296.44
279.115	302.44
279.347	278.44
279.579	289.44
279.81	296.44
280.042	270.44
280.273	313.44
280.505	299.44
280.736	306.44
280.968	310.44
281.199	307.44
281.431	322.44
281.662	304.44
281.894	308.44
282.125	297.44
282.356	291.44
282.588	314.44
282.819	322.44
283.051	300.44
283.282	320.44
283.513	311.44
283.745	313.44
283.976	330.44
284.207	323.44
284.439	318.44
284.67	323.44
284.901	325.44
285.132	323.44
285.364	303.44
285.595	327.44
285.826	318.44
286.057	322.44
286.288	313.44
286.52	304.44
286.751	338.44
286.982	344.44
287.213	337.44
287.444	335.44
287.675	331.44
287.906	352.44
288.138	344.44
288.369	346.44
288.6	342.44
288.831	341.44
289.062	350.44
289.293	350.44
289.524	329.44
289.755	351.44
289.986	335.44
290.217	324.44
290.448	339.44
290.679	335.44
290.91	342.44
291.141	332.44
291.371	336.44
291.602	350.44
291.833	331.44
292.064	347.44
292.295	347.44
292.526	338.44
292.757	351.44
292.987	334.44
293.218	332.44
293.449	358.44
293.68	346.44
293.91	366.44
294.141	339.44
294.372	345.44
294.603	353.44
294.833	332.44
295.064	341.44
295.295	345.44
295.525	349.44
295.756	344.44
295.987	376.44
296.217	373.44
296.448	359.44
296.679	370.44
296.909	360.44
297.14	384.44
297.37	364.44
297.601	380.44
297.831	384.44
298.062	374.44
298.292	355.44
298.523	348.44
298.753	368.44
298.984	363.44
299.214	368.44
299.445	385.44
299.675	373.44
299.905	359.44
300.136	363.44
300.366	361.44
300.597	372.44
300.827	368.44
301.057	378.44
301.288	386.44
301.518	364.44
301.748	396.44
301.979	388.44
302.209	385.44
302.439	373.44
302.669	405.44
302.9	387.44
303.13	398.44
303.36	402.44
303.59	407.44
303.82	395.44
304.051	408.44
304.281	402.44
304.511	383.44
304.741	375.44
304.971	385.44
305.201	381.44
305.431	384.44
305.661	386.44
305.891	390.44
306.121	390.44
306.352	397.44
306.582	387.44
306.812	386.44
307.042	396.44
307.272	404.44
307.502	395.44
307.731	390.44
307.961	391.44
308.191	391.44
308.421	393.44
308.651	391.44
308.881	390.44
309.111	411.44
309.341	384.44
309.571	393.44
309.8	405.44
310.03	393.44
310.26	415.44
310.49	407.44
310.72	401.44
310.949	425.44
311.179	397.44
311.409	412.44
311.639	407.44
311.868	402.44
312.098	424.44
312.328	411.44
312.557	420.44
312.787	456.44
313.017	432.44
313.246	422.44
313.476	434.44
313.706	439.44
313.935	427.44
314.165	428.44
314.394	436.44
314.624	430.44
314.853	443.44
315.083	437.44
315.312	416.44
315.542	440.44
315.771	432.44
316.001	412.44
316.23	434.44
316.46	431.44
316.689	427.44
316.919	430.44
317.148	415.44
317.377	429.44
317.607	435.44
317.836	433.44
318.065	422.44
318.295	424.44
318.524	424.44
318.753	414.44
318.983	430.44
319.212	425.44
319.441	434.44
319.67	436.44
319.9	412.44
320.129	444.44
320.358	438.44
320.587	433.44
320.816	439.44
321.046	440.44
321.275	424.44
321.504	441.44
321.733	453.44
321.962	449.44
322.191	439.44
322.42	444.44
322.649	458.44
322.878	464.44
323.108	475.44
323.337	464.44
323.566	462.44
323.795	473.44
324.024	498.44
324.253	548.44
324.482	693.44
324.71	930.44
324.939	1292.44
325.168	1144.44
325.397	662.44
325.626	543.44
325.855	500.44
326.084	466.44
326.313	480.44
326.542	480.44
326.77	538.44
326.999	538.44
327.228	668.44
327.457	882.44
327.686	1060.44
327.914	754.44
328.143	587.44
328.372	558.44
328.6	523.44
328.829	530.44
329.058	529.44
329.287	545.44
329.515	527.44
329.744	508.44
329.972	498.44
330.201	524.44
330.43	531.44
330.658	555.44
330.887	548.44
331.115	579.44
331.344	509.44
331.572	512.44
331.801	551.44
332.03	522.44
332.258	512.44
332.486	519.44
332.715	530.44
332.943	548.44
333.172	556.44
333.4	573.44
333.629	592.44
333.857	598.44
334.085	595.44
334.314	598.44
334.542	600.44
334.771	601.44
334.999	594.44
335.227	565.44
335.455	548.44
335.684	558.44
335.912	541.44
336.14	527.44
336.369	536.44
336.597	532.44
336.825	533.44
337.053	522.44
337.281	538.44
337.51	519.44
337.738	530.44
337.966	525.44
338.194	518.44
338.422	522.44
338.65	510.44
338.878	513.44
339.106	533.44
339.334	499.44
339.562	514.44
339.79	508.44
340.018	499.44
340.246	496.44
340.474	506.44
340.702	514.44
340.93	488.44
341.158	487.44
341.386	496.44
341.614	514.44
341.842	510.44
342.07	498.44
342.298	478.44
342.526	509.44
342.754	467.44
342.981	506.44
343.209	485.44
343.437	512.44
343.665	535.44
343.893	546.44
344.12	573.44
344.348	549.44
344.576	538.44
344.804	532.44
345.031	523.44
345.259	501.44
345.487	486.44
345.714	470.44
345.942	454.44
346.17	483.44
346.397	486.44
346.625	468.44
346.853	469.44
347.08	449.44
347.308	478.44
347.535	473.44
347.763	478.44
347.99	452.44
348.218	485.44
348.445	481.44
348.673	481.44
348.9	480.44
349.128	458.44
349.355	453.44
349.583	468.44
349.81	464.44
350.037	463.44
350.265	480.44
350.492	467.44
350.72	471.44
350.947	463.44
351.174	477.44
351.402	472.44
351.629	479.44
351.856	472.44
352.083	491.44
352.311	471.44
352.538	476.44
352.765	494.44
352.992	450.44
353.22	451.44
353.447	460.44
353.674	456.44
353.901	451.44
354.128	454.44
354.355	467.44
354.583	462.44
354.81	473.44
355.037	453.44
355.264	473.44
355.491	476.44
355.718	430.44
355.945	465.44
356.172	453.44
356.399	459.44
356.626	471.44
356.853	460.44
357.08	450.44
357.307	441.44
357.534	456.44
357.761	450.44
357.988	444.44
358.215	467.44
358.441	463.44
358.668	451.44
358.895	462.44
359.122	466.44
359.349	477.44
359.576	471.44
359.802	471.44
360.029	472.44
360.256	484.44
360.483	474.44
360.709	475.44
360.936	469.44
361.163	506.44
361.39	483.44
361.616	454.44
361.843	469.44
362.07	480.44
362.296	464.44
362.523	465.44
362.749	458.44
362.976	471.44
363.203	491.44
363.429	483.44
363.656	464.44
363.882	464.44
364.109	467.44
364.335	489.44
364.562	456.44
364.788	485.44
365.015	447.44
365.241	460.44
365.468	470.44
365.694	467.44
365.92	466.44
366.147	470.44
366.373	469.44
366.599	470.44
366.826	471.44
367.052	456.44
367.278	475.44
367.505	463.44
367.731	483.44
367.957	486.44
368.184	465.44
368.41	467.44
368.636	472.44
368.862	475.44
369.089	496.44
369.315	451.44
369.541	466.44
369.767	458.44
369.993	473.44
370.219	470.44
370.445	477.44
370.672	485.44
370.898	453.44
371.124	473.44
371.35	494.44
371.576	477.44
371.802	474.44
372.028	482.44
372.254	488.44
372.48	496.44
372.706	488.44
372.932	497.44
373.158	487.44
373.384	489.44
373.61	501.44
373.835	493.44
374.061	479.44
374.287	487.44
374.513	481.44
374.739	523.44
374.965	493.44
375.191	523.44
375.416	524.44
375.642	523.44
375.868	502.44
376.094	486.44
376.319	491.44
376.545	489.44
376.771	488.44
376.997	479.44
377.222	475.44
377.448	480.44
377.674	498.44
377.899	483.44
378.125	462.44
378.35	484.44
378.576	480.44
378.802	499.44
379.027	488.44
379.253	498.44
379.478	464.44
379.704	477.44
379.929	491.44
380.155	482.44
380.38	498.44
380.606	488.44
380.831	487.44
381.057	474.44
381.282	473.44
381.507	511.44
381.733	507.44
381.958	495.44
382.184	516.44
382.409	491.44
382.634	514.44
382.86	518.44
383.085	508.44
383.31	525.44
383.535	524.44
383.761	510.44
383.986	533.44
384.211	552.44
384.436	565.44
384.662	570.44
384.887	552.44
385.112	542.44
385.337	555.44
385.562	561.44
385.787	574.44
386.013	568.44
386.238	571.44
386.463	572.44
386.688	570.44
386.913	555.44
387.138	587.44
387.363	564.44
387.588	532.44
387.813	552.44
388.038	597.44
388.263	545.44
388.488	586.44
388.713	562.44
388.938	569.44
389.163	550.44
389.387	565.44
389.612	574.44
389.837	558.44
390.062	562.44
390.287	550.44
390.512	566.44
390.736	562.44
390.961	549.44
391.186	562.44
391.411	589.44
391.636	608.44
391.86	617.44
392.085	607.44
392.31	604.44
392.534	607.44
392.759	602.44
392.984	566.44
393.208	570.44
393.433	584.44
393.658	600.44
393.882	586.44
394.107	592.44
394.331	608.44
394.556	591.44
394.78	585.44
395.005	602.44
395.229	581.44
395.454	626.44
395.678	602.44
395.903	607.44
396.127	604.44
396.352	610.44
396.576	594.44
396.801	602.44
397.025	593.44
397.249	601.44
397.474	613.44
397.698	622.44
397.922	609.44
398.147	640.44
398.371	660.44
398.595	651.44
398.82	668.44
399.044	692.44
399.268	732.44
399.492	819.44
399.717	880.44
399.941	896.44
400.165	878.44
400.389	828.44
400.613	750.44
400.837	712.44
401.062	702.44
401.286	667.44
401.51	693.44
401.734	680.44
401.958	680.44
402.182	691.44
402.406	696.44
402.63	699.44
402.854	712.44
403.078	722.44
403.302	722.44
403.526	725.44
403.75	720.44
403.974	744.44
404.198	723.44
404.422	727.44
404.645	762.44
404.869	728.44
405.093	747.44
405.317	771.44
405.541	816.44
405.765	773.44
405.988	738.44
406.212	750.44
406.436	750.44
406.66	760.44
406.883	756.44
407.107	803.44
407.331	833.44
407.555	892.44
407.778	859.44
408.002	835.44
408.226	798.44
408.449	760.44
408.673	729.44
408.896	779.44
409.12	802.44
409.344	776.44
409.567	726.44
409.791	716.44
410.014	698.44
410.238	707.44
410.461	728.44
410.685	710.44
410.908	723.44
411.132	733.44
411.355	731.44
411.578	711.44
411.802	702.44
412.025	716.44
412.249	716.44
412.472	723.44
412.695	733.44
412.919	729.44
413.142	715.44
413.365	690.44
413.589	672.44
413.812	688.44
414.035	657.44
414.258	668.44
414.482	667.44
414.705	667.44
414.928	681.44
415.151	656.44
415.374	668.44
415.597	672.44
415.821	657.44
416.044	681.44
416.267	656.44
416.49	652.44
416.713	643.44
416.936	624.44
417.159	654.44
417.382	668.44
417.605	638.44
417.828	644.44
418.051	689.44
418.274	668.44
418.497	677.44
418.72	665.44
418.943	665.44
419.166	691.44
419.389	742.44
419.611	737.44
419.834	699.44
420.057	712.44
420.28	694.44
420.503	675.44
420.726	662.44
420.948	693.44
421.171	709.44
421.394	707.44
421.617	669.44
421.839	655.44
422.062	675.44
422.285	655.44
422.507	749.44
422.73	758.44
422.953	758.44
423.175	713.44
423.398	680.44
423.621	703.44
423.843	731.44
424.066	702.44
424.288	713.44
424.511	724.44
424.733	758.44
424.956	789.44
425.178	776.44
425.401	750.44
425.623	751.44
425.846	693.44
426.068	672.44
426.291	668.44
426.513	656.44
426.735	672.44
426.958	672.44
427.18	726.44
427.402	830.44
427.625	841.44
427.847	794.44
428.069	692.44
428.292	659.44
428.514	648.44
428.736	631.44
428.958	633.44
429.181	619.44
429.403	635.44
429.625	638.44
429.847	636.44
430.069	681.44
430.292	685.44
430.514	632.44
430.736	610.44
430.958	622.44
431.18	593.44
431.402	629.44
431.624	590.44
431.846	601.44
432.068	615.44
432.29	593.44
432.512	616.44
432.734	638.44
432.956	640.44
433.178	634.44
433.4	628.44
433.622	622.44
433.844	634.44
434.066	619.44
434.287	633.44
434.509	620.44
434.731	656.44
434.953	676.44
435.175	687.44
435.397	679.44
435.618	646.44
435.84	695.44
436.062	731.44
436.284	750.44
436.505	700.44
436.727	663.44
436.949	627.44
437.17	618.44
437.392	626.44
437.614	638.44
437.835	639.44
438.057	707.44
438.278	719.44
438.5	739.44
438.721	790.44
438.943	811.44
439.165	677.44
439.386	626.44
439.608	628.44
439.829	644.44
440.05	657.44
440.272	679.44
440.493	683.44
440.715	640.44
440.936	656.44
441.158	646.44
441.379	637.44
441.6	690.44
441.822	694.44
442.043	689.44
442.264	743.44
442.486	798.44
442.707	710.44
442.928	702.44
443.149	675.44
443.371	704.44
443.592	739.44
443.813	777.44
444.034	864.44
444.255	762.44
444.476	724.44
444.698	746.44
444.919	773.44
445.14	859.44
445.361	790.44
445.582	702.44
445.803	732.44
446.024	762.44
446.245	788.44
446.466	736.44
446.687	680.44
446.908	653.44
447.129	614.44
447.35	616.44
447.571	626.44
447.792	592.44
448.013	608.44
448.234	611.44
448.455	630.44
448.675	686.44
448.896	748.44
449.117	679.44
449.338	656.44
449.559	735.44
449.779	785.44
450	694.44
450.221	619.44
450.442	586.44
450.662	596.44
450.883	594.44
451.104	587.44
451.324	569.44
451.545	582.44
451.766	570.44
451.986	575.44
452.207	544.44
452.428	559.44
452.648	570.44
452.869	561.44
453.089	567.44
453.31	576.44
453.53	553.44
453.751	568.44
453.971	551.44
454.192	549.44
454.412	546.44
454.633	546.44
454.853	549.44
455.073	542.44
455.294	548.44
455.514	583.44
455.734	568.44
455.955	523.44
456.175	535.44
456.395	535.44
456.616	514.44
456.836	548.44
457.056	522.44
457.276	511.44
457.497	529.44
457.717	538.44
457.937	550.44
458.157	553.44
458.377	562.44
458.598	562.44
458.818	589.44
459.038	647.44
459.258	694.44
459.478	635.44
459.698	611.44
459.918	592.44
460.138	662.44
460.358	653.44
460.578	668.44
460.798	690.44
461.018	663.44
461.238	659.44
461.458	682.44
461.678	674.44
461.898	688.44
462.118	686.44
462.338	714.44
462.558	721.44
462.777	732.44
462.997	791.44
463.217	803.44
463.437	824.44
463.657	801.44
463.876	749.44
464.096	760.44
464.316	766.44
464.536	754.44
464.755	737.44
464.975	726.44
465.195	701.44
465.414	728.44
465.634	658.44
465.854	618.44
466.073	625.44
466.293	622.44
466.512	589.44
466.732	587.44
466.951	595.44
467.171	600.44
467.391	605.44
467.61	604.44
467.829	589.44
468.049	592.44
468.268	598.44
468.488	556.44
468.707	560.44
468.927	562.44
469.146	549.44
469.365	556.44
469.585	578.44
469.804	589.44
470.023	600.44
470.243	602.44
470.462	612.44
470.681	631.44
470.901	618.44
471.12	596.44
471.339	596.44
471.558	588.44
471.777	577.44
471.997	613.44
472.216	568.44
472.435	610.44
472.654	574.44
472.873	566.44
473.092	563.44
473.311	577.44
473.53	580.44
473.749	590.44
473.968	607.44
474.187	627.44
474.406	658.44
474.625	581.44
474.844	582.44
475.063	603.44
475.282	586.44
475.501	606.44
475.72	585.44
475.939	572.44
476.158	595.44
476.377	587.44
476.596	576.44
476.814	600.44
477.033	614.44
477.252	624.44
477.471	617.44
477.69	629.44
477.908	635.44
478.127	654.44
478.346	678.44
478.564	674.44
478.783	706.44
479.002	707.44
479.22	704.44
479.439	704.44
479.658	702.44
479.876	737.44
480.095	724.44
480.313	731.44
480.532	739.44
480.751	771.44
480.969	739.44
481.188	752.44
481.406	763.44
481.624	747.44
481.843	702.44
482.061	687.44
482.28	696.44
482.498	696.44
482.717	668.44
482.935	688.44
483.153	671.44
483.372	671.44
483.59	656.44
483.808	669.44
484.027	673.44
484.245	670.44
484.463	690.44
484.681	707.44
484.9	692.44
485.118	706.44
485.336	696.44
485.554	706.44
485.772	712.44
485.99	698.44
486.209	706.44
486.427	710.44
486.645	696.44
486.863	716.44
487.081	726.44
487.299	721.44
487.517	687.44
487.735	722.44
487.953	706.44
488.171	702.44
488.389	710.44
488.607	716.44
488.825	710.44
489.043	696.44
489.261	747.44
489.479	707.44
489.696	707.44
489.914	734.44
490.132	733.44
490.35	712.44
490.568	737.44
490.786	741.44
491.003	761.44
491.221	766.44
491.439	772.44
491.657	776.44
491.874	796.44
492.092	772.44
492.31	808.44
492.527	790.44
492.745	802.44
492.963	792.44
493.18	801.44
493.398	798.44
493.615	794.44
493.833	828.44
494.05	792.44
494.268	841.44
494.485	844.44
494.703	821.44
494.92	843.44
495.138	817.44
495.355	844.44
495.573	820.44
495.79	799.44
496.008	822.44
496.225	846.44
496.442	846.44
496.66	832.44
496.877	848.44
497.094	849.44
497.312	839.44
497.529	872.44
497.746	891.44
497.963	918.44
498.181	927.44
498.398	963.44
498.615	1025.44
498.832	1043.44
499.049	1095.44
499.267	1148.44
499.484	1233.44
499.701	1296.44
499.918	1415.44
500.135	1567.44
500.352	1696.44
500.569	1749.44
500.786	1706.44
501.003	1658.44
501.22	1541.44
501.437	1420.44
501.654	1332.44
501.871	1272.44
