Data from 1963.PennyLincolnUp.Lamp.En5.5.200Scan.071719.P1._HRD10591_13-58-52-063.txt Node
Date: Thu Jul 18 13:58:52 EDT 2019
User: cochatt
Spectrometer: HR+D1059
Trigger mode: 1
Integration Time (sec): 1.000000E-1
Scans to average: 1
Electric dark correction enabled: true
Nonlinearity correction enabled: false
Boxcar width: 0
XAxis mode: Wavelengths
Number of Pixels in Spectrum: 2048
>>>>>Begin Spectral Data<<<<<
223.165	-13.25
223.4	-13.25
223.635	-13.25
223.869	-17.25
224.104	-36.25
224.338	-19.25
224.573	-15.25
224.808	-26.25
225.042	-0.25
225.277	0.75
225.511	-24.25
225.746	21.75
225.98	1.75
226.215	16.75
226.449	11.75
226.683	37.75
226.918	25.75
227.152	35.75
227.387	33.75
227.621	32.75
227.856	39.75
228.09	49.75
228.324	44.75
228.559	48.75
228.793	60.75
229.027	95.75
229.262	99.75
229.496	104.75
229.73	120.75
229.964	147.75
230.199	123.75
230.433	118.75
230.667	111.75
230.901	120.75
231.136	108.75
231.37	107.75
231.604	121.75
231.838	126.75
232.072	113.75
232.306	118.75
232.541	100.75
232.775	105.75
233.009	122.75
233.243	101.75
233.477	133.75
233.711	136.75
233.945	114.75
234.179	104.75
234.413	115.75
234.647	135.75
234.881	128.75
235.115	121.75
235.349	127.75
235.583	123.75
235.817	124.75
236.051	118.75
236.285	124.75
236.519	133.75
236.753	144.75
236.987	123.75
237.221	156.75
237.455	192.75
237.689	164.75
237.922	139.75
238.156	143.75
238.39	139.75
238.624	122.75
238.858	132.75
239.091	138.75
239.325	129.75
239.559	130.75
239.793	133.75
240.027	128.75
240.26	145.75
240.494	151.75
240.728	151.75
240.961	132.75
241.195	160.75
241.429	144.75
241.662	147.75
241.896	133.75
242.13	141.75
242.363	144.75
242.597	154.75
242.83	146.75
243.064	145.75
243.298	149.75
243.531	149.75
243.765	155.75
243.998	148.75
244.232	157.75
244.465	149.75
244.699	157.75
244.932	154.75
245.166	145.75
245.399	149.75
245.633	165.75
245.866	155.75
246.099	161.75
246.333	155.75
246.566	168.75
246.8	180.75
247.033	165.75
247.266	160.75
247.5	163.75
247.733	169.75
247.966	192.75
248.2	185.75
248.433	189.75
248.666	191.75
248.899	185.75
249.133	198.75
249.366	194.75
249.599	207.75
249.832	192.75
250.066	197.75
250.299	205.75
250.532	190.75
250.765	215.75
250.998	217.75
251.231	228.75
251.465	211.75
251.698	191.75
251.931	212.75
252.164	215.75
252.397	211.75
252.63	215.75
252.863	220.75
253.096	227.75
253.329	224.75
253.562	230.75
253.795	219.75
254.028	226.75
254.261	239.75
254.494	239.75
254.727	250.75
254.96	258.75
255.193	270.75
255.426	230.75
255.659	252.75
255.892	240.75
256.124	252.75
256.357	247.75
256.59	245.75
256.823	229.75
257.056	215.75
257.289	224.75
257.521	252.75
257.754	223.75
257.987	224.75
258.22	235.75
258.452	226.75
258.685	228.75
258.918	240.75
259.151	216.75
259.383	224.75
259.616	241.75
259.849	239.75
260.081	261.75
260.314	275.75
260.547	276.75
260.779	252.75
261.012	254.75
261.244	250.75
261.477	236.75
261.71	244.75
261.942	250.75
262.175	236.75
262.407	231.75
262.64	234.75
262.872	229.75
263.105	241.75
263.337	252.75
263.57	245.75
263.802	236.75
264.035	232.75
264.267	226.75
264.499	237.75
264.732	246.75
264.964	263.75
265.197	240.75
265.429	234.75
265.661	241.75
265.894	236.75
266.126	246.75
266.358	242.75
266.591	259.75
266.823	269.75
267.055	250.75
267.287	265.75
267.52	264.75
267.752	265.75
267.984	281.75
268.216	256.75
268.448	266.75
268.681	279.75
268.913	258.75
269.145	281.75
269.377	304.75
269.609	295.75
269.841	307.75
270.073	281.75
270.306	297.75
270.538	327.75
270.77	340.75
271.002	329.75
271.234	308.75
271.466	293.75
271.698	317.75
271.93	325.75
272.162	330.75
272.394	345.75
272.626	309.75
272.858	294.75
273.09	292.75
273.322	299.75
273.553	299.75
273.785	293.75
274.017	300.75
274.249	292.75
274.481	297.75
274.713	282.75
274.945	311.75
275.176	314.75
275.408	300.75
275.64	291.75
275.872	293.75
276.104	296.75
276.335	300.75
276.567	297.75
276.799	317.75
277.031	316.75
277.262	331.75
277.494	336.75
277.726	322.75
277.957	317.75
278.189	324.75
278.421	327.75
278.652	333.75
278.884	312.75
279.115	327.75
279.347	309.75
279.579	308.75
279.81	304.75
280.042	296.75
280.273	317.75
280.505	322.75
280.736	325.75
280.968	327.75
281.199	313.75
281.431	324.75
281.662	310.75
281.894	325.75
282.125	330.75
282.356	343.75
282.588	333.75
282.819	360.75
283.051	327.75
283.282	341.75
283.513	343.75
283.745	314.75
283.976	352.75
284.207	332.75
284.439	349.75
284.67	350.75
284.901	337.75
285.132	341.75
285.364	353.75
285.595	355.75
285.826	320.75
286.057	343.75
286.288	339.75
286.52	335.75
286.751	342.75
286.982	337.75
287.213	359.75
287.444	342.75
287.675	338.75
287.906	359.75
288.138	367.75
288.369	361.75
288.6	373.75
288.831	339.75
289.062	343.75
289.293	360.75
289.524	355.75
289.755	363.75
289.986	345.75
290.217	330.75
290.448	353.75
290.679	352.75
290.91	371.75
291.141	363.75
291.371	360.75
291.602	357.75
291.833	346.75
292.064	362.75
292.295	369.75
292.526	379.75
292.757	355.75
292.987	342.75
293.218	351.75
293.449	370.75
293.68	342.75
293.91	361.75
294.141	373.75
294.372	373.75
294.603	340.75
294.833	364.75
295.064	402.75
295.295	381.75
295.525	367.75
295.756	371.75
295.987	367.75
296.217	371.75
296.448	399.75
296.679	382.75
296.909	375.75
297.14	372.75
297.37	368.75
297.601	377.75
297.831	377.75
298.062	388.75
298.292	379.75
298.523	382.75
298.753	378.75
298.984	395.75
299.214	396.75
299.445	390.75
299.675	386.75
299.905	402.75
300.136	379.75
300.366	389.75
300.597	383.75
300.827	384.75
301.057	393.75
301.288	416.75
301.518	409.75
301.748	380.75
301.979	401.75
302.209	427.75
302.439	409.75
302.669	406.75
302.9	414.75
303.13	411.75
303.36	423.75
303.59	409.75
303.82	417.75
304.051	416.75
304.281	420.75
304.511	418.75
304.741	410.75
304.971	407.75
305.201	391.75
305.431	405.75
305.661	417.75
305.891	395.75
306.121	395.75
306.352	394.75
306.582	408.75
306.812	401.75
307.042	403.75
307.272	382.75
307.502	406.75
307.731	398.75
307.961	413.75
308.191	410.75
308.421	420.75
308.651	401.75
308.881	398.75
309.111	423.75
309.341	438.75
309.571	423.75
309.8	414.75
310.03	437.75
310.26	431.75
310.49	447.75
310.72	438.75
310.949	444.75
311.179	465.75
311.409	451.75
311.639	442.75
311.868	457.75
312.098	450.75
312.328	448.75
312.557	440.75
312.787	466.75
313.017	455.75
313.246	455.75
313.476	453.75
313.706	454.75
313.935	434.75
314.165	460.75
314.394	459.75
314.624	483.75
314.853	460.75
315.083	455.75
315.312	466.75
315.542	470.75
315.771	460.75
316.001	468.75
316.23	438.75
316.46	439.75
316.689	452.75
316.919	468.75
317.148	476.75
317.377	434.75
317.607	445.75
317.836	452.75
318.065	471.75
318.295	471.75
318.524	441.75
318.753	463.75
318.983	441.75
319.212	433.75
319.441	433.75
319.67	469.75
319.9	468.75
320.129	458.75
320.358	458.75
320.587	465.75
320.816	463.75
321.046	459.75
321.275	493.75
321.504	469.75
321.733	473.75
321.962	465.75
322.191	470.75
322.42	481.75
322.649	463.75
322.878	481.75
323.108	497.75
323.337	520.75
323.566	521.75
323.795	556.75
324.024	559.75
324.253	619.75
324.482	815.75
324.71	1125.75
324.939	1597.75
325.168	1454.75
325.397	791.75
325.626	606.75
325.855	548.75
326.084	525.75
326.313	534.75
326.542	556.75
326.77	567.75
326.999	577.75
327.228	772.75
327.457	1061.75
327.686	1283.75
327.914	914.75
328.143	665.75
328.372	608.75
328.6	597.75
328.829	547.75
329.058	586.75
329.287	581.75
329.515	591.75
329.744	546.75
329.972	543.75
330.201	573.75
330.43	590.75
330.658	595.75
330.887	624.75
331.115	618.75
331.344	571.75
331.572	545.75
331.801	583.75
332.03	577.75
332.258	566.75
332.486	553.75
332.715	562.75
332.943	586.75
333.172	588.75
333.4	588.75
333.629	610.75
333.857	637.75
334.085	618.75
334.314	626.75
334.542	655.75
334.771	689.75
334.999	609.75
335.227	621.75
335.455	614.75
335.684	604.75
335.912	587.75
336.14	571.75
336.369	571.75
336.597	579.75
336.825	559.75
337.053	590.75
337.281	552.75
337.51	565.75
337.738	549.75
337.966	549.75
338.194	559.75
338.422	548.75
338.65	552.75
338.878	535.75
339.106	533.75
339.334	537.75
339.562	548.75
339.79	528.75
340.018	530.75
340.246	528.75
340.474	530.75
340.702	517.75
340.93	541.75
341.158	538.75
341.386	505.75
341.614	537.75
341.842	526.75
342.07	527.75
342.298	511.75
342.526	529.75
342.754	529.75
342.981	506.75
343.209	525.75
343.437	555.75
343.665	550.75
343.893	594.75
344.12	604.75
344.348	578.75
344.576	583.75
344.804	568.75
345.031	523.75
345.259	520.75
345.487	540.75
345.714	514.75
345.942	516.75
346.17	519.75
346.397	512.75
346.625	515.75
346.853	490.75
347.08	479.75
347.308	487.75
347.535	525.75
347.763	494.75
347.99	490.75
348.218	495.75
348.445	501.75
348.673	506.75
348.9	514.75
349.128	498.75
349.355	511.75
349.583	511.75
349.81	529.75
350.037	477.75
350.265	484.75
350.492	488.75
350.72	500.75
350.947	489.75
351.174	529.75
351.402	507.75
351.629	500.75
351.856	511.75
352.083	503.75
352.311	476.75
352.538	513.75
352.765	512.75
352.992	503.75
353.22	511.75
353.447	475.75
353.674	475.75
353.901	490.75
354.128	483.75
354.355	484.75
354.583	497.75
354.81	471.75
355.037	490.75
355.264	483.75
355.491	492.75
355.718	483.75
355.945	478.75
356.172	472.75
356.399	461.75
356.626	485.75
356.853	483.75
357.08	485.75
357.307	482.75
357.534	471.75
357.761	480.75
357.988	488.75
358.215	475.75
358.441	507.75
358.668	496.75
358.895	487.75
359.122	489.75
359.349	496.75
359.576	519.75
359.802	523.75
360.029	515.75
360.256	539.75
360.483	522.75
360.709	513.75
360.936	515.75
361.163	498.75
361.39	474.75
361.616	493.75
361.843	497.75
362.07	475.75
362.296	494.75
362.523	486.75
362.749	500.75
362.976	489.75
363.203	495.75
363.429	507.75
363.656	468.75
363.882	509.75
364.109	492.75
364.335	469.75
364.562	472.75
364.788	489.75
365.015	486.75
365.241	475.75
365.468	500.75
365.694	505.75
365.92	511.75
366.147	513.75
366.373	483.75
366.599	474.75
366.826	509.75
367.052	484.75
367.278	469.75
367.505	507.75
367.731	501.75
367.957	479.75
368.184	498.75
368.41	484.75
368.636	509.75
368.862	525.75
369.089	503.75
369.315	490.75
369.541	498.75
369.767	513.75
369.993	511.75
370.219	501.75
370.445	504.75
370.672	500.75
370.898	511.75
371.124	483.75
371.35	502.75
371.576	522.75
371.802	510.75
372.028	521.75
372.254	510.75
372.48	513.75
372.706	524.75
372.932	517.75
373.158	543.75
373.384	537.75
373.61	526.75
373.835	505.75
374.061	512.75
374.287	507.75
374.513	519.75
374.739	540.75
374.965	543.75
375.191	550.75
375.416	518.75
375.642	538.75
375.868	520.75
376.094	535.75
376.319	508.75
376.545	514.75
376.771	507.75
376.997	519.75
377.222	520.75
377.448	526.75
377.674	507.75
377.899	520.75
378.125	512.75
378.35	491.75
378.576	524.75
378.802	515.75
379.027	488.75
379.253	502.75
379.478	514.75
379.704	532.75
379.929	496.75
380.155	513.75
380.38	504.75
380.606	500.75
380.831	517.75
381.057	512.75
381.282	495.75
381.507	521.75
381.733	508.75
381.958	530.75
382.184	507.75
382.409	506.75
382.634	537.75
382.86	512.75
383.085	525.75
383.31	532.75
383.535	553.75
383.761	557.75
383.986	551.75
384.211	567.75
384.436	567.75
384.662	588.75
384.887	573.75
385.112	584.75
385.337	571.75
385.562	573.75
385.787	607.75
386.013	584.75
386.238	598.75
386.463	613.75
386.688	594.75
386.913	588.75
387.138	586.75
387.363	580.75
387.588	573.75
387.813	585.75
388.038	596.75
388.263	583.75
388.488	584.75
388.713	584.75
388.938	586.75
389.163	578.75
389.387	610.75
389.612	580.75
389.837	588.75
390.062	558.75
390.287	588.75
390.512	612.75
390.736	603.75
390.961	593.75
391.186	581.75
391.411	602.75
391.636	627.75
391.86	634.75
392.085	630.75
392.31	639.75
392.534	614.75
392.759	620.75
392.984	600.75
393.208	610.75
393.433	600.75
393.658	596.75
393.882	597.75
394.107	600.75
394.331	635.75
394.556	623.75
394.78	626.75
395.005	594.75
395.229	605.75
395.454	633.75
395.678	639.75
395.903	653.75
396.127	672.75
396.352	648.75
396.576	629.75
396.801	623.75
397.025	635.75
397.249	624.75
397.474	651.75
397.698	641.75
397.922	657.75
398.147	659.75
398.371	676.75
398.595	692.75
398.82	692.75
399.044	726.75
399.268	768.75
399.492	840.75
399.717	943.75
399.941	967.75
400.165	916.75
400.389	884.75
400.613	817.75
400.837	751.75
401.062	740.75
401.286	716.75
401.51	704.75
401.734	691.75
401.958	715.75
402.182	738.75
402.406	753.75
402.63	757.75
402.854	738.75
403.078	730.75
403.302	760.75
403.526	732.75
403.75	796.75
403.974	762.75
404.198	773.75
404.422	776.75
404.645	774.75
404.869	763.75
405.093	778.75
405.317	818.75
405.541	869.75
405.765	823.75
405.988	773.75
406.212	795.75
406.436	787.75
406.66	796.75
406.883	759.75
407.107	840.75
407.331	896.75
407.555	955.75
407.778	955.75
408.002	886.75
408.226	831.75
408.449	801.75
408.673	819.75
408.896	821.75
409.12	834.75
409.344	809.75
409.567	755.75
409.791	765.75
410.014	737.75
410.238	751.75
410.461	755.75
410.685	746.75
410.908	763.75
411.132	780.75
411.355	808.75
411.578	777.75
411.802	754.75
412.025	728.75
412.249	752.75
412.472	794.75
412.695	821.75
412.919	795.75
413.142	742.75
413.365	724.75
413.589	711.75
413.812	742.75
414.035	714.75
414.258	698.75
414.482	723.75
414.705	732.75
414.928	714.75
415.151	693.75
415.374	701.75
415.597	713.75
415.821	657.75
416.044	683.75
416.267	693.75
416.49	677.75
416.713	676.75
416.936	674.75
417.159	680.75
417.382	684.75
417.605	685.75
417.828	681.75
418.051	724.75
418.274	735.75
418.497	707.75
418.72	721.75
418.943	692.75
419.166	737.75
419.389	759.75
419.611	762.75
419.834	742.75
420.057	736.75
420.28	716.75
420.503	716.75
420.726	709.75
420.948	711.75
421.171	748.75
421.394	751.75
421.617	711.75
421.839	679.75
422.062	723.75
422.285	731.75
422.507	772.75
422.73	813.75
422.953	823.75
423.175	760.75
423.398	756.75
423.621	747.75
423.843	785.75
424.066	776.75
424.288	771.75
424.511	761.75
424.733	760.75
424.956	850.75
425.178	859.75
425.401	820.75
425.623	869.75
425.846	758.75
426.068	740.75
426.291	715.75
426.513	693.75
426.735	736.75
426.958	753.75
427.18	789.75
427.402	900.75
427.625	965.75
427.847	884.75
428.069	812.75
428.292	735.75
428.514	713.75
428.736	669.75
428.958	659.75
429.181	672.75
429.403	657.75
429.625	678.75
429.847	691.75
430.069	730.75
430.292	736.75
430.514	655.75
430.736	645.75
430.958	664.75
431.18	646.75
431.402	671.75
431.624	645.75
431.846	664.75
432.068	645.75
432.29	665.75
432.512	658.75
432.734	649.75
432.956	659.75
433.178	665.75
433.4	659.75
433.622	652.75
433.844	649.75
434.066	648.75
434.287	680.75
434.509	689.75
434.731	705.75
434.953	723.75
435.175	717.75
435.397	766.75
435.618	731.75
435.84	723.75
436.062	808.75
436.284	841.75
436.505	732.75
436.727	703.75
436.949	708.75
437.17	663.75
437.392	639.75
437.614	659.75
437.835	682.75
438.057	773.75
438.278	849.75
438.5	820.75
438.721	890.75
438.943	857.75
439.165	733.75
439.386	696.75
439.608	708.75
439.829	703.75
440.05	707.75
440.272	704.75
440.493	695.75
440.715	687.75
440.936	676.75
441.158	693.75
441.379	678.75
441.6	729.75
441.822	718.75
442.043	775.75
442.264	817.75
442.486	847.75
442.707	771.75
442.928	741.75
443.149	752.75
443.371	755.75
443.592	790.75
443.813	840.75
444.034	910.75
444.255	835.75
444.476	795.75
444.698	771.75
444.919	803.75
445.14	909.75
445.361	835.75
445.582	791.75
445.803	800.75
446.024	865.75
446.245	858.75
446.466	810.75
446.687	742.75
446.908	682.75
447.129	695.75
447.35	669.75
447.571	652.75
447.792	608.75
448.013	655.75
448.234	636.75
448.455	697.75
448.675	760.75
448.896	872.75
449.117	796.75
449.338	717.75
449.559	799.75
449.779	914.75
450	743.75
450.221	668.75
450.442	654.75
450.662	637.75
450.883	643.75
451.104	637.75
451.324	627.75
451.545	626.75
451.766	605.75
451.986	596.75
452.207	581.75
452.428	610.75
452.648	579.75
452.869	580.75
453.089	616.75
453.31	596.75
453.53	601.75
453.751	562.75
453.971	572.75
454.192	571.75
454.412	605.75
454.633	573.75
454.853	595.75
455.073	574.75
455.294	610.75
455.514	641.75
455.734	634.75
455.955	563.75
456.175	575.75
456.395	564.75
456.616	578.75
456.836	553.75
457.056	565.75
457.276	563.75
457.497	545.75
457.717	569.75
457.937	573.75
458.157	572.75
458.377	563.75
458.598	602.75
458.818	634.75
459.038	683.75
459.258	742.75
459.478	687.75
459.698	697.75
459.918	656.75
460.138	700.75
460.358	713.75
460.578	711.75
460.798	761.75
461.018	715.75
461.238	705.75
461.458	710.75
461.678	681.75
461.898	737.75
462.118	711.75
462.338	734.75
462.558	760.75
462.777	779.75
462.997	836.75
463.217	872.75
463.437	872.75
463.657	824.75
463.876	781.75
464.096	792.75
464.316	801.75
464.536	804.75
464.755	777.75
464.975	777.75
465.195	780.75
465.414	811.75
465.634	713.75
465.854	702.75
466.073	661.75
466.293	654.75
466.512	632.75
466.732	631.75
466.951	638.75
467.171	623.75
467.391	652.75
467.61	608.75
467.829	633.75
468.049	608.75
468.268	617.75
468.488	603.75
468.707	607.75
468.927	619.75
469.146	593.75
469.365	609.75
469.585	601.75
469.804	629.75
470.023	651.75
470.243	656.75
470.462	641.75
470.681	665.75
470.901	656.75
471.12	645.75
471.339	617.75
471.558	619.75
471.777	639.75
471.997	602.75
472.216	655.75
472.435	654.75
472.654	626.75
472.873	637.75
473.092	589.75
473.311	590.75
473.53	618.75
473.749	620.75
473.968	640.75
474.187	700.75
474.406	738.75
474.625	647.75
474.844	623.75
475.063	601.75
475.282	593.75
475.501	622.75
475.72	628.75
475.939	619.75
476.158	632.75
476.377	640.75
476.596	651.75
476.814	665.75
477.033	655.75
477.252	649.75
477.471	674.75
477.69	681.75
477.908	688.75
478.127	690.75
478.346	711.75
478.564	704.75
478.783	724.75
479.002	729.75
479.22	728.75
479.439	769.75
479.658	758.75
479.876	751.75
480.095	764.75
480.313	799.75
480.532	796.75
480.751	786.75
480.969	795.75
481.188	821.75
481.406	840.75
481.624	787.75
481.843	745.75
482.061	727.75
482.28	722.75
482.498	721.75
482.717	708.75
482.935	731.75
483.153	711.75
483.372	705.75
483.59	707.75
483.808	721.75
484.027	724.75
484.245	716.75
484.463	729.75
484.681	740.75
484.9	731.75
485.118	736.75
485.336	755.75
485.554	717.75
485.772	753.75
485.99	745.75
486.209	759.75
486.427	751.75
486.645	744.75
486.863	753.75
487.081	780.75
487.299	751.75
487.517	764.75
487.735	740.75
487.953	767.75
488.171	748.75
488.389	782.75
488.607	763.75
488.825	747.75
489.043	761.75
489.261	764.75
489.479	777.75
489.696	765.75
489.914	771.75
490.132	789.75
490.35	784.75
490.568	788.75
490.786	789.75
491.003	805.75
491.221	806.75
491.439	818.75
491.657	825.75
491.874	819.75
492.092	817.75
492.31	836.75
492.527	845.75
492.745	883.75
492.963	872.75
493.18	864.75
493.398	869.75
493.615	892.75
493.833	886.75
494.05	903.75
494.268	883.75
494.485	889.75
494.703	913.75
494.92	881.75
495.138	896.75
495.355	910.75
495.573	892.75
495.79	889.75
496.008	877.75
496.225	904.75
496.442	891.75
496.66	933.75
496.877	935.75
497.094	905.75
497.312	919.75
497.529	934.75
497.746	948.75
497.963	977.75
498.181	1001.75
498.398	1028.75
498.615	1084.75
498.832	1101.75
499.049	1169.75
499.267	1205.75
499.484	1316.75
499.701	1401.75
499.918	1508.75
500.135	1624.75
500.352	1728.75
500.569	1804.75
500.786	1775.75
501.003	1725.75
501.22	1619.75
501.437	1498.75
501.654	1398.75
