Data from 1963.PennyLincolnUp.Lamp.En5.5.200Scan.071719.P1._HRD10591_13-58-49-063.txt Node
Date: Thu Jul 18 13:58:49 EDT 2019
User: cochatt
Spectrometer: HR+D1059
Trigger mode: 1
Integration Time (sec): 1.000000E-1
Scans to average: 1
Electric dark correction enabled: true
Nonlinearity correction enabled: false
Boxcar width: 0
XAxis mode: Wavelengths
Number of Pixels in Spectrum: 2048
>>>>>Begin Spectral Data<<<<<
223.165	-9.88
223.4	-9.88
223.635	-9.88
223.869	-11.88
224.104	-26.88
224.338	-20.88
224.573	-10.88
224.808	7.12
225.042	-4.88
225.277	5.12
225.511	2.12
225.746	4.12
225.98	6.12
226.215	10.12
226.449	-0.88
226.683	9.12
226.918	17.12
227.152	25.12
227.387	33.12
227.621	24.12
227.856	48.12
228.09	43.12
228.324	51.12
228.559	63.12
228.793	67.12
229.027	83.12
229.262	112.12
229.496	105.12
229.73	114.12
229.964	140.12
230.199	120.12
230.433	117.12
230.667	117.12
230.901	117.12
231.136	121.12
231.37	123.12
231.604	109.12
231.838	119.12
232.072	125.12
232.306	122.12
232.541	125.12
232.775	117.12
233.009	127.12
233.243	102.12
233.477	121.12
233.711	125.12
233.945	128.12
234.179	126.12
234.413	123.12
234.647	110.12
234.881	117.12
235.115	125.12
235.349	124.12
235.583	122.12
235.817	127.12
236.051	127.12
236.285	132.12
236.519	123.12
236.753	135.12
236.987	127.12
237.221	173.12
237.455	225.12
237.689	176.12
237.922	148.12
238.156	141.12
238.39	145.12
238.624	136.12
238.858	139.12
239.091	125.12
239.325	145.12
239.559	151.12
239.793	141.12
240.027	152.12
240.26	147.12
240.494	139.12
240.728	147.12
240.961	166.12
241.195	156.12
241.429	145.12
241.662	145.12
241.896	151.12
242.13	152.12
242.363	161.12
242.597	144.12
242.83	163.12
243.064	142.12
243.298	150.12
243.531	147.12
243.765	147.12
243.998	148.12
244.232	180.12
244.465	170.12
244.699	163.12
244.932	172.12
245.166	162.12
245.399	148.12
245.633	177.12
245.866	161.12
246.099	157.12
246.333	165.12
246.566	157.12
246.8	169.12
247.033	167.12
247.266	161.12
247.5	189.12
247.733	190.12
247.966	174.12
248.2	190.12
248.433	179.12
248.666	207.12
248.899	189.12
249.133	189.12
249.366	205.12
249.599	224.12
249.832	186.12
250.066	203.12
250.299	186.12
250.532	214.12
250.765	232.12
250.998	219.12
251.231	237.12
251.465	237.12
251.698	219.12
251.931	207.12
252.164	209.12
252.397	206.12
252.63	209.12
252.863	196.12
253.096	227.12
253.329	234.12
253.562	231.12
253.795	249.12
254.028	225.12
254.261	227.12
254.494	226.12
254.727	260.12
254.96	262.12
255.193	269.12
255.426	244.12
255.659	223.12
255.892	229.12
256.124	236.12
256.357	249.12
256.59	231.12
256.823	214.12
257.056	219.12
257.289	224.12
257.521	213.12
257.754	210.12
257.987	225.12
258.22	236.12
258.452	233.12
258.685	221.12
258.918	228.12
259.151	237.12
259.383	237.12
259.616	245.12
259.849	234.12
260.081	250.12
260.314	269.12
260.547	270.12
260.779	259.12
261.012	253.12
261.244	251.12
261.477	239.12
261.71	231.12
261.942	257.12
262.175	265.12
262.407	250.12
262.64	234.12
262.872	232.12
263.105	226.12
263.337	243.12
263.57	215.12
263.802	238.12
264.035	254.12
264.267	230.12
264.499	226.12
264.732	240.12
264.964	249.12
265.197	246.12
265.429	239.12
265.661	235.12
265.894	235.12
266.126	248.12
266.358	256.12
266.591	249.12
266.823	252.12
267.055	265.12
267.287	253.12
267.52	235.12
267.752	256.12
267.984	280.12
268.216	263.12
268.448	259.12
268.681	281.12
268.913	286.12
269.145	293.12
269.377	289.12
269.609	306.12
269.841	272.12
270.073	309.12
270.306	331.12
270.538	341.12
270.77	305.12
271.002	324.12
271.234	314.12
271.466	326.12
271.698	321.12
271.93	323.12
272.162	324.12
272.394	332.12
272.626	332.12
272.858	316.12
273.09	295.12
273.322	293.12
273.553	300.12
273.785	282.12
274.017	310.12
274.249	296.12
274.481	299.12
274.713	286.12
274.945	305.12
275.176	296.12
275.408	327.12
275.64	299.12
275.872	286.12
276.104	308.12
276.335	304.12
276.567	297.12
276.799	313.12
277.031	320.12
277.262	326.12
277.494	345.12
277.726	331.12
277.957	323.12
278.189	335.12
278.421	322.12
278.652	327.12
278.884	316.12
279.115	291.12
279.347	302.12
279.579	325.12
279.81	312.12
280.042	307.12
280.273	301.12
280.505	298.12
280.736	320.12
280.968	318.12
281.199	319.12
281.431	338.12
281.662	327.12
281.894	314.12
282.125	346.12
282.356	345.12
282.588	344.12
282.819	371.12
283.051	327.12
283.282	316.12
283.513	321.12
283.745	339.12
283.976	319.12
284.207	360.12
284.439	347.12
284.67	348.12
284.901	337.12
285.132	366.12
285.364	353.12
285.595	335.12
285.826	328.12
286.057	334.12
286.288	347.12
286.52	321.12
286.751	352.12
286.982	345.12
287.213	345.12
287.444	343.12
287.675	365.12
287.906	342.12
288.138	351.12
288.369	370.12
288.6	366.12
288.831	355.12
289.062	344.12
289.293	346.12
289.524	345.12
289.755	370.12
289.986	356.12
290.217	330.12
290.448	364.12
290.679	357.12
290.91	363.12
291.141	367.12
291.371	379.12
291.602	353.12
291.833	341.12
292.064	358.12
292.295	359.12
292.526	354.12
292.757	342.12
292.987	380.12
293.218	363.12
293.449	364.12
293.68	379.12
293.91	381.12
294.141	359.12
294.372	345.12
294.603	364.12
294.833	369.12
295.064	345.12
295.295	352.12
295.525	383.12
295.756	383.12
295.987	378.12
296.217	392.12
296.448	384.12
296.679	387.12
296.909	365.12
297.14	377.12
297.37	381.12
297.601	382.12
297.831	364.12
298.062	355.12
298.292	374.12
298.523	375.12
298.753	373.12
298.984	380.12
299.214	386.12
299.445	387.12
299.675	401.12
299.905	376.12
300.136	376.12
300.366	387.12
300.597	378.12
300.827	417.12
301.057	379.12
301.288	423.12
301.518	407.12
301.748	393.12
301.979	439.12
302.209	420.12
302.439	405.12
302.669	422.12
302.9	418.12
303.13	406.12
303.36	411.12
303.59	405.12
303.82	417.12
304.051	398.12
304.281	398.12
304.511	392.12
304.741	422.12
304.971	412.12
305.201	402.12
305.431	395.12
305.661	399.12
305.891	390.12
306.121	417.12
306.352	398.12
306.582	417.12
306.812	389.12
307.042	408.12
307.272	405.12
307.502	412.12
307.731	411.12
307.961	416.12
308.191	415.12
308.421	386.12
308.651	417.12
308.881	410.12
309.111	417.12
309.341	403.12
309.571	423.12
309.8	430.12
310.03	431.12
310.26	424.12
310.49	423.12
310.72	438.12
310.949	450.12
311.179	452.12
311.409	445.12
311.639	430.12
311.868	428.12
312.098	429.12
312.328	428.12
312.557	458.12
312.787	479.12
313.017	471.12
313.246	452.12
313.476	473.12
313.706	455.12
313.935	441.12
314.165	454.12
314.394	486.12
314.624	469.12
314.853	466.12
315.083	457.12
315.312	429.12
315.542	434.12
315.771	449.12
316.001	441.12
316.23	455.12
316.46	436.12
316.689	473.12
316.919	442.12
317.148	455.12
317.377	473.12
317.607	451.12
317.836	469.12
318.065	442.12
318.295	460.12
318.524	440.12
318.753	448.12
318.983	446.12
319.212	447.12
319.441	459.12
319.67	444.12
319.9	449.12
320.129	466.12
320.358	466.12
320.587	446.12
320.816	445.12
321.046	443.12
321.275	468.12
321.504	461.12
321.733	455.12
321.962	463.12
322.191	486.12
322.42	475.12
322.649	494.12
322.878	507.12
323.108	509.12
323.337	509.12
323.566	514.12
323.795	547.12
324.024	568.12
324.253	613.12
324.482	806.12
324.71	1137.12
324.939	1615.12
325.168	1403.12
325.397	821.12
325.626	637.12
325.855	565.12
326.084	540.12
326.313	536.12
326.542	532.12
326.77	575.12
326.999	625.12
327.228	769.12
327.457	1062.12
327.686	1301.12
327.914	878.12
328.143	671.12
328.372	627.12
328.6	552.12
328.829	579.12
329.058	595.12
329.287	605.12
329.515	563.12
329.744	553.12
329.972	538.12
330.201	580.12
330.43	599.12
330.658	602.12
330.887	604.12
331.115	618.12
331.344	568.12
331.572	558.12
331.801	567.12
332.03	583.12
332.258	575.12
332.486	544.12
332.715	553.12
332.943	588.12
333.172	593.12
333.4	612.12
333.629	619.12
333.857	629.12
334.085	629.12
334.314	629.12
334.542	668.12
334.771	666.12
334.999	612.12
335.227	585.12
335.455	594.12
335.684	599.12
335.912	568.12
336.14	573.12
336.369	566.12
336.597	575.12
336.825	562.12
337.053	575.12
337.281	561.12
337.51	551.12
337.738	555.12
337.966	545.12
338.194	540.12
338.422	561.12
338.65	553.12
338.878	537.12
339.106	544.12
339.334	542.12
339.562	539.12
339.79	518.12
340.018	525.12
340.246	514.12
340.474	508.12
340.702	541.12
340.93	514.12
341.158	521.12
341.386	523.12
341.614	524.12
341.842	527.12
342.07	510.12
342.298	529.12
342.526	508.12
342.754	526.12
342.981	518.12
343.209	502.12
343.437	514.12
343.665	553.12
343.893	573.12
344.12	581.12
344.348	576.12
344.576	571.12
344.804	573.12
345.031	535.12
345.259	533.12
345.487	527.12
345.714	503.12
345.942	520.12
346.17	507.12
346.397	490.12
346.625	495.12
346.853	531.12
347.08	504.12
347.308	511.12
347.535	530.12
347.763	513.12
347.99	507.12
348.218	517.12
348.445	518.12
348.673	530.12
348.9	495.12
349.128	486.12
349.355	488.12
349.583	524.12
349.81	488.12
350.037	463.12
350.265	492.12
350.492	473.12
350.72	490.12
350.947	490.12
351.174	504.12
351.402	497.12
351.629	509.12
351.856	505.12
352.083	506.12
352.311	493.12
352.538	498.12
352.765	517.12
352.992	514.12
353.22	485.12
353.447	490.12
353.674	479.12
353.901	491.12
354.128	520.12
354.355	474.12
354.583	482.12
354.81	483.12
355.037	475.12
355.264	481.12
355.491	491.12
355.718	486.12
355.945	463.12
356.172	489.12
356.399	493.12
356.626	498.12
356.853	475.12
357.08	487.12
357.307	471.12
357.534	479.12
357.761	475.12
357.988	482.12
358.215	482.12
358.441	490.12
358.668	514.12
358.895	485.12
359.122	461.12
359.349	507.12
359.576	486.12
359.802	510.12
360.029	542.12
360.256	541.12
360.483	519.12
360.709	516.12
360.936	501.12
361.163	469.12
361.39	475.12
361.616	489.12
361.843	488.12
362.07	487.12
362.296	484.12
362.523	489.12
362.749	518.12
362.976	492.12
363.203	497.12
363.429	497.12
363.656	499.12
363.882	495.12
364.109	493.12
364.335	514.12
364.562	477.12
364.788	469.12
365.015	502.12
365.241	513.12
365.468	503.12
365.694	482.12
365.92	485.12
366.147	489.12
366.373	478.12
366.599	486.12
366.826	482.12
367.052	485.12
367.278	488.12
367.505	508.12
367.731	465.12
367.957	494.12
368.184	493.12
368.41	476.12
368.636	523.12
368.862	515.12
369.089	507.12
369.315	525.12
369.541	501.12
369.767	487.12
369.993	488.12
370.219	506.12
370.445	499.12
370.672	491.12
370.898	512.12
371.124	507.12
371.35	501.12
371.576	496.12
371.802	501.12
372.028	512.12
372.254	498.12
372.48	522.12
372.706	511.12
372.932	518.12
373.158	534.12
373.384	529.12
373.61	521.12
373.835	522.12
374.061	540.12
374.287	535.12
374.513	535.12
374.739	543.12
374.965	546.12
375.191	547.12
375.416	561.12
375.642	533.12
375.868	531.12
376.094	519.12
376.319	522.12
376.545	525.12
376.771	519.12
376.997	526.12
377.222	511.12
377.448	522.12
377.674	511.12
377.899	533.12
378.125	531.12
378.35	519.12
378.576	512.12
378.802	501.12
379.027	501.12
379.253	509.12
379.478	503.12
379.704	498.12
379.929	510.12
380.155	506.12
380.38	510.12
380.606	525.12
380.831	501.12
381.057	513.12
381.282	488.12
381.507	500.12
381.733	529.12
381.958	548.12
382.184	528.12
382.409	549.12
382.634	519.12
382.86	541.12
383.085	557.12
383.31	540.12
383.535	527.12
383.761	546.12
383.986	569.12
384.211	562.12
384.436	572.12
384.662	585.12
384.887	589.12
385.112	589.12
385.337	578.12
385.562	604.12
385.787	579.12
386.013	602.12
386.238	605.12
386.463	587.12
386.688	612.12
386.913	572.12
387.138	600.12
387.363	605.12
387.588	595.12
387.813	599.12
388.038	585.12
388.263	588.12
388.488	615.12
388.713	586.12
388.938	585.12
389.163	578.12
389.387	594.12
389.612	567.12
389.837	570.12
390.062	587.12
390.287	589.12
390.512	596.12
390.736	591.12
390.961	593.12
391.186	605.12
391.411	617.12
391.636	637.12
391.86	633.12
392.085	636.12
392.31	623.12
392.534	629.12
392.759	615.12
392.984	620.12
393.208	586.12
393.433	623.12
393.658	625.12
393.882	597.12
394.107	618.12
394.331	629.12
394.556	610.12
394.78	621.12
395.005	619.12
395.229	643.12
395.454	629.12
395.678	631.12
395.903	633.12
396.127	657.12
396.352	661.12
396.576	637.12
396.801	608.12
397.025	623.12
397.249	625.12
397.474	641.12
397.698	678.12
397.922	655.12
398.147	655.12
398.371	681.12
398.595	690.12
398.82	701.12
399.044	750.12
399.268	775.12
399.492	851.12
399.717	940.12
399.941	941.12
400.165	916.12
400.389	854.12
400.613	781.12
400.837	751.12
401.062	745.12
401.286	730.12
401.51	712.12
401.734	714.12
401.958	725.12
402.182	719.12
402.406	705.12
402.63	718.12
402.854	731.12
403.078	737.12
403.302	757.12
403.526	755.12
403.75	780.12
403.974	787.12
404.198	761.12
404.422	798.12
404.645	785.12
404.869	773.12
405.093	789.12
405.317	827.12
405.541	845.12
405.765	806.12
405.988	775.12
406.212	783.12
406.436	781.12
406.66	828.12
406.883	781.12
407.107	845.12
407.331	862.12
407.555	959.12
407.778	933.12
408.002	892.12
408.226	838.12
408.449	825.12
408.673	775.12
408.896	837.12
409.12	862.12
409.344	806.12
409.567	781.12
409.791	775.12
410.014	753.12
410.238	749.12
410.461	727.12
410.685	747.12
410.908	768.12
411.132	771.12
411.355	783.12
411.578	799.12
411.802	745.12
412.025	730.12
412.249	746.12
412.472	767.12
412.695	786.12
412.919	754.12
413.142	749.12
413.365	709.12
413.589	715.12
413.812	685.12
414.035	662.12
414.258	703.12
414.482	686.12
414.705	706.12
414.928	703.12
415.151	693.12
415.374	714.12
415.597	678.12
415.821	689.12
416.044	683.12
416.267	707.12
416.49	703.12
416.713	697.12
416.936	706.12
417.159	686.12
417.382	702.12
417.605	685.12
417.828	705.12
418.051	726.12
418.274	675.12
418.497	675.12
418.72	725.12
418.943	701.12
419.166	762.12
419.389	788.12
419.611	788.12
419.834	755.12
420.057	724.12
420.28	725.12
420.503	710.12
420.726	702.12
420.948	701.12
421.171	727.12
421.394	779.12
421.617	726.12
421.839	715.12
422.062	739.12
422.285	729.12
422.507	744.12
422.73	825.12
422.953	803.12
423.175	768.12
423.398	757.12
423.621	744.12
423.843	768.12
424.066	780.12
424.288	769.12
424.511	766.12
424.733	790.12
424.956	853.12
425.178	822.12
425.401	847.12
425.623	838.12
425.846	780.12
426.068	728.12
426.291	719.12
426.513	730.12
426.735	719.12
426.958	737.12
427.18	797.12
427.402	910.12
427.625	955.12
427.847	844.12
428.069	753.12
428.292	733.12
428.514	678.12
428.736	667.12
428.958	659.12
429.181	654.12
429.403	672.12
429.625	659.12
429.847	658.12
430.069	703.12
430.292	728.12
430.514	669.12
430.736	647.12
430.958	649.12
431.18	636.12
431.402	651.12
431.624	656.12
431.846	635.12
432.068	662.12
432.29	637.12
432.512	648.12
432.734	641.12
432.956	653.12
433.178	663.12
433.4	682.12
433.622	666.12
433.844	636.12
434.066	645.12
434.287	642.12
434.509	683.12
434.731	701.12
434.953	683.12
435.175	723.12
435.397	716.12
435.618	720.12
435.84	748.12
436.062	777.12
436.284	831.12
436.505	730.12
436.727	680.12
436.949	665.12
437.17	671.12
437.392	677.12
437.614	653.12
437.835	678.12
438.057	727.12
438.278	843.12
438.5	823.12
438.721	877.12
438.943	866.12
439.165	713.12
439.386	685.12
439.608	695.12
439.829	686.12
440.05	697.12
440.272	739.12
440.493	709.12
440.715	685.12
440.936	698.12
441.158	681.12
441.379	693.12
441.6	695.12
441.822	733.12
442.043	780.12
442.264	840.12
442.486	866.12
442.707	770.12
442.928	717.12
443.149	758.12
443.371	753.12
443.592	775.12
443.813	886.12
444.034	926.12
444.255	824.12
444.476	774.12
444.698	782.12
444.919	822.12
445.14	877.12
445.361	839.12
445.582	788.12
445.803	762.12
446.024	854.12
446.245	862.12
446.466	810.12
446.687	728.12
446.908	683.12
447.129	661.12
447.35	629.12
447.571	638.12
447.792	617.12
448.013	660.12
448.234	635.12
448.455	667.12
448.675	767.12
448.896	850.12
449.117	745.12
449.338	734.12
449.559	800.12
449.779	893.12
450	773.12
450.221	657.12
450.442	629.12
450.662	626.12
450.883	646.12
451.104	638.12
451.324	607.12
451.545	595.12
451.766	597.12
451.986	605.12
452.207	592.12
452.428	602.12
452.648	605.12
452.869	576.12
453.089	579.12
453.31	619.12
453.53	596.12
453.751	579.12
453.971	571.12
454.192	584.12
454.412	587.12
454.633	600.12
454.853	566.12
455.073	563.12
455.294	606.12
455.514	664.12
455.734	630.12
455.955	581.12
456.175	575.12
456.395	568.12
456.616	563.12
456.836	571.12
457.056	567.12
457.276	545.12
457.497	530.12
457.717	566.12
457.937	568.12
458.157	579.12
458.377	589.12
458.598	609.12
458.818	645.12
459.038	714.12
459.258	723.12
459.478	667.12
459.698	655.12
459.918	668.12
460.138	694.12
460.358	697.12
460.578	705.12
460.798	712.12
461.018	694.12
461.238	701.12
461.458	697.12
461.678	707.12
461.898	714.12
462.118	722.12
462.338	759.12
462.558	763.12
462.777	805.12
462.997	817.12
463.217	827.12
463.437	879.12
463.657	821.12
463.876	801.12
464.096	796.12
464.316	801.12
464.536	819.12
464.755	779.12
464.975	788.12
465.195	750.12
465.414	781.12
465.634	713.12
465.854	658.12
466.073	661.12
466.293	642.12
466.512	633.12
466.732	629.12
466.951	626.12
467.171	624.12
467.391	616.12
467.61	616.12
467.829	626.12
468.049	611.12
468.268	637.12
468.488	609.12
468.707	604.12
468.927	619.12
469.146	576.12
469.365	571.12
469.585	619.12
469.804	615.12
470.023	648.12
470.243	628.12
470.462	641.12
470.681	636.12
470.901	659.12
471.12	654.12
471.339	629.12
471.558	627.12
471.777	620.12
471.997	629.12
472.216	631.12
472.435	646.12
472.654	650.12
472.873	627.12
473.092	628.12
473.311	585.12
473.53	614.12
473.749	617.12
473.968	614.12
474.187	700.12
474.406	733.12
474.625	626.12
474.844	612.12
475.063	602.12
475.282	631.12
475.501	577.12
475.72	635.12
475.939	605.12
476.158	633.12
476.377	645.12
476.596	648.12
476.814	614.12
477.033	640.12
477.252	667.12
477.471	695.12
477.69	663.12
477.908	694.12
478.127	685.12
478.346	729.12
478.564	711.12
478.783	703.12
479.002	718.12
479.22	760.12
479.439	734.12
479.658	771.12
479.876	775.12
480.095	788.12
480.313	811.12
480.532	803.12
480.751	787.12
480.969	780.12
481.188	819.12
481.406	860.12
481.624	790.12
481.843	757.12
482.061	735.12
482.28	714.12
482.498	725.12
482.717	712.12
482.935	729.12
483.153	711.12
483.372	741.12
483.59	732.12
483.808	719.12
484.027	710.12
484.245	723.12
484.463	711.12
484.681	735.12
484.9	735.12
485.118	725.12
485.336	768.12
485.554	739.12
485.772	728.12
485.99	713.12
486.209	731.12
486.427	746.12
486.645	735.12
486.863	761.12
487.081	766.12
487.299	773.12
487.517	753.12
487.735	743.12
487.953	784.12
488.171	749.12
488.389	760.12
488.607	750.12
488.825	773.12
489.043	758.12
489.261	786.12
489.479	781.12
489.696	769.12
489.914	790.12
490.132	781.12
490.35	783.12
490.568	802.12
490.786	797.12
491.003	780.12
491.221	795.12
491.439	807.12
491.657	804.12
491.874	818.12
492.092	826.12
492.31	846.12
492.527	849.12
492.745	856.12
492.963	855.12
493.18	865.12
493.398	872.12
493.615	869.12
493.833	847.12
494.05	880.12
494.268	869.12
494.485	871.12
494.703	893.12
494.92	876.12
495.138	861.12
495.355	891.12
495.573	861.12
495.79	872.12
496.008	881.12
496.225	892.12
496.442	902.12
496.66	908.12
496.877	904.12
497.094	900.12
497.312	911.12
497.529	946.12
497.746	951.12
497.963	1003.12
498.181	1010.12
498.398	1014.12
498.615	1078.12
498.832	1151.12
499.049	1151.12
499.267	1242.12
499.484	1272.12
499.701	1367.12
499.918	1481.12
500.135	1604.12
500.352	1749.12
500.569	1827.12
500.786	1791.12
501.003	1731.12
501.22	1595.12
501.437	1482.12
501.654	1353.12
501.871	1326.12
