Data from 1963.PennyLincolnUp.Lamp.En5.5.200Scan.071719.P1._HRD10591_13-59-57-064.txt Node
Date: Thu Jul 18 13:59:57 EDT 2019
User: cochatt
Spectrometer: HR+D1059
Trigger mode: 1
Integration Time (sec): 1.000000E-1
Scans to average: 1
Electric dark correction enabled: true
Nonlinearity correction enabled: false
Boxcar width: 0
XAxis mode: Wavelengths
Number of Pixels in Spectrum: 2048
>>>>>Begin Spectral Data<<<<<
223.165	-10.19
223.4	-10.19
223.635	-10.19
223.869	-13.19
224.104	-12.19
224.338	-10.19
224.573	-18.19
224.808	-18.19
225.042	-0.19
225.277	-9.19
225.511	-4.19
225.746	-1.19
225.98	-0.19
226.215	-7.19
226.449	25.81
226.683	21.81
226.918	25.81
227.152	30.81
227.387	39.81
227.621	39.81
227.856	42.81
228.09	46.81
228.324	53.81
228.559	60.81
228.793	67.81
229.027	94.81
229.262	119.81
229.496	121.81
229.73	132.81
229.964	137.81
230.199	134.81
230.433	121.81
230.667	123.81
230.901	124.81
231.136	131.81
231.37	121.81
231.604	115.81
231.838	127.81
232.072	120.81
232.306	129.81
232.541	138.81
232.775	115.81
233.009	117.81
233.243	116.81
233.477	123.81
233.711	121.81
233.945	134.81
234.179	117.81
234.413	124.81
234.647	121.81
234.881	133.81
235.115	122.81
235.349	133.81
235.583	131.81
235.817	124.81
236.051	140.81
236.285	114.81
236.519	103.81
236.753	142.81
236.987	142.81
237.221	185.81
237.455	220.81
237.689	198.81
237.922	153.81
238.156	149.81
238.39	141.81
238.624	134.81
238.858	149.81
239.091	131.81
239.325	127.81
239.559	147.81
239.793	138.81
240.027	133.81
240.26	166.81
240.494	159.81
240.728	157.81
240.961	147.81
241.195	152.81
241.429	137.81
241.662	135.81
241.896	154.81
242.13	155.81
242.363	149.81
242.597	143.81
242.83	162.81
243.064	172.81
243.298	151.81
243.531	144.81
243.765	161.81
243.998	154.81
244.232	161.81
244.465	149.81
244.699	158.81
244.932	177.81
245.166	166.81
245.399	142.81
245.633	168.81
245.866	171.81
246.099	162.81
246.333	169.81
246.566	170.81
246.8	182.81
247.033	164.81
247.266	174.81
247.5	172.81
247.733	188.81
247.966	182.81
248.2	195.81
248.433	198.81
248.666	202.81
248.899	196.81
249.133	222.81
249.366	225.81
249.599	212.81
249.832	201.81
250.066	207.81
250.299	197.81
250.532	208.81
250.765	222.81
250.998	233.81
251.231	220.81
251.465	231.81
251.698	220.81
251.931	221.81
252.164	219.81
252.397	228.81
252.63	231.81
252.863	230.81
253.096	235.81
253.329	227.81
253.562	233.81
253.795	245.81
254.028	242.81
254.261	251.81
254.494	237.81
254.727	261.81
254.96	297.81
255.193	291.81
255.426	267.81
255.659	259.81
255.892	254.81
256.124	250.81
256.357	251.81
256.59	248.81
256.823	221.81
257.056	236.81
257.289	227.81
257.521	233.81
257.754	234.81
257.987	258.81
258.22	248.81
258.452	258.81
258.685	231.81
258.918	229.81
259.151	230.81
259.383	247.81
259.616	245.81
259.849	238.81
260.081	243.81
260.314	268.81
260.547	286.81
260.779	268.81
261.012	260.81
261.244	255.81
261.477	262.81
261.71	266.81
261.942	241.81
262.175	268.81
262.407	268.81
262.64	246.81
262.872	243.81
263.105	261.81
263.337	250.81
263.57	241.81
263.802	251.81
264.035	236.81
264.267	250.81
264.499	233.81
264.732	254.81
264.964	236.81
265.197	254.81
265.429	246.81
265.661	250.81
265.894	250.81
266.126	246.81
266.358	259.81
266.591	272.81
266.823	253.81
267.055	274.81
267.287	275.81
267.52	268.81
267.752	267.81
267.984	269.81
268.216	278.81
268.448	286.81
268.681	269.81
268.913	289.81
269.145	294.81
269.377	306.81
269.609	325.81
269.841	299.81
270.073	313.81
270.306	332.81
270.538	339.81
270.77	360.81
271.002	329.81
271.234	327.81
271.466	327.81
271.698	351.81
271.93	355.81
272.162	355.81
272.394	358.81
272.626	331.81
272.858	333.81
273.09	324.81
273.322	296.81
273.553	305.81
273.785	311.81
274.017	301.81
274.249	315.81
274.481	298.81
274.713	310.81
274.945	293.81
275.176	321.81
275.408	313.81
275.64	327.81
275.872	310.81
276.104	315.81
276.335	311.81
276.567	313.81
276.799	323.81
277.031	340.81
277.262	363.81
277.494	361.81
277.726	331.81
277.957	343.81
278.189	335.81
278.421	319.81
278.652	315.81
278.884	329.81
279.115	325.81
279.347	328.81
279.579	337.81
279.81	326.81
280.042	334.81
280.273	325.81
280.505	329.81
280.736	340.81
280.968	320.81
281.199	335.81
281.431	325.81
281.662	320.81
281.894	340.81
282.125	335.81
282.356	352.81
282.588	362.81
282.819	364.81
283.051	350.81
283.282	345.81
283.513	340.81
283.745	358.81
283.976	334.81
284.207	343.81
284.439	349.81
284.67	357.81
284.901	329.81
285.132	337.81
285.364	343.81
285.595	347.81
285.826	346.81
286.057	351.81
286.288	373.81
286.52	372.81
286.751	341.81
286.982	357.81
287.213	335.81
287.444	351.81
287.675	362.81
287.906	363.81
288.138	373.81
288.369	377.81
288.6	385.81
288.831	366.81
289.062	373.81
289.293	377.81
289.524	355.81
289.755	375.81
289.986	373.81
290.217	366.81
290.448	377.81
290.679	359.81
290.91	373.81
291.141	361.81
291.371	379.81
291.602	369.81
291.833	359.81
292.064	361.81
292.295	373.81
292.526	371.81
292.757	373.81
292.987	378.81
293.218	389.81
293.449	378.81
293.68	384.81
293.91	377.81
294.141	379.81
294.372	363.81
294.603	365.81
294.833	369.81
295.064	379.81
295.295	379.81
295.525	375.81
295.756	378.81
295.987	382.81
296.217	416.81
296.448	417.81
296.679	399.81
296.909	390.81
297.14	378.81
297.37	379.81
297.601	396.81
297.831	388.81
298.062	397.81
298.292	389.81
298.523	405.81
298.753	392.81
298.984	395.81
299.214	390.81
299.445	417.81
299.675	397.81
299.905	403.81
300.136	414.81
300.366	391.81
300.597	403.81
300.827	403.81
301.057	411.81
301.288	413.81
301.518	408.81
301.748	431.81
301.979	433.81
302.209	401.81
302.439	423.81
302.669	414.81
302.9	426.81
303.13	436.81
303.36	426.81
303.59	446.81
303.82	438.81
304.051	429.81
304.281	431.81
304.511	430.81
304.741	419.81
304.971	428.81
305.201	414.81
305.431	414.81
305.661	410.81
305.891	414.81
306.121	421.81
306.352	424.81
306.582	419.81
306.812	398.81
307.042	410.81
307.272	417.81
307.502	419.81
307.731	443.81
307.961	422.81
308.191	423.81
308.421	416.81
308.651	419.81
308.881	429.81
309.111	435.81
309.341	447.81
309.571	438.81
309.8	438.81
310.03	444.81
310.26	455.81
310.49	453.81
310.72	470.81
310.949	469.81
311.179	468.81
311.409	463.81
311.639	478.81
311.868	459.81
312.098	458.81
312.328	491.81
312.557	510.81
312.787	488.81
313.017	490.81
313.246	461.81
313.476	465.81
313.706	457.81
313.935	475.81
314.165	461.81
314.394	498.81
314.624	487.81
314.853	478.81
315.083	486.81
315.312	469.81
315.542	468.81
315.771	453.81
316.001	469.81
316.23	459.81
316.46	483.81
316.689	463.81
316.919	479.81
317.148	495.81
317.377	478.81
317.607	465.81
317.836	471.81
318.065	471.81
318.295	469.81
318.524	466.81
318.753	490.81
318.983	468.81
319.212	461.81
319.441	491.81
319.67	459.81
319.9	463.81
320.129	468.81
320.358	457.81
320.587	468.81
320.816	483.81
321.046	466.81
321.275	498.81
321.504	492.81
321.733	474.81
321.962	491.81
322.191	498.81
322.42	501.81
322.649	523.81
322.878	517.81
323.108	526.81
323.337	535.81
323.566	570.81
323.795	590.81
324.024	596.81
324.253	680.81
324.482	860.81
324.71	1285.81
324.939	1829.81
325.168	1669.81
325.397	870.81
325.626	674.81
325.855	616.81
326.084	591.81
326.313	580.81
326.542	582.81
326.77	608.81
326.999	666.81
327.228	827.81
327.457	1235.81
327.686	1474.81
327.914	1039.81
328.143	734.81
328.372	677.81
328.6	661.81
328.829	615.81
329.058	661.81
329.287	650.81
329.515	598.81
329.744	610.81
329.972	594.81
330.201	621.81
330.43	608.81
330.658	662.81
330.887	663.81
331.115	643.81
331.344	609.81
331.572	563.81
331.801	585.81
332.03	621.81
332.258	600.81
332.486	594.81
332.715	582.81
332.943	590.81
333.172	620.81
333.4	623.81
333.629	633.81
333.857	655.81
334.085	654.81
334.314	637.81
334.542	673.81
334.771	714.81
334.999	645.81
335.227	626.81
335.455	625.81
335.684	601.81
335.912	603.81
336.14	578.81
336.369	570.81
336.597	589.81
336.825	621.81
337.053	590.81
337.281	569.81
337.51	574.81
337.738	597.81
337.966	575.81
338.194	585.81
338.422	584.81
338.65	581.81
338.878	578.81
339.106	578.81
339.334	564.81
339.562	567.81
339.79	551.81
340.018	520.81
340.246	535.81
340.474	571.81
340.702	561.81
340.93	550.81
341.158	537.81
341.386	536.81
341.614	550.81
341.842	549.81
342.07	525.81
342.298	526.81
342.526	535.81
342.754	541.81
342.981	551.81
343.209	547.81
343.437	557.81
343.665	583.81
343.893	593.81
344.12	605.81
344.348	605.81
344.576	568.81
344.804	573.81
345.031	587.81
345.259	557.81
345.487	553.81
345.714	549.81
345.942	530.81
346.17	516.81
346.397	526.81
346.625	501.81
346.853	521.81
347.08	515.81
347.308	511.81
347.535	525.81
347.763	512.81
347.99	525.81
348.218	554.81
348.445	546.81
348.673	558.81
348.9	518.81
349.128	503.81
349.355	505.81
349.583	516.81
349.81	523.81
350.037	531.81
350.265	514.81
350.492	518.81
350.72	524.81
350.947	523.81
351.174	515.81
351.402	522.81
351.629	531.81
351.856	539.81
352.083	501.81
352.311	501.81
352.538	534.81
352.765	536.81
352.992	507.81
353.22	508.81
353.447	512.81
353.674	505.81
353.901	498.81
354.128	518.81
354.355	500.81
354.583	489.81
354.81	490.81
355.037	493.81
355.264	518.81
355.491	497.81
355.718	505.81
355.945	491.81
356.172	491.81
356.399	490.81
356.626	511.81
356.853	485.81
357.08	517.81
357.307	485.81
357.534	494.81
357.761	523.81
357.988	521.81
358.215	506.81
358.441	500.81
358.668	510.81
358.895	517.81
359.122	525.81
359.349	532.81
359.576	535.81
359.802	549.81
360.029	549.81
360.256	574.81
360.483	579.81
360.709	523.81
360.936	524.81
361.163	530.81
361.39	530.81
361.616	510.81
361.843	538.81
362.07	525.81
362.296	521.81
362.523	537.81
362.749	523.81
362.976	505.81
363.203	543.81
363.429	519.81
363.656	505.81
363.882	488.81
364.109	505.81
364.335	517.81
364.562	489.81
364.788	525.81
365.015	526.81
365.241	512.81
365.468	516.81
365.694	505.81
365.92	521.81
366.147	518.81
366.373	509.81
366.599	514.81
366.826	507.81
367.052	495.81
367.278	503.81
367.505	513.81
367.731	502.81
367.957	513.81
368.184	518.81
368.41	526.81
368.636	535.81
368.862	534.81
369.089	524.81
369.315	513.81
369.541	531.81
369.767	505.81
369.993	514.81
370.219	540.81
370.445	527.81
370.672	524.81
370.898	518.81
371.124	533.81
371.35	535.81
371.576	510.81
371.802	524.81
372.028	515.81
372.254	548.81
372.48	514.81
372.706	547.81
372.932	553.81
373.158	554.81
373.384	529.81
373.61	515.81
373.835	534.81
374.061	521.81
374.287	528.81
374.513	534.81
374.739	559.81
374.965	565.81
375.191	601.81
375.416	574.81
375.642	571.81
375.868	562.81
376.094	542.81
376.319	519.81
376.545	533.81
376.771	536.81
376.997	531.81
377.222	554.81
377.448	521.81
377.674	528.81
377.899	541.81
378.125	540.81
378.35	542.81
378.576	507.81
378.802	505.81
379.027	527.81
379.253	499.81
379.478	517.81
379.704	522.81
379.929	518.81
380.155	534.81
380.38	524.81
380.606	535.81
380.831	525.81
381.057	533.81
381.282	525.81
381.507	526.81
381.733	538.81
381.958	538.81
382.184	566.81
382.409	535.81
382.634	548.81
382.86	555.81
383.085	558.81
383.31	558.81
383.535	563.81
383.761	582.81
383.986	582.81
384.211	568.81
384.436	606.81
384.662	615.81
384.887	626.81
385.112	616.81
385.337	601.81
385.562	614.81
385.787	620.81
386.013	618.81
386.238	609.81
386.463	620.81
386.688	605.81
386.913	593.81
387.138	597.81
387.363	605.81
387.588	605.81
387.813	609.81
388.038	599.81
388.263	634.81
388.488	632.81
388.713	620.81
388.938	614.81
389.163	601.81
389.387	597.81
389.612	625.81
389.837	597.81
390.062	574.81
390.287	596.81
390.512	598.81
390.736	621.81
390.961	630.81
391.186	635.81
391.411	627.81
391.636	649.81
391.86	665.81
392.085	659.81
392.31	652.81
392.534	643.81
392.759	633.81
392.984	633.81
393.208	628.81
393.433	635.81
393.658	618.81
393.882	630.81
394.107	634.81
394.331	629.81
394.556	631.81
394.78	616.81
395.005	634.81
395.229	632.81
395.454	662.81
395.678	655.81
395.903	676.81
396.127	674.81
396.352	657.81
396.576	642.81
396.801	642.81
397.025	641.81
397.249	682.81
397.474	678.81
397.698	668.81
397.922	697.81
398.147	673.81
398.371	703.81
398.595	677.81
398.82	707.81
399.044	750.81
399.268	802.81
399.492	881.81
399.717	964.81
399.941	965.81
400.165	939.81
400.389	902.81
400.613	828.81
400.837	795.81
401.062	729.81
401.286	741.81
401.51	712.81
401.734	729.81
401.958	732.81
402.182	749.81
402.406	757.81
402.63	748.81
402.854	767.81
403.078	769.81
403.302	797.81
403.526	792.81
403.75	793.81
403.974	793.81
404.198	845.81
404.422	806.81
404.645	808.81
404.869	800.81
405.093	834.81
405.317	845.81
405.541	875.81
405.765	828.81
405.988	788.81
406.212	807.81
406.436	820.81
406.66	827.81
406.883	819.81
407.107	870.81
407.331	928.81
407.555	995.81
407.778	979.81
408.002	919.81
408.226	860.81
408.449	852.81
408.673	851.81
408.896	838.81
409.12	874.81
409.344	854.81
409.567	810.81
409.791	809.81
410.014	789.81
410.238	747.81
410.461	750.81
410.685	769.81
410.908	773.81
411.132	779.81
411.355	825.81
411.578	786.81
411.802	750.81
412.025	747.81
412.249	781.81
412.472	783.81
412.695	802.81
412.919	798.81
413.142	781.81
413.365	746.81
413.589	735.81
413.812	717.81
414.035	689.81
414.258	717.81
414.482	711.81
414.705	719.81
414.928	741.81
415.151	730.81
415.374	739.81
415.597	731.81
415.821	725.81
416.044	709.81
416.267	692.81
416.49	703.81
416.713	737.81
416.936	705.81
417.159	701.81
417.382	711.81
417.605	714.81
417.828	740.81
418.051	742.81
418.274	722.81
418.497	705.81
418.72	733.81
418.943	715.81
419.166	748.81
419.389	770.81
419.611	792.81
419.834	780.81
420.057	769.81
420.28	742.81
420.503	744.81
420.726	726.81
420.948	743.81
421.171	765.81
421.394	802.81
421.617	733.81
421.839	737.81
422.062	741.81
422.285	727.81
422.507	798.81
422.73	874.81
422.953	851.81
423.175	802.81
423.398	759.81
423.621	758.81
423.843	798.81
424.066	804.81
424.288	799.81
424.511	818.81
424.733	821.81
424.956	914.81
425.178	877.81
425.401	845.81
425.623	870.81
425.846	787.81
426.068	765.81
426.291	742.81
426.513	741.81
426.735	755.81
426.958	783.81
427.18	849.81
427.402	955.81
427.625	1015.81
427.847	904.81
428.069	817.81
428.292	734.81
428.514	723.81
428.736	721.81
428.958	682.81
429.181	673.81
429.403	661.81
429.625	686.81
429.847	706.81
430.069	748.81
430.292	770.81
430.514	731.81
430.736	683.81
430.958	658.81
431.18	682.81
431.402	677.81
431.624	634.81
431.846	668.81
432.068	670.81
432.29	686.81
432.512	678.81
432.734	693.81
432.956	666.81
433.178	681.81
433.4	701.81
433.622	654.81
433.844	676.81
434.066	654.81
434.287	698.81
434.509	708.81
434.731	703.81
434.953	739.81
435.175	712.81
435.397	754.81
435.618	753.81
435.84	769.81
436.062	818.81
436.284	893.81
436.505	789.81
436.727	721.81
436.949	692.81
437.17	676.81
437.392	668.81
437.614	670.81
437.835	714.81
438.057	827.81
438.278	857.81
438.5	866.81
438.721	917.81
438.943	907.81
439.165	788.81
439.386	732.81
439.608	735.81
439.829	745.81
440.05	760.81
440.272	778.81
440.493	753.81
440.715	708.81
440.936	717.81
441.158	716.81
441.379	703.81
441.6	722.81
441.822	748.81
442.043	802.81
442.264	877.81
442.486	860.81
442.707	793.81
442.928	773.81
443.149	800.81
443.371	778.81
443.592	825.81
443.813	897.81
444.034	964.81
444.255	856.81
444.476	809.81
444.698	841.81
444.919	810.81
445.14	927.81
445.361	856.81
445.582	814.81
445.803	851.81
446.024	926.81
446.245	885.81
446.466	858.81
446.687	779.81
446.908	719.81
447.129	664.81
447.35	683.81
447.571	692.81
447.792	662.81
448.013	665.81
448.234	674.81
448.455	710.81
448.675	824.81
448.896	908.81
449.117	794.81
449.338	765.81
449.559	841.81
449.779	959.81
450	790.81
450.221	715.81
450.442	667.81
450.662	670.81
450.883	642.81
451.104	659.81
451.324	682.81
451.545	609.81
451.766	617.81
451.986	597.81
452.207	620.81
452.428	584.81
452.648	608.81
452.869	622.81
453.089	643.81
453.31	631.81
453.53	612.81
453.751	609.81
453.971	607.81
454.192	613.81
454.412	593.81
454.633	590.81
454.853	590.81
455.073	596.81
455.294	607.81
455.514	669.81
455.734	653.81
455.955	620.81
456.175	605.81
456.395	564.81
456.616	578.81
456.836	575.81
457.056	568.81
457.276	558.81
457.497	572.81
457.717	584.81
457.937	581.81
458.157	587.81
458.377	606.81
458.598	620.81
458.818	672.81
459.038	763.81
459.258	769.81
459.478	711.81
459.698	683.81
459.918	672.81
460.138	727.81
460.358	704.81
460.578	713.81
460.798	744.81
461.018	737.81
461.238	732.81
461.458	735.81
461.678	722.81
461.898	716.81
462.118	742.81
462.338	765.81
462.558	766.81
462.777	794.81
462.997	848.81
463.217	879.81
463.437	890.81
463.657	821.81
463.876	801.81
464.096	813.81
464.316	825.81
464.536	834.81
464.755	783.81
464.975	781.81
465.195	796.81
465.414	814.81
465.634	747.81
465.854	716.81
466.073	683.81
466.293	678.81
466.512	644.81
466.732	675.81
466.951	662.81
467.171	640.81
467.391	639.81
467.61	661.81
467.829	641.81
468.049	645.81
468.268	617.81
468.488	620.81
468.707	619.81
468.927	621.81
469.146	630.81
469.365	633.81
469.585	621.81
469.804	635.81
470.023	673.81
470.243	682.81
470.462	674.81
470.681	667.81
470.901	689.81
471.12	658.81
471.339	656.81
471.558	629.81
471.777	654.81
471.997	654.81
472.216	653.81
472.435	677.81
472.654	651.81
472.873	638.81
473.092	629.81
473.311	627.81
473.53	640.81
473.749	625.81
473.968	660.81
474.187	751.81
474.406	772.81
474.625	688.81
474.844	658.81
475.063	616.81
475.282	610.81
475.501	637.81
475.72	658.81
475.939	627.81
476.158	643.81
476.377	634.81
476.596	670.81
476.814	653.81
477.033	649.81
477.252	690.81
477.471	689.81
477.69	681.81
477.908	699.81
478.127	711.81
478.346	744.81
478.564	744.81
478.783	740.81
479.002	794.81
479.22	749.81
479.439	773.81
479.658	788.81
479.876	769.81
480.095	790.81
480.313	856.81
480.532	823.81
480.751	853.81
480.969	816.81
481.188	844.81
481.406	889.81
481.624	797.81
481.843	757.81
482.061	769.81
482.28	768.81
482.498	730.81
482.717	736.81
482.935	728.81
483.153	715.81
483.372	734.81
483.59	726.81
483.808	739.81
484.027	728.81
484.245	736.81
484.463	722.81
484.681	764.81
484.9	759.81
485.118	749.81
485.336	766.81
485.554	770.81
485.772	772.81
485.99	777.81
486.209	766.81
486.427	787.81
486.645	783.81
486.863	802.81
487.081	798.81
487.299	813.81
487.517	794.81
487.735	805.81
487.953	762.81
488.171	793.81
488.389	786.81
488.607	805.81
488.825	781.81
489.043	771.81
489.261	775.81
489.479	818.81
489.696	798.81
489.914	817.81
490.132	817.81
490.35	806.81
490.568	839.81
490.786	827.81
491.003	811.81
491.221	837.81
491.439	847.81
491.657	886.81
491.874	886.81
492.092	879.81
492.31	873.81
492.527	889.81
492.745	902.81
492.963	882.81
493.18	882.81
493.398	898.81
493.615	926.81
493.833	903.81
494.05	899.81
494.268	910.81
494.485	938.81
494.703	942.81
494.92	928.81
495.138	902.81
495.355	922.81
495.573	926.81
495.79	916.81
496.008	896.81
496.225	924.81
496.442	916.81
496.66	941.81
496.877	958.81
497.094	921.81
497.312	965.81
497.529	970.81
497.746	989.81
497.963	1020.81
498.181	1051.81
498.398	1062.81
498.615	1129.81
498.832	1157.81
499.049	1216.81
499.267	1259.81
499.484	1339.81
499.701	1457.81
499.918	1531.81
500.135	1659.81
500.352	1777.81
500.569	1843.81
500.786	1883.81
501.003	1775.81
501.22	1677.81
501.437	1555.81
501.654	1447.81
