Data from 1963.PennyLincolnUp.Lamp.En5.5.200Scan.071719.P1._HRD10591_13-58-43-063.txt Node
Date: Thu Jul 18 13:58:43 EDT 2019
User: cochatt
Spectrometer: HR+D1059
Trigger mode: 1
Integration Time (sec): 1.000000E-1
Scans to average: 1
Electric dark correction enabled: true
Nonlinearity correction enabled: false
Boxcar width: 0
XAxis mode: Wavelengths
Number of Pixels in Spectrum: 2048
>>>>>Begin Spectral Data<<<<<
223.165	-9.75
223.4	-9.75
223.635	-9.75
223.869	-15.75
224.104	-10.75
224.338	-10.75
224.573	-13.75
224.808	-20.75
225.042	-7.75
225.277	4.25
225.511	3.25
225.746	7.25
225.98	3.25
226.215	6.25
226.449	14.25
226.683	10.25
226.918	11.25
227.152	29.25
227.387	23.25
227.621	32.25
227.856	52.25
228.09	51.25
228.324	48.25
228.559	46.25
228.793	57.25
229.027	96.25
229.262	113.25
229.496	118.25
229.73	123.25
229.964	139.25
230.199	115.25
230.433	115.25
230.667	119.25
230.901	115.25
231.136	111.25
231.37	105.25
231.604	118.25
231.838	105.25
232.072	138.25
232.306	113.25
232.541	106.25
232.775	115.25
233.009	121.25
233.243	115.25
233.477	116.25
233.711	105.25
233.945	119.25
234.179	141.25
234.413	112.25
234.647	119.25
234.881	122.25
235.115	125.25
235.349	139.25
235.583	118.25
235.817	129.25
236.051	133.25
236.285	133.25
236.519	120.25
236.753	134.25
236.987	146.25
237.221	183.25
237.455	190.25
237.689	170.25
237.922	161.25
238.156	137.25
238.39	130.25
238.624	135.25
238.858	137.25
239.091	138.25
239.325	125.25
239.559	139.25
239.793	128.25
240.027	132.25
240.26	161.25
240.494	167.25
240.728	153.25
240.961	156.25
241.195	161.25
241.429	146.25
241.662	148.25
241.896	164.25
242.13	146.25
242.363	140.25
242.597	137.25
242.83	149.25
243.064	139.25
243.298	140.25
243.531	149.25
243.765	167.25
243.998	158.25
244.232	146.25
244.465	148.25
244.699	137.25
244.932	164.25
245.166	144.25
245.399	161.25
245.633	170.25
245.866	165.25
246.099	162.25
246.333	155.25
246.566	164.25
246.8	161.25
247.033	163.25
247.266	171.25
247.5	164.25
247.733	180.25
247.966	169.25
248.2	175.25
248.433	180.25
248.666	197.25
248.899	192.25
249.133	200.25
249.366	209.25
249.599	205.25
249.832	209.25
250.066	200.25
250.299	201.25
250.532	224.25
250.765	215.25
250.998	226.25
251.231	228.25
251.465	232.25
251.698	219.25
251.931	212.25
252.164	228.25
252.397	208.25
252.63	222.25
252.863	214.25
253.096	231.25
253.329	248.25
253.562	228.25
253.795	216.25
254.028	241.25
254.261	221.25
254.494	232.25
254.727	248.25
254.96	276.25
255.193	275.25
255.426	256.25
255.659	221.25
255.892	245.25
256.124	241.25
256.357	248.25
256.59	243.25
256.823	229.25
257.056	216.25
257.289	247.25
257.521	236.25
257.754	232.25
257.987	230.25
258.22	230.25
258.452	210.25
258.685	210.25
258.918	223.25
259.151	225.25
259.383	214.25
259.616	243.25
259.849	220.25
260.081	253.25
260.314	269.25
260.547	263.25
260.779	259.25
261.012	229.25
261.244	259.25
261.477	272.25
261.71	247.25
261.942	241.25
262.175	269.25
262.407	263.25
262.64	247.25
262.872	223.25
263.105	233.25
263.337	238.25
263.57	243.25
263.802	247.25
264.035	243.25
264.267	230.25
264.499	242.25
264.732	259.25
264.964	231.25
265.197	240.25
265.429	239.25
265.661	247.25
265.894	246.25
266.126	250.25
266.358	242.25
266.591	242.25
266.823	236.25
267.055	263.25
267.287	259.25
267.52	259.25
267.752	258.25
267.984	273.25
268.216	271.25
268.448	267.25
268.681	259.25
268.913	283.25
269.145	298.25
269.377	311.25
269.609	301.25
269.841	288.25
270.073	294.25
270.306	313.25
270.538	316.25
270.77	336.25
271.002	307.25
271.234	309.25
271.466	325.25
271.698	313.25
271.93	332.25
272.162	323.25
272.394	334.25
272.626	310.25
272.858	303.25
273.09	312.25
273.322	307.25
273.553	295.25
273.785	298.25
274.017	312.25
274.249	303.25
274.481	281.25
274.713	303.25
274.945	299.25
275.176	312.25
275.408	313.25
275.64	313.25
275.872	301.25
276.104	309.25
276.335	294.25
276.567	327.25
276.799	329.25
277.031	332.25
277.262	356.25
277.494	329.25
277.726	340.25
277.957	324.25
278.189	321.25
278.421	330.25
278.652	323.25
278.884	327.25
279.115	309.25
279.347	313.25
279.579	300.25
279.81	313.25
280.042	303.25
280.273	308.25
280.505	315.25
280.736	313.25
280.968	321.25
281.199	320.25
281.431	321.25
281.662	313.25
281.894	314.25
282.125	327.25
282.356	327.25
282.588	362.25
282.819	354.25
283.051	341.25
283.282	337.25
283.513	306.25
283.745	338.25
283.976	341.25
284.207	338.25
284.439	325.25
284.67	337.25
284.901	339.25
285.132	338.25
285.364	351.25
285.595	331.25
285.826	329.25
286.057	336.25
286.288	351.25
286.52	347.25
286.751	349.25
286.982	327.25
287.213	343.25
287.444	335.25
287.675	355.25
287.906	365.25
288.138	363.25
288.369	365.25
288.6	371.25
288.831	359.25
289.062	379.25
289.293	346.25
289.524	352.25
289.755	348.25
289.986	373.25
290.217	364.25
290.448	367.25
290.679	362.25
290.91	367.25
291.141	373.25
291.371	359.25
291.602	363.25
291.833	333.25
292.064	364.25
292.295	350.25
292.526	365.25
292.757	360.25
292.987	362.25
293.218	363.25
293.449	362.25
293.68	379.25
293.91	375.25
294.141	355.25
294.372	342.25
294.603	365.25
294.833	365.25
295.064	381.25
295.295	375.25
295.525	365.25
295.756	376.25
295.987	376.25
296.217	404.25
296.448	387.25
296.679	396.25
296.909	364.25
297.14	381.25
297.37	395.25
297.601	385.25
297.831	377.25
298.062	374.25
298.292	380.25
298.523	386.25
298.753	375.25
298.984	387.25
299.214	396.25
299.445	401.25
299.675	393.25
299.905	394.25
300.136	377.25
300.366	407.25
300.597	394.25
300.827	416.25
301.057	411.25
301.288	409.25
301.518	398.25
301.748	409.25
301.979	410.25
302.209	398.25
302.439	425.25
302.669	424.25
302.9	427.25
303.13	413.25
303.36	419.25
303.59	413.25
303.82	414.25
304.051	415.25
304.281	417.25
304.511	420.25
304.741	401.25
304.971	431.25
305.201	411.25
305.431	424.25
305.661	412.25
305.891	388.25
306.121	431.25
306.352	417.25
306.582	411.25
306.812	402.25
307.042	405.25
307.272	414.25
307.502	416.25
307.731	397.25
307.961	427.25
308.191	421.25
308.421	383.25
308.651	398.25
308.881	407.25
309.111	415.25
309.341	411.25
309.571	422.25
309.8	421.25
310.03	443.25
310.26	454.25
310.49	432.25
310.72	458.25
310.949	467.25
311.179	459.25
311.409	439.25
311.639	428.25
311.868	441.25
312.098	458.25
312.328	435.25
312.557	473.25
312.787	463.25
313.017	464.25
313.246	460.25
313.476	460.25
313.706	456.25
313.935	475.25
314.165	447.25
314.394	458.25
314.624	456.25
314.853	464.25
315.083	460.25
315.312	463.25
315.542	466.25
315.771	472.25
316.001	448.25
316.23	452.25
316.46	446.25
316.689	442.25
316.919	454.25
317.148	456.25
317.377	472.25
317.607	471.25
317.836	465.25
318.065	440.25
318.295	441.25
318.524	449.25
318.753	439.25
318.983	458.25
319.212	438.25
319.441	442.25
319.67	468.25
319.9	464.25
320.129	452.25
320.358	452.25
320.587	468.25
320.816	478.25
321.046	473.25
321.275	473.25
321.504	479.25
321.733	479.25
321.962	473.25
322.191	499.25
322.42	508.25
322.649	499.25
322.878	491.25
323.108	489.25
323.337	519.25
323.566	515.25
323.795	551.25
324.024	573.25
324.253	633.25
324.482	820.25
324.71	1215.25
324.939	1689.25
325.168	1484.25
325.397	813.25
325.626	631.25
325.855	568.25
326.084	563.25
326.313	538.25
326.542	525.25
326.77	571.25
326.999	624.25
327.228	794.25
327.457	1105.25
327.686	1359.25
327.914	949.25
328.143	660.25
328.372	628.25
328.6	590.25
328.829	583.25
329.058	605.25
329.287	595.25
329.515	563.25
329.744	561.25
329.972	577.25
330.201	592.25
330.43	609.25
330.658	620.25
330.887	643.25
331.115	637.25
331.344	576.25
331.572	559.25
331.801	547.25
332.03	591.25
332.258	581.25
332.486	579.25
332.715	576.25
332.943	598.25
333.172	605.25
333.4	589.25
333.629	604.25
333.857	620.25
334.085	674.25
334.314	643.25
334.542	673.25
334.771	697.25
334.999	613.25
335.227	610.25
335.455	599.25
335.684	597.25
335.912	578.25
336.14	571.25
336.369	576.25
336.597	581.25
336.825	580.25
337.053	583.25
337.281	559.25
337.51	564.25
337.738	578.25
337.966	554.25
338.194	573.25
338.422	569.25
338.65	545.25
338.878	538.25
339.106	547.25
339.334	546.25
339.562	535.25
339.79	514.25
340.018	529.25
340.246	508.25
340.474	531.25
340.702	525.25
340.93	514.25
341.158	540.25
341.386	535.25
341.614	532.25
341.842	529.25
342.07	533.25
342.298	524.25
342.526	530.25
342.754	515.25
342.981	498.25
343.209	523.25
343.437	533.25
343.665	554.25
343.893	589.25
344.12	600.25
344.348	579.25
344.576	562.25
344.804	573.25
345.031	552.25
345.259	559.25
345.487	523.25
345.714	539.25
345.942	538.25
346.17	522.25
346.397	520.25
346.625	511.25
346.853	505.25
347.08	523.25
347.308	526.25
347.535	515.25
347.763	509.25
347.99	509.25
348.218	514.25
348.445	527.25
348.673	524.25
348.9	500.25
349.128	498.25
349.355	500.25
349.583	476.25
349.81	489.25
350.037	501.25
350.265	515.25
350.492	527.25
350.72	497.25
350.947	509.25
351.174	502.25
351.402	509.25
351.629	517.25
351.856	509.25
352.083	531.25
352.311	497.25
352.538	492.25
352.765	499.25
352.992	480.25
353.22	492.25
353.447	494.25
353.674	487.25
353.901	496.25
354.128	471.25
354.355	471.25
354.583	494.25
354.81	483.25
355.037	471.25
355.264	484.25
355.491	495.25
355.718	507.25
355.945	495.25
356.172	487.25
356.399	483.25
356.626	505.25
356.853	492.25
357.08	492.25
357.307	470.25
357.534	489.25
357.761	492.25
357.988	481.25
358.215	482.25
358.441	488.25
358.668	510.25
358.895	499.25
359.122	487.25
359.349	483.25
359.576	497.25
359.802	511.25
360.029	540.25
360.256	541.25
360.483	532.25
360.709	499.25
360.936	521.25
361.163	521.25
361.39	500.25
361.616	511.25
361.843	501.25
362.07	500.25
362.296	507.25
362.523	520.25
362.749	524.25
362.976	488.25
363.203	474.25
363.429	477.25
363.656	493.25
363.882	501.25
364.109	500.25
364.335	482.25
364.562	519.25
364.788	495.25
365.015	514.25
365.241	485.25
365.468	500.25
365.694	513.25
365.92	504.25
366.147	516.25
366.373	472.25
366.599	476.25
366.826	489.25
367.052	477.25
367.278	487.25
367.505	495.25
367.731	491.25
367.957	486.25
368.184	501.25
368.41	499.25
368.636	513.25
368.862	493.25
369.089	493.25
369.315	481.25
369.541	497.25
369.767	493.25
369.993	517.25
370.219	502.25
370.445	498.25
370.672	489.25
370.898	519.25
371.124	517.25
371.35	514.25
371.576	522.25
371.802	492.25
372.028	515.25
372.254	514.25
372.48	528.25
372.706	543.25
372.932	527.25
373.158	522.25
373.384	518.25
373.61	498.25
373.835	543.25
374.061	518.25
374.287	545.25
374.513	529.25
374.739	544.25
374.965	537.25
375.191	541.25
375.416	554.25
375.642	534.25
375.868	536.25
376.094	518.25
376.319	506.25
376.545	528.25
376.771	510.25
376.997	536.25
377.222	500.25
377.448	535.25
377.674	510.25
377.899	512.25
378.125	514.25
378.35	513.25
378.576	529.25
378.802	506.25
379.027	516.25
379.253	520.25
379.478	486.25
379.704	487.25
379.929	518.25
380.155	509.25
380.38	507.25
380.606	514.25
380.831	501.25
381.057	519.25
381.282	523.25
381.507	539.25
381.733	534.25
381.958	531.25
382.184	533.25
382.409	525.25
382.634	521.25
382.86	537.25
383.085	552.25
383.31	554.25
383.535	552.25
383.761	541.25
383.986	557.25
384.211	544.25
384.436	580.25
384.662	583.25
384.887	590.25
385.112	569.25
385.337	590.25
385.562	617.25
385.787	593.25
386.013	592.25
386.238	598.25
386.463	617.25
386.688	617.25
386.913	588.25
387.138	599.25
387.363	586.25
387.588	574.25
387.813	584.25
388.038	600.25
388.263	615.25
388.488	580.25
388.713	597.25
388.938	612.25
389.163	580.25
389.387	597.25
389.612	561.25
389.837	585.25
390.062	597.25
390.287	584.25
390.512	605.25
390.736	590.25
390.961	613.25
391.186	618.25
391.411	618.25
391.636	604.25
391.86	616.25
392.085	643.25
392.31	627.25
392.534	645.25
392.759	627.25
392.984	629.25
393.208	607.25
393.433	629.25
393.658	625.25
393.882	600.25
394.107	614.25
394.331	617.25
394.556	609.25
394.78	611.25
395.005	632.25
395.229	609.25
395.454	641.25
395.678	641.25
395.903	662.25
396.127	658.25
396.352	659.25
396.576	634.25
396.801	618.25
397.025	620.25
397.249	633.25
397.474	651.25
397.698	636.25
397.922	663.25
398.147	638.25
398.371	691.25
398.595	712.25
398.82	717.25
399.044	709.25
399.268	772.25
399.492	887.25
399.717	947.25
399.941	949.25
400.165	929.25
400.389	876.25
400.613	799.25
400.837	759.25
401.062	737.25
401.286	700.25
401.51	723.25
401.734	705.25
401.958	727.25
402.182	725.25
402.406	728.25
402.63	772.25
402.854	735.25
403.078	723.25
403.302	756.25
403.526	763.25
403.75	796.25
403.974	777.25
404.198	787.25
404.422	787.25
404.645	792.25
404.869	799.25
405.093	806.25
405.317	823.25
405.541	850.25
405.765	807.25
405.988	787.25
406.212	791.25
406.436	775.25
406.66	811.25
406.883	803.25
407.107	856.25
407.331	882.25
407.555	962.25
407.778	939.25
408.002	897.25
408.226	845.25
408.449	833.25
408.673	826.25
408.896	839.25
409.12	847.25
409.344	817.25
409.567	791.25
409.791	764.25
410.014	772.25
410.238	767.25
410.461	733.25
410.685	751.25
410.908	747.25
411.132	757.25
411.355	786.25
411.578	781.25
411.802	741.25
412.025	756.25
412.249	749.25
412.472	754.25
412.695	795.25
412.919	773.25
413.142	738.25
413.365	708.25
413.589	717.25
413.812	687.25
414.035	715.25
414.258	732.25
414.482	725.25
414.705	743.25
414.928	715.25
415.151	708.25
415.374	704.25
415.597	708.25
415.821	707.25
416.044	697.25
416.267	678.25
416.49	684.25
416.713	683.25
416.936	704.25
417.159	677.25
417.382	679.25
417.605	682.25
417.828	703.25
418.051	761.25
418.274	722.25
418.497	698.25
418.72	684.25
418.943	701.25
419.166	737.25
419.389	795.25
419.611	779.25
419.834	760.25
420.057	773.25
420.28	753.25
420.503	727.25
420.726	689.25
420.948	738.25
421.171	741.25
421.394	785.25
421.617	743.25
421.839	743.25
422.062	732.25
422.285	720.25
422.507	777.25
422.73	843.25
422.953	848.25
423.175	771.25
423.398	736.25
423.621	763.25
423.843	769.25
424.066	763.25
424.288	774.25
424.511	759.25
424.733	824.25
424.956	875.25
425.178	832.25
425.401	865.25
425.623	864.25
425.846	781.25
426.068	737.25
426.291	732.25
426.513	742.25
426.735	737.25
426.958	781.25
427.18	791.25
427.402	904.25
427.625	1005.25
427.847	889.25
428.069	779.25
428.292	737.25
428.514	692.25
428.736	693.25
428.958	675.25
429.181	660.25
429.403	673.25
429.625	664.25
429.847	682.25
430.069	745.25
430.292	753.25
430.514	693.25
430.736	650.25
430.958	663.25
431.18	635.25
431.402	671.25
431.624	646.25
431.846	668.25
432.068	659.25
432.29	671.25
432.512	657.25
432.734	685.25
432.956	675.25
433.178	662.25
433.4	629.25
433.622	677.25
433.844	663.25
434.066	652.25
434.287	657.25
434.509	677.25
434.731	684.25
434.953	714.25
435.175	727.25
435.397	741.25
435.618	720.25
435.84	738.25
436.062	788.25
436.284	850.25
436.505	752.25
436.727	689.25
436.949	675.25
437.17	676.25
437.392	669.25
437.614	675.25
437.835	659.25
438.057	762.25
438.278	831.25
438.5	868.25
438.721	919.25
438.943	876.25
439.165	747.25
439.386	714.25
439.608	699.25
439.829	703.25
440.05	717.25
440.272	760.25
440.493	725.25
440.715	693.25
440.936	683.25
441.158	700.25
441.379	697.25
441.6	698.25
441.822	748.25
442.043	773.25
442.264	825.25
442.486	844.25
442.707	774.25
442.928	744.25
443.149	756.25
443.371	767.25
443.592	811.25
443.813	855.25
444.034	930.25
444.255	833.25
444.476	785.25
444.698	800.25
444.919	823.25
445.14	918.25
445.361	825.25
445.582	796.25
445.803	831.25
446.024	871.25
446.245	867.25
446.466	791.25
446.687	720.25
446.908	679.25
447.129	692.25
447.35	639.25
447.571	659.25
447.792	616.25
448.013	653.25
448.234	645.25
448.455	687.25
448.675	771.25
448.896	876.25
449.117	764.25
449.338	740.25
449.559	823.25
449.779	900.25
450	779.25
450.221	670.25
450.442	647.25
450.662	633.25
450.883	637.25
451.104	637.25
451.324	635.25
451.545	604.25
451.766	625.25
451.986	607.25
452.207	582.25
452.428	586.25
452.648	618.25
452.869	598.25
453.089	572.25
453.31	601.25
453.53	599.25
453.751	598.25
453.971	593.25
454.192	589.25
454.412	596.25
454.633	580.25
454.853	575.25
455.073	552.25
455.294	601.25
455.514	651.25
455.734	641.25
455.955	582.25
456.175	559.25
456.395	562.25
456.616	567.25
456.836	563.25
457.056	555.25
457.276	525.25
457.497	545.25
457.717	552.25
457.937	548.25
458.157	590.25
458.377	594.25
458.598	630.25
458.818	654.25
459.038	713.25
459.258	724.25
459.478	711.25
459.698	679.25
459.918	681.25
460.138	692.25
460.358	686.25
460.578	719.25
460.798	712.25
461.018	735.25
461.238	699.25
461.458	709.25
461.678	715.25
461.898	736.25
462.118	703.25
462.338	771.25
462.558	770.25
462.777	762.25
462.997	828.25
463.217	867.25
463.437	892.25
463.657	833.25
463.876	787.25
464.096	809.25
464.316	801.25
464.536	799.25
464.755	800.25
464.975	756.25
465.195	746.25
465.414	793.25
465.634	699.25
465.854	701.25
466.073	687.25
466.293	660.25
466.512	637.25
466.732	626.25
466.951	641.25
467.171	611.25
467.391	639.25
467.61	631.25
467.829	631.25
468.049	633.25
468.268	604.25
468.488	617.25
468.707	633.25
468.927	596.25
469.146	600.25
469.365	611.25
469.585	628.25
469.804	626.25
470.023	647.25
470.243	655.25
470.462	646.25
470.681	694.25
470.901	665.25
471.12	645.25
471.339	631.25
471.558	618.25
471.777	616.25
471.997	633.25
472.216	639.25
472.435	631.25
472.654	633.25
472.873	609.25
473.092	616.25
473.311	612.25
473.53	609.25
473.749	615.25
473.968	637.25
474.187	730.25
474.406	747.25
474.625	659.25
474.844	627.25
475.063	624.25
475.282	619.25
475.501	629.25
475.72	639.25
475.939	627.25
476.158	651.25
476.377	629.25
476.596	652.25
476.814	651.25
477.033	652.25
477.252	670.25
477.471	669.25
477.69	664.25
477.908	708.25
478.127	701.25
478.346	712.25
478.564	728.25
478.783	733.25
479.002	752.25
479.22	726.25
479.439	766.25
479.658	762.25
479.876	773.25
480.095	779.25
480.313	803.25
480.532	801.25
480.751	834.25
480.969	809.25
481.188	853.25
481.406	861.25
481.624	780.25
481.843	734.25
482.061	742.25
482.28	732.25
482.498	733.25
482.717	715.25
482.935	719.25
483.153	723.25
483.372	723.25
483.59	730.25
483.808	709.25
484.027	711.25
484.245	720.25
484.463	729.25
484.681	761.25
484.9	725.25
485.118	761.25
485.336	735.25
485.554	769.25
485.772	775.25
485.99	752.25
486.209	767.25
486.427	755.25
486.645	756.25
486.863	765.25
487.081	797.25
487.299	781.25
487.517	771.25
487.735	764.25
487.953	744.25
488.171	802.25
488.389	778.25
488.607	785.25
488.825	773.25
489.043	749.25
489.261	781.25
489.479	785.25
489.696	775.25
489.914	779.25
490.132	794.25
490.35	817.25
490.568	812.25
490.786	802.25
491.003	812.25
491.221	841.25
491.439	821.25
491.657	848.25
491.874	864.25
492.092	848.25
492.31	848.25
492.527	863.25
492.745	877.25
492.963	860.25
493.18	883.25
493.398	883.25
493.615	879.25
493.833	870.25
494.05	901.25
494.268	909.25
494.485	904.25
494.703	895.25
494.92	885.25
495.138	870.25
495.355	903.25
495.573	912.25
495.79	909.25
496.008	913.25
496.225	923.25
496.442	910.25
496.66	907.25
496.877	942.25
497.094	917.25
497.312	936.25
497.529	972.25
497.746	959.25
497.963	979.25
498.181	1027.25
498.398	1043.25
498.615	1075.25
498.832	1147.25
499.049	1171.25
499.267	1250.25
499.484	1332.25
499.701	1427.25
499.918	1479.25
500.135	1635.25
500.352	1778.25
500.569	1815.25
500.786	1823.25
501.003	1720.25
501.22	1628.25
501.437	1539.25
501.654	1426.25
