Data from 1963.PennyLincolnUp.Lamp.En5.5.200Scan.071719.P1._HRD10591_13-58-28-064.txt Node
Date: Thu Jul 18 13:58:28 EDT 2019
User: cochatt
Spectrometer: HR+D1059
Trigger mode: 1
Integration Time (sec): 1.000000E-1
Scans to average: 1
Electric dark correction enabled: true
Nonlinearity correction enabled: false
Boxcar width: 0
XAxis mode: Wavelengths
Number of Pixels in Spectrum: 2048
>>>>>Begin Spectral Data<<<<<
223.165	-5.94
223.4	-5.94
223.635	-5.94
223.869	-17.94
224.104	-14.94
224.338	-17.94
224.573	1.06
224.808	-10.94
225.042	8.06
225.277	-2.94
225.511	-18.94
225.746	-2.94
225.98	3.06
226.215	11.06
226.449	15.06
226.683	15.06
226.918	6.06
227.152	33.06
227.387	39.06
227.621	28.06
227.856	43.06
228.09	45.06
228.324	37.06
228.559	49.06
228.793	62.06
229.027	94.06
229.262	98.06
229.496	109.06
229.73	120.06
229.964	141.06
230.199	133.06
230.433	109.06
230.667	110.06
230.901	99.06
231.136	111.06
231.37	123.06
231.604	120.06
231.838	125.06
232.072	118.06
232.306	116.06
232.541	118.06
232.775	127.06
233.009	115.06
233.243	124.06
233.477	126.06
233.711	111.06
233.945	96.06
234.179	115.06
234.413	132.06
234.647	125.06
234.881	133.06
235.115	119.06
235.349	126.06
235.583	112.06
235.817	122.06
236.051	122.06
236.285	125.06
236.519	124.06
236.753	133.06
236.987	163.06
237.221	152.06
237.455	205.06
237.689	174.06
237.922	147.06
238.156	143.06
238.39	133.06
238.624	135.06
238.858	139.06
239.091	135.06
239.325	132.06
239.559	130.06
239.793	149.06
240.027	137.06
240.26	153.06
240.494	163.06
240.728	132.06
240.961	158.06
241.195	155.06
241.429	139.06
241.662	161.06
241.896	137.06
242.13	165.06
242.363	169.06
242.597	147.06
242.83	149.06
243.064	147.06
243.298	165.06
243.531	161.06
243.765	150.06
243.998	158.06
244.232	156.06
244.465	143.06
244.699	156.06
244.932	170.06
245.166	171.06
245.399	167.06
245.633	161.06
245.866	149.06
246.099	170.06
246.333	166.06
246.566	154.06
246.8	157.06
247.033	179.06
247.266	189.06
247.5	170.06
247.733	175.06
247.966	178.06
248.2	184.06
248.433	184.06
248.666	168.06
248.899	198.06
249.133	198.06
249.366	215.06
249.599	211.06
249.832	189.06
250.066	209.06
250.299	185.06
250.532	196.06
250.765	200.06
250.998	232.06
251.231	207.06
251.465	221.06
251.698	213.06
251.931	223.06
252.164	228.06
252.397	221.06
252.63	215.06
252.863	219.06
253.096	225.06
253.329	237.06
253.562	228.06
253.795	207.06
254.028	226.06
254.261	231.06
254.494	225.06
254.727	239.06
254.96	262.06
255.193	255.06
255.426	277.06
255.659	226.06
255.892	236.06
256.124	239.06
256.357	254.06
256.59	241.06
256.823	230.06
257.056	238.06
257.289	243.06
257.521	241.06
257.754	237.06
257.987	216.06
258.22	233.06
258.452	211.06
258.685	237.06
258.918	238.06
259.151	223.06
259.383	246.06
259.616	242.06
259.849	237.06
260.081	249.06
260.314	262.06
260.547	251.06
260.779	242.06
261.012	243.06
261.244	247.06
261.477	243.06
261.71	234.06
261.942	252.06
262.175	257.06
262.407	235.06
262.64	238.06
262.872	230.06
263.105	245.06
263.337	237.06
263.57	239.06
263.802	242.06
264.035	233.06
264.267	230.06
264.499	237.06
264.732	226.06
264.964	254.06
265.197	231.06
265.429	261.06
265.661	257.06
265.894	254.06
266.126	257.06
266.358	253.06
266.591	250.06
266.823	253.06
267.055	242.06
267.287	238.06
267.52	280.06
267.752	251.06
267.984	243.06
268.216	263.06
268.448	269.06
268.681	263.06
268.913	283.06
269.145	265.06
269.377	291.06
269.609	303.06
269.841	294.06
270.073	287.06
270.306	294.06
270.538	320.06
270.77	306.06
271.002	307.06
271.234	297.06
271.466	304.06
271.698	307.06
271.93	316.06
272.162	327.06
272.394	313.06
272.626	305.06
272.858	312.06
273.09	311.06
273.322	307.06
273.553	305.06
273.785	299.06
274.017	291.06
274.249	291.06
274.481	293.06
274.713	291.06
274.945	280.06
275.176	311.06
275.408	301.06
275.64	294.06
275.872	299.06
276.104	281.06
276.335	296.06
276.567	297.06
276.799	319.06
277.031	338.06
277.262	344.06
277.494	353.06
277.726	348.06
277.957	316.06
278.189	319.06
278.421	311.06
278.652	330.06
278.884	331.06
279.115	303.06
279.347	297.06
279.579	338.06
279.81	328.06
280.042	312.06
280.273	324.06
280.505	327.06
280.736	308.06
280.968	325.06
281.199	315.06
281.431	312.06
281.662	317.06
281.894	318.06
282.125	342.06
282.356	323.06
282.588	341.06
282.819	355.06
283.051	332.06
283.282	307.06
283.513	333.06
283.745	341.06
283.976	323.06
284.207	324.06
284.439	337.06
284.67	329.06
284.901	346.06
285.132	329.06
285.364	332.06
285.595	348.06
285.826	341.06
286.057	332.06
286.288	334.06
286.52	314.06
286.751	332.06
286.982	363.06
287.213	325.06
287.444	352.06
287.675	349.06
287.906	356.06
288.138	342.06
288.369	358.06
288.6	372.06
288.831	355.06
289.062	363.06
289.293	369.06
289.524	348.06
289.755	355.06
289.986	343.06
290.217	350.06
290.448	359.06
290.679	366.06
290.91	364.06
291.141	352.06
291.371	365.06
291.602	360.06
291.833	359.06
292.064	359.06
292.295	362.06
292.526	363.06
292.757	365.06
292.987	358.06
293.218	344.06
293.449	348.06
293.68	385.06
293.91	351.06
294.141	363.06
294.372	362.06
294.603	361.06
294.833	371.06
295.064	364.06
295.295	371.06
295.525	371.06
295.756	369.06
295.987	365.06
296.217	397.06
296.448	383.06
296.679	371.06
296.909	370.06
297.14	382.06
297.37	392.06
297.601	381.06
297.831	366.06
298.062	381.06
298.292	382.06
298.523	381.06
298.753	370.06
298.984	384.06
299.214	384.06
299.445	386.06
299.675	405.06
299.905	400.06
300.136	391.06
300.366	400.06
300.597	405.06
300.827	395.06
301.057	409.06
301.288	411.06
301.518	428.06
301.748	406.06
301.979	422.06
302.209	412.06
302.439	452.06
302.669	415.06
302.9	414.06
303.13	394.06
303.36	412.06
303.59	444.06
303.82	392.06
304.051	420.06
304.281	416.06
304.511	420.06
304.741	414.06
304.971	392.06
305.201	407.06
305.431	401.06
305.661	414.06
305.891	397.06
306.121	412.06
306.352	409.06
306.582	421.06
306.812	409.06
307.042	425.06
307.272	376.06
307.502	409.06
307.731	412.06
307.961	389.06
308.191	430.06
308.421	406.06
308.651	412.06
308.881	411.06
309.111	405.06
309.341	414.06
309.571	418.06
309.8	425.06
310.03	427.06
310.26	434.06
310.49	428.06
310.72	444.06
310.949	454.06
311.179	436.06
311.409	456.06
311.639	425.06
311.868	452.06
312.098	430.06
312.328	453.06
312.557	446.06
312.787	429.06
313.017	455.06
313.246	464.06
313.476	453.06
313.706	461.06
313.935	462.06
314.165	459.06
314.394	464.06
314.624	460.06
314.853	454.06
315.083	482.06
315.312	470.06
315.542	438.06
315.771	444.06
316.001	470.06
316.23	447.06
316.46	446.06
316.689	448.06
316.919	449.06
317.148	458.06
317.377	453.06
317.607	462.06
317.836	422.06
318.065	450.06
318.295	463.06
318.524	427.06
318.753	443.06
318.983	417.06
319.212	458.06
319.441	463.06
319.67	477.06
319.9	458.06
320.129	444.06
320.358	453.06
320.587	451.06
320.816	455.06
321.046	470.06
321.275	490.06
321.504	475.06
321.733	472.06
321.962	469.06
322.191	468.06
322.42	476.06
322.649	481.06
322.878	491.06
323.108	495.06
323.337	475.06
323.566	530.06
323.795	527.06
324.024	565.06
324.253	609.06
324.482	778.06
324.71	1083.06
324.939	1563.06
325.168	1372.06
325.397	777.06
325.626	607.06
325.855	541.06
326.084	537.06
326.313	525.06
326.542	556.06
326.77	574.06
326.999	614.06
327.228	750.06
327.457	1039.06
327.686	1260.06
327.914	892.06
328.143	657.06
328.372	587.06
328.6	575.06
328.829	565.06
329.058	580.06
329.287	571.06
329.515	579.06
329.744	554.06
329.972	562.06
330.201	586.06
330.43	603.06
330.658	599.06
330.887	605.06
331.115	631.06
331.344	573.06
331.572	546.06
331.801	557.06
332.03	583.06
332.258	575.06
332.486	568.06
332.715	561.06
332.943	582.06
333.172	593.06
333.4	601.06
333.629	594.06
333.857	612.06
334.085	601.06
334.314	645.06
334.542	640.06
334.771	655.06
334.999	603.06
335.227	606.06
335.455	588.06
335.684	573.06
335.912	592.06
336.14	570.06
336.369	563.06
336.597	597.06
336.825	572.06
337.053	563.06
337.281	570.06
337.51	571.06
337.738	559.06
337.966	538.06
338.194	546.06
338.422	526.06
338.65	530.06
338.878	549.06
339.106	523.06
339.334	534.06
339.562	536.06
339.79	513.06
340.018	529.06
340.246	518.06
340.474	545.06
340.702	526.06
340.93	519.06
341.158	521.06
341.386	527.06
341.614	517.06
341.842	483.06
342.07	495.06
342.298	524.06
342.526	525.06
342.754	531.06
342.981	512.06
343.209	536.06
343.437	522.06
343.665	565.06
343.893	569.06
344.12	574.06
344.348	565.06
344.576	530.06
344.804	559.06
345.031	538.06
345.259	547.06
345.487	511.06
345.714	515.06
345.942	501.06
346.17	499.06
346.397	473.06
346.625	504.06
346.853	515.06
347.08	486.06
347.308	490.06
347.535	491.06
347.763	476.06
347.99	492.06
348.218	516.06
348.445	493.06
348.673	502.06
348.9	484.06
349.128	506.06
349.355	503.06
349.583	485.06
349.81	521.06
350.037	509.06
350.265	493.06
350.492	509.06
350.72	506.06
350.947	494.06
351.174	488.06
351.402	493.06
351.629	503.06
351.856	491.06
352.083	516.06
352.311	507.06
352.538	492.06
352.765	501.06
352.992	483.06
353.22	495.06
353.447	478.06
353.674	506.06
353.901	481.06
354.128	485.06
354.355	453.06
354.583	499.06
354.81	490.06
355.037	506.06
355.264	487.06
355.491	483.06
355.718	479.06
355.945	500.06
356.172	494.06
356.399	470.06
356.626	487.06
356.853	480.06
357.08	466.06
357.307	478.06
357.534	478.06
357.761	502.06
357.988	479.06
358.215	479.06
358.441	506.06
358.668	484.06
358.895	477.06
359.122	496.06
359.349	500.06
359.576	508.06
359.802	489.06
360.029	508.06
360.256	515.06
360.483	526.06
360.709	505.06
360.936	478.06
361.163	504.06
361.39	489.06
361.616	491.06
361.843	484.06
362.07	490.06
362.296	500.06
362.523	488.06
362.749	495.06
362.976	501.06
363.203	462.06
363.429	485.06
363.656	508.06
363.882	501.06
364.109	481.06
364.335	484.06
364.562	480.06
364.788	503.06
365.015	490.06
365.241	489.06
365.468	488.06
365.694	517.06
365.92	476.06
366.147	489.06
366.373	519.06
366.599	485.06
366.826	482.06
367.052	473.06
367.278	483.06
367.505	500.06
367.731	486.06
367.957	488.06
368.184	472.06
368.41	489.06
368.636	485.06
368.862	511.06
369.089	513.06
369.315	499.06
369.541	499.06
369.767	514.06
369.993	506.06
370.219	499.06
370.445	501.06
370.672	511.06
370.898	490.06
371.124	518.06
371.35	509.06
371.576	509.06
371.802	521.06
372.028	520.06
372.254	522.06
372.48	524.06
372.706	510.06
372.932	522.06
373.158	548.06
373.384	515.06
373.61	519.06
373.835	509.06
374.061	509.06
374.287	521.06
374.513	529.06
374.739	543.06
374.965	532.06
375.191	525.06
375.416	513.06
375.642	524.06
375.868	524.06
376.094	523.06
376.319	533.06
376.545	519.06
376.771	512.06
376.997	511.06
377.222	513.06
377.448	508.06
377.674	508.06
377.899	514.06
378.125	502.06
378.35	501.06
378.576	522.06
378.802	505.06
379.027	500.06
379.253	520.06
379.478	496.06
379.704	527.06
379.929	524.06
380.155	509.06
380.38	507.06
380.606	511.06
380.831	502.06
381.057	514.06
381.282	502.06
381.507	513.06
381.733	533.06
381.958	499.06
382.184	545.06
382.409	533.06
382.634	533.06
382.86	536.06
383.085	532.06
383.31	563.06
383.535	575.06
383.761	571.06
383.986	562.06
384.211	551.06
384.436	559.06
384.662	573.06
384.887	583.06
385.112	607.06
385.337	596.06
385.562	603.06
385.787	582.06
386.013	600.06
386.238	595.06
386.463	593.06
386.688	599.06
386.913	594.06
387.138	599.06
387.363	594.06
387.588	581.06
387.813	588.06
388.038	603.06
388.263	603.06
388.488	592.06
388.713	555.06
388.938	579.06
389.163	590.06
389.387	605.06
389.612	571.06
389.837	590.06
390.062	577.06
390.287	577.06
390.512	589.06
390.736	543.06
390.961	579.06
391.186	610.06
391.411	617.06
391.636	627.06
391.86	638.06
392.085	622.06
392.31	643.06
392.534	635.06
392.759	633.06
392.984	607.06
393.208	609.06
393.433	616.06
393.658	633.06
393.882	604.06
394.107	597.06
394.331	613.06
394.556	585.06
394.78	581.06
395.005	644.06
395.229	618.06
395.454	634.06
395.678	623.06
395.903	638.06
396.127	638.06
396.352	665.06
396.576	626.06
396.801	614.06
397.025	637.06
397.249	634.06
397.474	633.06
397.698	639.06
397.922	663.06
398.147	670.06
398.371	691.06
398.595	689.06
398.82	692.06
399.044	765.06
399.268	795.06
399.492	857.06
399.717	920.06
399.941	978.06
400.165	941.06
400.389	875.06
400.613	810.06
400.837	774.06
401.062	753.06
401.286	728.06
401.51	702.06
401.734	705.06
401.958	701.06
402.182	714.06
402.406	719.06
402.63	729.06
402.854	776.06
403.078	755.06
403.302	749.06
403.526	768.06
403.75	756.06
403.974	776.06
404.198	766.06
404.422	781.06
404.645	768.06
404.869	763.06
405.093	798.06
405.317	832.06
405.541	870.06
405.765	808.06
405.988	759.06
406.212	771.06
406.436	813.06
406.66	807.06
406.883	789.06
407.107	832.06
407.331	864.06
407.555	946.06
407.778	921.06
408.002	864.06
408.226	824.06
408.449	800.06
408.673	801.06
408.896	811.06
409.12	836.06
409.344	812.06
409.567	779.06
409.791	786.06
410.014	760.06
410.238	753.06
410.461	758.06
410.685	746.06
410.908	763.06
411.132	791.06
411.355	779.06
411.578	772.06
411.802	742.06
412.025	733.06
412.249	745.06
412.472	777.06
412.695	782.06
412.919	779.06
413.142	736.06
413.365	709.06
413.589	708.06
413.812	702.06
414.035	706.06
414.258	699.06
414.482	724.06
414.705	715.06
414.928	718.06
415.151	717.06
415.374	697.06
415.597	682.06
415.821	685.06
416.044	700.06
416.267	715.06
416.49	686.06
416.713	649.06
416.936	671.06
417.159	693.06
417.382	713.06
417.605	674.06
417.828	708.06
418.051	703.06
418.274	693.06
418.497	688.06
418.72	722.06
418.943	691.06
419.166	731.06
419.389	787.06
419.611	787.06
419.834	752.06
420.057	729.06
420.28	737.06
420.503	717.06
420.726	737.06
420.948	717.06
421.171	757.06
421.394	770.06
421.617	741.06
421.839	705.06
422.062	723.06
422.285	707.06
422.507	757.06
422.73	791.06
422.953	804.06
423.175	739.06
423.398	765.06
423.621	735.06
423.843	763.06
424.066	743.06
424.288	747.06
424.511	755.06
424.733	801.06
424.956	854.06
425.178	829.06
425.401	799.06
425.623	826.06
425.846	745.06
426.068	732.06
426.291	728.06
426.513	730.06
426.735	715.06
426.958	759.06
427.18	779.06
427.402	899.06
427.625	969.06
427.847	844.06
428.069	770.06
428.292	726.06
428.514	700.06
428.736	664.06
428.958	665.06
429.181	662.06
429.403	625.06
429.625	643.06
429.847	708.06
430.069	711.06
430.292	710.06
430.514	673.06
430.736	637.06
430.958	655.06
431.18	643.06
431.402	653.06
431.624	616.06
431.846	649.06
432.068	665.06
432.29	648.06
432.512	649.06
432.734	653.06
432.956	664.06
433.178	646.06
433.4	655.06
433.622	653.06
433.844	654.06
434.066	637.06
434.287	666.06
434.509	672.06
434.731	676.06
434.953	685.06
435.175	711.06
435.397	727.06
435.618	727.06
435.84	737.06
436.062	787.06
436.284	821.06
436.505	732.06
436.727	682.06
436.949	667.06
437.17	659.06
437.392	645.06
437.614	654.06
437.835	677.06
438.057	734.06
438.278	789.06
438.5	785.06
438.721	869.06
438.943	856.06
439.165	729.06
439.386	696.06
439.608	710.06
439.829	678.06
440.05	701.06
440.272	750.06
440.493	729.06
440.715	707.06
440.936	659.06
441.158	661.06
441.379	645.06
441.6	723.06
441.822	724.06
442.043	747.06
442.264	806.06
442.486	824.06
442.707	769.06
442.928	746.06
443.149	741.06
443.371	733.06
443.592	781.06
443.813	849.06
444.034	893.06
444.255	832.06
444.476	779.06
444.698	798.06
444.919	816.06
445.14	885.06
445.361	830.06
445.582	771.06
445.803	781.06
446.024	834.06
446.245	841.06
446.466	787.06
446.687	731.06
446.908	671.06
447.129	656.06
447.35	633.06
447.571	666.06
447.792	637.06
448.013	628.06
448.234	650.06
448.455	682.06
448.675	735.06
448.896	854.06
449.117	734.06
449.338	715.06
449.559	811.06
449.779	867.06
450	739.06
450.221	678.06
450.442	631.06
450.662	639.06
450.883	629.06
451.104	640.06
451.324	613.06
451.545	597.06
451.766	600.06
451.986	582.06
452.207	588.06
452.428	592.06
452.648	604.06
452.869	596.06
453.089	579.06
453.31	578.06
453.53	592.06
453.751	603.06
453.971	585.06
454.192	599.06
454.412	582.06
454.633	568.06
454.853	592.06
455.073	594.06
455.294	597.06
455.514	635.06
455.734	623.06
455.955	566.06
456.175	579.06
456.395	551.06
456.616	562.06
456.836	561.06
457.056	532.06
457.276	542.06
457.497	552.06
457.717	555.06
457.937	560.06
458.157	580.06
458.377	578.06
458.598	603.06
458.818	637.06
459.038	693.06
459.258	736.06
459.478	669.06
459.698	638.06
459.918	648.06
460.138	698.06
460.358	713.06
460.578	711.06
460.798	708.06
461.018	712.06
461.238	717.06
461.458	693.06
461.678	702.06
461.898	700.06
462.118	736.06
462.338	705.06
462.558	746.06
462.777	765.06
462.997	846.06
463.217	851.06
463.437	881.06
463.657	835.06
463.876	795.06
464.096	789.06
464.316	818.06
464.536	806.06
464.755	796.06
464.975	761.06
465.195	758.06
465.414	804.06
465.634	721.06
465.854	705.06
466.073	657.06
466.293	649.06
466.512	637.06
466.732	618.06
466.951	634.06
467.171	617.06
467.391	631.06
467.61	642.06
467.829	638.06
468.049	613.06
468.268	611.06
468.488	609.06
468.707	592.06
468.927	582.06
469.146	596.06
469.365	611.06
469.585	630.06
469.804	621.06
470.023	637.06
470.243	636.06
470.462	648.06
470.681	652.06
470.901	654.06
471.12	677.06
471.339	629.06
471.558	622.06
471.777	625.06
471.997	608.06
472.216	627.06
472.435	641.06
472.654	622.06
472.873	619.06
473.092	591.06
473.311	606.06
473.53	581.06
473.749	583.06
473.968	628.06
474.187	691.06
474.406	706.06
474.625	643.06
474.844	617.06
475.063	591.06
475.282	618.06
475.501	612.06
475.72	607.06
475.939	610.06
476.158	609.06
476.377	621.06
476.596	636.06
476.814	645.06
477.033	634.06
477.252	632.06
477.471	638.06
477.69	679.06
477.908	686.06
478.127	681.06
478.346	702.06
478.564	712.06
478.783	744.06
479.002	737.06
479.22	745.06
479.439	750.06
479.658	742.06
479.876	756.06
480.095	750.06
480.313	819.06
480.532	799.06
480.751	797.06
480.969	773.06
481.188	829.06
481.406	841.06
481.624	784.06
481.843	747.06
482.061	740.06
482.28	713.06
482.498	709.06
482.717	709.06
482.935	709.06
483.153	707.06
483.372	724.06
483.59	737.06
483.808	702.06
484.027	721.06
484.245	715.06
484.463	709.06
484.681	730.06
484.9	716.06
485.118	730.06
485.336	749.06
485.554	744.06
485.772	751.06
485.99	733.06
486.209	764.06
486.427	762.06
486.645	763.06
486.863	774.06
487.081	754.06
487.299	755.06
487.517	740.06
487.735	765.06
487.953	753.06
488.171	758.06
488.389	789.06
488.607	767.06
488.825	746.06
489.043	761.06
489.261	772.06
489.479	773.06
489.696	786.06
489.914	781.06
490.132	771.06
490.35	769.06
490.568	790.06
490.786	795.06
491.003	815.06
491.221	821.06
491.439	796.06
491.657	791.06
491.874	856.06
492.092	827.06
492.31	850.06
492.527	831.06
492.745	841.06
492.963	856.06
493.18	869.06
493.398	851.06
493.615	860.06
493.833	842.06
494.05	909.06
494.268	891.06
494.485	890.06
494.703	881.06
494.92	872.06
495.138	861.06
495.355	869.06
495.573	875.06
495.79	862.06
496.008	859.06
496.225	883.06
496.442	872.06
496.66	889.06
496.877	917.06
497.094	887.06
497.312	942.06
497.529	907.06
497.746	951.06
497.963	973.06
498.181	1025.06
498.398	1063.06
498.615	1063.06
498.832	1131.06
499.049	1203.06
499.267	1220.06
499.484	1305.06
499.701	1385.06
499.918	1491.06
500.135	1599.06
500.352	1773.06
500.569	1762.06
500.786	1817.06
501.003	1715.06
501.22	1652.06
501.437	1474.06
501.654	1367.06
501.871	1325.06
