Data from 1963.PennyLincolnUp.Lamp.En5.5.200Scan.071719.P1._HRD10591_13-57-50-062.txt Node
Date: Thu Jul 18 13:57:50 EDT 2019
User: cochatt
Spectrometer: HR+D1059
Trigger mode: 1
Integration Time (sec): 1.000000E-1
Scans to average: 1
Electric dark correction enabled: true
Nonlinearity correction enabled: false
Boxcar width: 0
XAxis mode: Wavelengths
Number of Pixels in Spectrum: 2048
>>>>>Begin Spectral Data<<<<<
223.165	-27.19
223.4	-27.19
223.635	-27.19
223.869	-21.19
224.104	-17.19
224.338	-17.19
224.573	-13.19
224.808	-2.19
225.042	-5.19
225.277	-10.19
225.511	-1.19
225.746	-0.19
225.98	5.81
226.215	4.81
226.449	20.81
226.683	30.81
226.918	20.81
227.152	31.81
227.387	31.81
227.621	42.81
227.856	55.81
228.09	48.81
228.324	39.81
228.559	59.81
228.793	63.81
229.027	81.81
229.262	107.81
229.496	109.81
229.73	123.81
229.964	143.81
230.199	127.81
230.433	126.81
230.667	101.81
230.901	100.81
231.136	115.81
231.37	109.81
231.604	134.81
231.838	114.81
232.072	127.81
232.306	107.81
232.541	111.81
232.775	143.81
233.009	110.81
233.243	116.81
233.477	124.81
233.711	131.81
233.945	123.81
234.179	125.81
234.413	132.81
234.647	105.81
234.881	121.81
235.115	136.81
235.349	124.81
235.583	123.81
235.817	124.81
236.051	139.81
236.285	133.81
236.519	117.81
236.753	143.81
236.987	141.81
237.221	150.81
237.455	185.81
237.689	154.81
237.922	148.81
238.156	133.81
238.39	134.81
238.624	133.81
238.858	132.81
239.091	117.81
239.325	125.81
239.559	142.81
239.793	142.81
240.027	143.81
240.26	133.81
240.494	149.81
240.728	133.81
240.961	159.81
241.195	153.81
241.429	148.81
241.662	147.81
241.896	131.81
242.13	170.81
242.363	145.81
242.597	143.81
242.83	150.81
243.064	158.81
243.298	158.81
243.531	163.81
243.765	150.81
243.998	134.81
244.232	149.81
244.465	161.81
244.699	156.81
244.932	157.81
245.166	154.81
245.399	172.81
245.633	144.81
245.866	149.81
246.099	156.81
246.333	159.81
246.566	166.81
246.8	155.81
247.033	167.81
247.266	154.81
247.5	160.81
247.733	188.81
247.966	188.81
248.2	178.81
248.433	182.81
248.666	179.81
248.899	186.81
249.133	192.81
249.366	203.81
249.599	193.81
249.832	197.81
250.066	207.81
250.299	181.81
250.532	183.81
250.765	212.81
250.998	208.81
251.231	214.81
251.465	199.81
251.698	202.81
251.931	206.81
252.164	206.81
252.397	211.81
252.63	216.81
252.863	215.81
253.096	207.81
253.329	217.81
253.562	224.81
253.795	220.81
254.028	222.81
254.261	215.81
254.494	229.81
254.727	256.81
254.96	253.81
255.193	255.81
255.426	247.81
255.659	240.81
255.892	224.81
256.124	243.81
256.357	228.81
256.59	233.81
256.823	224.81
257.056	217.81
257.289	221.81
257.521	225.81
257.754	221.81
257.987	213.81
258.22	227.81
258.452	219.81
258.685	223.81
258.918	218.81
259.151	218.81
259.383	227.81
259.616	233.81
259.849	235.81
260.081	242.81
260.314	234.81
260.547	269.81
260.779	254.81
261.012	248.81
261.244	240.81
261.477	246.81
261.71	222.81
261.942	226.81
262.175	236.81
262.407	226.81
262.64	214.81
262.872	221.81
263.105	227.81
263.337	238.81
263.57	243.81
263.802	243.81
264.035	247.81
264.267	231.81
264.499	250.81
264.732	226.81
264.964	227.81
265.197	236.81
265.429	247.81
265.661	239.81
265.894	232.81
266.126	244.81
266.358	233.81
266.591	245.81
266.823	248.81
267.055	234.81
267.287	262.81
267.52	238.81
267.752	224.81
267.984	261.81
268.216	248.81
268.448	252.81
268.681	267.81
268.913	259.81
269.145	282.81
269.377	279.81
269.609	283.81
269.841	273.81
270.073	291.81
270.306	293.81
270.538	329.81
270.77	292.81
271.002	290.81
271.234	299.81
271.466	282.81
271.698	317.81
271.93	322.81
272.162	311.81
272.394	305.81
272.626	310.81
272.858	287.81
273.09	293.81
273.322	300.81
273.553	282.81
273.785	295.81
274.017	287.81
274.249	294.81
274.481	296.81
274.713	293.81
274.945	286.81
275.176	293.81
275.408	280.81
275.64	304.81
275.872	295.81
276.104	292.81
276.335	291.81
276.567	303.81
276.799	308.81
277.031	294.81
277.262	314.81
277.494	328.81
277.726	318.81
277.957	321.81
278.189	336.81
278.421	298.81
278.652	301.81
278.884	308.81
279.115	290.81
279.347	327.81
279.579	316.81
279.81	301.81
280.042	306.81
280.273	299.81
280.505	314.81
280.736	309.81
280.968	319.81
281.199	307.81
281.431	316.81
281.662	300.81
281.894	324.81
282.125	315.81
282.356	313.81
282.588	334.81
282.819	320.81
283.051	324.81
283.282	308.81
283.513	304.81
283.745	331.81
283.976	320.81
284.207	327.81
284.439	324.81
284.67	354.81
284.901	314.81
285.132	331.81
285.364	324.81
285.595	327.81
285.826	328.81
286.057	331.81
286.288	328.81
286.52	313.81
286.751	330.81
286.982	329.81
287.213	342.81
287.444	321.81
287.675	332.81
287.906	322.81
288.138	347.81
288.369	335.81
288.6	356.81
288.831	335.81
289.062	333.81
289.293	338.81
289.524	346.81
289.755	354.81
289.986	348.81
290.217	356.81
290.448	343.81
290.679	345.81
290.91	358.81
291.141	336.81
291.371	348.81
291.602	350.81
291.833	341.81
292.064	346.81
292.295	344.81
292.526	353.81
292.757	345.81
292.987	339.81
293.218	331.81
293.449	343.81
293.68	356.81
293.91	363.81
294.141	345.81
294.372	329.81
294.603	348.81
294.833	354.81
295.064	352.81
295.295	352.81
295.525	359.81
295.756	365.81
295.987	364.81
296.217	364.81
296.448	375.81
296.679	374.81
296.909	369.81
297.14	363.81
297.37	362.81
297.601	384.81
297.831	358.81
298.062	363.81
298.292	366.81
298.523	387.81
298.753	365.81
298.984	376.81
299.214	367.81
299.445	375.81
299.675	384.81
299.905	376.81
300.136	375.81
300.366	381.81
300.597	376.81
300.827	393.81
301.057	416.81
301.288	383.81
301.518	401.81
301.748	384.81
301.979	401.81
302.209	401.81
302.439	400.81
302.669	398.81
302.9	404.81
303.13	399.81
303.36	401.81
303.59	392.81
303.82	406.81
304.051	418.81
304.281	384.81
304.511	390.81
304.741	370.81
304.971	392.81
305.201	395.81
305.431	398.81
305.661	396.81
305.891	397.81
306.121	389.81
306.352	401.81
306.582	389.81
306.812	407.81
307.042	389.81
307.272	392.81
307.502	386.81
307.731	401.81
307.961	391.81
308.191	413.81
308.421	400.81
308.651	411.81
308.881	378.81
309.111	397.81
309.341	409.81
309.571	415.81
309.8	428.81
310.03	443.81
310.26	422.81
310.49	427.81
310.72	396.81
310.949	429.81
311.179	418.81
311.409	422.81
311.639	426.81
311.868	389.81
312.098	440.81
312.328	413.81
312.557	437.81
312.787	437.81
313.017	435.81
313.246	450.81
313.476	407.81
313.706	442.81
313.935	437.81
314.165	464.81
314.394	459.81
314.624	457.81
314.853	410.81
315.083	443.81
315.312	459.81
315.542	418.81
315.771	441.81
316.001	436.81
316.23	405.81
316.46	420.81
316.689	429.81
316.919	436.81
317.148	426.81
317.377	456.81
317.607	448.81
317.836	451.81
318.065	451.81
318.295	441.81
318.524	414.81
318.753	435.81
318.983	418.81
319.212	440.81
319.441	443.81
319.67	445.81
319.9	431.81
320.129	431.81
320.358	436.81
320.587	442.81
320.816	443.81
321.046	444.81
321.275	436.81
321.504	439.81
321.733	467.81
321.962	433.81
322.191	453.81
322.42	472.81
322.649	455.81
322.878	480.81
323.108	466.81
323.337	486.81
323.566	495.81
323.795	488.81
324.024	528.81
324.253	579.81
324.482	711.81
324.71	996.81
324.939	1410.81
325.168	1226.81
325.397	739.81
325.626	557.81
325.855	538.81
326.084	509.81
326.313	516.81
326.542	528.81
326.77	529.81
326.999	578.81
327.228	699.81
327.457	948.81
327.686	1132.81
327.914	822.81
328.143	591.81
328.372	573.81
328.6	566.81
328.829	527.81
329.058	545.81
329.287	535.81
329.515	519.81
329.744	506.81
329.972	548.81
330.201	519.81
330.43	564.81
330.658	594.81
330.887	577.81
331.115	587.81
331.344	542.81
331.572	539.81
331.801	524.81
332.03	535.81
332.258	544.81
332.486	544.81
332.715	561.81
332.943	547.81
333.172	548.81
333.4	602.81
333.629	597.81
333.857	628.81
334.085	593.81
334.314	600.81
334.542	635.81
334.771	638.81
334.999	597.81
335.227	580.81
335.455	587.81
335.684	557.81
335.912	552.81
336.14	560.81
336.369	559.81
336.597	550.81
336.825	538.81
337.053	531.81
337.281	553.81
337.51	530.81
337.738	543.81
337.966	525.81
338.194	519.81
338.422	522.81
338.65	519.81
338.878	522.81
339.106	512.81
339.334	507.81
339.562	518.81
339.79	508.81
340.018	494.81
340.246	477.81
340.474	501.81
340.702	500.81
340.93	526.81
341.158	512.81
341.386	511.81
341.614	527.81
341.842	504.81
342.07	483.81
342.298	504.81
342.526	491.81
342.754	503.81
342.981	487.81
343.209	509.81
343.437	530.81
343.665	542.81
343.893	566.81
344.12	558.81
344.348	561.81
344.576	560.81
344.804	527.81
345.031	508.81
345.259	523.81
345.487	518.81
345.714	490.81
345.942	467.81
346.17	502.81
346.397	466.81
346.625	484.81
346.853	468.81
347.08	478.81
347.308	477.81
347.535	504.81
347.763	485.81
347.99	463.81
348.218	494.81
348.445	491.81
348.673	479.81
348.9	490.81
349.128	483.81
349.355	457.81
349.583	473.81
349.81	459.81
350.037	493.81
350.265	461.81
350.492	475.81
350.72	487.81
350.947	485.81
351.174	468.81
351.402	469.81
351.629	472.81
351.856	499.81
352.083	484.81
352.311	494.81
352.538	482.81
352.765	479.81
352.992	474.81
353.22	490.81
353.447	474.81
353.674	460.81
353.901	463.81
354.128	473.81
354.355	452.81
354.583	467.81
354.81	473.81
355.037	467.81
355.264	464.81
355.491	453.81
355.718	462.81
355.945	487.81
356.172	487.81
356.399	490.81
356.626	473.81
356.853	462.81
357.08	476.81
357.307	474.81
357.534	446.81
357.761	469.81
357.988	467.81
358.215	479.81
358.441	460.81
358.668	464.81
358.895	474.81
359.122	479.81
359.349	465.81
359.576	509.81
359.802	507.81
360.029	506.81
360.256	490.81
360.483	485.81
360.709	467.81
360.936	510.81
361.163	482.81
361.39	479.81
361.616	479.81
361.843	490.81
362.07	489.81
362.296	486.81
362.523	487.81
362.749	486.81
362.976	492.81
363.203	474.81
363.429	450.81
363.656	470.81
363.882	474.81
364.109	480.81
364.335	479.81
364.562	463.81
364.788	451.81
365.015	472.81
365.241	478.81
365.468	474.81
365.694	465.81
365.92	481.81
366.147	480.81
366.373	481.81
366.599	482.81
366.826	468.81
367.052	468.81
367.278	483.81
367.505	476.81
367.731	489.81
367.957	466.81
368.184	481.81
368.41	475.81
368.636	487.81
368.862	493.81
369.089	476.81
369.315	484.81
369.541	492.81
369.767	487.81
369.993	486.81
370.219	471.81
370.445	476.81
370.672	488.81
370.898	484.81
371.124	498.81
371.35	518.81
371.576	485.81
371.802	502.81
372.028	487.81
372.254	487.81
372.48	510.81
372.706	514.81
372.932	522.81
373.158	495.81
373.384	506.81
373.61	503.81
373.835	508.81
374.061	504.81
374.287	503.81
374.513	525.81
374.739	504.81
374.965	527.81
375.191	529.81
375.416	534.81
375.642	531.81
375.868	523.81
376.094	507.81
376.319	494.81
376.545	510.81
376.771	497.81
376.997	501.81
377.222	495.81
377.448	493.81
377.674	490.81
377.899	510.81
378.125	507.81
378.35	496.81
378.576	500.81
378.802	474.81
379.027	466.81
379.253	508.81
379.478	478.81
379.704	483.81
379.929	488.81
380.155	495.81
380.38	486.81
380.606	506.81
380.831	482.81
381.057	498.81
381.282	491.81
381.507	472.81
381.733	529.81
381.958	517.81
382.184	500.81
382.409	508.81
382.634	509.81
382.86	501.81
383.085	511.81
383.31	556.81
383.535	532.81
383.761	535.81
383.986	532.81
384.211	547.81
384.436	568.81
384.662	583.81
384.887	564.81
385.112	577.81
385.337	574.81
385.562	553.81
385.787	571.81
386.013	603.81
386.238	576.81
386.463	600.81
386.688	598.81
386.913	588.81
387.138	592.81
387.363	569.81
387.588	578.81
387.813	562.81
388.038	567.81
388.263	573.81
388.488	564.81
388.713	567.81
388.938	586.81
389.163	564.81
389.387	587.81
389.612	554.81
389.837	572.81
390.062	539.81
390.287	572.81
390.512	565.81
390.736	566.81
390.961	569.81
391.186	582.81
391.411	622.81
391.636	587.81
391.86	606.81
392.085	596.81
392.31	624.81
392.534	612.81
392.759	596.81
392.984	616.81
393.208	594.81
393.433	603.81
393.658	582.81
393.882	578.81
394.107	583.81
394.331	576.81
394.556	600.81
394.78	597.81
395.005	611.81
395.229	605.81
395.454	614.81
395.678	595.81
395.903	614.81
396.127	631.81
396.352	613.81
396.576	598.81
396.801	592.81
397.025	611.81
397.249	632.81
397.474	634.81
397.698	648.81
397.922	631.81
398.147	662.81
398.371	670.81
398.595	660.81
398.82	664.81
399.044	704.81
399.268	753.81
399.492	816.81
399.717	892.81
399.941	938.81
400.165	898.81
400.389	825.81
400.613	760.81
400.837	706.81
401.062	725.81
401.286	686.81
401.51	713.81
401.734	671.81
401.958	671.81
402.182	696.81
402.406	717.81
402.63	710.81
402.854	703.81
403.078	721.81
403.302	725.81
403.526	733.81
403.75	743.81
403.974	747.81
404.198	733.81
404.422	742.81
404.645	749.81
404.869	761.81
405.093	758.81
405.317	795.81
405.541	830.81
405.765	754.81
405.988	751.81
406.212	744.81
406.436	741.81
406.66	772.81
406.883	756.81
407.107	791.81
407.331	836.81
407.555	893.81
407.778	894.81
408.002	842.81
408.226	819.81
408.449	802.81
408.673	796.81
408.896	780.81
409.12	823.81
409.344	780.81
409.567	727.81
409.791	740.81
410.014	744.81
410.238	714.81
410.461	731.81
410.685	717.81
410.908	771.81
411.132	747.81
411.355	763.81
411.578	750.81
411.802	694.81
412.025	705.81
412.249	715.81
412.472	746.81
412.695	767.81
412.919	746.81
413.142	683.81
413.365	683.81
413.589	696.81
413.812	660.81
414.035	690.81
414.258	706.81
414.482	690.81
414.705	690.81
414.928	670.81
415.151	648.81
415.374	677.81
415.597	696.81
415.821	697.81
416.044	666.81
416.267	694.81
416.49	668.81
416.713	656.81
416.936	668.81
417.159	693.81
417.382	669.81
417.605	690.81
417.828	683.81
418.051	697.81
418.274	676.81
418.497	683.81
418.72	711.81
418.943	695.81
419.166	703.81
419.389	780.81
419.611	756.81
419.834	709.81
420.057	715.81
420.28	698.81
420.503	704.81
420.726	704.81
420.948	697.81
421.171	705.81
421.394	767.81
421.617	698.81
421.839	660.81
422.062	694.81
422.285	679.81
422.507	726.81
422.73	780.81
422.953	750.81
423.175	718.81
423.398	717.81
423.621	695.81
423.843	731.81
424.066	736.81
424.288	746.81
424.511	727.81
424.733	754.81
424.956	808.81
425.178	768.81
425.401	771.81
425.623	799.81
425.846	707.81
426.068	684.81
426.291	693.81
426.513	675.81
426.735	696.81
426.958	723.81
427.18	764.81
427.402	863.81
427.625	908.81
427.847	798.81
428.069	743.81
428.292	702.81
428.514	670.81
428.736	652.81
428.958	628.81
429.181	602.81
429.403	632.81
429.625	640.81
429.847	652.81
430.069	698.81
430.292	688.81
430.514	628.81
430.736	630.81
430.958	626.81
431.18	618.81
431.402	582.81
431.624	597.81
431.846	636.81
432.068	606.81
432.29	655.81
432.512	616.81
432.734	633.81
432.956	636.81
433.178	627.81
433.4	636.81
433.622	635.81
433.844	633.81
434.066	618.81
434.287	635.81
434.509	644.81
434.731	649.81
434.953	662.81
435.175	703.81
435.397	686.81
435.618	679.81
435.84	711.81
436.062	739.81
436.284	773.81
436.505	730.81
436.727	665.81
436.949	635.81
437.17	638.81
437.392	627.81
437.614	624.81
437.835	631.81
438.057	712.81
438.278	760.81
438.5	778.81
438.721	794.81
438.943	784.81
439.165	665.81
439.386	658.81
439.608	672.81
439.829	648.81
440.05	660.81
440.272	695.81
440.493	674.81
440.715	657.81
440.936	619.81
441.158	654.81
441.379	668.81
441.6	685.81
441.822	700.81
442.043	736.81
442.264	752.81
442.486	799.81
442.707	726.81
442.928	684.81
443.149	708.81
443.371	742.81
443.592	748.81
443.813	811.81
444.034	842.81
444.255	795.81
444.476	740.81
444.698	771.81
444.919	781.81
445.14	885.81
445.361	803.81
445.582	728.81
445.803	749.81
446.024	821.81
446.245	822.81
446.466	755.81
446.687	688.81
446.908	662.81
447.129	632.81
447.35	626.81
447.571	615.81
447.792	620.81
448.013	613.81
448.234	619.81
448.455	638.81
448.675	699.81
448.896	794.81
449.117	686.81
449.338	695.81
449.559	745.81
449.779	799.81
450	728.81
450.221	637.81
450.442	587.81
450.662	612.81
450.883	613.81
451.104	604.81
451.324	589.81
451.545	585.81
451.766	563.81
451.986	578.81
452.207	590.81
452.428	568.81
452.648	552.81
452.869	554.81
453.089	570.81
453.31	584.81
453.53	568.81
453.751	583.81
453.971	565.81
454.192	547.81
454.412	570.81
454.633	564.81
454.853	562.81
455.073	556.81
455.294	581.81
455.514	612.81
455.734	582.81
455.955	547.81
456.175	545.81
456.395	559.81
456.616	539.81
456.836	551.81
457.056	527.81
457.276	547.81
457.497	549.81
457.717	543.81
457.937	574.81
458.157	556.81
458.377	570.81
458.598	578.81
458.818	613.81
459.038	677.81
459.258	680.81
459.478	626.81
459.698	673.81
459.918	628.81
460.138	656.81
460.358	679.81
460.578	697.81
460.798	710.81
461.018	714.81
461.238	669.81
461.458	674.81
461.678	676.81
461.898	683.81
462.118	684.81
462.338	728.81
462.558	726.81
462.777	773.81
462.997	790.81
463.217	861.81
463.437	843.81
463.657	814.81
463.876	762.81
464.096	767.81
464.316	751.81
464.536	777.81
464.755	747.81
464.975	740.81
465.195	741.81
465.414	750.81
465.634	676.81
465.854	674.81
466.073	645.81
466.293	626.81
466.512	607.81
466.732	618.81
466.951	623.81
467.171	589.81
467.391	587.81
467.61	607.81
467.829	592.81
468.049	596.81
468.268	592.81
468.488	572.81
468.707	583.81
468.927	571.81
469.146	572.81
469.365	566.81
469.585	581.81
469.804	590.81
470.023	605.81
470.243	593.81
470.462	629.81
470.681	657.81
470.901	595.81
471.12	612.81
471.339	616.81
471.558	590.81
471.777	603.81
471.997	600.81
472.216	590.81
472.435	609.81
472.654	604.81
472.873	572.81
473.092	579.81
473.311	607.81
473.53	611.81
473.749	619.81
473.968	626.81
474.187	680.81
474.406	678.81
474.625	626.81
474.844	591.81
475.063	614.81
475.282	571.81
475.501	602.81
475.72	604.81
475.939	630.81
476.158	592.81
476.377	601.81
476.596	632.81
476.814	642.81
477.033	633.81
477.252	646.81
477.471	638.81
477.69	640.81
477.908	681.81
478.127	705.81
478.346	688.81
478.564	694.81
478.783	686.81
479.002	742.81
479.22	726.81
479.439	719.81
479.658	718.81
479.876	731.81
480.095	744.81
480.313	771.81
480.532	790.81
480.751	771.81
480.969	749.81
481.188	780.81
481.406	810.81
481.624	744.81
481.843	704.81
482.061	709.81
482.28	693.81
482.498	698.81
482.717	687.81
482.935	694.81
483.153	694.81
483.372	679.81
483.59	694.81
483.808	703.81
484.027	675.81
484.245	697.81
484.463	686.81
484.681	696.81
484.9	695.81
485.118	717.81
485.336	679.81
485.554	725.81
485.772	718.81
485.99	712.81
486.209	724.81
486.427	749.81
486.645	711.81
486.863	747.81
487.081	748.81
487.299	740.81
487.517	724.81
487.735	733.81
487.953	712.81
488.171	716.81
488.389	708.81
488.607	756.81
488.825	729.81
489.043	744.81
489.261	728.81
489.479	736.81
489.696	747.81
489.914	739.81
490.132	742.81
490.35	780.81
490.568	735.81
490.786	759.81
491.003	790.81
491.221	774.81
491.439	791.81
491.657	782.81
491.874	809.81
492.092	793.81
492.31	788.81
492.527	816.81
492.745	821.81
492.963	816.81
493.18	830.81
493.398	824.81
493.615	843.81
493.833	829.81
494.05	824.81
494.268	797.81
494.485	831.81
494.703	819.81
494.92	834.81
495.138	832.81
495.355	840.81
495.573	847.81
495.79	838.81
496.008	832.81
496.225	842.81
496.442	861.81
496.66	871.81
496.877	864.81
497.094	885.81
497.312	866.81
497.529	900.81
497.746	920.81
497.963	916.81
498.181	978.81
498.398	1003.81
498.615	1010.81
498.832	1076.81
499.049	1122.81
499.267	1195.81
499.484	1262.81
499.701	1343.81
499.918	1388.81
500.135	1576.81
500.352	1700.81
500.569	1716.81
500.786	1762.81
501.003	1653.81
501.22	1542.81
501.437	1445.81
501.654	1328.81
