Data from 1963.PennyLincolnUp.Lamp.En5.5.200Scan.071719.P1._HRD10591_14-00-28-064.txt Node
Date: Thu Jul 18 14:00:28 EDT 2019
User: cochatt
Spectrometer: HR+D1059
Trigger mode: 1
Integration Time (sec): 1.000000E-1
Scans to average: 1
Electric dark correction enabled: true
Nonlinearity correction enabled: false
Boxcar width: 0
XAxis mode: Wavelengths
Number of Pixels in Spectrum: 2048
>>>>>Begin Spectral Data<<<<<
223.165	-12.38
223.4	-12.38
223.635	-12.38
223.869	2.62
224.104	-14.38
224.338	-15.38
224.573	-16.38
224.808	-24.38
225.042	-14.38
225.277	-14.38
225.511	5.62
225.746	10.62
225.98	13.62
226.215	-2.38
226.449	3.62
226.683	26.62
226.918	21.62
227.152	29.62
227.387	26.62
227.621	42.62
227.856	53.62
228.09	53.62
228.324	54.62
228.559	59.62
228.793	61.62
229.027	91.62
229.262	123.62
229.496	108.62
229.73	118.62
229.964	160.62
230.199	124.62
230.433	122.62
230.667	130.62
230.901	123.62
231.136	120.62
231.37	107.62
231.604	119.62
231.838	117.62
232.072	133.62
232.306	109.62
232.541	123.62
232.775	129.62
233.009	135.62
233.243	128.62
233.477	126.62
233.711	125.62
233.945	123.62
234.179	129.62
234.413	132.62
234.647	125.62
234.881	129.62
235.115	131.62
235.349	123.62
235.583	125.62
235.817	121.62
236.051	137.62
236.285	109.62
236.519	117.62
236.753	137.62
236.987	139.62
237.221	181.62
237.455	213.62
237.689	188.62
237.922	155.62
238.156	143.62
238.39	137.62
238.624	138.62
238.858	142.62
239.091	136.62
239.325	133.62
239.559	129.62
239.793	142.62
240.027	151.62
240.26	172.62
240.494	147.62
240.728	173.62
240.961	157.62
241.195	152.62
241.429	153.62
241.662	151.62
241.896	146.62
242.13	157.62
242.363	141.62
242.597	136.62
242.83	158.62
243.064	149.62
243.298	146.62
243.531	135.62
243.765	147.62
243.998	151.62
244.232	159.62
244.465	165.62
244.699	167.62
244.932	167.62
245.166	155.62
245.399	151.62
245.633	166.62
245.866	164.62
246.099	146.62
246.333	178.62
246.566	173.62
246.8	166.62
247.033	183.62
247.266	161.62
247.5	183.62
247.733	185.62
247.966	191.62
248.2	206.62
248.433	176.62
248.666	190.62
248.899	197.62
249.133	213.62
249.366	208.62
249.599	204.62
249.832	217.62
250.066	179.62
250.299	210.62
250.532	216.62
250.765	216.62
250.998	239.62
251.231	250.62
251.465	238.62
251.698	230.62
251.931	198.62
252.164	217.62
252.397	223.62
252.63	223.62
252.863	228.62
253.096	232.62
253.329	246.62
253.562	237.62
253.795	231.62
254.028	245.62
254.261	235.62
254.494	261.62
254.727	267.62
254.96	286.62
255.193	291.62
255.426	265.62
255.659	239.62
255.892	241.62
256.124	258.62
256.357	242.62
256.59	256.62
256.823	236.62
257.056	214.62
257.289	206.62
257.521	251.62
257.754	233.62
257.987	243.62
258.22	236.62
258.452	212.62
258.685	220.62
258.918	229.62
259.151	241.62
259.383	251.62
259.616	247.62
259.849	239.62
260.081	270.62
260.314	278.62
260.547	267.62
260.779	279.62
261.012	255.62
261.244	248.62
261.477	242.62
261.71	241.62
261.942	266.62
262.175	272.62
262.407	259.62
262.64	236.62
262.872	255.62
263.105	237.62
263.337	253.62
263.57	249.62
263.802	234.62
264.035	243.62
264.267	252.62
264.499	248.62
264.732	247.62
264.964	250.62
265.197	232.62
265.429	237.62
265.661	252.62
265.894	253.62
266.126	262.62
266.358	258.62
266.591	262.62
266.823	251.62
267.055	266.62
267.287	274.62
267.52	253.62
267.752	256.62
267.984	294.62
268.216	255.62
268.448	252.62
268.681	277.62
268.913	277.62
269.145	286.62
269.377	322.62
269.609	310.62
269.841	289.62
270.073	303.62
270.306	311.62
270.538	343.62
270.77	345.62
271.002	333.62
271.234	330.62
271.466	355.62
271.698	335.62
271.93	346.62
272.162	337.62
272.394	340.62
272.626	319.62
272.858	317.62
273.09	290.62
273.322	313.62
273.553	311.62
273.785	317.62
274.017	295.62
274.249	314.62
274.481	302.62
274.713	301.62
274.945	321.62
275.176	325.62
275.408	315.62
275.64	307.62
275.872	313.62
276.104	307.62
276.335	302.62
276.567	297.62
276.799	318.62
277.031	351.62
277.262	348.62
277.494	355.62
277.726	362.62
277.957	342.62
278.189	346.62
278.421	311.62
278.652	309.62
278.884	313.62
279.115	331.62
279.347	324.62
279.579	331.62
279.81	304.62
280.042	334.62
280.273	319.62
280.505	335.62
280.736	321.62
280.968	323.62
281.199	341.62
281.431	327.62
281.662	328.62
281.894	332.62
282.125	356.62
282.356	355.62
282.588	356.62
282.819	352.62
283.051	358.62
283.282	360.62
283.513	349.62
283.745	339.62
283.976	322.62
284.207	337.62
284.439	330.62
284.67	338.62
284.901	353.62
285.132	338.62
285.364	352.62
285.595	361.62
285.826	363.62
286.057	348.62
286.288	350.62
286.52	357.62
286.751	350.62
286.982	362.62
287.213	357.62
287.444	355.62
287.675	364.62
287.906	372.62
288.138	365.62
288.369	381.62
288.6	359.62
288.831	387.62
289.062	360.62
289.293	369.62
289.524	365.62
289.755	369.62
289.986	367.62
290.217	377.62
290.448	383.62
290.679	365.62
290.91	360.62
291.141	355.62
291.371	359.62
291.602	364.62
291.833	395.62
292.064	363.62
292.295	371.62
292.526	383.62
292.757	349.62
292.987	372.62
293.218	355.62
293.449	379.62
293.68	398.62
293.91	363.62
294.141	377.62
294.372	367.62
294.603	387.62
294.833	375.62
295.064	385.62
295.295	379.62
295.525	361.62
295.756	361.62
295.987	390.62
296.217	401.62
296.448	405.62
296.679	397.62
296.909	393.62
297.14	398.62
297.37	399.62
297.601	382.62
297.831	392.62
298.062	379.62
298.292	399.62
298.523	408.62
298.753	391.62
298.984	393.62
299.214	410.62
299.445	403.62
299.675	392.62
299.905	399.62
300.136	393.62
300.366	398.62
300.597	418.62
300.827	409.62
301.057	411.62
301.288	428.62
301.518	415.62
301.748	421.62
301.979	417.62
302.209	422.62
302.439	418.62
302.669	408.62
302.9	408.62
303.13	407.62
303.36	419.62
303.59	416.62
303.82	440.62
304.051	427.62
304.281	422.62
304.511	428.62
304.741	420.62
304.971	425.62
305.201	414.62
305.431	433.62
305.661	403.62
305.891	406.62
306.121	420.62
306.352	425.62
306.582	437.62
306.812	437.62
307.042	417.62
307.272	409.62
307.502	417.62
307.731	418.62
307.961	423.62
308.191	415.62
308.421	419.62
308.651	422.62
308.881	420.62
309.111	425.62
309.341	413.62
309.571	428.62
309.8	454.62
310.03	443.62
310.26	468.62
310.49	446.62
310.72	466.62
310.949	464.62
311.179	477.62
311.409	433.62
311.639	433.62
311.868	447.62
312.098	455.62
312.328	458.62
312.557	466.62
312.787	494.62
313.017	466.62
313.246	482.62
313.476	475.62
313.706	460.62
313.935	479.62
314.165	463.62
314.394	518.62
314.624	485.62
314.853	480.62
315.083	487.62
315.312	490.62
315.542	461.62
315.771	478.62
316.001	456.62
316.23	476.62
316.46	459.62
316.689	451.62
316.919	476.62
317.148	464.62
317.377	467.62
317.607	479.62
317.836	468.62
318.065	463.62
318.295	454.62
318.524	467.62
318.753	449.62
318.983	448.62
319.212	469.62
319.441	475.62
319.67	481.62
319.9	454.62
320.129	467.62
320.358	471.62
320.587	456.62
320.816	480.62
321.046	477.62
321.275	484.62
321.504	468.62
321.733	495.62
321.962	497.62
322.191	492.62
322.42	502.62
322.649	479.62
322.878	521.62
323.108	510.62
323.337	517.62
323.566	563.62
323.795	588.62
324.024	601.62
324.253	667.62
324.482	882.62
324.71	1248.62
324.939	1785.62
325.168	1589.62
325.397	909.62
325.626	654.62
325.855	582.62
326.084	550.62
326.313	546.62
326.542	573.62
326.77	595.62
326.999	650.62
327.228	820.62
327.457	1205.62
327.686	1409.62
327.914	1000.62
328.143	710.62
328.372	678.62
328.6	648.62
328.829	636.62
329.058	623.62
329.287	618.62
329.515	585.62
329.744	582.62
329.972	586.62
330.201	615.62
330.43	626.62
330.658	649.62
330.887	679.62
331.115	643.62
331.344	610.62
331.572	573.62
331.801	597.62
332.03	602.62
332.258	585.62
332.486	566.62
332.715	579.62
332.943	594.62
333.172	594.62
333.4	601.62
333.629	661.62
333.857	665.62
334.085	634.62
334.314	666.62
334.542	662.62
334.771	694.62
334.999	676.62
335.227	630.62
335.455	615.62
335.684	598.62
335.912	599.62
336.14	593.62
336.369	591.62
336.597	595.62
336.825	593.62
337.053	592.62
337.281	578.62
337.51	581.62
337.738	583.62
337.966	562.62
338.194	575.62
338.422	587.62
338.65	566.62
338.878	555.62
339.106	556.62
339.334	578.62
339.562	541.62
339.79	563.62
340.018	551.62
340.246	553.62
340.474	549.62
340.702	550.62
340.93	553.62
341.158	557.62
341.386	547.62
341.614	548.62
341.842	546.62
342.07	555.62
342.298	543.62
342.526	527.62
342.754	541.62
342.981	528.62
343.209	542.62
343.437	558.62
343.665	570.62
343.893	597.62
344.12	619.62
344.348	614.62
344.576	574.62
344.804	578.62
345.031	556.62
345.259	545.62
345.487	551.62
345.714	548.62
345.942	546.62
346.17	518.62
346.397	531.62
346.625	531.62
346.853	514.62
347.08	503.62
347.308	539.62
347.535	527.62
347.763	515.62
347.99	513.62
348.218	497.62
348.445	511.62
348.673	543.62
348.9	518.62
349.128	506.62
349.355	500.62
349.583	495.62
349.81	482.62
350.037	498.62
350.265	507.62
350.492	523.62
350.72	511.62
350.947	517.62
351.174	513.62
351.402	510.62
351.629	527.62
351.856	509.62
352.083	525.62
352.311	525.62
352.538	528.62
352.765	507.62
352.992	515.62
353.22	514.62
353.447	489.62
353.674	507.62
353.901	517.62
354.128	487.62
354.355	503.62
354.583	523.62
354.81	487.62
355.037	508.62
355.264	472.62
355.491	504.62
355.718	514.62
355.945	497.62
356.172	521.62
356.399	514.62
356.626	520.62
356.853	491.62
357.08	477.62
357.307	488.62
357.534	490.62
357.761	501.62
357.988	495.62
358.215	487.62
358.441	497.62
358.668	491.62
358.895	499.62
359.122	498.62
359.349	511.62
359.576	524.62
359.802	529.62
360.029	551.62
360.256	541.62
360.483	514.62
360.709	494.62
360.936	519.62
361.163	520.62
361.39	517.62
361.616	524.62
361.843	511.62
362.07	506.62
362.296	534.62
362.523	543.62
362.749	508.62
362.976	513.62
363.203	527.62
363.429	493.62
363.656	512.62
363.882	506.62
364.109	499.62
364.335	489.62
364.562	523.62
364.788	509.62
365.015	490.62
365.241	519.62
365.468	523.62
365.694	494.62
365.92	530.62
366.147	503.62
366.373	512.62
366.599	510.62
366.826	495.62
367.052	504.62
367.278	501.62
367.505	487.62
367.731	491.62
367.957	515.62
368.184	520.62
368.41	515.62
368.636	537.62
368.862	529.62
369.089	505.62
369.315	517.62
369.541	502.62
369.767	529.62
369.993	501.62
370.219	510.62
370.445	504.62
370.672	534.62
370.898	517.62
371.124	542.62
371.35	527.62
371.576	558.62
371.802	533.62
372.028	519.62
372.254	531.62
372.48	513.62
372.706	530.62
372.932	524.62
373.158	525.62
373.384	511.62
373.61	553.62
373.835	530.62
374.061	521.62
374.287	539.62
374.513	529.62
374.739	557.62
374.965	544.62
375.191	564.62
375.416	563.62
375.642	577.62
375.868	538.62
376.094	526.62
376.319	534.62
376.545	531.62
376.771	527.62
376.997	519.62
377.222	532.62
377.448	549.62
377.674	546.62
377.899	478.62
378.125	508.62
378.35	515.62
378.576	538.62
378.802	523.62
379.027	541.62
379.253	512.62
379.478	526.62
379.704	531.62
379.929	520.62
380.155	537.62
380.38	527.62
380.606	522.62
380.831	521.62
381.057	513.62
381.282	528.62
381.507	525.62
381.733	549.62
381.958	539.62
382.184	513.62
382.409	561.62
382.634	543.62
382.86	547.62
383.085	570.62
383.31	565.62
383.535	557.62
383.761	552.62
383.986	571.62
384.211	574.62
384.436	574.62
384.662	605.62
384.887	605.62
385.112	586.62
385.337	589.62
385.562	618.62
385.787	615.62
386.013	626.62
386.238	612.62
386.463	607.62
386.688	612.62
386.913	590.62
387.138	604.62
387.363	587.62
387.588	612.62
387.813	597.62
388.038	599.62
388.263	617.62
388.488	618.62
388.713	604.62
388.938	574.62
389.163	616.62
389.387	608.62
389.612	586.62
389.837	597.62
390.062	582.62
390.287	604.62
390.512	596.62
390.736	610.62
390.961	600.62
391.186	600.62
391.411	634.62
391.636	651.62
391.86	665.62
392.085	650.62
392.31	665.62
392.534	636.62
392.759	645.62
392.984	639.62
393.208	628.62
393.433	620.62
393.658	627.62
393.882	645.62
394.107	616.62
394.331	651.62
394.556	609.62
394.78	629.62
395.005	633.62
395.229	620.62
395.454	637.62
395.678	637.62
395.903	669.62
396.127	684.62
396.352	641.62
396.576	638.62
396.801	614.62
397.025	628.62
397.249	659.62
397.474	665.62
397.698	652.62
397.922	665.62
398.147	690.62
398.371	698.62
398.595	705.62
398.82	697.62
399.044	737.62
399.268	814.62
399.492	891.62
399.717	969.62
399.941	1000.62
400.165	955.62
400.389	942.62
400.613	822.62
400.837	771.62
401.062	767.62
401.286	721.62
401.51	725.62
401.734	706.62
401.958	719.62
402.182	732.62
402.406	741.62
402.63	737.62
402.854	762.62
403.078	786.62
403.302	805.62
403.526	790.62
403.75	782.62
403.974	764.62
404.198	804.62
404.422	807.62
404.645	791.62
404.869	818.62
405.093	841.62
405.317	846.62
405.541	878.62
405.765	810.62
405.988	787.62
406.212	804.62
406.436	844.62
406.66	821.62
406.883	857.62
407.107	856.62
407.331	914.62
407.555	991.62
407.778	947.62
408.002	911.62
408.226	869.62
408.449	836.62
408.673	819.62
408.896	838.62
409.12	892.62
409.344	833.62
409.567	795.62
409.791	795.62
410.014	779.62
410.238	742.62
410.461	748.62
410.685	743.62
410.908	787.62
411.132	801.62
411.355	812.62
411.578	784.62
411.802	756.62
412.025	755.62
412.249	760.62
412.472	775.62
412.695	807.62
412.919	800.62
413.142	755.62
413.365	747.62
413.589	744.62
413.812	740.62
414.035	719.62
414.258	702.62
414.482	700.62
414.705	711.62
414.928	715.62
415.151	715.62
415.374	729.62
415.597	689.62
415.821	696.62
416.044	701.62
416.267	728.62
416.49	687.62
416.713	720.62
416.936	693.62
417.159	726.62
417.382	721.62
417.605	704.62
417.828	738.62
418.051	745.62
418.274	746.62
418.497	725.62
418.72	717.62
418.943	712.62
419.166	731.62
419.389	795.62
419.611	789.62
419.834	770.62
420.057	750.62
420.28	748.62
420.503	720.62
420.726	729.62
420.948	741.62
421.171	767.62
421.394	798.62
421.617	746.62
421.839	748.62
422.062	748.62
422.285	746.62
422.507	766.62
422.73	842.62
422.953	820.62
423.175	762.62
423.398	760.62
423.621	779.62
423.843	795.62
424.066	789.62
424.288	794.62
424.511	789.62
424.733	818.62
424.956	894.62
425.178	838.62
425.401	829.62
425.623	882.62
425.846	794.62
426.068	753.62
426.291	759.62
426.513	714.62
426.735	733.62
426.958	771.62
427.18	846.62
427.402	947.62
427.625	1017.62
427.847	899.62
428.069	813.62
428.292	765.62
428.514	703.62
428.736	689.62
428.958	684.62
429.181	683.62
429.403	661.62
429.625	686.62
429.847	720.62
430.069	763.62
430.292	769.62
430.514	691.62
430.736	677.62
430.958	667.62
431.18	655.62
431.402	660.62
431.624	640.62
431.846	652.62
432.068	648.62
432.29	645.62
432.512	649.62
432.734	657.62
432.956	678.62
433.178	695.62
433.4	678.62
433.622	668.62
433.844	669.62
434.066	668.62
434.287	685.62
434.509	696.62
434.731	702.62
434.953	728.62
435.175	742.62
435.397	733.62
435.618	749.62
435.84	763.62
436.062	831.62
436.284	885.62
436.505	765.62
436.727	739.62
436.949	714.62
437.17	722.62
437.392	667.62
437.614	677.62
437.835	721.62
438.057	760.62
438.278	865.62
438.5	872.62
438.721	911.62
438.943	895.62
439.165	775.62
439.386	718.62
439.608	696.62
439.829	682.62
440.05	723.62
440.272	755.62
440.493	761.62
440.715	729.62
440.936	694.62
441.158	701.62
441.379	697.62
441.6	736.62
441.822	740.62
442.043	763.62
442.264	814.62
442.486	887.62
442.707	794.62
442.928	752.62
443.149	761.62
443.371	749.62
443.592	791.62
443.813	867.62
444.034	958.62
444.255	829.62
444.476	814.62
444.698	831.62
444.919	839.62
445.14	917.62
445.361	857.62
445.582	797.62
445.803	791.62
446.024	911.62
446.245	893.62
446.466	834.62
446.687	781.62
446.908	726.62
447.129	693.62
447.35	674.62
447.571	695.62
447.792	659.62
448.013	666.62
448.234	673.62
448.455	703.62
448.675	782.62
448.896	894.62
449.117	788.62
449.338	762.62
449.559	832.62
449.779	945.62
450	806.62
450.221	684.62
450.442	650.62
450.662	647.62
450.883	635.62
451.104	668.62
451.324	649.62
451.545	647.62
451.766	626.62
451.986	614.62
452.207	601.62
452.428	595.62
452.648	612.62
452.869	610.62
453.089	595.62
453.31	627.62
453.53	594.62
453.751	605.62
453.971	590.62
454.192	585.62
454.412	591.62
454.633	604.62
454.853	603.62
455.073	580.62
455.294	601.62
455.514	656.62
455.734	652.62
455.955	595.62
456.175	574.62
456.395	561.62
456.616	575.62
456.836	565.62
457.056	571.62
457.276	567.62
457.497	603.62
457.717	564.62
457.937	572.62
458.157	601.62
458.377	592.62
458.598	632.62
458.818	646.62
459.038	738.62
459.258	737.62
459.478	692.62
459.698	693.62
459.918	698.62
460.138	676.62
460.358	714.62
460.578	708.62
460.798	744.62
461.018	770.62
461.238	717.62
461.458	730.62
461.678	727.62
461.898	722.62
462.118	732.62
462.338	753.62
462.558	773.62
462.777	793.62
462.997	877.62
463.217	897.62
463.437	901.62
463.657	834.62
463.876	812.62
464.096	815.62
464.316	814.62
464.536	819.62
464.755	781.62
464.975	797.62
465.195	782.62
465.414	806.62
465.634	734.62
465.854	711.62
466.073	684.62
466.293	650.62
466.512	653.62
466.732	641.62
466.951	638.62
467.171	630.62
467.391	654.62
467.61	631.62
467.829	647.62
468.049	641.62
468.268	643.62
468.488	630.62
468.707	626.62
468.927	638.62
469.146	616.62
469.365	609.62
469.585	619.62
469.804	662.62
470.023	659.62
470.243	643.62
470.462	645.62
470.681	677.62
470.901	679.62
471.12	633.62
471.339	656.62
471.558	647.62
471.777	641.62
471.997	630.62
472.216	637.62
472.435	664.62
472.654	643.62
472.873	618.62
473.092	637.62
473.311	627.62
473.53	621.62
473.749	661.62
473.968	663.62
474.187	746.62
474.406	750.62
474.625	679.62
474.844	622.62
475.063	632.62
475.282	612.62
475.501	641.62
475.72	633.62
475.939	647.62
476.158	645.62
476.377	647.62
476.596	620.62
476.814	641.62
477.033	663.62
477.252	642.62
477.471	672.62
477.69	669.62
477.908	725.62
478.127	725.62
478.346	745.62
478.564	739.62
478.783	723.62
479.002	741.62
479.22	734.62
479.439	764.62
479.658	748.62
479.876	789.62
480.095	800.62
480.313	814.62
480.532	808.62
480.751	809.62
480.969	825.62
481.188	874.62
481.406	893.62
481.624	827.62
481.843	771.62
482.061	782.62
482.28	723.62
482.498	727.62
482.717	739.62
482.935	715.62
483.153	757.62
483.372	719.62
483.59	746.62
483.808	738.62
484.027	734.62
484.245	727.62
484.463	759.62
484.681	775.62
484.9	776.62
485.118	743.62
485.336	776.62
485.554	785.62
485.772	773.62
485.99	750.62
486.209	770.62
486.427	777.62
486.645	777.62
486.863	766.62
487.081	798.62
487.299	794.62
487.517	782.62
487.735	774.62
487.953	817.62
488.171	796.62
488.389	779.62
488.607	786.62
488.825	769.62
489.043	765.62
489.261	797.62
489.479	780.62
489.696	809.62
489.914	806.62
490.132	809.62
490.35	799.62
490.568	805.62
490.786	817.62
491.003	858.62
491.221	834.62
491.439	859.62
491.657	868.62
491.874	881.62
492.092	843.62
492.31	881.62
492.527	895.62
492.745	886.62
492.963	900.62
493.18	907.62
493.398	869.62
493.615	901.62
493.833	904.62
494.05	881.62
494.268	932.62
494.485	903.62
494.703	921.62
494.92	885.62
495.138	903.62
495.355	901.62
495.573	917.62
495.79	918.62
496.008	946.62
496.225	926.62
496.442	923.62
496.66	922.62
496.877	922.62
497.094	934.62
497.312	941.62
497.529	990.62
497.746	993.62
497.963	1002.62
498.181	1074.62
498.398	1049.62
498.615	1094.62
498.832	1165.62
499.049	1193.62
499.267	1257.62
499.484	1350.62
499.701	1448.62
499.918	1578.62
500.135	1690.62
500.352	1820.62
500.569	1857.62
500.786	1854.62
501.003	1765.62
501.22	1653.62
501.437	1551.62
501.654	1397.62
