Data from 1963.PennyLincolnUp.Lamp.En5.5.200Scan.071719.P1._HRD10591_13-58-16-063.txt Node
Date: Thu Jul 18 13:58:16 EDT 2019
User: cochatt
Spectrometer: HR+D1059
Trigger mode: 1
Integration Time (sec): 1.000000E-1
Scans to average: 1
Electric dark correction enabled: true
Nonlinearity correction enabled: false
Boxcar width: 0
XAxis mode: Wavelengths
Number of Pixels in Spectrum: 2048
>>>>>Begin Spectral Data<<<<<
223.165	-19.62
223.4	-19.62
223.635	-19.62
223.869	-2.62
224.104	-21.62
224.338	-24.62
224.573	-11.62
224.808	-6.62
225.042	-11.62
225.277	-7.62
225.511	6.38
225.746	-7.62
225.98	1.38
226.215	8.38
226.449	8.38
226.683	24.38
226.918	30.38
227.152	34.38
227.387	13.38
227.621	48.38
227.856	38.38
228.09	49.38
228.324	48.38
228.559	47.38
228.793	59.38
229.027	91.38
229.262	95.38
229.496	97.38
229.73	129.38
229.964	149.38
230.199	115.38
230.433	110.38
230.667	98.38
230.901	112.38
231.136	101.38
231.37	98.38
231.604	112.38
231.838	108.38
232.072	119.38
232.306	120.38
232.541	122.38
232.775	136.38
233.009	119.38
233.243	121.38
233.477	120.38
233.711	119.38
233.945	120.38
234.179	126.38
234.413	132.38
234.647	128.38
234.881	113.38
235.115	114.38
235.349	123.38
235.583	109.38
235.817	108.38
236.051	147.38
236.285	131.38
236.519	123.38
236.753	125.38
236.987	137.38
237.221	152.38
237.455	190.38
237.689	170.38
237.922	138.38
238.156	141.38
238.39	125.38
238.624	148.38
238.858	128.38
239.091	130.38
239.325	128.38
239.559	131.38
239.793	119.38
240.027	134.38
240.26	140.38
240.494	142.38
240.728	146.38
240.961	142.38
241.195	134.38
241.429	153.38
241.662	140.38
241.896	142.38
242.13	129.38
242.363	138.38
242.597	150.38
242.83	146.38
243.064	143.38
243.298	140.38
243.531	135.38
243.765	146.38
243.998	140.38
244.232	145.38
244.465	167.38
244.699	153.38
244.932	144.38
245.166	148.38
245.399	166.38
245.633	155.38
245.866	150.38
246.099	162.38
246.333	169.38
246.566	162.38
246.8	165.38
247.033	152.38
247.266	170.38
247.5	160.38
247.733	172.38
247.966	178.38
248.2	178.38
248.433	159.38
248.666	174.38
248.899	172.38
249.133	180.38
249.366	197.38
249.599	201.38
249.832	206.38
250.066	216.38
250.299	207.38
250.532	198.38
250.765	211.38
250.998	213.38
251.231	218.38
251.465	216.38
251.698	195.38
251.931	196.38
252.164	207.38
252.397	196.38
252.63	209.38
252.863	208.38
253.096	212.38
253.329	219.38
253.562	243.38
253.795	209.38
254.028	210.38
254.261	203.38
254.494	234.38
254.727	240.38
254.96	268.38
255.193	237.38
255.426	241.38
255.659	216.38
255.892	234.38
256.124	229.38
256.357	248.38
256.59	244.38
256.823	228.38
257.056	226.38
257.289	221.38
257.521	227.38
257.754	210.38
257.987	197.38
258.22	217.38
258.452	217.38
258.685	225.38
258.918	216.38
259.151	219.38
259.383	233.38
259.616	244.38
259.849	231.38
260.081	246.38
260.314	263.38
260.547	240.38
260.779	244.38
261.012	243.38
261.244	241.38
261.477	261.38
261.71	236.38
261.942	250.38
262.175	246.38
262.407	246.38
262.64	241.38
262.872	240.38
263.105	246.38
263.337	228.38
263.57	243.38
263.802	240.38
264.035	243.38
264.267	238.38
264.499	228.38
264.732	248.38
264.964	217.38
265.197	242.38
265.429	241.38
265.661	240.38
265.894	226.38
266.126	224.38
266.358	253.38
266.591	248.38
266.823	229.38
267.055	257.38
267.287	240.38
267.52	264.38
267.752	244.38
267.984	251.38
268.216	239.38
268.448	255.38
268.681	267.38
268.913	254.38
269.145	269.38
269.377	270.38
269.609	288.38
269.841	265.38
270.073	256.38
270.306	292.38
270.538	306.38
270.77	310.38
271.002	308.38
271.234	291.38
271.466	290.38
271.698	288.38
271.93	321.38
272.162	329.38
272.394	311.38
272.626	300.38
272.858	307.38
273.09	275.38
273.322	284.38
273.553	294.38
273.785	282.38
274.017	288.38
274.249	270.38
274.481	264.38
274.713	285.38
274.945	288.38
275.176	301.38
275.408	285.38
275.64	297.38
275.872	294.38
276.104	274.38
276.335	282.38
276.567	290.38
276.799	316.38
277.031	291.38
277.262	313.38
277.494	334.38
277.726	311.38
277.957	314.38
278.189	292.38
278.421	298.38
278.652	295.38
278.884	296.38
279.115	314.38
279.347	296.38
279.579	306.38
279.81	312.38
280.042	306.38
280.273	309.38
280.505	327.38
280.736	311.38
280.968	320.38
281.199	306.38
281.431	320.38
281.662	306.38
281.894	321.38
282.125	311.38
282.356	320.38
282.588	337.38
282.819	343.38
283.051	330.38
283.282	324.38
283.513	322.38
283.745	297.38
283.976	322.38
284.207	331.38
284.439	316.38
284.67	328.38
284.901	324.38
285.132	333.38
285.364	296.38
285.595	317.38
285.826	346.38
286.057	328.38
286.288	322.38
286.52	333.38
286.751	335.38
286.982	312.38
287.213	337.38
287.444	342.38
287.675	336.38
287.906	340.38
288.138	353.38
288.369	339.38
288.6	349.38
288.831	344.38
289.062	362.38
289.293	343.38
289.524	341.38
289.755	364.38
289.986	354.38
290.217	357.38
290.448	352.38
290.679	346.38
290.91	336.38
291.141	343.38
291.371	358.38
291.602	346.38
291.833	338.38
292.064	341.38
292.295	351.38
292.526	352.38
292.757	327.38
292.987	343.38
293.218	344.38
293.449	332.38
293.68	348.38
293.91	358.38
294.141	352.38
294.372	351.38
294.603	345.38
294.833	366.38
295.064	350.38
295.295	377.38
295.525	350.38
295.756	345.38
295.987	355.38
296.217	364.38
296.448	388.38
296.679	378.38
296.909	366.38
297.14	354.38
297.37	367.38
297.601	380.38
297.831	365.38
298.062	368.38
298.292	390.38
298.523	404.38
298.753	373.38
298.984	373.38
299.214	376.38
299.445	360.38
299.675	374.38
299.905	378.38
300.136	369.38
300.366	378.38
300.597	396.38
300.827	377.38
301.057	392.38
301.288	404.38
301.518	397.38
301.748	388.38
301.979	396.38
302.209	393.38
302.439	404.38
302.669	402.38
302.9	407.38
303.13	406.38
303.36	404.38
303.59	409.38
303.82	389.38
304.051	403.38
304.281	405.38
304.511	416.38
304.741	412.38
304.971	403.38
305.201	407.38
305.431	393.38
305.661	401.38
305.891	395.38
306.121	404.38
306.352	404.38
306.582	409.38
306.812	388.38
307.042	391.38
307.272	393.38
307.502	390.38
307.731	401.38
307.961	386.38
308.191	401.38
308.421	410.38
308.651	398.38
308.881	392.38
309.111	410.38
309.341	405.38
309.571	422.38
309.8	414.38
310.03	410.38
310.26	392.38
310.49	409.38
310.72	421.38
310.949	415.38
311.179	438.38
311.409	419.38
311.639	434.38
311.868	439.38
312.098	421.38
312.328	430.38
312.557	441.38
312.787	445.38
313.017	418.38
313.246	450.38
313.476	440.38
313.706	421.38
313.935	440.38
314.165	458.38
314.394	447.38
314.624	445.38
314.853	449.38
315.083	443.38
315.312	434.38
315.542	444.38
315.771	421.38
316.001	411.38
316.23	406.38
316.46	432.38
316.689	426.38
316.919	422.38
317.148	448.38
317.377	451.38
317.607	434.38
317.836	445.38
318.065	437.38
318.295	452.38
318.524	447.38
318.753	434.38
318.983	448.38
319.212	440.38
319.441	430.38
319.67	440.38
319.9	426.38
320.129	454.38
320.358	444.38
320.587	435.38
320.816	448.38
321.046	450.38
321.275	433.38
321.504	450.38
321.733	452.38
321.962	459.38
322.191	452.38
322.42	453.38
322.649	471.38
322.878	455.38
323.108	469.38
323.337	485.38
323.566	487.38
323.795	528.38
324.024	538.38
324.253	612.38
324.482	758.38
324.71	1055.38
324.939	1496.38
325.168	1318.38
325.397	734.38
325.626	585.38
325.855	538.38
326.084	478.38
326.313	524.38
326.542	506.38
326.77	523.38
326.999	587.38
327.228	725.38
327.457	993.38
327.686	1201.38
327.914	834.38
328.143	626.38
328.372	574.38
328.6	545.38
328.829	538.38
329.058	540.38
329.287	552.38
329.515	537.38
329.744	531.38
329.972	534.38
330.201	528.38
330.43	556.38
330.658	579.38
330.887	568.38
331.115	570.38
331.344	523.38
331.572	532.38
331.801	564.38
332.03	529.38
332.258	558.38
332.486	542.38
332.715	565.38
332.943	569.38
333.172	574.38
333.4	593.38
333.629	594.38
333.857	606.38
334.085	639.38
334.314	636.38
334.542	635.38
334.771	633.38
334.999	606.38
335.227	581.38
335.455	576.38
335.684	540.38
335.912	545.38
336.14	543.38
336.369	541.38
336.597	574.38
336.825	568.38
337.053	549.38
337.281	528.38
337.51	525.38
337.738	536.38
337.966	527.38
338.194	567.38
338.422	539.38
338.65	510.38
338.878	515.38
339.106	511.38
339.334	503.38
339.562	517.38
339.79	514.38
340.018	509.38
340.246	502.38
340.474	514.38
340.702	505.38
340.93	517.38
341.158	493.38
341.386	503.38
341.614	506.38
341.842	500.38
342.07	509.38
342.298	510.38
342.526	505.38
342.754	480.38
342.981	526.38
343.209	529.38
343.437	524.38
343.665	528.38
343.893	568.38
344.12	565.38
344.348	562.38
344.576	534.38
344.804	549.38
345.031	520.38
345.259	525.38
345.487	528.38
345.714	501.38
345.942	501.38
346.17	492.38
346.397	497.38
346.625	505.38
346.853	502.38
347.08	478.38
347.308	504.38
347.535	487.38
347.763	460.38
347.99	496.38
348.218	496.38
348.445	480.38
348.673	477.38
348.9	495.38
349.128	495.38
349.355	484.38
349.583	468.38
349.81	493.38
350.037	477.38
350.265	479.38
350.492	483.38
350.72	473.38
350.947	450.38
351.174	503.38
351.402	466.38
351.629	484.38
351.856	482.38
352.083	477.38
352.311	510.38
352.538	481.38
352.765	480.38
352.992	478.38
353.22	482.38
353.447	475.38
353.674	501.38
353.901	486.38
354.128	463.38
354.355	467.38
354.583	480.38
354.81	454.38
355.037	455.38
355.264	463.38
355.491	464.38
355.718	461.38
355.945	464.38
356.172	433.38
356.399	476.38
356.626	453.38
356.853	470.38
357.08	457.38
357.307	452.38
357.534	471.38
357.761	469.38
357.988	475.38
358.215	454.38
358.441	481.38
358.668	457.38
358.895	474.38
359.122	470.38
359.349	470.38
359.576	488.38
359.802	499.38
360.029	489.38
360.256	508.38
360.483	512.38
360.709	480.38
360.936	477.38
361.163	479.38
361.39	473.38
361.616	497.38
361.843	492.38
362.07	480.38
362.296	507.38
362.523	486.38
362.749	482.38
362.976	482.38
363.203	459.38
363.429	480.38
363.656	457.38
363.882	492.38
364.109	467.38
364.335	484.38
364.562	477.38
364.788	477.38
365.015	491.38
365.241	478.38
365.468	485.38
365.694	503.38
365.92	483.38
366.147	472.38
366.373	448.38
366.599	462.38
366.826	465.38
367.052	449.38
367.278	469.38
367.505	458.38
367.731	488.38
367.957	471.38
368.184	474.38
368.41	469.38
368.636	478.38
368.862	492.38
369.089	486.38
369.315	486.38
369.541	478.38
369.767	474.38
369.993	462.38
370.219	478.38
370.445	487.38
370.672	485.38
370.898	484.38
371.124	518.38
371.35	520.38
371.576	502.38
371.802	508.38
372.028	504.38
372.254	487.38
372.48	501.38
372.706	510.38
372.932	500.38
373.158	513.38
373.384	494.38
373.61	520.38
373.835	519.38
374.061	509.38
374.287	496.38
374.513	509.38
374.739	532.38
374.965	549.38
375.191	561.38
375.416	552.38
375.642	507.38
375.868	504.38
376.094	495.38
376.319	509.38
376.545	522.38
376.771	502.38
376.997	498.38
377.222	495.38
377.448	503.38
377.674	487.38
377.899	499.38
378.125	512.38
378.35	488.38
378.576	487.38
378.802	497.38
379.027	480.38
379.253	483.38
379.478	497.38
379.704	506.38
379.929	499.38
380.155	481.38
380.38	498.38
380.606	512.38
380.831	488.38
381.057	503.38
381.282	482.38
381.507	508.38
381.733	508.38
381.958	489.38
382.184	520.38
382.409	505.38
382.634	517.38
382.86	506.38
383.085	536.38
383.31	530.38
383.535	531.38
383.761	518.38
383.986	532.38
384.211	532.38
384.436	567.38
384.662	556.38
384.887	552.38
385.112	576.38
385.337	587.38
385.562	563.38
385.787	570.38
386.013	591.38
386.238	560.38
386.463	586.38
386.688	586.38
386.913	601.38
387.138	578.38
387.363	578.38
387.588	586.38
387.813	569.38
388.038	584.38
388.263	582.38
388.488	581.38
388.713	575.38
388.938	557.38
389.163	575.38
389.387	590.38
389.612	558.38
389.837	578.38
390.062	570.38
390.287	595.38
390.512	567.38
390.736	584.38
390.961	568.38
391.186	586.38
391.411	612.38
391.636	586.38
391.86	598.38
392.085	604.38
392.31	615.38
392.534	600.38
392.759	630.38
392.984	589.38
393.208	581.38
393.433	598.38
393.658	610.38
393.882	581.38
394.107	607.38
394.331	604.38
394.556	585.38
394.78	600.38
395.005	591.38
395.229	591.38
395.454	620.38
395.678	617.38
395.903	624.38
396.127	633.38
396.352	613.38
396.576	612.38
396.801	579.38
397.025	620.38
397.249	640.38
397.474	629.38
397.698	625.38
397.922	642.38
398.147	650.38
398.371	656.38
398.595	673.38
398.82	677.38
399.044	691.38
399.268	740.38
399.492	859.38
399.717	926.38
399.941	954.38
400.165	882.38
400.389	834.38
400.613	807.38
400.837	736.38
401.062	700.38
401.286	695.38
401.51	675.38
401.734	682.38
401.958	680.38
402.182	708.38
402.406	694.38
402.63	729.38
402.854	722.38
403.078	730.38
403.302	740.38
403.526	736.38
403.75	748.38
403.974	748.38
404.198	748.38
404.422	749.38
404.645	777.38
404.869	771.38
405.093	784.38
405.317	796.38
405.541	810.38
405.765	786.38
405.988	778.38
406.212	768.38
406.436	778.38
406.66	770.38
406.883	772.38
407.107	817.38
407.331	869.38
407.555	910.38
407.778	914.38
408.002	888.38
408.226	816.38
408.449	814.38
408.673	793.38
408.896	804.38
409.12	829.38
409.344	794.38
409.567	764.38
409.791	735.38
410.014	712.38
410.238	724.38
410.461	720.38
410.685	735.38
410.908	717.38
411.132	745.38
411.355	779.38
411.578	779.38
411.802	719.38
412.025	700.38
412.249	710.38
412.472	733.38
412.695	739.38
412.919	721.38
413.142	700.38
413.365	714.38
413.589	687.38
413.812	688.38
414.035	713.38
414.258	696.38
414.482	678.38
414.705	684.38
414.928	678.38
415.151	673.38
415.374	688.38
415.597	680.38
415.821	642.38
416.044	689.38
416.267	697.38
416.49	660.38
416.713	680.38
416.936	659.38
417.159	674.38
417.382	694.38
417.605	660.38
417.828	669.38
418.051	649.38
418.274	699.38
418.497	678.38
418.72	686.38
418.943	674.38
419.166	714.38
419.389	745.38
419.611	740.38
419.834	736.38
420.057	725.38
420.28	708.38
420.503	688.38
420.726	679.38
420.948	692.38
421.171	726.38
421.394	742.38
421.617	702.38
421.839	706.38
422.062	687.38
422.285	702.38
422.507	738.38
422.73	785.38
422.953	779.38
423.175	709.38
423.398	700.38
423.621	739.38
423.843	730.38
424.066	726.38
424.288	733.38
424.511	734.38
424.733	778.38
424.956	808.38
425.178	803.38
425.401	811.38
425.623	834.38
425.846	725.38
426.068	718.38
426.291	673.38
426.513	689.38
426.735	701.38
426.958	723.38
427.18	766.38
427.402	842.38
427.625	943.38
427.847	834.38
428.069	741.38
428.292	696.38
428.514	666.38
428.736	674.38
428.958	651.38
429.181	637.38
429.403	630.38
429.625	654.38
429.847	664.38
430.069	706.38
430.292	691.38
430.514	634.38
430.736	622.38
430.958	640.38
431.18	620.38
431.402	623.38
431.624	613.38
431.846	601.38
432.068	623.38
432.29	628.38
432.512	633.38
432.734	646.38
432.956	614.38
433.178	643.38
433.4	658.38
433.622	637.38
433.844	642.38
434.066	635.38
434.287	631.38
434.509	659.38
434.731	658.38
434.953	666.38
435.175	700.38
435.397	718.38
435.618	708.38
435.84	699.38
436.062	754.38
436.284	793.38
436.505	703.38
436.727	690.38
436.949	675.38
437.17	640.38
437.392	614.38
437.614	621.38
437.835	644.38
438.057	743.38
438.278	796.38
438.5	767.38
438.721	829.38
438.943	845.38
439.165	690.38
439.386	657.38
439.608	657.38
439.829	662.38
440.05	675.38
440.272	702.38
440.493	693.38
440.715	679.38
440.936	677.38
441.158	647.38
441.379	662.38
441.6	702.38
441.822	700.38
442.043	732.38
442.264	782.38
442.486	814.38
442.707	755.38
442.928	694.38
443.149	730.38
443.371	711.38
443.592	748.38
443.813	825.38
444.034	868.38
444.255	768.38
444.476	771.38
444.698	756.38
444.919	785.38
445.14	880.38
445.361	799.38
445.582	733.38
445.803	770.38
446.024	826.38
446.245	803.38
446.466	752.38
446.687	709.38
446.908	673.38
447.129	633.38
447.35	630.38
447.571	629.38
447.792	626.38
448.013	618.38
448.234	640.38
448.455	670.38
448.675	729.38
448.896	824.38
449.117	700.38
449.338	679.38
449.559	777.38
449.779	846.38
450	714.38
450.221	648.38
450.442	617.38
450.662	621.38
450.883	614.38
451.104	631.38
451.324	596.38
451.545	602.38
451.766	566.38
451.986	564.38
452.207	554.38
452.428	588.38
452.648	557.38
452.869	559.38
453.089	581.38
453.31	569.38
453.53	569.38
453.751	578.38
453.971	574.38
454.192	558.38
454.412	572.38
454.633	583.38
454.853	556.38
455.073	573.38
455.294	578.38
455.514	611.38
455.734	574.38
455.955	541.38
456.175	556.38
456.395	524.38
456.616	563.38
456.836	538.38
457.056	540.38
457.276	536.38
457.497	534.38
457.717	557.38
457.937	561.38
458.157	572.38
458.377	570.38
458.598	566.38
458.818	621.38
459.038	664.38
459.258	699.38
459.478	673.38
459.698	640.38
459.918	654.38
460.138	654.38
460.358	679.38
460.578	707.38
460.798	696.38
461.018	706.38
461.238	696.38
461.458	688.38
461.678	674.38
461.898	696.38
462.118	698.38
462.338	754.38
462.558	739.38
462.777	764.38
462.997	828.38
463.217	855.38
463.437	821.38
463.657	799.38
463.876	768.38
464.096	789.38
464.316	776.38
464.536	775.38
464.755	733.38
464.975	760.38
465.195	754.38
465.414	758.38
465.634	701.38
465.854	660.38
466.073	634.38
466.293	643.38
466.512	622.38
466.732	599.38
466.951	593.38
467.171	618.38
467.391	618.38
467.61	611.38
467.829	618.38
468.049	629.38
468.268	621.38
468.488	572.38
468.707	568.38
468.927	592.38
469.146	580.38
469.365	613.38
469.585	599.38
469.804	600.38
470.023	617.38
470.243	648.38
470.462	632.38
470.681	668.38
470.901	616.38
471.12	618.38
471.339	607.38
471.558	613.38
471.777	597.38
471.997	582.38
472.216	601.38
472.435	601.38
472.654	605.38
472.873	609.38
473.092	610.38
473.311	590.38
473.53	591.38
473.749	582.38
473.968	594.38
474.187	689.38
474.406	674.38
474.625	656.38
474.844	596.38
475.063	598.38
475.282	598.38
475.501	611.38
475.72	593.38
475.939	599.38
476.158	627.38
476.377	611.38
476.596	596.38
476.814	620.38
477.033	640.38
477.252	616.38
477.471	643.38
477.69	630.38
477.908	638.38
478.127	702.38
478.346	679.38
478.564	693.38
478.783	704.38
479.002	718.38
479.22	722.38
479.439	723.38
479.658	727.38
479.876	710.38
480.095	744.38
480.313	767.38
480.532	760.38
480.751	766.38
480.969	796.38
481.188	769.38
481.406	801.38
481.624	733.38
481.843	719.38
482.061	708.38
482.28	704.38
482.498	702.38
482.717	680.38
482.935	688.38
483.153	681.38
483.372	693.38
483.59	688.38
483.808	695.38
484.027	705.38
484.245	681.38
484.463	687.38
484.681	728.38
484.9	691.38
485.118	733.38
485.336	712.38
485.554	693.38
485.772	708.38
485.99	730.38
486.209	737.38
486.427	730.38
486.645	752.38
486.863	712.38
487.081	742.38
487.299	728.38
487.517	709.38
487.735	740.38
487.953	752.38
488.171	747.38
488.389	751.38
488.607	729.38
488.825	767.38
489.043	736.38
489.261	767.38
489.479	727.38
489.696	757.38
489.914	740.38
490.132	768.38
490.35	778.38
490.568	784.38
490.786	778.38
491.003	786.38
491.221	805.38
491.439	784.38
491.657	784.38
491.874	824.38
492.092	790.38
492.31	827.38
492.527	822.38
492.745	841.38
492.963	819.38
493.18	810.38
493.398	806.38
493.615	825.38
493.833	857.38
494.05	855.38
494.268	834.38
494.485	881.38
494.703	857.38
494.92	884.38
495.138	864.38
495.355	848.38
495.573	852.38
495.79	831.38
496.008	858.38
496.225	851.38
496.442	856.38
496.66	878.38
496.877	868.38
497.094	878.38
497.312	892.38
497.529	914.38
497.746	919.38
497.963	973.38
498.181	982.38
498.398	981.38
498.615	1026.38
498.832	1084.38
499.049	1145.38
499.267	1196.38
499.484	1264.38
499.701	1332.38
499.918	1436.38
500.135	1588.38
500.352	1696.38
500.569	1749.38
500.786	1748.38
501.003	1695.38
501.22	1577.38
501.437	1452.38
501.654	1344.38
501.871	1303.38
