Data from 1963.PennyLincolnUp.Lamp.En5.5.200Scan.071719.P1._HRD10591_13-59-08-063.txt Node
Date: Thu Jul 18 13:59:08 EDT 2019
User: cochatt
Spectrometer: HR+D1059
Trigger mode: 1
Integration Time (sec): 1.000000E-1
Scans to average: 1
Electric dark correction enabled: true
Nonlinearity correction enabled: false
Boxcar width: 0
XAxis mode: Wavelengths
Number of Pixels in Spectrum: 2048
>>>>>Begin Spectral Data<<<<<
223.165	-16.44
223.4	-16.44
223.635	-16.44
223.869	-14.44
224.104	-24.44
224.338	-14.44
224.573	-16.44
224.808	-24.44
225.042	-12.44
225.277	-5.44
225.511	2.56
225.746	0.56
225.98	10.56
226.215	15.56
226.449	16.56
226.683	25.56
226.918	31.56
227.152	25.56
227.387	41.56
227.621	48.56
227.856	43.56
228.09	51.56
228.324	50.56
228.559	46.56
228.793	67.56
229.027	94.56
229.262	99.56
229.496	111.56
229.73	122.56
229.964	118.56
230.199	124.56
230.433	113.56
230.667	113.56
230.901	112.56
231.136	118.56
231.37	122.56
231.604	119.56
231.838	104.56
232.072	113.56
232.306	119.56
232.541	123.56
232.775	117.56
233.009	127.56
233.243	128.56
233.477	113.56
233.711	128.56
233.945	116.56
234.179	125.56
234.413	134.56
234.647	131.56
234.881	124.56
235.115	125.56
235.349	120.56
235.583	119.56
235.817	138.56
236.051	129.56
236.285	114.56
236.519	123.56
236.753	136.56
236.987	131.56
237.221	169.56
237.455	200.56
237.689	158.56
237.922	153.56
238.156	149.56
238.39	137.56
238.624	113.56
238.858	122.56
239.091	129.56
239.325	125.56
239.559	137.56
239.793	136.56
240.027	140.56
240.26	159.56
240.494	158.56
240.728	162.56
240.961	153.56
241.195	158.56
241.429	153.56
241.662	135.56
241.896	129.56
242.13	141.56
242.363	153.56
242.597	155.56
242.83	135.56
243.064	157.56
243.298	161.56
243.531	149.56
243.765	148.56
243.998	175.56
244.232	153.56
244.465	173.56
244.699	160.56
244.932	172.56
245.166	167.56
245.399	155.56
245.633	149.56
245.866	173.56
246.099	163.56
246.333	168.56
246.566	158.56
246.8	178.56
247.033	167.56
247.266	167.56
247.5	161.56
247.733	185.56
247.966	175.56
248.2	170.56
248.433	176.56
248.666	163.56
248.899	176.56
249.133	207.56
249.366	209.56
249.599	201.56
249.832	202.56
250.066	193.56
250.299	185.56
250.532	199.56
250.765	202.56
250.998	215.56
251.231	235.56
251.465	209.56
251.698	217.56
251.931	205.56
252.164	203.56
252.397	211.56
252.63	209.56
252.863	204.56
253.096	225.56
253.329	237.56
253.562	214.56
253.795	216.56
254.028	219.56
254.261	229.56
254.494	233.56
254.727	251.56
254.96	265.56
255.193	262.56
255.426	245.56
255.659	235.56
255.892	244.56
256.124	253.56
256.357	233.56
256.59	241.56
256.823	236.56
257.056	233.56
257.289	221.56
257.521	218.56
257.754	228.56
257.987	209.56
258.22	231.56
258.452	238.56
258.685	218.56
258.918	221.56
259.151	215.56
259.383	236.56
259.616	236.56
259.849	258.56
260.081	252.56
260.314	250.56
260.547	277.56
260.779	248.56
261.012	248.56
261.244	243.56
261.477	241.56
261.71	248.56
261.942	246.56
262.175	253.56
262.407	240.56
262.64	224.56
262.872	230.56
263.105	231.56
263.337	242.56
263.57	226.56
263.802	229.56
264.035	245.56
264.267	226.56
264.499	226.56
264.732	243.56
264.964	231.56
265.197	243.56
265.429	241.56
265.661	229.56
265.894	239.56
266.126	248.56
266.358	245.56
266.591	257.56
266.823	235.56
267.055	250.56
267.287	252.56
267.52	246.56
267.752	274.56
267.984	238.56
268.216	261.56
268.448	283.56
268.681	270.56
268.913	259.56
269.145	280.56
269.377	283.56
269.609	292.56
269.841	279.56
270.073	282.56
270.306	303.56
270.538	323.56
270.77	324.56
271.002	322.56
271.234	300.56
271.466	330.56
271.698	324.56
271.93	327.56
272.162	309.56
272.394	318.56
272.626	316.56
272.858	310.56
273.09	302.56
273.322	297.56
273.553	272.56
273.785	279.56
274.017	296.56
274.249	293.56
274.481	291.56
274.713	306.56
274.945	297.56
275.176	298.56
275.408	299.56
275.64	293.56
275.872	292.56
276.104	297.56
276.335	283.56
276.567	296.56
276.799	315.56
277.031	326.56
277.262	333.56
277.494	357.56
277.726	332.56
277.957	322.56
278.189	328.56
278.421	317.56
278.652	309.56
278.884	303.56
279.115	327.56
279.347	330.56
279.579	309.56
279.81	323.56
280.042	308.56
280.273	311.56
280.505	326.56
280.736	311.56
280.968	301.56
281.199	325.56
281.431	306.56
281.662	311.56
281.894	298.56
282.125	322.56
282.356	338.56
282.588	340.56
282.819	349.56
283.051	317.56
283.282	338.56
283.513	335.56
283.745	334.56
283.976	315.56
284.207	341.56
284.439	330.56
284.67	339.56
284.901	333.56
285.132	326.56
285.364	335.56
285.595	331.56
285.826	350.56
286.057	338.56
286.288	322.56
286.52	350.56
286.751	324.56
286.982	352.56
287.213	358.56
287.444	366.56
287.675	352.56
287.906	338.56
288.138	369.56
288.369	352.56
288.6	366.56
288.831	373.56
289.062	353.56
289.293	351.56
289.524	341.56
289.755	354.56
289.986	358.56
290.217	353.56
290.448	361.56
290.679	365.56
290.91	347.56
291.141	350.56
291.371	377.56
291.602	350.56
291.833	353.56
292.064	360.56
292.295	369.56
292.526	347.56
292.757	369.56
292.987	358.56
293.218	341.56
293.449	359.56
293.68	341.56
293.91	354.56
294.141	352.56
294.372	346.56
294.603	359.56
294.833	353.56
295.064	336.56
295.295	369.56
295.525	362.56
295.756	361.56
295.987	351.56
296.217	373.56
296.448	391.56
296.679	375.56
296.909	372.56
297.14	360.56
297.37	371.56
297.601	391.56
297.831	379.56
298.062	364.56
298.292	385.56
298.523	383.56
298.753	359.56
298.984	389.56
299.214	398.56
299.445	399.56
299.675	391.56
299.905	382.56
300.136	391.56
300.366	390.56
300.597	389.56
300.827	381.56
301.057	418.56
301.288	419.56
301.518	400.56
301.748	421.56
301.979	403.56
302.209	396.56
302.439	401.56
302.669	397.56
302.9	394.56
303.13	413.56
303.36	407.56
303.59	400.56
303.82	412.56
304.051	407.56
304.281	389.56
304.511	398.56
304.741	392.56
304.971	402.56
305.201	419.56
305.431	397.56
305.661	402.56
305.891	409.56
306.121	403.56
306.352	412.56
306.582	400.56
306.812	404.56
307.042	399.56
307.272	419.56
307.502	375.56
307.731	406.56
307.961	399.56
308.191	402.56
308.421	419.56
308.651	413.56
308.881	403.56
309.111	399.56
309.341	414.56
309.571	417.56
309.8	397.56
310.03	423.56
310.26	428.56
310.49	419.56
310.72	421.56
310.949	447.56
311.179	439.56
311.409	440.56
311.639	449.56
311.868	426.56
312.098	412.56
312.328	436.56
312.557	463.56
312.787	449.56
313.017	457.56
313.246	456.56
313.476	435.56
313.706	442.56
313.935	458.56
314.165	455.56
314.394	462.56
314.624	459.56
314.853	427.56
315.083	444.56
315.312	443.56
315.542	425.56
315.771	443.56
316.001	455.56
316.23	450.56
316.46	449.56
316.689	449.56
316.919	452.56
317.148	446.56
317.377	438.56
317.607	429.56
317.836	455.56
318.065	435.56
318.295	455.56
318.524	448.56
318.753	443.56
318.983	474.56
319.212	447.56
319.441	462.56
319.67	457.56
319.9	449.56
320.129	446.56
320.358	456.56
320.587	437.56
320.816	435.56
321.046	449.56
321.275	450.56
321.504	468.56
321.733	461.56
321.962	459.56
322.191	463.56
322.42	482.56
322.649	515.56
322.878	501.56
323.108	466.56
323.337	516.56
323.566	525.56
323.795	529.56
324.024	563.56
324.253	609.56
324.482	818.56
324.71	1165.56
324.939	1645.56
325.168	1463.56
325.397	801.56
325.626	610.56
325.855	548.56
326.084	543.56
326.313	532.56
326.542	551.56
326.77	541.56
326.999	617.56
327.228	766.56
327.457	1105.56
327.686	1299.56
327.914	893.56
328.143	655.56
328.372	625.56
328.6	572.56
328.829	589.56
329.058	565.56
329.287	579.56
329.515	568.56
329.744	545.56
329.972	551.56
330.201	561.56
330.43	589.56
330.658	623.56
330.887	623.56
331.115	592.56
331.344	545.56
331.572	537.56
331.801	566.56
332.03	567.56
332.258	556.56
332.486	534.56
332.715	591.56
332.943	549.56
333.172	619.56
333.4	603.56
333.629	598.56
333.857	635.56
334.085	649.56
334.314	632.56
334.542	647.56
334.771	647.56
334.999	645.56
335.227	612.56
335.455	598.56
335.684	600.56
335.912	561.56
336.14	573.56
336.369	575.56
336.597	551.56
336.825	559.56
337.053	552.56
337.281	547.56
337.51	556.56
337.738	561.56
337.966	527.56
338.194	555.56
338.422	551.56
338.65	542.56
338.878	533.56
339.106	545.56
339.334	522.56
339.562	514.56
339.79	526.56
340.018	538.56
340.246	531.56
340.474	498.56
340.702	549.56
340.93	513.56
341.158	522.56
341.386	510.56
341.614	509.56
341.842	530.56
342.07	514.56
342.298	490.56
342.526	505.56
342.754	492.56
342.981	519.56
343.209	531.56
343.437	534.56
343.665	546.56
343.893	552.56
344.12	563.56
344.348	565.56
344.576	578.56
344.804	551.56
345.031	532.56
345.259	525.56
345.487	531.56
345.714	494.56
345.942	541.56
346.17	492.56
346.397	508.56
346.625	488.56
346.853	503.56
347.08	483.56
347.308	499.56
347.535	482.56
347.763	493.56
347.99	512.56
348.218	495.56
348.445	522.56
348.673	473.56
348.9	498.56
349.128	501.56
349.355	477.56
349.583	469.56
349.81	511.56
350.037	482.56
350.265	490.56
350.492	490.56
350.72	485.56
350.947	495.56
351.174	492.56
351.402	492.56
351.629	491.56
351.856	504.56
352.083	502.56
352.311	519.56
352.538	485.56
352.765	479.56
352.992	507.56
353.22	509.56
353.447	483.56
353.674	492.56
353.901	471.56
354.128	483.56
354.355	483.56
354.583	483.56
354.81	481.56
355.037	489.56
355.264	482.56
355.491	480.56
355.718	478.56
355.945	466.56
356.172	475.56
356.399	463.56
356.626	468.56
356.853	483.56
357.08	473.56
357.307	485.56
357.534	483.56
357.761	483.56
357.988	491.56
358.215	486.56
358.441	454.56
358.668	492.56
358.895	481.56
359.122	463.56
359.349	484.56
359.576	501.56
359.802	502.56
360.029	498.56
360.256	535.56
360.483	514.56
360.709	520.56
360.936	485.56
361.163	461.56
361.39	487.56
361.616	498.56
361.843	503.56
362.07	485.56
362.296	494.56
362.523	501.56
362.749	497.56
362.976	485.56
363.203	485.56
363.429	474.56
363.656	488.56
363.882	481.56
364.109	487.56
364.335	470.56
364.562	468.56
364.788	491.56
365.015	492.56
365.241	490.56
365.468	512.56
365.694	484.56
365.92	490.56
366.147	493.56
366.373	482.56
366.599	475.56
366.826	479.56
367.052	498.56
367.278	483.56
367.505	476.56
367.731	477.56
367.957	476.56
368.184	490.56
368.41	491.56
368.636	484.56
368.862	507.56
369.089	479.56
369.315	491.56
369.541	489.56
369.767	490.56
369.993	496.56
370.219	487.56
370.445	513.56
370.672	499.56
370.898	494.56
371.124	503.56
371.35	507.56
371.576	524.56
371.802	505.56
372.028	514.56
372.254	508.56
372.48	522.56
372.706	525.56
372.932	526.56
373.158	517.56
373.384	522.56
373.61	519.56
373.835	535.56
374.061	519.56
374.287	511.56
374.513	510.56
374.739	542.56
374.965	527.56
375.191	529.56
375.416	535.56
375.642	533.56
375.868	538.56
376.094	515.56
376.319	523.56
376.545	522.56
376.771	514.56
376.997	515.56
377.222	516.56
377.448	508.56
377.674	494.56
377.899	523.56
378.125	480.56
378.35	512.56
378.576	508.56
378.802	482.56
379.027	519.56
379.253	510.56
379.478	494.56
379.704	510.56
379.929	517.56
380.155	487.56
380.38	509.56
380.606	509.56
380.831	497.56
381.057	515.56
381.282	519.56
381.507	510.56
381.733	519.56
381.958	505.56
382.184	508.56
382.409	519.56
382.634	517.56
382.86	513.56
383.085	538.56
383.31	528.56
383.535	549.56
383.761	533.56
383.986	531.56
384.211	540.56
384.436	546.56
384.662	573.56
384.887	563.56
385.112	562.56
385.337	594.56
385.562	583.56
385.787	583.56
386.013	594.56
386.238	612.56
386.463	583.56
386.688	577.56
386.913	577.56
387.138	578.56
387.363	600.56
387.588	567.56
387.813	574.56
388.038	585.56
388.263	584.56
388.488	585.56
388.713	591.56
388.938	580.56
389.163	595.56
389.387	582.56
389.612	581.56
389.837	579.56
390.062	574.56
390.287	577.56
390.512	564.56
390.736	597.56
390.961	577.56
391.186	583.56
391.411	592.56
391.636	609.56
391.86	625.56
392.085	642.56
392.31	638.56
392.534	616.56
392.759	622.56
392.984	578.56
393.208	613.56
393.433	594.56
393.658	605.56
393.882	605.56
394.107	615.56
394.331	609.56
394.556	613.56
394.78	611.56
395.005	620.56
395.229	613.56
395.454	622.56
395.678	619.56
395.903	617.56
396.127	619.56
396.352	652.56
396.576	631.56
396.801	581.56
397.025	616.56
397.249	597.56
397.474	613.56
397.698	642.56
397.922	673.56
398.147	668.56
398.371	667.56
398.595	647.56
398.82	711.56
399.044	730.56
399.268	787.56
399.492	850.56
399.717	930.56
399.941	943.56
400.165	921.56
400.389	858.56
400.613	780.56
400.837	756.56
401.062	719.56
401.286	693.56
401.51	691.56
401.734	701.56
401.958	703.56
402.182	702.56
402.406	725.56
402.63	703.56
402.854	730.56
403.078	716.56
403.302	746.56
403.526	773.56
403.75	761.56
403.974	769.56
404.198	753.56
404.422	757.56
404.645	792.56
404.869	767.56
405.093	798.56
405.317	830.56
405.541	833.56
405.765	781.56
405.988	755.56
406.212	792.56
406.436	797.56
406.66	808.56
406.883	780.56
407.107	818.56
407.331	891.56
407.555	945.56
407.778	936.56
408.002	880.56
408.226	823.56
408.449	807.56
408.673	800.56
408.896	807.56
409.12	835.56
409.344	811.56
409.567	748.56
409.791	753.56
410.014	725.56
410.238	732.56
410.461	711.56
410.685	765.56
410.908	757.56
411.132	764.56
411.355	797.56
411.578	752.56
411.802	716.56
412.025	727.56
412.249	748.56
412.472	794.56
412.695	775.56
412.919	741.56
413.142	743.56
413.365	721.56
413.589	692.56
413.812	702.56
414.035	676.56
414.258	684.56
414.482	675.56
414.705	689.56
414.928	726.56
415.151	689.56
415.374	679.56
415.597	677.56
415.821	684.56
416.044	673.56
416.267	668.56
416.49	675.56
416.713	681.56
416.936	685.56
417.159	668.56
417.382	684.56
417.605	673.56
417.828	709.56
418.051	716.56
418.274	729.56
418.497	706.56
418.72	701.56
418.943	693.56
419.166	714.56
419.389	764.56
419.611	775.56
419.834	750.56
420.057	738.56
420.28	702.56
420.503	714.56
420.726	708.56
420.948	715.56
421.171	751.56
421.394	741.56
421.617	730.56
421.839	696.56
422.062	707.56
422.285	693.56
422.507	771.56
422.73	821.56
422.953	803.56
423.175	739.56
423.398	741.56
423.621	731.56
423.843	737.56
424.066	753.56
424.288	727.56
424.511	772.56
424.733	763.56
424.956	867.56
425.178	809.56
425.401	819.56
425.623	846.56
425.846	770.56
426.068	751.56
426.291	721.56
426.513	693.56
426.735	724.56
426.958	732.56
427.18	795.56
427.402	910.56
427.625	963.56
427.847	852.56
428.069	787.56
428.292	716.56
428.514	661.56
428.736	664.56
428.958	645.56
429.181	644.56
429.403	638.56
429.625	661.56
429.847	684.56
430.069	717.56
430.292	737.56
430.514	665.56
430.736	677.56
430.958	651.56
431.18	620.56
431.402	641.56
431.624	635.56
431.846	638.56
432.068	638.56
432.29	672.56
432.512	645.56
432.734	655.56
432.956	633.56
433.178	665.56
433.4	633.56
433.622	632.56
433.844	653.56
434.066	652.56
434.287	635.56
434.509	664.56
434.731	673.56
434.953	707.56
435.175	702.56
435.397	715.56
435.618	722.56
435.84	725.56
436.062	793.56
436.284	843.56
436.505	725.56
436.727	685.56
436.949	673.56
437.17	650.56
437.392	646.56
437.614	671.56
437.835	675.56
438.057	718.56
438.278	826.56
438.5	810.56
438.721	885.56
438.943	872.56
439.165	711.56
439.386	677.56
439.608	694.56
439.829	688.56
440.05	698.56
440.272	733.56
440.493	708.56
440.715	686.56
440.936	700.56
441.158	677.56
441.379	688.56
441.6	697.56
441.822	718.56
442.043	733.56
442.264	804.56
442.486	870.56
442.707	766.56
442.928	725.56
443.149	728.56
443.371	741.56
443.592	763.56
443.813	842.56
444.034	908.56
444.255	815.56
444.476	784.56
444.698	756.56
444.919	800.56
445.14	905.56
445.361	827.56
445.582	775.56
445.803	787.56
446.024	865.56
446.245	845.56
446.466	818.56
446.687	719.56
446.908	704.56
447.129	656.56
447.35	637.56
447.571	670.56
447.792	646.56
448.013	635.56
448.234	637.56
448.455	673.56
448.675	750.56
448.896	852.56
449.117	715.56
449.338	708.56
449.559	797.56
449.779	881.56
450	730.56
450.221	660.56
450.442	622.56
450.662	621.56
450.883	611.56
451.104	627.56
451.324	638.56
451.545	617.56
451.766	582.56
451.986	578.56
452.207	616.56
452.428	564.56
452.648	589.56
452.869	577.56
453.089	590.56
453.31	599.56
453.53	598.56
453.751	578.56
453.971	583.56
454.192	599.56
454.412	592.56
454.633	559.56
454.853	579.56
455.073	572.56
455.294	566.56
455.514	643.56
455.734	608.56
455.955	559.56
456.175	579.56
456.395	574.56
456.616	555.56
456.836	565.56
457.056	531.56
457.276	555.56
457.497	575.56
457.717	561.56
457.937	574.56
458.157	592.56
458.377	585.56
458.598	602.56
458.818	634.56
459.038	706.56
459.258	721.56
459.478	665.56
459.698	653.56
459.918	691.56
460.138	663.56
460.358	664.56
460.578	701.56
460.798	716.56
461.018	697.56
461.238	703.56
461.458	719.56
461.678	678.56
461.898	703.56
462.118	692.56
462.338	726.56
462.558	726.56
462.777	750.56
462.997	815.56
463.217	853.56
463.437	836.56
463.657	794.56
463.876	755.56
464.096	781.56
464.316	765.56
464.536	776.56
464.755	780.56
464.975	739.56
465.195	773.56
465.414	785.56
465.634	699.56
465.854	689.56
466.073	665.56
466.293	637.56
466.512	626.56
466.732	619.56
466.951	623.56
467.171	607.56
467.391	618.56
467.61	620.56
467.829	639.56
468.049	628.56
468.268	616.56
468.488	611.56
468.707	603.56
468.927	607.56
469.146	600.56
469.365	599.56
469.585	628.56
469.804	627.56
470.023	637.56
470.243	643.56
470.462	638.56
470.681	656.56
470.901	622.56
471.12	623.56
471.339	616.56
471.558	627.56
471.777	617.56
471.997	585.56
472.216	627.56
472.435	619.56
472.654	634.56
472.873	615.56
473.092	603.56
473.311	582.56
473.53	615.56
473.749	597.56
473.968	618.56
474.187	683.56
474.406	720.56
474.625	636.56
474.844	613.56
475.063	633.56
475.282	610.56
475.501	613.56
475.72	599.56
475.939	617.56
476.158	600.56
476.377	620.56
476.596	642.56
476.814	620.56
477.033	649.56
477.252	647.56
477.471	671.56
477.69	668.56
477.908	677.56
478.127	684.56
478.346	686.56
478.564	704.56
478.783	714.56
479.002	742.56
479.22	713.56
479.439	736.56
479.658	753.56
479.876	745.56
480.095	750.56
480.313	821.56
480.532	813.56
480.751	797.56
480.969	788.56
481.188	833.56
481.406	845.56
481.624	764.56
481.843	746.56
482.061	734.56
482.28	709.56
482.498	701.56
482.717	706.56
482.935	706.56
483.153	715.56
483.372	690.56
483.59	689.56
483.808	727.56
484.027	712.56
484.245	727.56
484.463	700.56
484.681	708.56
484.9	705.56
485.118	700.56
485.336	727.56
485.554	702.56
485.772	710.56
485.99	750.56
486.209	751.56
486.427	728.56
486.645	746.56
486.863	749.56
487.081	783.56
487.299	759.56
487.517	757.56
487.735	731.56
487.953	759.56
488.171	755.56
488.389	737.56
488.607	742.56
488.825	759.56
489.043	734.56
489.261	751.56
489.479	753.56
489.696	757.56
489.914	750.56
490.132	785.56
490.35	791.56
490.568	800.56
490.786	781.56
491.003	799.56
491.221	809.56
491.439	829.56
491.657	831.56
491.874	828.56
492.092	858.56
492.31	850.56
492.527	826.56
492.745	850.56
492.963	839.56
493.18	853.56
493.398	878.56
493.615	870.56
493.833	839.56
494.05	884.56
494.268	875.56
494.485	865.56
494.703	836.56
494.92	887.56
495.138	861.56
495.355	864.56
495.573	889.56
495.79	847.56
496.008	848.56
496.225	877.56
496.442	881.56
496.66	893.56
496.877	906.56
497.094	896.56
497.312	914.56
497.529	918.56
497.746	938.56
497.963	970.56
498.181	1011.56
498.398	1021.56
498.615	1088.56
498.832	1123.56
499.049	1161.56
499.267	1222.56
499.484	1301.56
499.701	1363.56
499.918	1430.56
500.135	1603.56
500.352	1726.56
500.569	1730.56
500.786	1782.56
501.003	1732.56
501.22	1582.56
501.437	1461.56
501.654	1388.56
