Data from 1963.PennyLincolnUp.Lamp.En5.5.200Scan.071719.P1._HRD10591_13-58-27-063.txt Node
Date: Thu Jul 18 13:58:27 EDT 2019
User: cochatt
Spectrometer: HR+D1059
Trigger mode: 1
Integration Time (sec): 1.000000E-1
Scans to average: 1
Electric dark correction enabled: true
Nonlinearity correction enabled: false
Boxcar width: 0
XAxis mode: Wavelengths
Number of Pixels in Spectrum: 2048
>>>>>Begin Spectral Data<<<<<
223.165	-9.69
223.4	-9.69
223.635	-9.69
223.869	-20.69
224.104	-24.69
224.338	-16.69
224.573	-0.69
224.808	-13.69
225.042	-4.69
225.277	-13.69
225.511	19.31
225.746	-2.69
225.98	0.31
226.215	3.31
226.449	9.31
226.683	19.31
226.918	17.31
227.152	38.31
227.387	43.31
227.621	36.31
227.856	45.31
228.09	40.31
228.324	47.31
228.559	47.31
228.793	58.31
229.027	101.31
229.262	105.31
229.496	106.31
229.73	131.31
229.964	147.31
230.199	131.31
230.433	119.31
230.667	115.31
230.901	114.31
231.136	122.31
231.37	115.31
231.604	116.31
231.838	122.31
232.072	114.31
232.306	120.31
232.541	103.31
232.775	113.31
233.009	135.31
233.243	124.31
233.477	119.31
233.711	119.31
233.945	109.31
234.179	131.31
234.413	124.31
234.647	104.31
234.881	120.31
235.115	108.31
235.349	117.31
235.583	131.31
235.817	127.31
236.051	112.31
236.285	147.31
236.519	131.31
236.753	127.31
236.987	143.31
237.221	159.31
237.455	197.31
237.689	185.31
237.922	137.31
238.156	131.31
238.39	142.31
238.624	133.31
238.858	122.31
239.091	121.31
239.325	133.31
239.559	136.31
239.793	128.31
240.027	134.31
240.26	147.31
240.494	169.31
240.728	160.31
240.961	166.31
241.195	153.31
241.429	155.31
241.662	161.31
241.896	141.31
242.13	131.31
242.363	145.31
242.597	135.31
242.83	147.31
243.064	156.31
243.298	151.31
243.531	159.31
243.765	147.31
243.998	157.31
244.232	145.31
244.465	155.31
244.699	173.31
244.932	162.31
245.166	156.31
245.399	156.31
245.633	156.31
245.866	156.31
246.099	169.31
246.333	159.31
246.566	167.31
246.8	149.31
247.033	168.31
247.266	172.31
247.5	167.31
247.733	177.31
247.966	179.31
248.2	189.31
248.433	177.31
248.666	178.31
248.899	196.31
249.133	201.31
249.366	220.31
249.599	189.31
249.832	186.31
250.066	193.31
250.299	188.31
250.532	197.31
250.765	215.31
250.998	218.31
251.231	214.31
251.465	213.31
251.698	207.31
251.931	201.31
252.164	193.31
252.397	209.31
252.63	202.31
252.863	213.31
253.096	235.31
253.329	228.31
253.562	225.31
253.795	236.31
254.028	224.31
254.261	227.31
254.494	235.31
254.727	258.31
254.96	250.31
255.193	255.31
255.426	253.31
255.659	246.31
255.892	236.31
256.124	251.31
256.357	226.31
256.59	255.31
256.823	241.31
257.056	215.31
257.289	211.31
257.521	228.31
257.754	243.31
257.987	215.31
258.22	240.31
258.452	234.31
258.685	230.31
258.918	234.31
259.151	220.31
259.383	257.31
259.616	224.31
259.849	229.31
260.081	256.31
260.314	251.31
260.547	270.31
260.779	243.31
261.012	255.31
261.244	241.31
261.477	246.31
261.71	236.31
261.942	257.31
262.175	261.31
262.407	259.31
262.64	234.31
262.872	237.31
263.105	241.31
263.337	230.31
263.57	229.31
263.802	243.31
264.035	224.31
264.267	239.31
264.499	257.31
264.732	239.31
264.964	251.31
265.197	249.31
265.429	244.31
265.661	239.31
265.894	230.31
266.126	254.31
266.358	243.31
266.591	236.31
266.823	255.31
267.055	241.31
267.287	259.31
267.52	258.31
267.752	259.31
267.984	269.31
268.216	252.31
268.448	256.31
268.681	264.31
268.913	274.31
269.145	280.31
269.377	288.31
269.609	281.31
269.841	290.31
270.073	288.31
270.306	310.31
270.538	309.31
270.77	309.31
271.002	304.31
271.234	317.31
271.466	319.31
271.698	332.31
271.93	333.31
272.162	329.31
272.394	350.31
272.626	315.31
272.858	307.31
273.09	321.31
273.322	296.31
273.553	288.31
273.785	300.31
274.017	289.31
274.249	314.31
274.481	280.31
274.713	291.31
274.945	289.31
275.176	299.31
275.408	275.31
275.64	297.31
275.872	307.31
276.104	289.31
276.335	299.31
276.567	308.31
276.799	327.31
277.031	348.31
277.262	325.31
277.494	339.31
277.726	335.31
277.957	328.31
278.189	316.31
278.421	315.31
278.652	335.31
278.884	315.31
279.115	319.31
279.347	327.31
279.579	309.31
279.81	313.31
280.042	314.31
280.273	325.31
280.505	311.31
280.736	323.31
280.968	311.31
281.199	316.31
281.431	316.31
281.662	306.31
281.894	323.31
282.125	331.31
282.356	334.31
282.588	331.31
282.819	336.31
283.051	327.31
283.282	340.31
283.513	330.31
283.745	348.31
283.976	319.31
284.207	332.31
284.439	329.31
284.67	327.31
284.901	342.31
285.132	331.31
285.364	329.31
285.595	341.31
285.826	328.31
286.057	321.31
286.288	339.31
286.52	357.31
286.751	327.31
286.982	339.31
287.213	354.31
287.444	367.31
287.675	357.31
287.906	355.31
288.138	358.31
288.369	354.31
288.6	361.31
288.831	353.31
289.062	354.31
289.293	347.31
289.524	372.31
289.755	357.31
289.986	338.31
290.217	342.31
290.448	354.31
290.679	340.31
290.91	369.31
291.141	352.31
291.371	367.31
291.602	354.31
291.833	364.31
292.064	349.31
292.295	360.31
292.526	340.31
292.757	351.31
292.987	359.31
293.218	357.31
293.449	361.31
293.68	377.31
293.91	342.31
294.141	344.31
294.372	354.31
294.603	353.31
294.833	352.31
295.064	369.31
295.295	359.31
295.525	387.31
295.756	387.31
295.987	375.31
296.217	377.31
296.448	388.31
296.679	371.31
296.909	371.31
297.14	367.31
297.37	374.31
297.601	373.31
297.831	389.31
298.062	376.31
298.292	349.31
298.523	377.31
298.753	377.31
298.984	381.31
299.214	377.31
299.445	375.31
299.675	370.31
299.905	379.31
300.136	382.31
300.366	389.31
300.597	403.31
300.827	392.31
301.057	413.31
301.288	410.31
301.518	416.31
301.748	417.31
301.979	424.31
302.209	425.31
302.439	403.31
302.669	419.31
302.9	412.31
303.13	409.31
303.36	410.31
303.59	405.31
303.82	421.31
304.051	424.31
304.281	409.31
304.511	410.31
304.741	414.31
304.971	389.31
305.201	417.31
305.431	419.31
305.661	410.31
305.891	391.31
306.121	401.31
306.352	411.31
306.582	424.31
306.812	407.31
307.042	397.31
307.272	388.31
307.502	397.31
307.731	404.31
307.961	407.31
308.191	429.31
308.421	410.31
308.651	400.31
308.881	419.31
309.111	403.31
309.341	412.31
309.571	423.31
309.8	415.31
310.03	422.31
310.26	425.31
310.49	421.31
310.72	433.31
310.949	453.31
311.179	473.31
311.409	443.31
311.639	418.31
311.868	427.31
312.098	438.31
312.328	459.31
312.557	466.31
312.787	450.31
313.017	449.31
313.246	450.31
313.476	439.31
313.706	458.31
313.935	450.31
314.165	449.31
314.394	468.31
314.624	450.31
314.853	461.31
315.083	453.31
315.312	459.31
315.542	438.31
315.771	446.31
316.001	456.31
316.23	440.31
316.46	442.31
316.689	449.31
316.919	449.31
317.148	443.31
317.377	456.31
317.607	449.31
317.836	473.31
318.065	448.31
318.295	435.31
318.524	450.31
318.753	429.31
318.983	423.31
319.212	440.31
319.441	458.31
319.67	457.31
319.9	447.31
320.129	466.31
320.358	472.31
320.587	440.31
320.816	439.31
321.046	465.31
321.275	480.31
321.504	449.31
321.733	469.31
321.962	464.31
322.191	467.31
322.42	482.31
322.649	488.31
322.878	513.31
323.108	487.31
323.337	515.31
323.566	492.31
323.795	539.31
324.024	567.31
324.253	593.31
324.482	815.31
324.71	1122.31
324.939	1595.31
325.168	1413.31
325.397	808.31
325.626	614.31
325.855	548.31
326.084	527.31
326.313	527.31
326.542	531.31
326.77	550.31
326.999	643.31
327.228	746.31
327.457	1056.31
327.686	1314.31
327.914	912.31
328.143	671.31
328.372	606.31
328.6	576.31
328.829	572.31
329.058	583.31
329.287	594.31
329.515	565.31
329.744	551.31
329.972	539.31
330.201	577.31
330.43	561.31
330.658	596.31
330.887	625.31
331.115	634.31
331.344	594.31
331.572	555.31
331.801	568.31
332.03	544.31
332.258	555.31
332.486	565.31
332.715	578.31
332.943	556.31
333.172	579.31
333.4	583.31
333.629	613.31
333.857	624.31
334.085	643.31
334.314	605.31
334.542	655.31
334.771	709.31
334.999	633.31
335.227	617.31
335.455	587.31
335.684	581.31
335.912	597.31
336.14	576.31
336.369	573.31
336.597	569.31
336.825	554.31
337.053	550.31
337.281	541.31
337.51	539.31
337.738	557.31
337.966	546.31
338.194	544.31
338.422	543.31
338.65	537.31
338.878	539.31
339.106	516.31
339.334	546.31
339.562	533.31
339.79	530.31
340.018	537.31
340.246	527.31
340.474	531.31
340.702	537.31
340.93	532.31
341.158	540.31
341.386	524.31
341.614	531.31
341.842	525.31
342.07	515.31
342.298	503.31
342.526	524.31
342.754	517.31
342.981	519.31
343.209	513.31
343.437	538.31
343.665	546.31
343.893	569.31
344.12	596.31
344.348	589.31
344.576	570.31
344.804	559.31
345.031	552.31
345.259	546.31
345.487	539.31
345.714	521.31
345.942	511.31
346.17	517.31
346.397	514.31
346.625	511.31
346.853	513.31
347.08	495.31
347.308	487.31
347.535	509.31
347.763	543.31
347.99	490.31
348.218	518.31
348.445	517.31
348.673	515.31
348.9	519.31
349.128	486.31
349.355	483.31
349.583	498.31
349.81	481.31
350.037	490.31
350.265	467.31
350.492	471.31
350.72	500.31
350.947	503.31
351.174	506.31
351.402	529.31
351.629	510.31
351.856	499.31
352.083	498.31
352.311	488.31
352.538	489.31
352.765	522.31
352.992	496.31
353.22	495.31
353.447	496.31
353.674	515.31
353.901	471.31
354.128	475.31
354.355	502.31
354.583	475.31
354.81	457.31
355.037	480.31
355.264	464.31
355.491	486.31
355.718	493.31
355.945	472.31
356.172	492.31
356.399	477.31
356.626	492.31
356.853	471.31
357.08	466.31
357.307	477.31
357.534	471.31
357.761	495.31
357.988	479.31
358.215	478.31
358.441	489.31
358.668	491.31
358.895	490.31
359.122	511.31
359.349	478.31
359.576	526.31
359.802	523.31
360.029	529.31
360.256	529.31
360.483	547.31
360.709	516.31
360.936	507.31
361.163	502.31
361.39	501.31
361.616	513.31
361.843	486.31
362.07	496.31
362.296	500.31
362.523	507.31
362.749	484.31
362.976	471.31
363.203	484.31
363.429	504.31
363.656	483.31
363.882	485.31
364.109	489.31
364.335	473.31
364.562	449.31
364.788	491.31
365.015	475.31
365.241	463.31
365.468	474.31
365.694	497.31
365.92	514.31
366.147	497.31
366.373	486.31
366.599	495.31
366.826	495.31
367.052	478.31
367.278	475.31
367.505	496.31
367.731	488.31
367.957	481.31
368.184	504.31
368.41	502.31
368.636	513.31
368.862	520.31
369.089	515.31
369.315	507.31
369.541	487.31
369.767	490.31
369.993	496.31
370.219	479.31
370.445	492.31
370.672	492.31
370.898	509.31
371.124	515.31
371.35	517.31
371.576	511.31
371.802	527.31
372.028	513.31
372.254	511.31
372.48	492.31
372.706	500.31
372.932	521.31
373.158	525.31
373.384	524.31
373.61	501.31
373.835	514.31
374.061	521.31
374.287	498.31
374.513	538.31
374.739	547.31
374.965	541.31
375.191	529.31
375.416	548.31
375.642	540.31
375.868	563.31
376.094	509.31
376.319	504.31
376.545	515.31
376.771	509.31
376.997	500.31
377.222	514.31
377.448	487.31
377.674	511.31
377.899	517.31
378.125	522.31
378.35	523.31
378.576	497.31
378.802	500.31
379.027	529.31
379.253	512.31
379.478	493.31
379.704	490.31
379.929	503.31
380.155	505.31
380.38	518.31
380.606	529.31
380.831	528.31
381.057	516.31
381.282	505.31
381.507	513.31
381.733	516.31
381.958	506.31
382.184	493.31
382.409	539.31
382.634	548.31
382.86	510.31
383.085	544.31
383.31	562.31
383.535	543.31
383.761	538.31
383.986	551.31
384.211	555.31
384.436	559.31
384.662	577.31
384.887	578.31
385.112	592.31
385.337	595.31
385.562	572.31
385.787	576.31
386.013	595.31
386.238	623.31
386.463	593.31
386.688	627.31
386.913	605.31
387.138	587.31
387.363	593.31
387.588	599.31
387.813	583.31
388.038	600.31
388.263	588.31
388.488	594.31
388.713	578.31
388.938	590.31
389.163	563.31
389.387	596.31
389.612	580.31
389.837	548.31
390.062	589.31
390.287	577.31
390.512	576.31
390.736	573.31
390.961	589.31
391.186	601.31
391.411	581.31
391.636	597.31
391.86	641.31
392.085	632.31
392.31	635.31
392.534	618.31
392.759	638.31
392.984	604.31
393.208	614.31
393.433	620.31
393.658	592.31
393.882	605.31
394.107	605.31
394.331	601.31
394.556	613.31
394.78	616.31
395.005	640.31
395.229	615.31
395.454	639.31
395.678	641.31
395.903	658.31
396.127	655.31
396.352	637.31
396.576	607.31
396.801	635.31
397.025	631.31
397.249	621.31
397.474	655.31
397.698	644.31
397.922	670.31
398.147	642.31
398.371	684.31
398.595	677.31
398.82	697.31
399.044	711.31
399.268	789.31
399.492	860.31
399.717	912.31
399.941	968.31
400.165	921.31
400.389	889.31
400.613	795.31
400.837	744.31
401.062	732.31
401.286	732.31
401.51	721.31
401.734	690.31
401.958	711.31
402.182	709.31
402.406	749.31
402.63	734.31
402.854	751.31
403.078	739.31
403.302	769.31
403.526	776.31
403.75	751.31
403.974	768.31
404.198	775.31
404.422	767.31
404.645	773.31
404.869	781.31
405.093	810.31
405.317	841.31
405.541	852.31
405.765	791.31
405.988	789.31
406.212	777.31
406.436	781.31
406.66	803.31
406.883	796.31
407.107	860.31
407.331	893.31
407.555	943.31
407.778	963.31
408.002	885.31
408.226	848.31
408.449	823.31
408.673	793.31
408.896	799.31
409.12	824.31
409.344	804.31
409.567	763.31
409.791	778.31
410.014	739.31
410.238	729.31
410.461	746.31
410.685	760.31
410.908	737.31
411.132	767.31
411.355	817.31
411.578	767.31
411.802	732.31
412.025	743.31
412.249	749.31
412.472	775.31
412.695	792.31
412.919	782.31
413.142	731.31
413.365	714.31
413.589	730.31
413.812	716.31
414.035	697.31
414.258	687.31
414.482	688.31
414.705	714.31
414.928	693.31
415.151	724.31
415.374	705.31
415.597	696.31
415.821	702.31
416.044	694.31
416.267	716.31
416.49	677.31
416.713	678.31
416.936	679.31
417.159	679.31
417.382	684.31
417.605	698.31
417.828	722.31
418.051	732.31
418.274	718.31
418.497	699.31
418.72	699.31
418.943	688.31
419.166	747.31
419.389	783.31
419.611	739.31
419.834	756.31
420.057	738.31
420.28	743.31
420.503	716.31
420.726	722.31
420.948	713.31
421.171	748.31
421.394	774.31
421.617	720.31
421.839	689.31
422.062	722.31
422.285	703.31
422.507	767.31
422.73	843.31
422.953	801.31
423.175	744.31
423.398	724.31
423.621	744.31
423.843	787.31
424.066	773.31
424.288	755.31
424.511	780.31
424.733	781.31
424.956	854.31
425.178	842.31
425.401	842.31
425.623	844.31
425.846	775.31
426.068	729.31
426.291	702.31
426.513	699.31
426.735	712.31
426.958	740.31
427.18	775.31
427.402	899.31
427.625	965.31
427.847	860.31
428.069	769.31
428.292	728.31
428.514	677.31
428.736	682.31
428.958	679.31
429.181	650.31
429.403	682.31
429.625	665.31
429.847	684.31
430.069	713.31
430.292	736.31
430.514	665.31
430.736	643.31
430.958	665.31
431.18	668.31
431.402	661.31
431.624	630.31
431.846	648.31
432.068	642.31
432.29	659.31
432.512	635.31
432.734	649.31
432.956	650.31
433.178	652.31
433.4	651.31
433.622	675.31
433.844	659.31
434.066	633.31
434.287	672.31
434.509	680.31
434.731	679.31
434.953	714.31
435.175	709.31
435.397	729.31
435.618	721.31
435.84	727.31
436.062	808.31
436.284	848.31
436.505	724.31
436.727	690.31
436.949	668.31
437.17	657.31
437.392	659.31
437.614	653.31
437.835	659.31
438.057	768.31
438.278	815.31
438.5	837.31
438.721	860.31
438.943	865.31
439.165	704.31
439.386	660.31
439.608	699.31
439.829	697.31
440.05	709.31
440.272	765.31
440.493	696.31
440.715	682.31
440.936	675.31
441.158	668.31
441.379	676.31
441.6	741.31
441.822	727.31
442.043	733.31
442.264	821.31
442.486	834.31
442.707	760.31
442.928	753.31
443.149	741.31
443.371	751.31
443.592	777.31
443.813	848.31
444.034	890.31
444.255	801.31
444.476	777.31
444.698	778.31
444.919	802.31
445.14	903.31
445.361	826.31
445.582	775.31
445.803	782.31
446.024	846.31
446.245	852.31
446.466	771.31
446.687	727.31
446.908	689.31
447.129	656.31
447.35	655.31
447.571	647.31
447.792	629.31
448.013	655.31
448.234	645.31
448.455	678.31
448.675	767.31
448.896	868.31
449.117	733.31
449.338	713.31
449.559	803.31
449.779	884.31
450	727.31
450.221	681.31
450.442	620.31
450.662	629.31
450.883	620.31
451.104	649.31
451.324	635.31
451.545	615.31
451.766	596.31
451.986	603.31
452.207	607.31
452.428	607.31
452.648	586.31
452.869	593.31
453.089	587.31
453.31	605.31
453.53	586.31
453.751	579.31
453.971	594.31
454.192	609.31
454.412	590.31
454.633	573.31
454.853	575.31
455.073	559.31
455.294	596.31
455.514	634.31
455.734	638.31
455.955	583.31
456.175	565.31
456.395	547.31
456.616	554.31
456.836	555.31
457.056	571.31
457.276	538.31
457.497	566.31
457.717	559.31
457.937	570.31
458.157	552.31
458.377	572.31
458.598	611.31
458.818	652.31
459.038	691.31
459.258	734.31
459.478	683.31
459.698	663.31
459.918	658.31
460.138	671.31
460.358	703.31
460.578	690.31
460.798	699.31
461.018	723.31
461.238	703.31
461.458	717.31
461.678	703.31
461.898	696.31
462.118	709.31
462.338	737.31
462.558	739.31
462.777	785.31
462.997	819.31
463.217	891.31
463.437	881.31
463.657	822.31
463.876	807.31
464.096	793.31
464.316	779.31
464.536	791.31
464.755	743.31
464.975	742.31
465.195	758.31
465.414	777.31
465.634	716.31
465.854	691.31
466.073	679.31
466.293	641.31
466.512	620.31
466.732	641.31
466.951	628.31
467.171	625.31
467.391	631.31
467.61	590.31
467.829	630.31
468.049	627.31
468.268	626.31
468.488	595.31
468.707	597.31
468.927	603.31
469.146	604.31
469.365	591.31
469.585	597.31
469.804	604.31
470.023	636.31
470.243	644.31
470.462	647.31
470.681	643.31
470.901	655.31
471.12	641.31
471.339	630.31
471.558	628.31
471.777	641.31
471.997	608.31
472.216	615.31
472.435	648.31
472.654	641.31
472.873	597.31
473.092	609.31
473.311	617.31
473.53	619.31
473.749	601.31
473.968	634.31
474.187	717.31
474.406	706.31
474.625	665.31
474.844	612.31
475.063	623.31
475.282	621.31
475.501	617.31
475.72	623.31
475.939	604.31
476.158	625.31
476.377	667.31
476.596	617.31
476.814	641.31
477.033	637.31
477.252	664.31
477.471	664.31
477.69	666.31
477.908	700.31
478.127	703.31
478.346	702.31
478.564	713.31
478.783	716.31
479.002	748.31
479.22	764.31
479.439	753.31
479.658	754.31
479.876	769.31
480.095	763.31
480.313	796.31
480.532	800.31
480.751	809.31
480.969	823.31
481.188	843.31
481.406	833.31
481.624	764.31
481.843	755.31
482.061	719.31
482.28	717.31
482.498	725.31
482.717	712.31
482.935	733.31
483.153	688.31
483.372	711.31
483.59	741.31
483.808	707.31
484.027	713.31
484.245	721.31
484.463	731.31
484.681	717.31
484.9	739.31
485.118	751.31
485.336	757.31
485.554	753.31
485.772	769.31
485.99	772.31
486.209	733.31
486.427	753.31
486.645	753.31
486.863	744.31
487.081	790.31
487.299	765.31
487.517	756.31
487.735	732.31
487.953	759.31
488.171	746.31
488.389	755.31
488.607	745.31
488.825	743.31
489.043	763.31
489.261	773.31
489.479	763.31
489.696	773.31
489.914	772.31
490.132	778.31
490.35	778.31
490.568	772.31
490.786	794.31
491.003	785.31
491.221	816.31
491.439	845.31
491.657	825.31
491.874	842.31
492.092	825.31
492.31	834.31
492.527	866.31
492.745	863.31
492.963	879.31
493.18	900.31
493.398	879.31
493.615	887.31
493.833	881.31
494.05	869.31
494.268	881.31
494.485	868.31
494.703	886.31
494.92	870.31
495.138	868.31
495.355	893.31
495.573	885.31
495.79	887.31
496.008	895.31
496.225	903.31
496.442	911.31
496.66	906.31
496.877	909.31
497.094	941.31
497.312	906.31
497.529	943.31
497.746	932.31
497.963	961.31
498.181	1031.31
498.398	1040.31
498.615	1075.31
498.832	1139.31
499.049	1183.31
499.267	1246.31
499.484	1305.31
499.701	1394.31
499.918	1457.31
500.135	1613.31
500.352	1749.31
500.569	1812.31
500.786	1873.31
501.003	1718.31
501.22	1617.31
501.437	1512.31
501.654	1419.31
