Data from 1963.PennyLincolnUp.Lamp.En5.5.200Scan.071719.P1._HRD10591_14-00-09-063.txt Node
Date: Thu Jul 18 14:00:09 EDT 2019
User: cochatt
Spectrometer: HR+D1059
Trigger mode: 1
Integration Time (sec): 1.000000E-1
Scans to average: 1
Electric dark correction enabled: true
Nonlinearity correction enabled: false
Boxcar width: 0
XAxis mode: Wavelengths
Number of Pixels in Spectrum: 2048
>>>>>Begin Spectral Data<<<<<
223.165	-18.56
223.4	-18.56
223.635	-18.56
223.869	-21.56
224.104	-7.56
224.338	-22.56
224.573	-17.56
224.808	-3.56
225.042	-11.56
225.277	-27.56
225.511	-1.56
225.746	7.44
225.98	4.44
226.215	13.44
226.449	7.44
226.683	23.44
226.918	36.44
227.152	39.44
227.387	21.44
227.621	32.44
227.856	40.44
228.09	39.44
228.324	58.44
228.559	60.44
228.793	63.44
229.027	99.44
229.262	124.44
229.496	108.44
229.73	128.44
229.964	135.44
230.199	123.44
230.433	126.44
230.667	108.44
230.901	116.44
231.136	114.44
231.37	118.44
231.604	111.44
231.838	97.44
232.072	121.44
232.306	121.44
232.541	111.44
232.775	118.44
233.009	129.44
233.243	110.44
233.477	123.44
233.711	123.44
233.945	127.44
234.179	115.44
234.413	108.44
234.647	130.44
234.881	124.44
235.115	128.44
235.349	129.44
235.583	130.44
235.817	128.44
236.051	148.44
236.285	150.44
236.519	133.44
236.753	123.44
236.987	143.44
237.221	166.44
237.455	222.44
237.689	180.44
237.922	147.44
238.156	142.44
238.39	130.44
238.624	130.44
238.858	134.44
239.091	131.44
239.325	144.44
239.559	136.44
239.793	155.44
240.027	150.44
240.26	170.44
240.494	152.44
240.728	162.44
240.961	150.44
241.195	170.44
241.429	133.44
241.662	155.44
241.896	159.44
242.13	136.44
242.363	155.44
242.597	150.44
242.83	160.44
243.064	155.44
243.298	171.44
243.531	158.44
243.765	143.44
243.998	172.44
244.232	162.44
244.465	171.44
244.699	159.44
244.932	174.44
245.166	154.44
245.399	168.44
245.633	176.44
245.866	175.44
246.099	178.44
246.333	167.44
246.566	167.44
246.8	164.44
247.033	182.44
247.266	175.44
247.5	175.44
247.733	184.44
247.966	184.44
248.2	201.44
248.433	191.44
248.666	179.44
248.899	199.44
249.133	202.44
249.366	207.44
249.599	224.44
249.832	190.44
250.066	196.44
250.299	209.44
250.532	205.44
250.765	207.44
250.998	215.44
251.231	244.44
251.465	234.44
251.698	218.44
251.931	217.44
252.164	220.44
252.397	205.44
252.63	223.44
252.863	229.44
253.096	224.44
253.329	239.44
253.562	253.44
253.795	236.44
254.028	221.44
254.261	219.44
254.494	231.44
254.727	246.44
254.96	290.44
255.193	284.44
255.426	236.44
255.659	249.44
255.892	247.44
256.124	254.44
256.357	243.44
256.59	239.44
256.823	255.44
257.056	218.44
257.289	248.44
257.521	244.44
257.754	230.44
257.987	228.44
258.22	223.44
258.452	230.44
258.685	233.44
258.918	221.44
259.151	235.44
259.383	253.44
259.616	253.44
259.849	258.44
260.081	256.44
260.314	282.44
260.547	265.44
260.779	266.44
261.012	238.44
261.244	262.44
261.477	262.44
261.71	239.44
261.942	269.44
262.175	262.44
262.407	255.44
262.64	246.44
262.872	231.44
263.105	239.44
263.337	238.44
263.57	239.44
263.802	252.44
264.035	231.44
264.267	242.44
264.499	257.44
264.732	273.44
264.964	247.44
265.197	230.44
265.429	246.44
265.661	246.44
265.894	253.44
266.126	240.44
266.358	258.44
266.591	252.44
266.823	244.44
267.055	264.44
267.287	280.44
267.52	263.44
267.752	252.44
267.984	272.44
268.216	262.44
268.448	263.44
268.681	285.44
268.913	286.44
269.145	311.44
269.377	314.44
269.609	303.44
269.841	322.44
270.073	301.44
270.306	322.44
270.538	336.44
270.77	323.44
271.002	328.44
271.234	330.44
271.466	321.44
271.698	334.44
271.93	344.44
272.162	356.44
272.394	357.44
272.626	342.44
272.858	310.44
273.09	315.44
273.322	319.44
273.553	319.44
273.785	301.44
274.017	291.44
274.249	321.44
274.481	299.44
274.713	316.44
274.945	333.44
275.176	307.44
275.408	312.44
275.64	315.44
275.872	306.44
276.104	327.44
276.335	298.44
276.567	327.44
276.799	346.44
277.031	357.44
277.262	361.44
277.494	364.44
277.726	341.44
277.957	342.44
278.189	325.44
278.421	319.44
278.652	311.44
278.884	326.44
279.115	307.44
279.347	322.44
279.579	329.44
279.81	319.44
280.042	330.44
280.273	315.44
280.505	316.44
280.736	323.44
280.968	329.44
281.199	335.44
281.431	346.44
281.662	336.44
281.894	331.44
282.125	336.44
282.356	337.44
282.588	348.44
282.819	356.44
283.051	318.44
283.282	336.44
283.513	344.44
283.745	344.44
283.976	338.44
284.207	339.44
284.439	338.44
284.67	337.44
284.901	342.44
285.132	345.44
285.364	347.44
285.595	347.44
285.826	343.44
286.057	356.44
286.288	342.44
286.52	345.44
286.751	365.44
286.982	344.44
287.213	356.44
287.444	363.44
287.675	356.44
287.906	372.44
288.138	375.44
288.369	380.44
288.6	359.44
288.831	356.44
289.062	389.44
289.293	359.44
289.524	378.44
289.755	365.44
289.986	358.44
290.217	368.44
290.448	357.44
290.679	376.44
290.91	376.44
291.141	357.44
291.371	350.44
291.602	376.44
291.833	348.44
292.064	374.44
292.295	372.44
292.526	370.44
292.757	377.44
292.987	374.44
293.218	363.44
293.449	363.44
293.68	357.44
293.91	375.44
294.141	361.44
294.372	368.44
294.603	358.44
294.833	365.44
295.064	368.44
295.295	375.44
295.525	372.44
295.756	379.44
295.987	380.44
296.217	397.44
296.448	398.44
296.679	376.44
296.909	384.44
297.14	376.44
297.37	390.44
297.601	380.44
297.831	382.44
298.062	379.44
298.292	364.44
298.523	394.44
298.753	403.44
298.984	398.44
299.214	374.44
299.445	395.44
299.675	392.44
299.905	411.44
300.136	399.44
300.366	399.44
300.597	412.44
300.827	421.44
301.057	416.44
301.288	426.44
301.518	438.44
301.748	414.44
301.979	425.44
302.209	420.44
302.439	439.44
302.669	422.44
302.9	423.44
303.13	409.44
303.36	438.44
303.59	413.44
303.82	422.44
304.051	428.44
304.281	446.44
304.511	429.44
304.741	406.44
304.971	424.44
305.201	434.44
305.431	420.44
305.661	418.44
305.891	431.44
306.121	436.44
306.352	427.44
306.582	429.44
306.812	401.44
307.042	412.44
307.272	426.44
307.502	421.44
307.731	429.44
307.961	421.44
308.191	422.44
308.421	416.44
308.651	432.44
308.881	442.44
309.111	425.44
309.341	423.44
309.571	430.44
309.8	424.44
310.03	457.44
310.26	433.44
310.49	454.44
310.72	439.44
310.949	447.44
311.179	460.44
311.409	428.44
311.639	455.44
311.868	452.44
312.098	478.44
312.328	468.44
312.557	467.44
312.787	495.44
313.017	492.44
313.246	467.44
313.476	470.44
313.706	478.44
313.935	486.44
314.165	484.44
314.394	479.44
314.624	512.44
314.853	471.44
315.083	473.44
315.312	462.44
315.542	456.44
315.771	454.44
316.001	486.44
316.23	467.44
316.46	450.44
316.689	468.44
316.919	475.44
317.148	463.44
317.377	482.44
317.607	461.44
317.836	476.44
318.065	459.44
318.295	462.44
318.524	453.44
318.753	464.44
318.983	469.44
319.212	442.44
319.441	451.44
319.67	492.44
319.9	468.44
320.129	478.44
320.358	459.44
320.587	482.44
320.816	470.44
321.046	485.44
321.275	489.44
321.504	470.44
321.733	476.44
321.962	503.44
322.191	506.44
322.42	506.44
322.649	510.44
322.878	501.44
323.108	527.44
323.337	519.44
323.566	555.44
323.795	582.44
324.024	573.44
324.253	673.44
324.482	849.44
324.71	1263.44
324.939	1747.44
325.168	1612.44
325.397	896.44
325.626	662.44
325.855	591.44
326.084	549.44
326.313	528.44
326.542	568.44
326.77	587.44
326.999	682.44
327.228	829.44
327.457	1172.44
327.686	1398.44
327.914	943.44
328.143	686.44
328.372	657.44
328.6	615.44
328.829	625.44
329.058	598.44
329.287	634.44
329.515	593.44
329.744	580.44
329.972	582.44
330.201	602.44
330.43	634.44
330.658	635.44
330.887	634.44
331.115	635.44
331.344	586.44
331.572	593.44
331.801	596.44
332.03	588.44
332.258	584.44
332.486	582.44
332.715	613.44
332.943	604.44
333.172	596.44
333.4	615.44
333.629	639.44
333.857	672.44
334.085	651.44
334.314	668.44
334.542	696.44
334.771	690.44
334.999	660.44
335.227	612.44
335.455	611.44
335.684	609.44
335.912	586.44
336.14	596.44
336.369	588.44
336.597	604.44
336.825	580.44
337.053	601.44
337.281	562.44
337.51	567.44
337.738	590.44
337.966	558.44
338.194	563.44
338.422	575.44
338.65	566.44
338.878	558.44
339.106	536.44
339.334	557.44
339.562	560.44
339.79	557.44
340.018	561.44
340.246	540.44
340.474	552.44
340.702	548.44
340.93	526.44
341.158	546.44
341.386	538.44
341.614	558.44
341.842	537.44
342.07	539.44
342.298	521.44
342.526	544.44
342.754	549.44
342.981	527.44
343.209	534.44
343.437	549.44
343.665	557.44
343.893	591.44
344.12	600.44
344.348	607.44
344.576	584.44
344.804	579.44
345.031	555.44
345.259	553.44
345.487	555.44
345.714	539.44
345.942	526.44
346.17	516.44
346.397	522.44
346.625	498.44
346.853	504.44
347.08	516.44
347.308	524.44
347.535	523.44
347.763	530.44
347.99	512.44
348.218	538.44
348.445	528.44
348.673	546.44
348.9	542.44
349.128	518.44
349.355	510.44
349.583	526.44
349.81	500.44
350.037	509.44
350.265	500.44
350.492	504.44
350.72	491.44
350.947	495.44
351.174	530.44
351.402	534.44
351.629	519.44
351.856	519.44
352.083	523.44
352.311	535.44
352.538	513.44
352.765	526.44
352.992	512.44
353.22	512.44
353.447	527.44
353.674	483.44
353.901	491.44
354.128	519.44
354.355	526.44
354.583	515.44
354.81	520.44
355.037	500.44
355.264	516.44
355.491	496.44
355.718	494.44
355.945	506.44
356.172	502.44
356.399	485.44
356.626	494.44
356.853	503.44
357.08	499.44
357.307	487.44
357.534	480.44
357.761	531.44
357.988	484.44
358.215	506.44
358.441	495.44
358.668	518.44
358.895	495.44
359.122	495.44
359.349	522.44
359.576	506.44
359.802	535.44
360.029	550.44
360.256	552.44
360.483	533.44
360.709	531.44
360.936	506.44
361.163	493.44
361.39	497.44
361.616	525.44
361.843	507.44
362.07	528.44
362.296	510.44
362.523	496.44
362.749	524.44
362.976	500.44
363.203	498.44
363.429	516.44
363.656	512.44
363.882	523.44
364.109	516.44
364.335	516.44
364.562	502.44
364.788	508.44
365.015	499.44
365.241	508.44
365.468	513.44
365.694	497.44
365.92	534.44
366.147	487.44
366.373	501.44
366.599	506.44
366.826	486.44
367.052	528.44
367.278	500.44
367.505	499.44
367.731	523.44
367.957	498.44
368.184	507.44
368.41	510.44
368.636	501.44
368.862	528.44
369.089	500.44
369.315	501.44
369.541	503.44
369.767	508.44
369.993	514.44
370.219	533.44
370.445	516.44
370.672	520.44
370.898	520.44
371.124	526.44
371.35	534.44
371.576	554.44
371.802	522.44
372.028	526.44
372.254	530.44
372.48	549.44
372.706	543.44
372.932	550.44
373.158	543.44
373.384	550.44
373.61	550.44
373.835	548.44
374.061	563.44
374.287	555.44
374.513	548.44
374.739	535.44
374.965	554.44
375.191	543.44
375.416	562.44
375.642	551.44
375.868	560.44
376.094	550.44
376.319	541.44
376.545	529.44
376.771	530.44
376.997	547.44
377.222	533.44
377.448	548.44
377.674	546.44
377.899	541.44
378.125	540.44
378.35	522.44
378.576	520.44
378.802	532.44
379.027	515.44
379.253	529.44
379.478	501.44
379.704	532.44
379.929	515.44
380.155	525.44
380.38	526.44
380.606	526.44
380.831	525.44
381.057	515.44
381.282	541.44
381.507	527.44
381.733	546.44
381.958	543.44
382.184	512.44
382.409	522.44
382.634	554.44
382.86	541.44
383.085	534.44
383.31	545.44
383.535	562.44
383.761	576.44
383.986	582.44
384.211	577.44
384.436	596.44
384.662	582.44
384.887	573.44
385.112	598.44
385.337	603.44
385.562	605.44
385.787	616.44
386.013	614.44
386.238	601.44
386.463	610.44
386.688	613.44
386.913	590.44
387.138	601.44
387.363	582.44
387.588	586.44
387.813	601.44
388.038	595.44
388.263	584.44
388.488	596.44
388.713	606.44
388.938	608.44
389.163	611.44
389.387	600.44
389.612	580.44
389.837	595.44
390.062	590.44
390.287	602.44
390.512	597.44
390.736	616.44
390.961	598.44
391.186	624.44
391.411	618.44
391.636	640.44
391.86	639.44
392.085	660.44
392.31	666.44
392.534	643.44
392.759	633.44
392.984	630.44
393.208	617.44
393.433	652.44
393.658	628.44
393.882	613.44
394.107	612.44
394.331	628.44
394.556	639.44
394.78	624.44
395.005	611.44
395.229	656.44
395.454	670.44
395.678	642.44
395.903	655.44
396.127	669.44
396.352	673.44
396.576	652.44
396.801	619.44
397.025	632.44
397.249	642.44
397.474	668.44
397.698	677.44
397.922	681.44
398.147	680.44
398.371	698.44
398.595	701.44
398.82	728.44
399.044	745.44
399.268	822.44
399.492	889.44
399.717	969.44
399.941	975.44
400.165	942.44
400.389	897.44
400.613	846.44
400.837	794.44
401.062	771.44
401.286	746.44
401.51	701.44
401.734	728.44
401.958	720.44
402.182	755.44
402.406	748.44
402.63	761.44
402.854	782.44
403.078	759.44
403.302	785.44
403.526	783.44
403.75	788.44
403.974	822.44
404.198	791.44
404.422	802.44
404.645	811.44
404.869	807.44
405.093	839.44
405.317	860.44
405.541	882.44
405.765	799.44
405.988	797.44
406.212	795.44
406.436	832.44
406.66	837.44
406.883	809.44
407.107	831.44
407.331	918.44
407.555	1006.44
407.778	982.44
408.002	886.44
408.226	875.44
408.449	832.44
408.673	832.44
408.896	836.44
409.12	879.44
409.344	849.44
409.567	816.44
409.791	792.44
410.014	784.44
410.238	761.44
410.461	760.44
410.685	768.44
410.908	780.44
411.132	803.44
411.355	834.44
411.578	794.44
411.802	740.44
412.025	751.44
412.249	779.44
412.472	780.44
412.695	796.44
412.919	799.44
413.142	748.44
413.365	725.44
413.589	704.44
413.812	723.44
414.035	712.44
414.258	717.44
414.482	709.44
414.705	739.44
414.928	726.44
415.151	740.44
415.374	740.44
415.597	703.44
415.821	707.44
416.044	712.44
416.267	729.44
416.49	692.44
416.713	702.44
416.936	711.44
417.159	712.44
417.382	687.44
417.605	686.44
417.828	726.44
418.051	723.44
418.274	741.44
418.497	731.44
418.72	725.44
418.943	743.44
419.166	762.44
419.389	785.44
419.611	772.44
419.834	768.44
420.057	756.44
420.28	767.44
420.503	741.44
420.726	745.44
420.948	754.44
421.171	769.44
421.394	790.44
421.617	760.44
421.839	733.44
422.062	736.44
422.285	725.44
422.507	805.44
422.73	862.44
422.953	850.44
423.175	774.44
423.398	748.44
423.621	748.44
423.843	829.44
424.066	804.44
424.288	780.44
424.511	804.44
424.733	826.44
424.956	890.44
425.178	860.44
425.401	859.44
425.623	876.44
425.846	781.44
426.068	764.44
426.291	750.44
426.513	744.44
426.735	720.44
426.958	758.44
427.18	832.44
427.402	957.44
427.625	964.44
427.847	882.44
428.069	804.44
428.292	752.44
428.514	701.44
428.736	679.44
428.958	672.44
429.181	668.44
429.403	648.44
429.625	678.44
429.847	714.44
430.069	752.44
430.292	746.44
430.514	666.44
430.736	683.44
430.958	653.44
431.18	647.44
431.402	670.44
431.624	640.44
431.846	666.44
432.068	664.44
432.29	680.44
432.512	674.44
432.734	686.44
432.956	651.44
433.178	675.44
433.4	674.44
433.622	665.44
433.844	664.44
434.066	656.44
434.287	694.44
434.509	713.44
434.731	716.44
434.953	731.44
435.175	743.44
435.397	738.44
435.618	755.44
435.84	772.44
436.062	838.44
436.284	896.44
436.505	778.44
436.727	741.44
436.949	698.44
437.17	702.44
437.392	686.44
437.614	694.44
437.835	686.44
438.057	768.44
438.278	867.44
438.5	883.44
438.721	912.44
438.943	918.44
439.165	756.44
439.386	728.44
439.608	733.44
439.829	719.44
440.05	734.44
440.272	758.44
440.493	744.44
440.715	706.44
440.936	711.44
441.158	682.44
441.379	714.44
441.6	712.44
441.822	730.44
442.043	766.44
442.264	874.44
442.486	879.44
442.707	783.44
442.928	734.44
443.149	756.44
443.371	775.44
443.592	823.44
443.813	903.44
444.034	967.44
444.255	843.44
444.476	805.44
444.698	814.44
444.919	812.44
445.14	919.44
445.361	860.44
445.582	790.44
445.803	831.44
446.024	893.44
446.245	895.44
446.466	835.44
446.687	760.44
446.908	713.44
447.129	704.44
447.35	682.44
447.571	670.44
447.792	655.44
448.013	682.44
448.234	678.44
448.455	724.44
448.675	798.44
448.896	902.44
449.117	804.44
449.338	730.44
449.559	834.44
449.779	947.44
450	786.44
450.221	698.44
450.442	646.44
450.662	652.44
450.883	644.44
451.104	656.44
451.324	660.44
451.545	639.44
451.766	644.44
451.986	592.44
452.207	602.44
452.428	603.44
452.648	602.44
452.869	606.44
453.089	629.44
453.31	616.44
453.53	614.44
453.751	621.44
453.971	592.44
454.192	602.44
454.412	598.44
454.633	601.44
454.853	588.44
455.073	591.44
455.294	590.44
455.514	649.44
455.734	656.44
455.955	592.44
456.175	591.44
456.395	563.44
456.616	579.44
456.836	560.44
457.056	575.44
457.276	587.44
457.497	604.44
457.717	573.44
457.937	588.44
458.157	590.44
458.377	613.44
458.598	611.44
458.818	685.44
459.038	718.44
459.258	773.44
459.478	700.44
459.698	712.44
459.918	683.44
460.138	702.44
460.358	713.44
460.578	733.44
460.798	754.44
461.018	738.44
461.238	704.44
461.458	723.44
461.678	736.44
461.898	765.44
462.118	702.44
462.338	759.44
462.558	774.44
462.777	773.44
462.997	853.44
463.217	898.44
463.437	874.44
463.657	842.44
463.876	811.44
464.096	820.44
464.316	779.44
464.536	839.44
464.755	801.44
464.975	783.44
465.195	784.44
465.414	816.44
465.634	735.44
465.854	678.44
466.073	664.44
466.293	678.44
466.512	634.44
466.732	653.44
466.951	629.44
467.171	627.44
467.391	627.44
467.61	638.44
467.829	624.44
468.049	646.44
468.268	628.44
468.488	621.44
468.707	618.44
468.927	615.44
469.146	604.44
469.365	631.44
469.585	626.44
469.804	663.44
470.023	651.44
470.243	657.44
470.462	668.44
470.681	670.44
470.901	692.44
471.12	642.44
471.339	639.44
471.558	668.44
471.777	639.44
471.997	639.44
472.216	633.44
472.435	660.44
472.654	639.44
472.873	654.44
473.092	629.44
473.311	641.44
473.53	635.44
473.749	644.44
473.968	666.44
474.187	735.44
474.406	765.44
474.625	679.44
474.844	641.44
475.063	612.44
475.282	641.44
475.501	635.44
475.72	634.44
475.939	656.44
476.158	653.44
476.377	628.44
476.596	634.44
476.814	651.44
477.033	664.44
477.252	668.44
477.471	666.44
477.69	693.44
477.908	703.44
478.127	724.44
478.346	702.44
478.564	729.44
478.783	763.44
479.002	755.44
479.22	763.44
479.439	768.44
479.658	768.44
479.876	762.44
480.095	791.44
480.313	841.44
480.532	837.44
480.751	808.44
480.969	807.44
481.188	836.44
481.406	890.44
481.624	814.44
481.843	770.44
482.061	754.44
482.28	742.44
482.498	733.44
482.717	742.44
482.935	746.44
483.153	748.44
483.372	735.44
483.59	740.44
483.808	716.44
484.027	739.44
484.245	740.44
484.463	741.44
484.681	776.44
484.9	774.44
485.118	745.44
485.336	733.44
485.554	763.44
485.772	771.44
485.99	759.44
486.209	792.44
486.427	776.44
486.645	797.44
486.863	791.44
487.081	789.44
487.299	775.44
487.517	782.44
487.735	788.44
487.953	796.44
488.171	816.44
488.389	798.44
488.607	802.44
488.825	798.44
489.043	785.44
489.261	782.44
489.479	801.44
489.696	780.44
489.914	804.44
490.132	822.44
490.35	818.44
490.568	821.44
490.786	810.44
491.003	850.44
491.221	852.44
491.439	871.44
491.657	882.44
491.874	871.44
492.092	886.44
492.31	884.44
492.527	858.44
492.745	872.44
492.963	876.44
493.18	893.44
493.398	900.44
493.615	904.44
493.833	869.44
494.05	876.44
494.268	909.44
494.485	924.44
494.703	927.44
494.92	894.44
495.138	882.44
495.355	918.44
495.573	913.44
495.79	927.44
496.008	922.44
496.225	914.44
496.442	927.44
496.66	910.44
496.877	937.44
497.094	974.44
497.312	988.44
497.529	957.44
497.746	993.44
497.963	1030.44
498.181	1038.44
498.398	1053.44
498.615	1110.44
498.832	1154.44
499.049	1195.44
499.267	1267.44
499.484	1333.44
499.701	1450.44
499.918	1513.44
500.135	1689.44
500.352	1814.44
500.569	1866.44
500.786	1853.44
501.003	1800.44
501.22	1642.44
501.437	1547.44
501.654	1431.44
