Data from 1963.PennyLincolnUp.Lamp.En5.5.200Scan.071719.P1._HRD10591_13-59-50-064.txt Node
Date: Thu Jul 18 13:59:50 EDT 2019
User: cochatt
Spectrometer: HR+D1059
Trigger mode: 1
Integration Time (sec): 1.000000E-1
Scans to average: 1
Electric dark correction enabled: true
Nonlinearity correction enabled: false
Boxcar width: 0
XAxis mode: Wavelengths
Number of Pixels in Spectrum: 2048
>>>>>Begin Spectral Data<<<<<
223.165	-17.31
223.4	-17.31
223.635	-17.31
223.869	-13.31
224.104	-27.31
224.338	-14.31
224.573	-14.31
224.808	-14.31
225.042	-15.31
225.277	-6.31
225.511	0.69
225.746	24.69
225.98	0.69
226.215	14.69
226.449	-2.31
226.683	17.69
226.918	29.69
227.152	36.69
227.387	27.69
227.621	42.69
227.856	60.69
228.09	50.69
228.324	48.69
228.559	59.69
228.793	81.69
229.027	104.69
229.262	100.69
229.496	117.69
229.73	128.69
229.964	146.69
230.199	130.69
230.433	125.69
230.667	129.69
230.901	128.69
231.136	123.69
231.37	119.69
231.604	121.69
231.838	122.69
232.072	121.69
232.306	131.69
232.541	117.69
232.775	125.69
233.009	125.69
233.243	122.69
233.477	112.69
233.711	127.69
233.945	119.69
234.179	140.69
234.413	121.69
234.647	128.69
234.881	127.69
235.115	141.69
235.349	142.69
235.583	130.69
235.817	134.69
236.051	128.69
236.285	156.69
236.519	134.69
236.753	155.69
236.987	156.69
237.221	188.69
237.455	220.69
237.689	190.69
237.922	156.69
238.156	160.69
238.39	154.69
238.624	144.69
238.858	145.69
239.091	145.69
239.325	145.69
239.559	146.69
239.793	135.69
240.027	157.69
240.26	146.69
240.494	177.69
240.728	161.69
240.961	168.69
241.195	151.69
241.429	164.69
241.662	158.69
241.896	142.69
242.13	142.69
242.363	156.69
242.597	150.69
242.83	145.69
243.064	168.69
243.298	153.69
243.531	177.69
243.765	164.69
243.998	154.69
244.232	164.69
244.465	167.69
244.699	188.69
244.932	165.69
245.166	158.69
245.399	157.69
245.633	161.69
245.866	163.69
246.099	162.69
246.333	166.69
246.566	172.69
246.8	163.69
247.033	166.69
247.266	188.69
247.5	206.69
247.733	202.69
247.966	198.69
248.2	210.69
248.433	204.69
248.666	192.69
248.899	204.69
249.133	217.69
249.366	216.69
249.599	221.69
249.832	227.69
250.066	227.69
250.299	216.69
250.532	215.69
250.765	216.69
250.998	238.69
251.231	241.69
251.465	234.69
251.698	231.69
251.931	219.69
252.164	210.69
252.397	226.69
252.63	215.69
252.863	225.69
253.096	238.69
253.329	248.69
253.562	252.69
253.795	228.69
254.028	231.69
254.261	228.69
254.494	253.69
254.727	264.69
254.96	294.69
255.193	272.69
255.426	250.69
255.659	268.69
255.892	252.69
256.124	237.69
256.357	252.69
256.59	251.69
256.823	251.69
257.056	230.69
257.289	241.69
257.521	235.69
257.754	261.69
257.987	247.69
258.22	228.69
258.452	232.69
258.685	234.69
258.918	253.69
259.151	254.69
259.383	238.69
259.616	264.69
259.849	262.69
260.081	252.69
260.314	278.69
260.547	282.69
260.779	289.69
261.012	251.69
261.244	265.69
261.477	258.69
261.71	273.69
261.942	267.69
262.175	270.69
262.407	251.69
262.64	240.69
262.872	253.69
263.105	252.69
263.337	266.69
263.57	247.69
263.802	241.69
264.035	244.69
264.267	240.69
264.499	234.69
264.732	266.69
264.964	260.69
265.197	253.69
265.429	260.69
265.661	265.69
265.894	269.69
266.126	268.69
266.358	264.69
266.591	269.69
266.823	261.69
267.055	266.69
267.287	268.69
267.52	285.69
267.752	281.69
267.984	270.69
268.216	285.69
268.448	294.69
268.681	287.69
268.913	284.69
269.145	288.69
269.377	314.69
269.609	316.69
269.841	306.69
270.073	317.69
270.306	313.69
270.538	346.69
270.77	338.69
271.002	341.69
271.234	321.69
271.466	334.69
271.698	342.69
271.93	347.69
272.162	357.69
272.394	358.69
272.626	332.69
272.858	331.69
273.09	333.69
273.322	309.69
273.553	312.69
273.785	299.69
274.017	316.69
274.249	322.69
274.481	324.69
274.713	292.69
274.945	334.69
275.176	330.69
275.408	323.69
275.64	328.69
275.872	293.69
276.104	320.69
276.335	300.69
276.567	329.69
276.799	366.69
277.031	356.69
277.262	366.69
277.494	365.69
277.726	352.69
277.957	343.69
278.189	337.69
278.421	327.69
278.652	328.69
278.884	340.69
279.115	325.69
279.347	314.69
279.579	307.69
279.81	334.69
280.042	312.69
280.273	337.69
280.505	342.69
280.736	322.69
280.968	326.69
281.199	317.69
281.431	341.69
281.662	335.69
281.894	329.69
282.125	338.69
282.356	344.69
282.588	363.69
282.819	346.69
283.051	353.69
283.282	349.69
283.513	348.69
283.745	352.69
283.976	342.69
284.207	352.69
284.439	352.69
284.67	336.69
284.901	357.69
285.132	360.69
285.364	352.69
285.595	338.69
285.826	362.69
286.057	360.69
286.288	360.69
286.52	352.69
286.751	358.69
286.982	346.69
287.213	375.69
287.444	353.69
287.675	366.69
287.906	386.69
288.138	369.69
288.369	388.69
288.6	380.69
288.831	390.69
289.062	390.69
289.293	370.69
289.524	384.69
289.755	370.69
289.986	363.69
290.217	369.69
290.448	373.69
290.679	364.69
290.91	378.69
291.141	375.69
291.371	384.69
291.602	381.69
291.833	361.69
292.064	375.69
292.295	364.69
292.526	382.69
292.757	363.69
292.987	358.69
293.218	372.69
293.449	361.69
293.68	376.69
293.91	366.69
294.141	365.69
294.372	375.69
294.603	388.69
294.833	384.69
295.064	382.69
295.295	383.69
295.525	397.69
295.756	376.69
295.987	400.69
296.217	405.69
296.448	424.69
296.679	380.69
296.909	385.69
297.14	398.69
297.37	398.69
297.601	406.69
297.831	399.69
298.062	408.69
298.292	387.69
298.523	404.69
298.753	401.69
298.984	389.69
299.214	398.69
299.445	396.69
299.675	397.69
299.905	412.69
300.136	408.69
300.366	401.69
300.597	415.69
300.827	412.69
301.057	423.69
301.288	416.69
301.518	420.69
301.748	429.69
301.979	428.69
302.209	434.69
302.439	442.69
302.669	417.69
302.9	401.69
303.13	425.69
303.36	428.69
303.59	424.69
303.82	428.69
304.051	439.69
304.281	440.69
304.511	443.69
304.741	407.69
304.971	440.69
305.201	436.69
305.431	419.69
305.661	441.69
305.891	425.69
306.121	430.69
306.352	430.69
306.582	429.69
306.812	432.69
307.042	449.69
307.272	436.69
307.502	430.69
307.731	420.69
307.961	438.69
308.191	429.69
308.421	422.69
308.651	442.69
308.881	438.69
309.111	430.69
309.341	401.69
309.571	427.69
309.8	460.69
310.03	468.69
310.26	459.69
310.49	447.69
310.72	462.69
310.949	449.69
311.179	480.69
311.409	460.69
311.639	444.69
311.868	453.69
312.098	472.69
312.328	474.69
312.557	490.69
312.787	495.69
313.017	487.69
313.246	482.69
313.476	476.69
313.706	466.69
313.935	466.69
314.165	490.69
314.394	490.69
314.624	482.69
314.853	471.69
315.083	471.69
315.312	481.69
315.542	497.69
315.771	470.69
316.001	467.69
316.23	468.69
316.46	459.69
316.689	479.69
316.919	457.69
317.148	467.69
317.377	486.69
317.607	495.69
317.836	473.69
318.065	492.69
318.295	472.69
318.524	464.69
318.753	476.69
318.983	451.69
319.212	448.69
319.441	501.69
319.67	492.69
319.9	470.69
320.129	485.69
320.358	463.69
320.587	459.69
320.816	477.69
321.046	499.69
321.275	477.69
321.504	500.69
321.733	489.69
321.962	495.69
322.191	507.69
322.42	474.69
322.649	520.69
322.878	523.69
323.108	526.69
323.337	550.69
323.566	543.69
323.795	599.69
324.024	589.69
324.253	678.69
324.482	868.69
324.71	1259.69
324.939	1850.69
325.168	1624.69
325.397	875.69
325.626	658.69
325.855	612.69
326.084	546.69
326.313	555.69
326.542	582.69
326.77	596.69
326.999	659.69
327.228	840.69
327.457	1160.69
327.686	1420.69
327.914	989.69
328.143	726.69
328.372	666.69
328.6	641.69
328.829	605.69
329.058	612.69
329.287	640.69
329.515	624.69
329.744	580.69
329.972	566.69
330.201	616.69
330.43	636.69
330.658	652.69
330.887	677.69
331.115	666.69
331.344	599.69
331.572	599.69
331.801	600.69
332.03	610.69
332.258	609.69
332.486	604.69
332.715	592.69
332.943	619.69
333.172	624.69
333.4	640.69
333.629	656.69
333.857	658.69
334.085	660.69
334.314	662.69
334.542	695.69
334.771	696.69
334.999	669.69
335.227	657.69
335.455	618.69
335.684	617.69
335.912	618.69
336.14	595.69
336.369	586.69
336.597	603.69
336.825	600.69
337.053	581.69
337.281	596.69
337.51	585.69
337.738	578.69
337.966	558.69
338.194	575.69
338.422	562.69
338.65	574.69
338.878	549.69
339.106	575.69
339.334	570.69
339.562	557.69
339.79	535.69
340.018	543.69
340.246	549.69
340.474	549.69
340.702	560.69
340.93	530.69
341.158	547.69
341.386	534.69
341.614	546.69
341.842	564.69
342.07	548.69
342.298	535.69
342.526	536.69
342.754	542.69
342.981	522.69
343.209	554.69
343.437	552.69
343.665	560.69
343.893	573.69
344.12	633.69
344.348	623.69
344.576	600.69
344.804	583.69
345.031	570.69
345.259	549.69
345.487	558.69
345.714	548.69
345.942	547.69
346.17	527.69
346.397	526.69
346.625	542.69
346.853	512.69
347.08	526.69
347.308	526.69
347.535	536.69
347.763	518.69
347.99	535.69
348.218	545.69
348.445	536.69
348.673	534.69
348.9	513.69
349.128	501.69
349.355	522.69
349.583	530.69
349.81	503.69
350.037	518.69
350.265	515.69
350.492	535.69
350.72	503.69
350.947	538.69
351.174	522.69
351.402	523.69
351.629	540.69
351.856	527.69
352.083	535.69
352.311	519.69
352.538	537.69
352.765	514.69
352.992	521.69
353.22	533.69
353.447	524.69
353.674	498.69
353.901	495.69
354.128	486.69
354.355	503.69
354.583	508.69
354.81	497.69
355.037	541.69
355.264	511.69
355.491	505.69
355.718	478.69
355.945	490.69
356.172	500.69
356.399	510.69
356.626	478.69
356.853	496.69
357.08	497.69
357.307	511.69
357.534	522.69
357.761	509.69
357.988	488.69
358.215	484.69
358.441	517.69
358.668	484.69
358.895	521.69
359.122	513.69
359.349	518.69
359.576	516.69
359.802	532.69
360.029	555.69
360.256	586.69
360.483	535.69
360.709	526.69
360.936	536.69
361.163	501.69
361.39	505.69
361.616	504.69
361.843	521.69
362.07	512.69
362.296	512.69
362.523	511.69
362.749	490.69
362.976	524.69
363.203	520.69
363.429	507.69
363.656	503.69
363.882	512.69
364.109	494.69
364.335	502.69
364.562	510.69
364.788	495.69
365.015	533.69
365.241	506.69
365.468	511.69
365.694	519.69
365.92	527.69
366.147	493.69
366.373	521.69
366.599	515.69
366.826	512.69
367.052	492.69
367.278	518.69
367.505	492.69
367.731	491.69
367.957	505.69
368.184	507.69
368.41	521.69
368.636	500.69
368.862	505.69
369.089	508.69
369.315	509.69
369.541	517.69
369.767	508.69
369.993	506.69
370.219	522.69
370.445	527.69
370.672	513.69
370.898	524.69
371.124	524.69
371.35	525.69
371.576	551.69
371.802	536.69
372.028	538.69
372.254	536.69
372.48	541.69
372.706	558.69
372.932	539.69
373.158	542.69
373.384	530.69
373.61	537.69
373.835	520.69
374.061	531.69
374.287	553.69
374.513	554.69
374.739	568.69
374.965	562.69
375.191	564.69
375.416	589.69
375.642	553.69
375.868	555.69
376.094	561.69
376.319	530.69
376.545	534.69
376.771	534.69
376.997	523.69
377.222	517.69
377.448	532.69
377.674	518.69
377.899	529.69
378.125	524.69
378.35	526.69
378.576	514.69
378.802	535.69
379.027	521.69
379.253	545.69
379.478	535.69
379.704	539.69
379.929	539.69
380.155	563.69
380.38	544.69
380.606	535.69
380.831	529.69
381.057	542.69
381.282	522.69
381.507	514.69
381.733	554.69
381.958	546.69
382.184	521.69
382.409	552.69
382.634	556.69
382.86	559.69
383.085	571.69
383.31	549.69
383.535	571.69
383.761	570.69
383.986	583.69
384.211	566.69
384.436	577.69
384.662	589.69
384.887	607.69
385.112	600.69
385.337	600.69
385.562	613.69
385.787	614.69
386.013	626.69
386.238	624.69
386.463	621.69
386.688	634.69
386.913	607.69
387.138	607.69
387.363	599.69
387.588	610.69
387.813	598.69
388.038	611.69
388.263	608.69
388.488	616.69
388.713	628.69
388.938	602.69
389.163	572.69
389.387	610.69
389.612	593.69
389.837	603.69
390.062	598.69
390.287	602.69
390.512	613.69
390.736	599.69
390.961	610.69
391.186	605.69
391.411	626.69
391.636	620.69
391.86	628.69
392.085	680.69
392.31	651.69
392.534	649.69
392.759	643.69
392.984	645.69
393.208	618.69
393.433	626.69
393.658	637.69
393.882	630.69
394.107	646.69
394.331	639.69
394.556	634.69
394.78	625.69
395.005	617.69
395.229	631.69
395.454	625.69
395.678	669.69
395.903	694.69
396.127	699.69
396.352	683.69
396.576	649.69
396.801	657.69
397.025	669.69
397.249	630.69
397.474	670.69
397.698	689.69
397.922	670.69
398.147	689.69
398.371	698.69
398.595	700.69
398.82	728.69
399.044	778.69
399.268	842.69
399.492	908.69
399.717	944.69
399.941	1001.69
400.165	966.69
400.389	914.69
400.613	845.69
400.837	789.69
401.062	748.69
401.286	750.69
401.51	762.69
401.734	740.69
401.958	747.69
402.182	735.69
402.406	751.69
402.63	753.69
402.854	786.69
403.078	781.69
403.302	771.69
403.526	793.69
403.75	794.69
403.974	785.69
404.198	785.69
404.422	792.69
404.645	782.69
404.869	810.69
405.093	855.69
405.317	850.69
405.541	864.69
405.765	848.69
405.988	811.69
406.212	815.69
406.436	836.69
406.66	848.69
406.883	839.69
407.107	885.69
407.331	920.69
407.555	980.69
407.778	977.69
408.002	916.69
408.226	885.69
408.449	839.69
408.673	847.69
408.896	856.69
409.12	874.69
409.344	861.69
409.567	801.69
409.791	782.69
410.014	761.69
410.238	779.69
410.461	780.69
410.685	784.69
410.908	769.69
411.132	797.69
411.355	819.69
411.578	803.69
411.802	761.69
412.025	761.69
412.249	794.69
412.472	772.69
412.695	822.69
412.919	797.69
413.142	760.69
413.365	727.69
413.589	741.69
413.812	700.69
414.035	732.69
414.258	728.69
414.482	718.69
414.705	758.69
414.928	735.69
415.151	715.69
415.374	710.69
415.597	697.69
415.821	709.69
416.044	716.69
416.267	727.69
416.49	704.69
416.713	696.69
416.936	701.69
417.159	695.69
417.382	737.69
417.605	722.69
417.828	743.69
418.051	733.69
418.274	734.69
418.497	708.69
418.72	740.69
418.943	709.69
419.166	778.69
419.389	796.69
419.611	775.69
419.834	790.69
420.057	782.69
420.28	737.69
420.503	742.69
420.726	718.69
420.948	752.69
421.171	794.69
421.394	811.69
421.617	778.69
421.839	735.69
422.062	719.69
422.285	756.69
422.507	783.69
422.73	869.69
422.953	862.69
423.175	778.69
423.398	774.69
423.621	770.69
423.843	783.69
424.066	795.69
424.288	780.69
424.511	809.69
424.733	842.69
424.956	893.69
425.178	872.69
425.401	868.69
425.623	871.69
425.846	775.69
426.068	739.69
426.291	749.69
426.513	748.69
426.735	749.69
426.958	800.69
427.18	844.69
427.402	936.69
427.625	1010.69
427.847	939.69
428.069	826.69
428.292	778.69
428.514	713.69
428.736	677.69
428.958	694.69
429.181	683.69
429.403	695.69
429.625	698.69
429.847	717.69
430.069	764.69
430.292	752.69
430.514	692.69
430.736	704.69
430.958	668.69
431.18	681.69
431.402	698.69
431.624	649.69
431.846	658.69
432.068	704.69
432.29	674.69
432.512	659.69
432.734	678.69
432.956	671.69
433.178	687.69
433.4	684.69
433.622	668.69
433.844	665.69
434.066	678.69
434.287	660.69
434.509	704.69
434.731	714.69
434.953	695.69
435.175	755.69
435.397	757.69
435.618	762.69
435.84	774.69
436.062	838.69
436.284	862.69
436.505	776.69
436.727	720.69
436.949	679.69
437.17	681.69
437.392	665.69
437.614	689.69
437.835	713.69
438.057	778.69
438.278	869.69
438.5	864.69
438.721	941.69
438.943	895.69
439.165	752.69
439.386	706.69
439.608	726.69
439.829	753.69
440.05	767.69
440.272	781.69
440.493	761.69
440.715	723.69
440.936	714.69
441.158	718.69
441.379	737.69
441.6	745.69
441.822	741.69
442.043	796.69
442.264	867.69
442.486	904.69
442.707	804.69
442.928	766.69
443.149	788.69
443.371	789.69
443.592	839.69
443.813	902.69
444.034	952.69
444.255	855.69
444.476	840.69
444.698	834.69
444.919	856.69
445.14	914.69
445.361	850.69
445.582	792.69
445.803	846.69
446.024	900.69
446.245	936.69
446.466	845.69
446.687	770.69
446.908	737.69
447.129	715.69
447.35	666.69
447.571	678.69
447.792	648.69
448.013	671.69
448.234	674.69
448.455	703.69
448.675	809.69
448.896	894.69
449.117	774.69
449.338	741.69
449.559	842.69
449.779	969.69
450	792.69
450.221	713.69
450.442	677.69
450.662	658.69
450.883	654.69
451.104	666.69
451.324	676.69
451.545	640.69
451.766	633.69
451.986	641.69
452.207	612.69
452.428	604.69
452.648	606.69
452.869	619.69
453.089	617.69
453.31	602.69
453.53	614.69
453.751	608.69
453.971	603.69
454.192	628.69
454.412	611.69
454.633	582.69
454.853	609.69
455.073	587.69
455.294	641.69
455.514	665.69
455.734	666.69
455.955	608.69
456.175	601.69
456.395	594.69
456.616	582.69
456.836	576.69
457.056	582.69
457.276	583.69
457.497	556.69
457.717	566.69
457.937	561.69
458.157	616.69
458.377	628.69
458.598	642.69
458.818	677.69
459.038	740.69
459.258	781.69
459.478	712.69
459.698	688.69
459.918	666.69
460.138	705.69
460.358	722.69
460.578	738.69
460.798	744.69
461.018	744.69
461.238	729.69
461.458	733.69
461.678	747.69
461.898	746.69
462.118	741.69
462.338	753.69
462.558	789.69
462.777	786.69
462.997	844.69
463.217	865.69
463.437	885.69
463.657	838.69
463.876	804.69
464.096	793.69
464.316	811.69
464.536	824.69
464.755	800.69
464.975	808.69
465.195	801.69
465.414	805.69
465.634	751.69
465.854	720.69
466.073	677.69
466.293	680.69
466.512	644.69
466.732	633.69
466.951	626.69
467.171	654.69
467.391	637.69
467.61	663.69
467.829	654.69
468.049	626.69
468.268	643.69
468.488	621.69
468.707	633.69
468.927	602.69
469.146	610.69
469.365	603.69
469.585	634.69
469.804	624.69
470.023	642.69
470.243	672.69
470.462	676.69
470.681	698.69
470.901	702.69
471.12	661.69
471.339	646.69
471.558	648.69
471.777	648.69
471.997	643.69
472.216	636.69
472.435	706.69
472.654	668.69
472.873	640.69
473.092	631.69
473.311	654.69
473.53	613.69
473.749	637.69
473.968	656.69
474.187	709.69
474.406	762.69
474.625	676.69
474.844	662.69
475.063	622.69
475.282	635.69
475.501	637.69
475.72	676.69
475.939	654.69
476.158	663.69
476.377	659.69
476.596	640.69
476.814	652.69
477.033	651.69
477.252	676.69
477.471	697.69
477.69	694.69
477.908	682.69
478.127	721.69
478.346	746.69
478.564	724.69
478.783	757.69
479.002	728.69
479.22	737.69
479.439	783.69
479.658	815.69
479.876	800.69
480.095	789.69
480.313	844.69
480.532	833.69
480.751	824.69
480.969	840.69
481.188	844.69
481.406	895.69
481.624	798.69
481.843	747.69
482.061	758.69
482.28	737.69
482.498	744.69
482.717	730.69
482.935	742.69
483.153	728.69
483.372	727.69
483.59	729.69
483.808	737.69
484.027	733.69
484.245	744.69
484.463	742.69
484.681	765.69
484.9	765.69
485.118	746.69
485.336	750.69
485.554	776.69
485.772	762.69
485.99	790.69
486.209	763.69
486.427	783.69
486.645	786.69
486.863	811.69
487.081	794.69
487.299	816.69
487.517	788.69
487.735	774.69
487.953	787.69
488.171	808.69
488.389	798.69
488.607	795.69
488.825	800.69
489.043	811.69
489.261	790.69
489.479	803.69
489.696	809.69
489.914	825.69
490.132	822.69
490.35	828.69
490.568	825.69
490.786	848.69
491.003	848.69
491.221	879.69
491.439	862.69
491.657	889.69
491.874	886.69
492.092	890.69
492.31	875.69
492.527	894.69
492.745	876.69
492.963	926.69
493.18	906.69
493.398	942.69
493.615	916.69
493.833	923.69
494.05	899.69
494.268	918.69
494.485	946.69
494.703	892.69
494.92	912.69
495.138	912.69
495.355	893.69
495.573	929.69
495.79	920.69
496.008	938.69
496.225	936.69
496.442	929.69
496.66	934.69
496.877	952.69
497.094	964.69
497.312	968.69
497.529	982.69
497.746	1007.69
497.963	1007.69
498.181	1077.69
498.398	1084.69
498.615	1102.69
498.832	1172.69
499.049	1226.69
499.267	1267.69
499.484	1342.69
499.701	1464.69
499.918	1540.69
500.135	1683.69
500.352	1819.69
500.569	1872.69
500.786	1818.69
501.003	1784.69
501.22	1673.69
501.437	1564.69
501.654	1442.69
