Data from 1963.PennyLincolnUp.Lamp.En5.5.200Scan.071719.P1._HRD10591_13-57-59-063.txt Node
Date: Thu Jul 18 13:57:59 EDT 2019
User: cochatt
Spectrometer: HR+D1059
Trigger mode: 1
Integration Time (sec): 1.000000E-1
Scans to average: 1
Electric dark correction enabled: true
Nonlinearity correction enabled: false
Boxcar width: 0
XAxis mode: Wavelengths
Number of Pixels in Spectrum: 2048
>>>>>Begin Spectral Data<<<<<
223.165	-2.62
223.4	-2.62
223.635	-2.62
223.869	-17.62
224.104	-22.62
224.338	-10.62
224.573	-28.62
224.808	-16.62
225.042	-13.62
225.277	2.38
225.511	-1.62
225.746	8.38
225.98	5.38
226.215	12.38
226.449	17.38
226.683	23.38
226.918	21.38
227.152	23.38
227.387	39.38
227.621	41.38
227.856	48.38
228.09	41.38
228.324	50.38
228.559	61.38
228.793	65.38
229.027	98.38
229.262	94.38
229.496	104.38
229.73	101.38
229.964	130.38
230.199	116.38
230.433	107.38
230.667	105.38
230.901	113.38
231.136	106.38
231.37	113.38
231.604	113.38
231.838	113.38
232.072	117.38
232.306	108.38
232.541	112.38
232.775	115.38
233.009	116.38
233.243	96.38
233.477	116.38
233.711	119.38
233.945	119.38
234.179	125.38
234.413	131.38
234.647	128.38
234.881	133.38
235.115	117.38
235.349	112.38
235.583	123.38
235.817	120.38
236.051	119.38
236.285	124.38
236.519	122.38
236.753	132.38
236.987	162.38
237.221	163.38
237.455	204.38
237.689	159.38
237.922	140.38
238.156	127.38
238.39	135.38
238.624	133.38
238.858	139.38
239.091	131.38
239.325	114.38
239.559	126.38
239.793	130.38
240.027	126.38
240.26	156.38
240.494	149.38
240.728	143.38
240.961	148.38
241.195	143.38
241.429	145.38
241.662	143.38
241.896	141.38
242.13	133.38
242.363	149.38
242.597	129.38
242.83	155.38
243.064	152.38
243.298	135.38
243.531	148.38
243.765	159.38
243.998	152.38
244.232	155.38
244.465	155.38
244.699	156.38
244.932	162.38
245.166	165.38
245.399	146.38
245.633	159.38
245.866	155.38
246.099	150.38
246.333	156.38
246.566	170.38
246.8	150.38
247.033	178.38
247.266	180.38
247.5	175.38
247.733	185.38
247.966	184.38
248.2	172.38
248.433	195.38
248.666	171.38
248.899	193.38
249.133	208.38
249.366	204.38
249.599	189.38
249.832	184.38
250.066	209.38
250.299	185.38
250.532	185.38
250.765	211.38
250.998	214.38
251.231	241.38
251.465	199.38
251.698	203.38
251.931	207.38
252.164	182.38
252.397	203.38
252.63	215.38
252.863	229.38
253.096	214.38
253.329	216.38
253.562	227.38
253.795	228.38
254.028	223.38
254.261	224.38
254.494	223.38
254.727	253.38
254.96	259.38
255.193	262.38
255.426	231.38
255.659	229.38
255.892	234.38
256.124	239.38
256.357	232.38
256.59	231.38
256.823	220.38
257.056	207.38
257.289	225.38
257.521	222.38
257.754	236.38
257.987	220.38
258.22	215.38
258.452	234.38
258.685	225.38
258.918	223.38
259.151	217.38
259.383	230.38
259.616	242.38
259.849	228.38
260.081	255.38
260.314	233.38
260.547	242.38
260.779	230.38
261.012	225.38
261.244	247.38
261.477	240.38
261.71	214.38
261.942	225.38
262.175	250.38
262.407	233.38
262.64	227.38
262.872	231.38
263.105	236.38
263.337	240.38
263.57	224.38
263.802	247.38
264.035	218.38
264.267	244.38
264.499	222.38
264.732	246.38
264.964	243.38
265.197	226.38
265.429	233.38
265.661	219.38
265.894	239.38
266.126	245.38
266.358	250.38
266.591	234.38
266.823	256.38
267.055	250.38
267.287	239.38
267.52	256.38
267.752	244.38
267.984	253.38
268.216	240.38
268.448	252.38
268.681	264.38
268.913	283.38
269.145	254.38
269.377	285.38
269.609	282.38
269.841	281.38
270.073	278.38
270.306	291.38
270.538	292.38
270.77	293.38
271.002	291.38
271.234	310.38
271.466	285.38
271.698	321.38
271.93	313.38
272.162	314.38
272.394	308.38
272.626	291.38
272.858	296.38
273.09	304.38
273.322	292.38
273.553	286.38
273.785	276.38
274.017	276.38
274.249	297.38
274.481	293.38
274.713	297.38
274.945	288.38
275.176	293.38
275.408	294.38
275.64	290.38
275.872	274.38
276.104	278.38
276.335	288.38
276.567	301.38
276.799	300.38
277.031	324.38
277.262	340.38
277.494	320.38
277.726	324.38
277.957	315.38
278.189	300.38
278.421	292.38
278.652	296.38
278.884	297.38
279.115	301.38
279.347	309.38
279.579	297.38
279.81	307.38
280.042	297.38
280.273	313.38
280.505	314.38
280.736	312.38
280.968	305.38
281.199	306.38
281.431	315.38
281.662	321.38
281.894	312.38
282.125	330.38
282.356	322.38
282.588	323.38
282.819	346.38
283.051	326.38
283.282	314.38
283.513	321.38
283.745	323.38
283.976	316.38
284.207	319.38
284.439	330.38
284.67	313.38
284.901	303.38
285.132	321.38
285.364	336.38
285.595	318.38
285.826	309.38
286.057	315.38
286.288	324.38
286.52	324.38
286.751	319.38
286.982	329.38
287.213	332.38
287.444	340.38
287.675	344.38
287.906	335.38
288.138	333.38
288.369	348.38
288.6	360.38
288.831	344.38
289.062	354.38
289.293	346.38
289.524	342.38
289.755	352.38
289.986	340.38
290.217	362.38
290.448	344.38
290.679	348.38
290.91	357.38
291.141	335.38
291.371	331.38
291.602	351.38
291.833	357.38
292.064	337.38
292.295	360.38
292.526	322.38
292.757	328.38
292.987	331.38
293.218	337.38
293.449	369.38
293.68	360.38
293.91	343.38
294.141	348.38
294.372	353.38
294.603	340.38
294.833	346.38
295.064	363.38
295.295	355.38
295.525	361.38
295.756	370.38
295.987	365.38
296.217	367.38
296.448	385.38
296.679	364.38
296.909	358.38
297.14	382.38
297.37	369.38
297.601	350.38
297.831	383.38
298.062	363.38
298.292	371.38
298.523	367.38
298.753	379.38
298.984	378.38
299.214	369.38
299.445	387.38
299.675	365.38
299.905	391.38
300.136	383.38
300.366	379.38
300.597	377.38
300.827	393.38
301.057	384.38
301.288	403.38
301.518	410.38
301.748	398.38
301.979	408.38
302.209	395.38
302.439	391.38
302.669	390.38
302.9	412.38
303.13	401.38
303.36	404.38
303.59	390.38
303.82	397.38
304.051	415.38
304.281	399.38
304.511	382.38
304.741	387.38
304.971	391.38
305.201	397.38
305.431	398.38
305.661	403.38
305.891	412.38
306.121	393.38
306.352	414.38
306.582	387.38
306.812	401.38
307.042	409.38
307.272	398.38
307.502	384.38
307.731	396.38
307.961	395.38
308.191	395.38
308.421	390.38
308.651	387.38
308.881	387.38
309.111	394.38
309.341	404.38
309.571	407.38
309.8	407.38
310.03	428.38
310.26	426.38
310.49	412.38
310.72	418.38
310.949	421.38
311.179	439.38
311.409	425.38
311.639	427.38
311.868	440.38
312.098	431.38
312.328	419.38
312.557	453.38
312.787	436.38
313.017	429.38
313.246	421.38
313.476	437.38
313.706	423.38
313.935	433.38
314.165	448.38
314.394	464.38
314.624	436.38
314.853	456.38
315.083	444.38
315.312	442.38
315.542	411.38
315.771	449.38
316.001	416.38
316.23	429.38
316.46	451.38
316.689	448.38
316.919	448.38
317.148	453.38
317.377	456.38
317.607	435.38
317.836	431.38
318.065	424.38
318.295	438.38
318.524	433.38
318.753	418.38
318.983	427.38
319.212	448.38
319.441	463.38
319.67	448.38
319.9	424.38
320.129	437.38
320.358	431.38
320.587	437.38
320.816	462.38
321.046	431.38
321.275	453.38
321.504	444.38
321.733	454.38
321.962	447.38
322.191	458.38
322.42	467.38
322.649	466.38
322.878	474.38
323.108	485.38
323.337	481.38
323.566	492.38
323.795	507.38
324.024	533.38
324.253	587.38
324.482	731.38
324.71	1051.38
324.939	1443.38
325.168	1297.38
325.397	722.38
325.626	577.38
325.855	511.38
326.084	522.38
326.313	503.38
326.542	516.38
326.77	525.38
326.999	596.38
327.228	724.38
327.457	941.38
327.686	1161.38
327.914	838.38
328.143	618.38
328.372	581.38
328.6	546.38
328.829	530.38
329.058	537.38
329.287	563.38
329.515	547.38
329.744	519.38
329.972	491.38
330.201	529.38
330.43	539.38
330.658	564.38
330.887	593.38
331.115	580.38
331.344	539.38
331.572	537.38
331.801	534.38
332.03	550.38
332.258	536.38
332.486	532.38
332.715	557.38
332.943	570.38
333.172	561.38
333.4	580.38
333.629	562.38
333.857	603.38
334.085	631.38
334.314	602.38
334.542	607.38
334.771	648.38
334.999	595.38
335.227	559.38
335.455	548.38
335.684	563.38
335.912	579.38
336.14	537.38
336.369	555.38
336.597	554.38
336.825	557.38
337.053	544.38
337.281	543.38
337.51	553.38
337.738	548.38
337.966	515.38
338.194	542.38
338.422	523.38
338.65	510.38
338.878	547.38
339.106	499.38
339.334	531.38
339.562	540.38
339.79	498.38
340.018	509.38
340.246	500.38
340.474	515.38
340.702	514.38
340.93	507.38
341.158	527.38
341.386	500.38
341.614	509.38
341.842	508.38
342.07	500.38
342.298	486.38
342.526	485.38
342.754	494.38
342.981	506.38
343.209	501.38
343.437	535.38
343.665	529.38
343.893	565.38
344.12	575.38
344.348	576.38
344.576	555.38
344.804	542.38
345.031	543.38
345.259	537.38
345.487	515.38
345.714	493.38
345.942	501.38
346.17	486.38
346.397	491.38
346.625	465.38
346.853	461.38
347.08	493.38
347.308	481.38
347.535	498.38
347.763	497.38
347.99	470.38
348.218	488.38
348.445	488.38
348.673	475.38
348.9	481.38
349.128	497.38
349.355	479.38
349.583	487.38
349.81	467.38
350.037	466.38
350.265	472.38
350.492	482.38
350.72	479.38
350.947	457.38
351.174	468.38
351.402	470.38
351.629	472.38
351.856	472.38
352.083	475.38
352.311	476.38
352.538	487.38
352.765	469.38
352.992	477.38
353.22	481.38
353.447	479.38
353.674	468.38
353.901	468.38
354.128	465.38
354.355	471.38
354.583	476.38
354.81	449.38
355.037	459.38
355.264	453.38
355.491	481.38
355.718	468.38
355.945	463.38
356.172	479.38
356.399	484.38
356.626	455.38
356.853	467.38
357.08	455.38
357.307	475.38
357.534	458.38
357.761	471.38
357.988	468.38
358.215	462.38
358.441	466.38
358.668	471.38
358.895	467.38
359.122	475.38
359.349	467.38
359.576	460.38
359.802	506.38
360.029	498.38
360.256	497.38
360.483	521.38
360.709	511.38
360.936	484.38
361.163	498.38
361.39	496.38
361.616	471.38
361.843	469.38
362.07	491.38
362.296	482.38
362.523	458.38
362.749	497.38
362.976	476.38
363.203	492.38
363.429	474.38
363.656	460.38
363.882	480.38
364.109	477.38
364.335	467.38
364.562	481.38
364.788	494.38
365.015	481.38
365.241	452.38
365.468	466.38
365.694	476.38
365.92	493.38
366.147	477.38
366.373	470.38
366.599	481.38
366.826	480.38
367.052	486.38
367.278	489.38
367.505	489.38
367.731	472.38
367.957	473.38
368.184	456.38
368.41	468.38
368.636	479.38
368.862	485.38
369.089	493.38
369.315	477.38
369.541	491.38
369.767	499.38
369.993	491.38
370.219	482.38
370.445	488.38
370.672	505.38
370.898	479.38
371.124	477.38
371.35	497.38
371.576	489.38
371.802	503.38
372.028	483.38
372.254	476.38
372.48	506.38
372.706	490.38
372.932	512.38
373.158	517.38
373.384	504.38
373.61	519.38
373.835	493.38
374.061	491.38
374.287	504.38
374.513	505.38
374.739	522.38
374.965	529.38
375.191	533.38
375.416	543.38
375.642	496.38
375.868	521.38
376.094	499.38
376.319	492.38
376.545	502.38
376.771	513.38
376.997	508.38
377.222	481.38
377.448	507.38
377.674	511.38
377.899	479.38
378.125	490.38
378.35	503.38
378.576	481.38
378.802	473.38
379.027	495.38
379.253	501.38
379.478	493.38
379.704	503.38
379.929	468.38
380.155	483.38
380.38	490.38
380.606	481.38
380.831	498.38
381.057	519.38
381.282	505.38
381.507	506.38
381.733	519.38
381.958	480.38
382.184	520.38
382.409	536.38
382.634	492.38
382.86	528.38
383.085	545.38
383.31	524.38
383.535	539.38
383.761	538.38
383.986	548.38
384.211	544.38
384.436	541.38
384.662	550.38
384.887	561.38
385.112	582.38
385.337	571.38
385.562	583.38
385.787	577.38
386.013	598.38
386.238	581.38
386.463	582.38
386.688	565.38
386.913	567.38
387.138	576.38
387.363	557.38
387.588	571.38
387.813	571.38
388.038	576.38
388.263	558.38
388.488	577.38
388.713	580.38
388.938	568.38
389.163	556.38
389.387	571.38
389.612	552.38
389.837	545.38
390.062	550.38
390.287	542.38
390.512	538.38
390.736	564.38
390.961	560.38
391.186	566.38
391.411	592.38
391.636	593.38
391.86	607.38
392.085	612.38
392.31	606.38
392.534	611.38
392.759	611.38
392.984	596.38
393.208	610.38
393.433	624.38
393.658	603.38
393.882	595.38
394.107	572.38
394.331	579.38
394.556	607.38
394.78	596.38
395.005	588.38
395.229	593.38
395.454	599.38
395.678	627.38
395.903	632.38
396.127	647.38
396.352	611.38
396.576	612.38
396.801	616.38
397.025	606.38
397.249	626.38
397.474	617.38
397.698	632.38
397.922	648.38
398.147	649.38
398.371	655.38
398.595	643.38
398.82	674.38
399.044	701.38
399.268	740.38
399.492	818.38
399.717	919.38
399.941	933.38
400.165	901.38
400.389	851.38
400.613	757.38
400.837	721.38
401.062	700.38
401.286	691.38
401.51	703.38
401.734	682.38
401.958	672.38
402.182	693.38
402.406	705.38
402.63	721.38
402.854	708.38
403.078	720.38
403.302	731.38
403.526	743.38
403.75	755.38
403.974	747.38
404.198	770.38
404.422	751.38
404.645	744.38
404.869	747.38
405.093	751.38
405.317	792.38
405.541	792.38
405.765	772.38
405.988	765.38
406.212	760.38
406.436	758.38
406.66	770.38
406.883	773.38
407.107	801.38
407.331	869.38
407.555	909.38
407.778	903.38
408.002	877.38
408.226	821.38
408.449	812.38
408.673	782.38
408.896	788.38
409.12	821.38
409.344	786.38
409.567	752.38
409.791	748.38
410.014	725.38
410.238	753.38
410.461	729.38
410.685	725.38
410.908	729.38
411.132	751.38
411.355	757.38
411.578	729.38
411.802	702.38
412.025	681.38
412.249	720.38
412.472	738.38
412.695	743.38
412.919	748.38
413.142	718.38
413.365	677.38
413.589	693.38
413.812	709.38
414.035	680.38
414.258	696.38
414.482	698.38
414.705	695.38
414.928	666.38
415.151	666.38
415.374	678.38
415.597	689.38
415.821	663.38
416.044	695.38
416.267	692.38
416.49	668.38
416.713	665.38
416.936	661.38
417.159	662.38
417.382	655.38
417.605	673.38
417.828	687.38
418.051	675.38
418.274	680.38
418.497	682.38
418.72	691.38
418.943	682.38
419.166	721.38
419.389	748.38
419.611	740.38
419.834	721.38
420.057	726.38
420.28	715.38
420.503	704.38
420.726	686.38
420.948	685.38
421.171	715.38
421.394	740.38
421.617	690.38
421.839	672.38
422.062	672.38
422.285	662.38
422.507	729.38
422.73	797.38
422.953	798.38
423.175	757.38
423.398	730.38
423.621	703.38
423.843	744.38
424.066	756.38
424.288	746.38
424.511	777.38
424.733	780.38
424.956	822.38
425.178	782.38
425.401	792.38
425.623	812.38
425.846	733.38
426.068	695.38
426.291	703.38
426.513	700.38
426.735	671.38
426.958	706.38
427.18	746.38
427.402	827.38
427.625	915.38
427.847	813.38
428.069	739.38
428.292	710.38
428.514	687.38
428.736	661.38
428.958	634.38
429.181	641.38
429.403	644.38
429.625	647.38
429.847	624.38
430.069	700.38
430.292	701.38
430.514	640.38
430.736	643.38
430.958	639.38
431.18	641.38
431.402	601.38
431.624	631.38
431.846	621.38
432.068	641.38
432.29	636.38
432.512	608.38
432.734	616.38
432.956	614.38
433.178	635.38
433.4	631.38
433.622	628.38
433.844	629.38
434.066	652.38
434.287	643.38
434.509	653.38
434.731	677.38
434.953	675.38
435.175	697.38
435.397	713.38
435.618	674.38
435.84	673.38
436.062	771.38
436.284	802.38
436.505	711.38
436.727	689.38
436.949	646.38
437.17	636.38
437.392	633.38
437.614	668.38
437.835	643.38
438.057	703.38
438.278	778.38
438.5	778.38
438.721	876.38
438.943	825.38
439.165	695.38
439.386	679.38
439.608	670.38
439.829	652.38
440.05	675.38
440.272	735.38
440.493	705.38
440.715	654.38
440.936	657.38
441.158	659.38
441.379	649.38
441.6	665.38
441.822	718.38
442.043	731.38
442.264	784.38
442.486	804.38
442.707	739.38
442.928	701.38
443.149	730.38
443.371	736.38
443.592	740.38
443.813	799.38
444.034	880.38
444.255	803.38
444.476	754.38
444.698	747.38
444.919	752.38
445.14	891.38
445.361	827.38
445.582	743.38
445.803	756.38
446.024	817.38
446.245	847.38
446.466	753.38
446.687	671.38
446.908	676.38
447.129	665.38
447.35	609.38
447.571	616.38
447.792	626.38
448.013	639.38
448.234	632.38
448.455	639.38
448.675	732.38
448.896	812.38
449.117	724.38
449.338	664.38
449.559	740.38
449.779	858.38
450	704.38
450.221	628.38
450.442	595.38
450.662	617.38
450.883	610.38
451.104	601.38
451.324	596.38
451.545	597.38
451.766	607.38
451.986	559.38
452.207	569.38
452.428	565.38
452.648	576.38
452.869	557.38
453.089	582.38
453.31	610.38
453.53	578.38
453.751	549.38
453.971	546.38
454.192	573.38
454.412	562.38
454.633	540.38
454.853	551.38
455.073	554.38
455.294	561.38
455.514	599.38
455.734	608.38
455.955	551.38
456.175	526.38
456.395	537.38
456.616	530.38
456.836	547.38
457.056	543.38
457.276	538.38
457.497	559.38
457.717	542.38
457.937	571.38
458.157	567.38
458.377	555.38
458.598	565.38
458.818	629.38
459.038	683.38
459.258	691.38
459.478	666.38
459.698	641.38
459.918	663.38
460.138	671.38
460.358	694.38
460.578	687.38
460.798	720.38
461.018	704.38
461.238	682.38
461.458	684.38
461.678	683.38
461.898	699.38
462.118	698.38
462.338	730.38
462.558	748.38
462.777	772.38
462.997	803.38
463.217	833.38
463.437	846.38
463.657	769.38
463.876	765.38
464.096	758.38
464.316	739.38
464.536	767.38
464.755	757.38
464.975	736.38
465.195	742.38
465.414	754.38
465.634	674.38
465.854	651.38
466.073	650.38
466.293	597.38
466.512	623.38
466.732	599.38
466.951	603.38
467.171	588.38
467.391	625.38
467.61	607.38
467.829	575.38
468.049	586.38
468.268	590.38
468.488	598.38
468.707	576.38
468.927	588.38
469.146	579.38
469.365	592.38
469.585	582.38
469.804	601.38
470.023	612.38
470.243	620.38
470.462	632.38
470.681	602.38
470.901	627.38
471.12	600.38
471.339	577.38
471.558	607.38
471.777	596.38
471.997	619.38
472.216	616.38
472.435	645.38
472.654	623.38
472.873	596.38
473.092	580.38
473.311	597.38
473.53	593.38
473.749	595.38
473.968	617.38
474.187	663.38
474.406	697.38
474.625	639.38
474.844	607.38
475.063	601.38
475.282	601.38
475.501	581.38
475.72	584.38
475.939	597.38
476.158	619.38
476.377	605.38
476.596	597.38
476.814	592.38
477.033	641.38
477.252	628.38
477.471	647.38
477.69	644.38
477.908	668.38
478.127	673.38
478.346	666.38
478.564	687.38
478.783	691.38
479.002	704.38
479.22	686.38
479.439	713.38
479.658	722.38
479.876	739.38
480.095	740.38
480.313	799.38
480.532	783.38
480.751	768.38
480.969	763.38
481.188	773.38
481.406	795.38
481.624	731.38
481.843	718.38
482.061	703.38
482.28	699.38
482.498	696.38
482.717	677.38
482.935	687.38
483.153	675.38
483.372	669.38
483.59	714.38
483.808	687.38
484.027	689.38
484.245	693.38
484.463	698.38
484.681	711.38
484.9	692.38
485.118	707.38
485.336	714.38
485.554	687.38
485.772	711.38
485.99	716.38
486.209	701.38
486.427	716.38
486.645	729.38
486.863	726.38
487.081	670.38
487.299	715.38
487.517	722.38
487.735	715.38
487.953	767.38
488.171	730.38
488.389	740.38
488.607	712.38
488.825	713.38
489.043	734.38
489.261	737.38
489.479	755.38
489.696	751.38
489.914	753.38
490.132	762.38
490.35	754.38
490.568	748.38
490.786	767.38
491.003	783.38
491.221	778.38
491.439	798.38
491.657	806.38
491.874	801.38
492.092	809.38
492.31	830.38
492.527	830.38
492.745	844.38
492.963	816.38
493.18	827.38
493.398	832.38
493.615	863.38
493.833	851.38
494.05	839.38
494.268	849.38
494.485	836.38
494.703	846.38
494.92	869.38
495.138	842.38
495.355	849.38
495.573	837.38
495.79	844.38
496.008	863.38
496.225	865.38
496.442	825.38
496.66	855.38
496.877	857.38
497.094	881.38
497.312	883.38
497.529	913.38
497.746	900.38
497.963	963.38
498.181	986.38
498.398	979.38
498.615	1058.38
498.832	1091.38
499.049	1124.38
499.267	1189.38
499.484	1293.38
499.701	1360.38
499.918	1449.38
500.135	1572.38
500.352	1703.38
500.569	1754.38
500.786	1795.38
501.003	1683.38
501.22	1585.38
501.437	1453.38
501.654	1366.38
501.871	1305.38
