Data from 1963.PennyLincolnUp.Lamp.En5.5.200Scan.071719.P1._HRD10591_13-58-33-063.txt Node
Date: Thu Jul 18 13:58:33 EDT 2019
User: cochatt
Spectrometer: HR+D1059
Trigger mode: 1
Integration Time (sec): 1.000000E-1
Scans to average: 1
Electric dark correction enabled: true
Nonlinearity correction enabled: false
Boxcar width: 0
XAxis mode: Wavelengths
Number of Pixels in Spectrum: 2048
>>>>>Begin Spectral Data<<<<<
223.165	-22.19
223.4	-22.19
223.635	-22.19
223.869	-24.19
224.104	-19.19
224.338	-14.19
224.573	-17.19
224.808	-9.19
225.042	-21.19
225.277	-11.19
225.511	10.81
225.746	10.81
225.98	5.81
226.215	20.81
226.449	-1.19
226.683	24.81
226.918	33.81
227.152	32.81
227.387	41.81
227.621	44.81
227.856	43.81
228.09	39.81
228.324	54.81
228.559	65.81
228.793	66.81
229.027	90.81
229.262	110.81
229.496	120.81
229.73	129.81
229.964	150.81
230.199	124.81
230.433	110.81
230.667	103.81
230.901	117.81
231.136	108.81
231.37	111.81
231.604	131.81
231.838	120.81
232.072	120.81
232.306	135.81
232.541	130.81
232.775	119.81
233.009	108.81
233.243	112.81
233.477	120.81
233.711	124.81
233.945	122.81
234.179	111.81
234.413	115.81
234.647	126.81
234.881	134.81
235.115	124.81
235.349	130.81
235.583	136.81
235.817	120.81
236.051	125.81
236.285	111.81
236.519	120.81
236.753	144.81
236.987	152.81
237.221	160.81
237.455	190.81
237.689	167.81
237.922	149.81
238.156	144.81
238.39	136.81
238.624	129.81
238.858	136.81
239.091	144.81
239.325	145.81
239.559	148.81
239.793	132.81
240.027	120.81
240.26	155.81
240.494	165.81
240.728	150.81
240.961	181.81
241.195	147.81
241.429	163.81
241.662	143.81
241.896	146.81
242.13	142.81
242.363	144.81
242.597	147.81
242.83	142.81
243.064	134.81
243.298	163.81
243.531	151.81
243.765	163.81
243.998	155.81
244.232	165.81
244.465	168.81
244.699	165.81
244.932	184.81
245.166	156.81
245.399	164.81
245.633	166.81
245.866	183.81
246.099	160.81
246.333	187.81
246.566	165.81
246.8	159.81
247.033	168.81
247.266	169.81
247.5	176.81
247.733	181.81
247.966	182.81
248.2	188.81
248.433	180.81
248.666	182.81
248.899	195.81
249.133	212.81
249.366	208.81
249.599	198.81
249.832	212.81
250.066	202.81
250.299	198.81
250.532	200.81
250.765	215.81
250.998	221.81
251.231	254.81
251.465	210.81
251.698	222.81
251.931	233.81
252.164	204.81
252.397	206.81
252.63	232.81
252.863	220.81
253.096	229.81
253.329	250.81
253.562	236.81
253.795	228.81
254.028	222.81
254.261	237.81
254.494	228.81
254.727	275.81
254.96	250.81
255.193	261.81
255.426	257.81
255.659	240.81
255.892	228.81
256.124	261.81
256.357	246.81
256.59	237.81
256.823	253.81
257.056	231.81
257.289	221.81
257.521	228.81
257.754	231.81
257.987	227.81
258.22	243.81
258.452	243.81
258.685	227.81
258.918	231.81
259.151	243.81
259.383	238.81
259.616	244.81
259.849	225.81
260.081	239.81
260.314	255.81
260.547	256.81
260.779	250.81
261.012	251.81
261.244	243.81
261.477	237.81
261.71	236.81
261.942	244.81
262.175	254.81
262.407	254.81
262.64	219.81
262.872	258.81
263.105	244.81
263.337	234.81
263.57	242.81
263.802	240.81
264.035	254.81
264.267	242.81
264.499	252.81
264.732	243.81
264.964	245.81
265.197	256.81
265.429	245.81
265.661	231.81
265.894	242.81
266.126	263.81
266.358	245.81
266.591	258.81
266.823	242.81
267.055	236.81
267.287	266.81
267.52	248.81
267.752	255.81
267.984	279.81
268.216	247.81
268.448	265.81
268.681	293.81
268.913	292.81
269.145	289.81
269.377	293.81
269.609	285.81
269.841	300.81
270.073	298.81
270.306	327.81
270.538	332.81
270.77	331.81
271.002	330.81
271.234	311.81
271.466	318.81
271.698	323.81
271.93	334.81
272.162	317.81
272.394	332.81
272.626	330.81
272.858	310.81
273.09	306.81
273.322	299.81
273.553	292.81
273.785	312.81
274.017	278.81
274.249	309.81
274.481	299.81
274.713	316.81
274.945	298.81
275.176	309.81
275.408	302.81
275.64	287.81
275.872	290.81
276.104	322.81
276.335	308.81
276.567	306.81
276.799	308.81
277.031	322.81
277.262	336.81
277.494	337.81
277.726	335.81
277.957	339.81
278.189	318.81
278.421	322.81
278.652	319.81
278.884	320.81
279.115	318.81
279.347	321.81
279.579	323.81
279.81	327.81
280.042	307.81
280.273	307.81
280.505	326.81
280.736	317.81
280.968	332.81
281.199	320.81
281.431	324.81
281.662	338.81
281.894	320.81
282.125	323.81
282.356	329.81
282.588	354.81
282.819	348.81
283.051	336.81
283.282	328.81
283.513	316.81
283.745	336.81
283.976	335.81
284.207	347.81
284.439	355.81
284.67	340.81
284.901	325.81
285.132	336.81
285.364	349.81
285.595	324.81
285.826	325.81
286.057	338.81
286.288	346.81
286.52	345.81
286.751	335.81
286.982	338.81
287.213	346.81
287.444	344.81
287.675	360.81
287.906	348.81
288.138	350.81
288.369	370.81
288.6	378.81
288.831	359.81
289.062	363.81
289.293	354.81
289.524	355.81
289.755	363.81
289.986	344.81
290.217	370.81
290.448	349.81
290.679	354.81
290.91	364.81
291.141	355.81
291.371	358.81
291.602	366.81
291.833	362.81
292.064	371.81
292.295	357.81
292.526	374.81
292.757	349.81
292.987	358.81
293.218	360.81
293.449	363.81
293.68	351.81
293.91	343.81
294.141	375.81
294.372	355.81
294.603	372.81
294.833	367.81
295.064	359.81
295.295	355.81
295.525	360.81
295.756	373.81
295.987	356.81
296.217	376.81
296.448	402.81
296.679	374.81
296.909	400.81
297.14	360.81
297.37	361.81
297.601	378.81
297.831	380.81
298.062	367.81
298.292	378.81
298.523	384.81
298.753	384.81
298.984	396.81
299.214	396.81
299.445	389.81
299.675	406.81
299.905	387.81
300.136	411.81
300.366	385.81
300.597	385.81
300.827	392.81
301.057	380.81
301.288	410.81
301.518	404.81
301.748	404.81
301.979	423.81
302.209	411.81
302.439	414.81
302.669	423.81
302.9	415.81
303.13	423.81
303.36	435.81
303.59	424.81
303.82	440.81
304.051	408.81
304.281	404.81
304.511	411.81
304.741	412.81
304.971	423.81
305.201	421.81
305.431	418.81
305.661	415.81
305.891	404.81
306.121	410.81
306.352	408.81
306.582	433.81
306.812	429.81
307.042	399.81
307.272	402.81
307.502	400.81
307.731	424.81
307.961	403.81
308.191	427.81
308.421	420.81
308.651	422.81
308.881	419.81
309.111	413.81
309.341	420.81
309.571	425.81
309.8	434.81
310.03	437.81
310.26	430.81
310.49	403.81
310.72	423.81
310.949	440.81
311.179	445.81
311.409	449.81
311.639	431.81
311.868	438.81
312.098	430.81
312.328	438.81
312.557	473.81
312.787	459.81
313.017	461.81
313.246	435.81
313.476	440.81
313.706	454.81
313.935	453.81
314.165	460.81
314.394	470.81
314.624	460.81
314.853	464.81
315.083	465.81
315.312	454.81
315.542	470.81
315.771	471.81
316.001	451.81
316.23	447.81
316.46	448.81
316.689	452.81
316.919	450.81
317.148	464.81
317.377	455.81
317.607	476.81
317.836	467.81
318.065	442.81
318.295	462.81
318.524	444.81
318.753	472.81
318.983	461.81
319.212	452.81
319.441	449.81
319.67	469.81
319.9	438.81
320.129	445.81
320.358	462.81
320.587	451.81
320.816	461.81
321.046	467.81
321.275	466.81
321.504	471.81
321.733	462.81
321.962	460.81
322.191	488.81
322.42	474.81
322.649	483.81
322.878	482.81
323.108	512.81
323.337	500.81
323.566	538.81
323.795	540.81
324.024	547.81
324.253	644.81
324.482	813.81
324.71	1126.81
324.939	1616.81
325.168	1439.81
325.397	793.81
325.626	604.81
325.855	554.81
326.084	534.81
326.313	539.81
326.542	521.81
326.77	565.81
326.999	613.81
327.228	752.81
327.457	1082.81
327.686	1258.81
327.914	895.81
328.143	662.81
328.372	612.81
328.6	592.81
328.829	580.81
329.058	588.81
329.287	606.81
329.515	557.81
329.744	545.81
329.972	559.81
330.201	596.81
330.43	599.81
330.658	604.81
330.887	616.81
331.115	594.81
331.344	552.81
331.572	525.81
331.801	565.81
332.03	579.81
332.258	569.81
332.486	570.81
332.715	575.81
332.943	602.81
333.172	602.81
333.4	603.81
333.629	609.81
333.857	612.81
334.085	640.81
334.314	640.81
334.542	648.81
334.771	666.81
334.999	634.81
335.227	604.81
335.455	591.81
335.684	587.81
335.912	583.81
336.14	568.81
336.369	563.81
336.597	588.81
336.825	554.81
337.053	569.81
337.281	570.81
337.51	567.81
337.738	533.81
337.966	552.81
338.194	543.81
338.422	553.81
338.65	539.81
338.878	535.81
339.106	539.81
339.334	547.81
339.562	538.81
339.79	530.81
340.018	520.81
340.246	539.81
340.474	538.81
340.702	513.81
340.93	512.81
341.158	531.81
341.386	507.81
341.614	531.81
341.842	520.81
342.07	525.81
342.298	511.81
342.526	511.81
342.754	495.81
342.981	512.81
343.209	528.81
343.437	544.81
343.665	546.81
343.893	584.81
344.12	587.81
344.348	569.81
344.576	584.81
344.804	559.81
345.031	533.81
345.259	534.81
345.487	509.81
345.714	529.81
345.942	507.81
346.17	518.81
346.397	487.81
346.625	501.81
346.853	485.81
347.08	484.81
347.308	486.81
347.535	482.81
347.763	500.81
347.99	505.81
348.218	545.81
348.445	518.81
348.673	518.81
348.9	499.81
349.128	501.81
349.355	476.81
349.583	510.81
349.81	509.81
350.037	503.81
350.265	481.81
350.492	496.81
350.72	490.81
350.947	479.81
351.174	500.81
351.402	518.81
351.629	515.81
351.856	491.81
352.083	503.81
352.311	483.81
352.538	518.81
352.765	516.81
352.992	506.81
353.22	506.81
353.447	475.81
353.674	483.81
353.901	490.81
354.128	477.81
354.355	486.81
354.583	492.81
354.81	468.81
355.037	490.81
355.264	486.81
355.491	483.81
355.718	477.81
355.945	478.81
356.172	492.81
356.399	490.81
356.626	481.81
356.853	507.81
357.08	494.81
357.307	479.81
357.534	485.81
357.761	469.81
357.988	492.81
358.215	482.81
358.441	520.81
358.668	493.81
358.895	484.81
359.122	485.81
359.349	500.81
359.576	520.81
359.802	529.81
360.029	532.81
360.256	512.81
360.483	512.81
360.709	520.81
360.936	503.81
361.163	508.81
361.39	494.81
361.616	511.81
361.843	512.81
362.07	499.81
362.296	491.81
362.523	491.81
362.749	497.81
362.976	498.81
363.203	496.81
363.429	478.81
363.656	483.81
363.882	475.81
364.109	468.81
364.335	487.81
364.562	495.81
364.788	494.81
365.015	468.81
365.241	515.81
365.468	475.81
365.694	488.81
365.92	493.81
366.147	498.81
366.373	490.81
366.599	494.81
366.826	471.81
367.052	472.81
367.278	506.81
367.505	467.81
367.731	493.81
367.957	499.81
368.184	500.81
368.41	502.81
368.636	494.81
368.862	496.81
369.089	519.81
369.315	491.81
369.541	500.81
369.767	511.81
369.993	494.81
370.219	512.81
370.445	510.81
370.672	493.81
370.898	489.81
371.124	512.81
371.35	509.81
371.576	526.81
371.802	528.81
372.028	503.81
372.254	509.81
372.48	534.81
372.706	531.81
372.932	528.81
373.158	519.81
373.384	537.81
373.61	524.81
373.835	524.81
374.061	515.81
374.287	518.81
374.513	525.81
374.739	547.81
374.965	542.81
375.191	554.81
375.416	555.81
375.642	526.81
375.868	523.81
376.094	519.81
376.319	539.81
376.545	514.81
376.771	522.81
376.997	525.81
377.222	516.81
377.448	517.81
377.674	514.81
377.899	502.81
378.125	506.81
378.35	495.81
378.576	504.81
378.802	523.81
379.027	518.81
379.253	508.81
379.478	518.81
379.704	512.81
379.929	523.81
380.155	525.81
380.38	513.81
380.606	493.81
380.831	522.81
381.057	507.81
381.282	491.81
381.507	506.81
381.733	514.81
381.958	540.81
382.184	515.81
382.409	532.81
382.634	520.81
382.86	519.81
383.085	532.81
383.31	526.81
383.535	550.81
383.761	559.81
383.986	553.81
384.211	560.81
384.436	566.81
384.662	570.81
384.887	568.81
385.112	578.81
385.337	597.81
385.562	607.81
385.787	615.81
386.013	580.81
386.238	584.81
386.463	599.81
386.688	603.81
386.913	584.81
387.138	600.81
387.363	592.81
387.588	590.81
387.813	594.81
388.038	604.81
388.263	584.81
388.488	607.81
388.713	594.81
388.938	588.81
389.163	621.81
389.387	578.81
389.612	562.81
389.837	613.81
390.062	580.81
390.287	580.81
390.512	589.81
390.736	569.81
390.961	592.81
391.186	606.81
391.411	604.81
391.636	633.81
391.86	640.81
392.085	652.81
392.31	649.81
392.534	651.81
392.759	608.81
392.984	617.81
393.208	621.81
393.433	618.81
393.658	609.81
393.882	598.81
394.107	619.81
394.331	628.81
394.556	602.81
394.78	607.81
395.005	619.81
395.229	644.81
395.454	646.81
395.678	656.81
395.903	644.81
396.127	667.81
396.352	667.81
396.576	626.81
396.801	623.81
397.025	622.81
397.249	659.81
397.474	672.81
397.698	671.81
397.922	646.81
398.147	653.81
398.371	684.81
398.595	700.81
398.82	696.81
399.044	761.81
399.268	779.81
399.492	860.81
399.717	932.81
399.941	971.81
400.165	924.81
400.389	868.81
400.613	799.81
400.837	751.81
401.062	763.81
401.286	744.81
401.51	710.81
401.734	728.81
401.958	723.81
402.182	709.81
402.406	743.81
402.63	717.81
402.854	759.81
403.078	749.81
403.302	747.81
403.526	786.81
403.75	794.81
403.974	779.81
404.198	776.81
404.422	788.81
404.645	790.81
404.869	790.81
405.093	806.81
405.317	796.81
405.541	848.81
405.765	803.81
405.988	797.81
406.212	791.81
406.436	794.81
406.66	818.81
406.883	806.81
407.107	818.81
407.331	901.81
407.555	975.81
407.778	959.81
408.002	888.81
408.226	838.81
408.449	834.81
408.673	844.81
408.896	821.81
409.12	810.81
409.344	828.81
409.567	783.81
409.791	772.81
410.014	727.81
410.238	768.81
410.461	771.81
410.685	752.81
410.908	747.81
411.132	769.81
411.355	781.81
411.578	750.81
411.802	721.81
412.025	718.81
412.249	747.81
412.472	778.81
412.695	772.81
412.919	775.81
413.142	720.81
413.365	717.81
413.589	731.81
413.812	723.81
414.035	702.81
414.258	711.81
414.482	695.81
414.705	686.81
414.928	719.81
415.151	701.81
415.374	721.81
415.597	677.81
415.821	693.81
416.044	669.81
416.267	711.81
416.49	683.81
416.713	702.81
416.936	696.81
417.159	679.81
417.382	712.81
417.605	704.81
417.828	703.81
418.051	706.81
418.274	720.81
418.497	707.81
418.72	709.81
418.943	720.81
419.166	735.81
419.389	772.81
419.611	781.81
419.834	755.81
420.057	740.81
420.28	733.81
420.503	731.81
420.726	735.81
420.948	731.81
421.171	766.81
421.394	800.81
421.617	740.81
421.839	708.81
422.062	719.81
422.285	708.81
422.507	755.81
422.73	814.81
422.953	831.81
423.175	766.81
423.398	741.81
423.621	734.81
423.843	756.81
424.066	764.81
424.288	742.81
424.511	780.81
424.733	782.81
424.956	872.81
425.178	854.81
425.401	831.81
425.623	831.81
425.846	782.81
426.068	711.81
426.291	719.81
426.513	722.81
426.735	714.81
426.958	718.81
427.18	791.81
427.402	874.81
427.625	966.81
427.847	858.81
428.069	781.81
428.292	733.81
428.514	676.81
428.736	650.81
428.958	678.81
429.181	665.81
429.403	646.81
429.625	671.81
429.847	701.81
430.069	728.81
430.292	717.81
430.514	654.81
430.736	687.81
430.958	661.81
431.18	627.81
431.402	639.81
431.624	647.81
431.846	639.81
432.068	638.81
432.29	663.81
432.512	677.81
432.734	668.81
432.956	650.81
433.178	673.81
433.4	664.81
433.622	646.81
433.844	661.81
434.066	631.81
434.287	665.81
434.509	685.81
434.731	708.81
434.953	696.81
435.175	720.81
435.397	728.81
435.618	728.81
435.84	742.81
436.062	806.81
436.284	854.81
436.505	738.81
436.727	692.81
436.949	665.81
437.17	674.81
437.392	660.81
437.614	654.81
437.835	692.81
438.057	742.81
438.278	803.81
438.5	811.81
438.721	873.81
438.943	843.81
439.165	735.81
439.386	686.81
439.608	705.81
439.829	694.81
440.05	715.81
440.272	761.81
440.493	717.81
440.715	690.81
440.936	685.81
441.158	669.81
441.379	703.81
441.6	725.81
441.822	738.81
442.043	778.81
442.264	804.81
442.486	834.81
442.707	778.81
442.928	717.81
443.149	744.81
443.371	767.81
443.592	790.81
443.813	869.81
444.034	934.81
444.255	831.81
444.476	778.81
444.698	784.81
444.919	793.81
445.14	877.81
445.361	838.81
445.582	772.81
445.803	789.81
446.024	858.81
446.245	858.81
446.466	813.81
446.687	701.81
446.908	679.81
447.129	686.81
447.35	664.81
447.571	645.81
447.792	639.81
448.013	654.81
448.234	651.81
448.455	681.81
448.675	750.81
448.896	853.81
449.117	759.81
449.338	711.81
449.559	803.81
449.779	870.81
450	742.81
450.221	676.81
450.442	635.81
450.662	626.81
450.883	638.81
451.104	647.81
451.324	629.81
451.545	606.81
451.766	605.81
451.986	575.81
452.207	597.81
452.428	603.81
452.648	600.81
452.869	584.81
453.089	583.81
453.31	613.81
453.53	584.81
453.751	594.81
453.971	564.81
454.192	584.81
454.412	614.81
454.633	595.81
454.853	567.81
455.073	584.81
455.294	612.81
455.514	638.81
455.734	618.81
455.955	582.81
456.175	564.81
456.395	571.81
456.616	561.81
456.836	559.81
457.056	554.81
457.276	561.81
457.497	556.81
457.717	534.81
457.937	574.81
458.157	571.81
458.377	599.81
458.598	610.81
458.818	628.81
459.038	694.81
459.258	727.81
459.478	698.81
459.698	671.81
459.918	684.81
460.138	687.81
460.358	726.81
460.578	726.81
460.798	721.81
461.018	721.81
461.238	686.81
461.458	691.81
461.678	712.81
461.898	707.81
462.118	718.81
462.338	746.81
462.558	760.81
462.777	792.81
462.997	823.81
463.217	861.81
463.437	870.81
463.657	843.81
463.876	790.81
464.096	825.81
464.316	784.81
464.536	807.81
464.755	781.81
464.975	754.81
465.195	771.81
465.414	784.81
465.634	717.81
465.854	710.81
466.073	683.81
466.293	637.81
466.512	623.81
466.732	618.81
466.951	630.81
467.171	620.81
467.391	609.81
467.61	644.81
467.829	637.81
468.049	635.81
468.268	606.81
468.488	631.81
468.707	610.81
468.927	609.81
469.146	607.81
469.365	610.81
469.585	619.81
469.804	605.81
470.023	638.81
470.243	646.81
470.462	660.81
470.681	638.81
470.901	649.81
471.12	636.81
471.339	635.81
471.558	663.81
471.777	618.81
471.997	618.81
472.216	616.81
472.435	658.81
472.654	655.81
472.873	634.81
473.092	591.81
473.311	598.81
473.53	599.81
473.749	580.81
473.968	639.81
474.187	694.81
474.406	724.81
474.625	658.81
474.844	616.81
475.063	606.81
475.282	647.81
475.501	619.81
475.72	615.81
475.939	631.81
476.158	639.81
476.377	625.81
476.596	637.81
476.814	646.81
477.033	613.81
477.252	664.81
477.471	650.81
477.69	669.81
477.908	702.81
478.127	714.81
478.346	707.81
478.564	718.81
478.783	710.81
479.002	754.81
479.22	746.81
479.439	770.81
479.658	735.81
479.876	743.81
480.095	773.81
480.313	835.81
480.532	826.81
480.751	795.81
480.969	814.81
481.188	817.81
481.406	843.81
481.624	763.81
481.843	748.81
482.061	727.81
482.28	714.81
482.498	715.81
482.717	733.81
482.935	734.81
483.153	726.81
483.372	695.81
483.59	706.81
483.808	721.81
484.027	713.81
484.245	711.81
484.463	724.81
484.681	714.81
484.9	735.81
485.118	737.81
485.336	731.81
485.554	742.81
485.772	739.81
485.99	738.81
486.209	762.81
486.427	756.81
486.645	750.81
486.863	772.81
487.081	757.81
487.299	784.81
487.517	749.81
487.735	739.81
487.953	751.81
488.171	792.81
488.389	759.81
488.607	792.81
488.825	764.81
489.043	768.81
489.261	783.81
489.479	779.81
489.696	777.81
489.914	780.81
490.132	768.81
490.35	800.81
490.568	785.81
490.786	813.81
491.003	811.81
491.221	805.81
491.439	825.81
491.657	856.81
491.874	830.81
492.092	811.81
492.31	854.81
492.527	839.81
492.745	849.81
492.963	854.81
493.18	847.81
493.398	824.81
493.615	869.81
493.833	869.81
494.05	865.81
494.268	891.81
494.485	871.81
494.703	868.81
494.92	871.81
495.138	882.81
495.355	862.81
495.573	898.81
495.79	875.81
496.008	888.81
496.225	866.81
496.442	876.81
496.66	926.81
496.877	902.81
497.094	922.81
497.312	918.81
497.529	939.81
497.746	922.81
497.963	977.81
498.181	1023.81
498.398	1034.81
498.615	1066.81
498.832	1133.81
499.049	1145.81
499.267	1227.81
499.484	1296.81
499.701	1412.81
499.918	1495.81
500.135	1612.81
500.352	1732.81
500.569	1853.81
500.786	1846.81
501.003	1695.81
501.22	1612.81
501.437	1496.81
501.654	1402.81
