Data from 1963.PennyLincolnUp.Lamp.En5.5.200Scan.071719.P1._HRD10591_13-59-00-064.txt Node
Date: Thu Jul 18 13:59:00 EDT 2019
User: cochatt
Spectrometer: HR+D1059
Trigger mode: 1
Integration Time (sec): 1.000000E-1
Scans to average: 1
Electric dark correction enabled: true
Nonlinearity correction enabled: false
Boxcar width: 0
XAxis mode: Wavelengths
Number of Pixels in Spectrum: 2048
>>>>>Begin Spectral Data<<<<<
223.165	-16.12
223.4	-16.12
223.635	-16.12
223.869	-19.12
224.104	-12.12
224.338	-14.12
224.573	-26.12
224.808	-16.12
225.042	-0.12
225.277	-1.12
225.511	-1.12
225.746	-0.12
225.98	4.88
226.215	3.88
226.449	26.88
226.683	20.88
226.918	21.88
227.152	27.88
227.387	30.88
227.621	36.88
227.856	42.88
228.09	56.88
228.324	46.88
228.559	47.88
228.793	77.88
229.027	77.88
229.262	105.88
229.496	99.88
229.73	145.88
229.964	141.88
230.199	133.88
230.433	119.88
230.667	106.88
230.901	123.88
231.136	108.88
231.37	124.88
231.604	111.88
231.838	116.88
232.072	103.88
232.306	108.88
232.541	106.88
232.775	117.88
233.009	121.88
233.243	122.88
233.477	121.88
233.711	122.88
233.945	114.88
234.179	121.88
234.413	124.88
234.647	121.88
234.881	126.88
235.115	120.88
235.349	123.88
235.583	131.88
235.817	119.88
236.051	133.88
236.285	115.88
236.519	126.88
236.753	133.88
236.987	131.88
237.221	153.88
237.455	202.88
237.689	159.88
237.922	155.88
238.156	145.88
238.39	125.88
238.624	118.88
238.858	117.88
239.091	123.88
239.325	142.88
239.559	134.88
239.793	123.88
240.027	135.88
240.26	139.88
240.494	152.88
240.728	156.88
240.961	142.88
241.195	141.88
241.429	133.88
241.662	146.88
241.896	120.88
242.13	150.88
242.363	151.88
242.597	156.88
242.83	135.88
243.064	151.88
243.298	148.88
243.531	149.88
243.765	152.88
243.998	152.88
244.232	150.88
244.465	153.88
244.699	160.88
244.932	146.88
245.166	163.88
245.399	151.88
245.633	164.88
245.866	171.88
246.099	161.88
246.333	168.88
246.566	184.88
246.8	169.88
247.033	170.88
247.266	173.88
247.5	171.88
247.733	180.88
247.966	187.88
248.2	168.88
248.433	171.88
248.666	193.88
248.899	191.88
249.133	207.88
249.366	206.88
249.599	196.88
249.832	211.88
250.066	205.88
250.299	194.88
250.532	189.88
250.765	216.88
250.998	208.88
251.231	230.88
251.465	216.88
251.698	214.88
251.931	218.88
252.164	213.88
252.397	212.88
252.63	220.88
252.863	217.88
253.096	209.88
253.329	208.88
253.562	227.88
253.795	221.88
254.028	221.88
254.261	221.88
254.494	251.88
254.727	246.88
254.96	279.88
255.193	257.88
255.426	250.88
255.659	229.88
255.892	237.88
256.124	234.88
256.357	246.88
256.59	224.88
256.823	233.88
257.056	225.88
257.289	216.88
257.521	216.88
257.754	228.88
257.987	201.88
258.22	215.88
258.452	221.88
258.685	221.88
258.918	218.88
259.151	212.88
259.383	236.88
259.616	239.88
259.849	227.88
260.081	247.88
260.314	248.88
260.547	263.88
260.779	235.88
261.012	231.88
261.244	236.88
261.477	231.88
261.71	253.88
261.942	250.88
262.175	257.88
262.407	241.88
262.64	231.88
262.872	230.88
263.105	223.88
263.337	239.88
263.57	246.88
263.802	231.88
264.035	224.88
264.267	233.88
264.499	241.88
264.732	257.88
264.964	248.88
265.197	239.88
265.429	253.88
265.661	231.88
265.894	241.88
266.126	242.88
266.358	250.88
266.591	243.88
266.823	260.88
267.055	259.88
267.287	260.88
267.52	258.88
267.752	245.88
267.984	256.88
268.216	255.88
268.448	275.88
268.681	291.88
268.913	279.88
269.145	252.88
269.377	293.88
269.609	275.88
269.841	270.88
270.073	292.88
270.306	310.88
270.538	327.88
270.77	331.88
271.002	324.88
271.234	300.88
271.466	292.88
271.698	306.88
271.93	343.88
272.162	308.88
272.394	319.88
272.626	314.88
272.858	313.88
273.09	300.88
273.322	304.88
273.553	297.88
273.785	296.88
274.017	293.88
274.249	286.88
274.481	291.88
274.713	286.88
274.945	277.88
275.176	290.88
275.408	307.88
275.64	291.88
275.872	277.88
276.104	284.88
276.335	291.88
276.567	290.88
276.799	287.88
277.031	316.88
277.262	337.88
277.494	344.88
277.726	326.88
277.957	328.88
278.189	296.88
278.421	298.88
278.652	285.88
278.884	303.88
279.115	289.88
279.347	307.88
279.579	298.88
279.81	314.88
280.042	298.88
280.273	303.88
280.505	311.88
280.736	331.88
280.968	321.88
281.199	313.88
281.431	314.88
281.662	311.88
281.894	307.88
282.125	313.88
282.356	339.88
282.588	322.88
282.819	317.88
283.051	299.88
283.282	328.88
283.513	355.88
283.745	329.88
283.976	317.88
284.207	341.88
284.439	324.88
284.67	319.88
284.901	331.88
285.132	317.88
285.364	328.88
285.595	330.88
285.826	327.88
286.057	327.88
286.288	344.88
286.52	323.88
286.751	344.88
286.982	335.88
287.213	350.88
287.444	332.88
287.675	332.88
287.906	348.88
288.138	346.88
288.369	364.88
288.6	362.88
288.831	355.88
289.062	367.88
289.293	344.88
289.524	349.88
289.755	354.88
289.986	360.88
290.217	360.88
290.448	348.88
290.679	351.88
290.91	367.88
291.141	377.88
291.371	367.88
291.602	345.88
291.833	339.88
292.064	363.88
292.295	354.88
292.526	353.88
292.757	358.88
292.987	355.88
293.218	349.88
293.449	348.88
293.68	363.88
293.91	329.88
294.141	343.88
294.372	347.88
294.603	353.88
294.833	371.88
295.064	362.88
295.295	359.88
295.525	373.88
295.756	348.88
295.987	361.88
296.217	384.88
296.448	388.88
296.679	374.88
296.909	373.88
297.14	365.88
297.37	367.88
297.601	363.88
297.831	362.88
298.062	369.88
298.292	381.88
298.523	368.88
298.753	386.88
298.984	364.88
299.214	375.88
299.445	381.88
299.675	384.88
299.905	359.88
300.136	378.88
300.366	378.88
300.597	392.88
300.827	399.88
301.057	395.88
301.288	402.88
301.518	393.88
301.748	395.88
301.979	397.88
302.209	404.88
302.439	404.88
302.669	423.88
302.9	407.88
303.13	403.88
303.36	410.88
303.59	398.88
303.82	420.88
304.051	396.88
304.281	409.88
304.511	405.88
304.741	392.88
304.971	393.88
305.201	404.88
305.431	396.88
305.661	396.88
305.891	406.88
306.121	403.88
306.352	426.88
306.582	421.88
306.812	416.88
307.042	390.88
307.272	386.88
307.502	391.88
307.731	395.88
307.961	403.88
308.191	401.88
308.421	387.88
308.651	405.88
308.881	400.88
309.111	395.88
309.341	409.88
309.571	422.88
309.8	393.88
310.03	434.88
310.26	424.88
310.49	419.88
310.72	438.88
310.949	435.88
311.179	427.88
311.409	443.88
311.639	417.88
311.868	425.88
312.098	424.88
312.328	439.88
312.557	427.88
312.787	465.88
313.017	452.88
313.246	461.88
313.476	445.88
313.706	428.88
313.935	437.88
314.165	441.88
314.394	452.88
314.624	456.88
314.853	436.88
315.083	460.88
315.312	444.88
315.542	448.88
315.771	431.88
316.001	434.88
316.23	435.88
316.46	446.88
316.689	444.88
316.919	436.88
317.148	437.88
317.377	449.88
317.607	458.88
317.836	444.88
318.065	423.88
318.295	424.88
318.524	436.88
318.753	427.88
318.983	435.88
319.212	433.88
319.441	436.88
319.67	449.88
319.9	447.88
320.129	441.88
320.358	448.88
320.587	448.88
320.816	447.88
321.046	465.88
321.275	443.88
321.504	467.88
321.733	453.88
321.962	461.88
322.191	461.88
322.42	473.88
322.649	468.88
322.878	473.88
323.108	460.88
323.337	463.88
323.566	509.88
323.795	521.88
324.024	555.88
324.253	604.88
324.482	756.88
324.71	1107.88
324.939	1561.88
325.168	1401.88
325.397	803.88
325.626	597.88
325.855	541.88
326.084	525.88
326.313	519.88
326.542	530.88
326.77	565.88
326.999	605.88
327.228	728.88
327.457	1016.88
327.686	1247.88
327.914	873.88
328.143	649.88
328.372	595.88
328.6	583.88
328.829	556.88
329.058	553.88
329.287	584.88
329.515	570.88
329.744	535.88
329.972	512.88
330.201	542.88
330.43	564.88
330.658	598.88
330.887	597.88
331.115	572.88
331.344	575.88
331.572	546.88
331.801	555.88
332.03	528.88
332.258	529.88
332.486	535.88
332.715	553.88
332.943	568.88
333.172	596.88
333.4	576.88
333.629	592.88
333.857	601.88
334.085	609.88
334.314	630.88
334.542	619.88
334.771	649.88
334.999	616.88
335.227	603.88
335.455	593.88
335.684	566.88
335.912	566.88
336.14	560.88
336.369	560.88
336.597	555.88
336.825	537.88
337.053	533.88
337.281	537.88
337.51	556.88
337.738	540.88
337.966	539.88
338.194	507.88
338.422	548.88
338.65	517.88
338.878	515.88
339.106	513.88
339.334	535.88
339.562	518.88
339.79	490.88
340.018	525.88
340.246	517.88
340.474	517.88
340.702	508.88
340.93	502.88
341.158	516.88
341.386	524.88
341.614	509.88
341.842	510.88
342.07	519.88
342.298	519.88
342.526	500.88
342.754	485.88
342.981	510.88
343.209	518.88
343.437	539.88
343.665	532.88
343.893	568.88
344.12	604.88
344.348	565.88
344.576	565.88
344.804	541.88
345.031	536.88
345.259	532.88
345.487	538.88
345.714	519.88
345.942	502.88
346.17	498.88
346.397	524.88
346.625	478.88
346.853	479.88
347.08	497.88
347.308	492.88
347.535	491.88
347.763	492.88
347.99	488.88
348.218	497.88
348.445	475.88
348.673	488.88
348.9	485.88
349.128	496.88
349.355	480.88
349.583	484.88
349.81	473.88
350.037	465.88
350.265	503.88
350.492	488.88
350.72	464.88
350.947	485.88
351.174	493.88
351.402	492.88
351.629	498.88
351.856	477.88
352.083	489.88
352.311	501.88
352.538	472.88
352.765	473.88
352.992	483.88
353.22	488.88
353.447	495.88
353.674	455.88
353.901	458.88
354.128	458.88
354.355	468.88
354.583	482.88
354.81	471.88
355.037	495.88
355.264	487.88
355.491	499.88
355.718	485.88
355.945	478.88
356.172	484.88
356.399	460.88
356.626	461.88
356.853	459.88
357.08	472.88
357.307	460.88
357.534	461.88
357.761	461.88
357.988	469.88
358.215	461.88
358.441	470.88
358.668	471.88
358.895	468.88
359.122	464.88
359.349	488.88
359.576	490.88
359.802	501.88
360.029	512.88
360.256	508.88
360.483	489.88
360.709	484.88
360.936	478.88
361.163	483.88
361.39	474.88
361.616	498.88
361.843	503.88
362.07	490.88
362.296	485.88
362.523	489.88
362.749	482.88
362.976	483.88
363.203	470.88
363.429	471.88
363.656	470.88
363.882	472.88
364.109	480.88
364.335	498.88
364.562	503.88
364.788	469.88
365.015	506.88
365.241	466.88
365.468	496.88
365.694	492.88
365.92	469.88
366.147	491.88
366.373	492.88
366.599	480.88
366.826	469.88
367.052	470.88
367.278	475.88
367.505	498.88
367.731	507.88
367.957	501.88
368.184	495.88
368.41	508.88
368.636	491.88
368.862	495.88
369.089	493.88
369.315	467.88
369.541	486.88
369.767	503.88
369.993	463.88
370.219	479.88
370.445	491.88
370.672	520.88
370.898	501.88
371.124	497.88
371.35	511.88
371.576	479.88
371.802	505.88
372.028	500.88
372.254	479.88
372.48	492.88
372.706	529.88
372.932	521.88
373.158	533.88
373.384	515.88
373.61	503.88
373.835	512.88
374.061	497.88
374.287	505.88
374.513	495.88
374.739	511.88
374.965	535.88
375.191	515.88
375.416	525.88
375.642	542.88
375.868	514.88
376.094	498.88
376.319	515.88
376.545	513.88
376.771	527.88
376.997	497.88
377.222	496.88
377.448	493.88
377.674	508.88
377.899	486.88
378.125	499.88
378.35	491.88
378.576	515.88
378.802	502.88
379.027	513.88
379.253	506.88
379.478	486.88
379.704	509.88
379.929	513.88
380.155	488.88
380.38	505.88
380.606	511.88
380.831	502.88
381.057	503.88
381.282	495.88
381.507	516.88
381.733	497.88
381.958	509.88
382.184	515.88
382.409	514.88
382.634	538.88
382.86	532.88
383.085	519.88
383.31	543.88
383.535	532.88
383.761	517.88
383.986	561.88
384.211	533.88
384.436	548.88
384.662	575.88
384.887	557.88
385.112	569.88
385.337	591.88
385.562	564.88
385.787	566.88
386.013	586.88
386.238	584.88
386.463	581.88
386.688	575.88
386.913	585.88
387.138	599.88
387.363	583.88
387.588	557.88
387.813	571.88
388.038	561.88
388.263	572.88
388.488	585.88
388.713	566.88
388.938	561.88
389.163	588.88
389.387	575.88
389.612	560.88
389.837	571.88
390.062	582.88
390.287	579.88
390.512	573.88
390.736	540.88
390.961	587.88
391.186	589.88
391.411	598.88
391.636	604.88
391.86	602.88
392.085	643.88
392.31	639.88
392.534	603.88
392.759	611.88
392.984	594.88
393.208	584.88
393.433	612.88
393.658	610.88
393.882	607.88
394.107	619.88
394.331	601.88
394.556	603.88
394.78	615.88
395.005	603.88
395.229	608.88
395.454	629.88
395.678	625.88
395.903	636.88
396.127	641.88
396.352	633.88
396.576	598.88
396.801	597.88
397.025	609.88
397.249	609.88
397.474	631.88
397.698	614.88
397.922	657.88
398.147	658.88
398.371	697.88
398.595	665.88
398.82	679.88
399.044	715.88
399.268	758.88
399.492	862.88
399.717	910.88
399.941	948.88
400.165	901.88
400.389	868.88
400.613	789.88
400.837	741.88
401.062	704.88
401.286	691.88
401.51	693.88
401.734	677.88
401.958	699.88
402.182	696.88
402.406	720.88
402.63	718.88
402.854	741.88
403.078	738.88
403.302	740.88
403.526	754.88
403.75	775.88
403.974	791.88
404.198	735.88
404.422	753.88
404.645	758.88
404.869	783.88
405.093	810.88
405.317	811.88
405.541	806.88
405.765	767.88
405.988	751.88
406.212	747.88
406.436	763.88
406.66	781.88
406.883	765.88
407.107	817.88
407.331	850.88
407.555	972.88
407.778	927.88
408.002	888.88
408.226	835.88
408.449	823.88
408.673	794.88
408.896	801.88
409.12	818.88
409.344	799.88
409.567	768.88
409.791	742.88
410.014	748.88
410.238	732.88
410.461	714.88
410.685	733.88
410.908	731.88
411.132	746.88
411.355	775.88
411.578	781.88
411.802	717.88
412.025	702.88
412.249	728.88
412.472	751.88
412.695	762.88
412.919	740.88
413.142	700.88
413.365	689.88
413.589	675.88
413.812	687.88
414.035	679.88
414.258	669.88
414.482	680.88
414.705	680.88
414.928	682.88
415.151	669.88
415.374	683.88
415.597	666.88
415.821	665.88
416.044	660.88
416.267	663.88
416.49	665.88
416.713	676.88
416.936	659.88
417.159	664.88
417.382	697.88
417.605	657.88
417.828	697.88
418.051	678.88
418.274	693.88
418.497	684.88
418.72	711.88
418.943	695.88
419.166	716.88
419.389	757.88
419.611	737.88
419.834	724.88
420.057	725.88
420.28	721.88
420.503	682.88
420.726	681.88
420.948	730.88
421.171	730.88
421.394	774.88
421.617	701.88
421.839	711.88
422.062	688.88
422.285	699.88
422.507	763.88
422.73	797.88
422.953	805.88
423.175	721.88
423.398	733.88
423.621	727.88
423.843	735.88
424.066	751.88
424.288	741.88
424.511	732.88
424.733	767.88
424.956	823.88
425.178	798.88
425.401	836.88
425.623	838.88
425.846	738.88
426.068	741.88
426.291	673.88
426.513	705.88
426.735	687.88
426.958	731.88
427.18	766.88
427.402	899.88
427.625	943.88
427.847	844.88
428.069	741.88
428.292	723.88
428.514	666.88
428.736	653.88
428.958	649.88
429.181	641.88
429.403	659.88
429.625	644.88
429.847	664.88
430.069	702.88
430.292	698.88
430.514	651.88
430.736	639.88
430.958	656.88
431.18	632.88
431.402	645.88
431.624	624.88
431.846	613.88
432.068	627.88
432.29	641.88
432.512	630.88
432.734	617.88
432.956	623.88
433.178	623.88
433.4	656.88
433.622	619.88
433.844	643.88
434.066	628.88
434.287	639.88
434.509	637.88
434.731	687.88
434.953	697.88
435.175	726.88
435.397	737.88
435.618	694.88
435.84	731.88
436.062	767.88
436.284	835.88
436.505	753.88
436.727	699.88
436.949	691.88
437.17	631.88
437.392	628.88
437.614	651.88
437.835	657.88
438.057	730.88
438.278	817.88
438.5	782.88
438.721	879.88
438.943	811.88
439.165	707.88
439.386	675.88
439.608	677.88
439.829	653.88
440.05	671.88
440.272	733.88
440.493	688.88
440.715	687.88
440.936	675.88
441.158	673.88
441.379	678.88
441.6	700.88
441.822	723.88
442.043	756.88
442.264	797.88
442.486	786.88
442.707	738.88
442.928	721.88
443.149	735.88
443.371	725.88
443.592	752.88
443.813	828.88
444.034	901.88
444.255	796.88
444.476	729.88
444.698	765.88
444.919	797.88
445.14	882.88
445.361	801.88
445.582	755.88
445.803	801.88
446.024	847.88
446.245	828.88
446.466	791.88
446.687	716.88
446.908	687.88
447.129	644.88
447.35	635.88
447.571	606.88
447.792	628.88
448.013	624.88
448.234	642.88
448.455	654.88
448.675	736.88
448.896	825.88
449.117	743.88
449.338	706.88
449.559	803.88
449.779	851.88
450	717.88
450.221	653.88
450.442	633.88
450.662	611.88
450.883	612.88
451.104	645.88
451.324	634.88
451.545	596.88
451.766	589.88
451.986	577.88
452.207	585.88
452.428	578.88
452.648	585.88
452.869	556.88
453.089	586.88
453.31	610.88
453.53	579.88
453.751	557.88
453.971	567.88
454.192	567.88
454.412	581.88
454.633	563.88
454.853	538.88
455.073	571.88
455.294	591.88
455.514	626.88
455.734	618.88
455.955	569.88
456.175	554.88
456.395	531.88
456.616	544.88
456.836	522.88
457.056	557.88
457.276	547.88
457.497	551.88
457.717	555.88
457.937	547.88
458.157	579.88
458.377	563.88
458.598	582.88
458.818	641.88
459.038	695.88
459.258	714.88
459.478	654.88
459.698	636.88
459.918	657.88
460.138	677.88
460.358	714.88
460.578	702.88
460.798	699.88
461.018	703.88
461.238	693.88
461.458	699.88
461.678	684.88
461.898	694.88
462.118	690.88
462.338	716.88
462.558	720.88
462.777	745.88
462.997	793.88
463.217	858.88
463.437	851.88
463.657	785.88
463.876	782.88
464.096	805.88
464.316	791.88
464.536	776.88
464.755	771.88
464.975	752.88
465.195	751.88
465.414	770.88
465.634	692.88
465.854	671.88
466.073	647.88
466.293	645.88
466.512	625.88
466.732	602.88
466.951	629.88
467.171	612.88
467.391	619.88
467.61	604.88
467.829	619.88
468.049	635.88
468.268	621.88
468.488	610.88
468.707	612.88
468.927	584.88
469.146	591.88
469.365	593.88
469.585	606.88
469.804	595.88
470.023	622.88
470.243	621.88
470.462	627.88
470.681	633.88
470.901	657.88
471.12	648.88
471.339	621.88
471.558	612.88
471.777	633.88
471.997	610.88
472.216	633.88
472.435	615.88
472.654	614.88
472.873	609.88
473.092	594.88
473.311	599.88
473.53	606.88
473.749	611.88
473.968	612.88
474.187	682.88
474.406	687.88
474.625	627.88
474.844	594.88
475.063	610.88
475.282	598.88
475.501	627.88
475.72	629.88
475.939	643.88
476.158	625.88
476.377	623.88
476.596	636.88
476.814	632.88
477.033	644.88
477.252	625.88
477.471	649.88
477.69	664.88
477.908	665.88
478.127	701.88
478.346	684.88
478.564	734.88
478.783	690.88
479.002	736.88
479.22	729.88
479.439	754.88
479.658	717.88
479.876	737.88
480.095	742.88
480.313	790.88
480.532	801.88
480.751	768.88
480.969	755.88
481.188	783.88
481.406	844.88
481.624	759.88
481.843	743.88
482.061	732.88
482.28	709.88
482.498	708.88
482.717	713.88
482.935	678.88
483.153	682.88
483.372	720.88
483.59	697.88
483.808	723.88
484.027	716.88
484.245	696.88
484.463	700.88
484.681	710.88
484.9	731.88
485.118	699.88
485.336	733.88
485.554	725.88
485.772	723.88
485.99	723.88
486.209	768.88
486.427	741.88
486.645	739.88
486.863	741.88
487.081	749.88
487.299	763.88
487.517	742.88
487.735	740.88
487.953	758.88
488.171	733.88
488.389	731.88
488.607	730.88
488.825	762.88
489.043	738.88
489.261	761.88
489.479	779.88
489.696	748.88
489.914	773.88
490.132	746.88
490.35	787.88
490.568	730.88
490.786	759.88
491.003	796.88
491.221	812.88
491.439	812.88
491.657	810.88
491.874	829.88
492.092	858.88
492.31	835.88
492.527	831.88
492.745	844.88
492.963	829.88
493.18	845.88
493.398	851.88
493.615	881.88
493.833	835.88
494.05	880.88
494.268	865.88
494.485	843.88
494.703	853.88
494.92	868.88
495.138	871.88
495.355	864.88
495.573	863.88
495.79	850.88
496.008	838.88
496.225	887.88
496.442	856.88
496.66	908.88
496.877	915.88
497.094	907.88
497.312	906.88
497.529	919.88
497.746	939.88
497.963	938.88
498.181	979.88
498.398	1013.88
498.615	1096.88
498.832	1122.88
499.049	1172.88
499.267	1203.88
499.484	1256.88
499.701	1363.88
499.918	1415.88
500.135	1576.88
500.352	1741.88
500.569	1760.88
500.786	1756.88
501.003	1718.88
501.22	1559.88
501.437	1442.88
501.654	1357.88
