Data from 1963.PennyLincolnUp.Lamp.En5.5.200Scan.071719.P1._HRD10591_13-59-36-064.txt Node
Date: Thu Jul 18 13:59:36 EDT 2019
User: cochatt
Spectrometer: HR+D1059
Trigger mode: 1
Integration Time (sec): 1.000000E-1
Scans to average: 1
Electric dark correction enabled: true
Nonlinearity correction enabled: false
Boxcar width: 0
XAxis mode: Wavelengths
Number of Pixels in Spectrum: 2048
>>>>>Begin Spectral Data<<<<<
223.165	-19.94
223.4	-19.94
223.635	-19.94
223.869	-10.94
224.104	-6.94
224.338	-9.94
224.573	-19.94
224.808	2.06
225.042	-4.94
225.277	3.06
225.511	-8.94
225.746	1.06
225.98	-3.94
226.215	7.06
226.449	16.06
226.683	2.06
226.918	26.06
227.152	28.06
227.387	29.06
227.621	39.06
227.856	41.06
228.09	53.06
228.324	52.06
228.559	60.06
228.793	66.06
229.027	107.06
229.262	111.06
229.496	111.06
229.73	117.06
229.964	168.06
230.199	142.06
230.433	120.06
230.667	116.06
230.901	124.06
231.136	118.06
231.37	121.06
231.604	121.06
231.838	109.06
232.072	121.06
232.306	130.06
232.541	112.06
232.775	128.06
233.009	127.06
233.243	110.06
233.477	128.06
233.711	119.06
233.945	147.06
234.179	140.06
234.413	129.06
234.647	126.06
234.881	128.06
235.115	113.06
235.349	129.06
235.583	144.06
235.817	122.06
236.051	124.06
236.285	136.06
236.519	137.06
236.753	141.06
236.987	157.06
237.221	180.06
237.455	223.06
237.689	175.06
237.922	143.06
238.156	136.06
238.39	147.06
238.624	132.06
238.858	139.06
239.091	141.06
239.325	152.06
239.559	135.06
239.793	138.06
240.027	142.06
240.26	171.06
240.494	160.06
240.728	157.06
240.961	155.06
241.195	161.06
241.429	158.06
241.662	144.06
241.896	165.06
242.13	158.06
242.363	138.06
242.597	150.06
242.83	150.06
243.064	152.06
243.298	152.06
243.531	159.06
243.765	156.06
243.998	147.06
244.232	159.06
244.465	170.06
244.699	170.06
244.932	170.06
245.166	175.06
245.399	184.06
245.633	173.06
245.866	162.06
246.099	173.06
246.333	152.06
246.566	160.06
246.8	191.06
247.033	184.06
247.266	184.06
247.5	173.06
247.733	186.06
247.966	207.06
248.2	192.06
248.433	199.06
248.666	195.06
248.899	207.06
249.133	210.06
249.366	214.06
249.599	210.06
249.832	195.06
250.066	192.06
250.299	190.06
250.532	206.06
250.765	238.06
250.998	242.06
251.231	252.06
251.465	243.06
251.698	215.06
251.931	222.06
252.164	222.06
252.397	218.06
252.63	205.06
252.863	226.06
253.096	220.06
253.329	241.06
253.562	248.06
253.795	235.06
254.028	226.06
254.261	233.06
254.494	235.06
254.727	274.06
254.96	300.06
255.193	266.06
255.426	258.06
255.659	250.06
255.892	262.06
256.124	278.06
256.357	251.06
256.59	241.06
256.823	246.06
257.056	235.06
257.289	240.06
257.521	238.06
257.754	236.06
257.987	241.06
258.22	253.06
258.452	248.06
258.685	231.06
258.918	232.06
259.151	236.06
259.383	239.06
259.616	246.06
259.849	259.06
260.081	268.06
260.314	273.06
260.547	270.06
260.779	273.06
261.012	274.06
261.244	274.06
261.477	252.06
261.71	253.06
261.942	244.06
262.175	262.06
262.407	269.06
262.64	257.06
262.872	242.06
263.105	265.06
263.337	240.06
263.57	255.06
263.802	242.06
264.035	258.06
264.267	253.06
264.499	236.06
264.732	256.06
264.964	251.06
265.197	237.06
265.429	258.06
265.661	251.06
265.894	241.06
266.126	282.06
266.358	267.06
266.591	263.06
266.823	258.06
267.055	277.06
267.287	285.06
267.52	266.06
267.752	258.06
267.984	273.06
268.216	271.06
268.448	278.06
268.681	282.06
268.913	285.06
269.145	291.06
269.377	288.06
269.609	304.06
269.841	299.06
270.073	298.06
270.306	313.06
270.538	330.06
270.77	340.06
271.002	346.06
271.234	328.06
271.466	341.06
271.698	324.06
271.93	350.06
272.162	333.06
272.394	328.06
272.626	329.06
272.858	319.06
273.09	322.06
273.322	326.06
273.553	299.06
273.785	296.06
274.017	308.06
274.249	320.06
274.481	302.06
274.713	314.06
274.945	315.06
275.176	309.06
275.408	321.06
275.64	307.06
275.872	298.06
276.104	310.06
276.335	324.06
276.567	313.06
276.799	314.06
277.031	346.06
277.262	377.06
277.494	352.06
277.726	362.06
277.957	332.06
278.189	327.06
278.421	337.06
278.652	314.06
278.884	320.06
279.115	325.06
279.347	316.06
279.579	330.06
279.81	311.06
280.042	335.06
280.273	332.06
280.505	308.06
280.736	316.06
280.968	328.06
281.199	337.06
281.431	335.06
281.662	310.06
281.894	350.06
282.125	336.06
282.356	346.06
282.588	363.06
282.819	378.06
283.051	344.06
283.282	322.06
283.513	330.06
283.745	337.06
283.976	348.06
284.207	341.06
284.439	351.06
284.67	340.06
284.901	340.06
285.132	327.06
285.364	360.06
285.595	346.06
285.826	333.06
286.057	361.06
286.288	352.06
286.52	355.06
286.751	354.06
286.982	376.06
287.213	363.06
287.444	347.06
287.675	365.06
287.906	367.06
288.138	362.06
288.369	367.06
288.6	368.06
288.831	368.06
289.062	382.06
289.293	359.06
289.524	363.06
289.755	383.06
289.986	358.06
290.217	360.06
290.448	353.06
290.679	363.06
290.91	373.06
291.141	372.06
291.371	366.06
291.602	372.06
291.833	363.06
292.064	363.06
292.295	373.06
292.526	372.06
292.757	374.06
292.987	377.06
293.218	355.06
293.449	375.06
293.68	367.06
293.91	369.06
294.141	370.06
294.372	356.06
294.603	368.06
294.833	375.06
295.064	390.06
295.295	348.06
295.525	384.06
295.756	378.06
295.987	379.06
296.217	397.06
296.448	413.06
296.679	386.06
296.909	378.06
297.14	387.06
297.37	384.06
297.601	384.06
297.831	383.06
298.062	384.06
298.292	383.06
298.523	404.06
298.753	400.06
298.984	407.06
299.214	397.06
299.445	408.06
299.675	399.06
299.905	413.06
300.136	417.06
300.366	406.06
300.597	383.06
300.827	420.06
301.057	430.06
301.288	425.06
301.518	408.06
301.748	398.06
301.979	426.06
302.209	399.06
302.439	416.06
302.669	421.06
302.9	430.06
303.13	422.06
303.36	441.06
303.59	421.06
303.82	426.06
304.051	436.06
304.281	438.06
304.511	411.06
304.741	406.06
304.971	415.06
305.201	430.06
305.431	409.06
305.661	432.06
305.891	396.06
306.121	423.06
306.352	421.06
306.582	427.06
306.812	412.06
307.042	425.06
307.272	384.06
307.502	418.06
307.731	432.06
307.961	435.06
308.191	421.06
308.421	447.06
308.651	429.06
308.881	428.06
309.111	412.06
309.341	410.06
309.571	437.06
309.8	432.06
310.03	439.06
310.26	456.06
310.49	447.06
310.72	464.06
310.949	447.06
311.179	453.06
311.409	456.06
311.639	456.06
311.868	444.06
312.098	472.06
312.328	462.06
312.557	458.06
312.787	472.06
313.017	495.06
313.246	467.06
313.476	464.06
313.706	473.06
313.935	470.06
314.165	470.06
314.394	472.06
314.624	477.06
314.853	464.06
315.083	464.06
315.312	470.06
315.542	472.06
315.771	447.06
316.001	444.06
316.23	453.06
316.46	465.06
316.689	479.06
316.919	476.06
317.148	479.06
317.377	471.06
317.607	448.06
317.836	471.06
318.065	479.06
318.295	464.06
318.524	474.06
318.753	443.06
318.983	471.06
319.212	455.06
319.441	458.06
319.67	481.06
319.9	463.06
320.129	464.06
320.358	468.06
320.587	478.06
320.816	477.06
321.046	477.06
321.275	477.06
321.504	483.06
321.733	494.06
321.962	485.06
322.191	496.06
322.42	500.06
322.649	521.06
322.878	498.06
323.108	508.06
323.337	535.06
323.566	545.06
323.795	576.06
324.024	579.06
324.253	658.06
324.482	854.06
324.71	1241.06
324.939	1755.06
325.168	1546.06
325.397	837.06
325.626	640.06
325.855	594.06
326.084	557.06
326.313	559.06
326.542	577.06
326.77	586.06
326.999	664.06
327.228	824.06
327.457	1160.06
327.686	1412.06
327.914	978.06
328.143	682.06
328.372	640.06
328.6	601.06
328.829	595.06
329.058	631.06
329.287	621.06
329.515	620.06
329.744	573.06
329.972	586.06
330.201	599.06
330.43	626.06
330.658	640.06
330.887	660.06
331.115	643.06
331.344	596.06
331.572	598.06
331.801	597.06
332.03	576.06
332.258	577.06
332.486	610.06
332.715	603.06
332.943	602.06
333.172	635.06
333.4	610.06
333.629	608.06
333.857	637.06
334.085	656.06
334.314	670.06
334.542	668.06
334.771	682.06
334.999	647.06
335.227	629.06
335.455	620.06
335.684	622.06
335.912	600.06
336.14	593.06
336.369	596.06
336.597	604.06
336.825	560.06
337.053	566.06
337.281	576.06
337.51	552.06
337.738	559.06
337.966	555.06
338.194	556.06
338.422	549.06
338.65	552.06
338.878	568.06
339.106	564.06
339.334	558.06
339.562	534.06
339.79	543.06
340.018	548.06
340.246	543.06
340.474	511.06
340.702	545.06
340.93	556.06
341.158	528.06
341.386	554.06
341.614	544.06
341.842	525.06
342.07	552.06
342.298	550.06
342.526	514.06
342.754	512.06
342.981	523.06
343.209	539.06
343.437	557.06
343.665	568.06
343.893	588.06
344.12	620.06
344.348	587.06
344.576	573.06
344.804	577.06
345.031	556.06
345.259	566.06
345.487	567.06
345.714	549.06
345.942	542.06
346.17	516.06
346.397	540.06
346.625	530.06
346.853	526.06
347.08	524.06
347.308	520.06
347.535	523.06
347.763	519.06
347.99	528.06
348.218	545.06
348.445	513.06
348.673	504.06
348.9	516.06
349.128	505.06
349.355	528.06
349.583	518.06
349.81	509.06
350.037	490.06
350.265	476.06
350.492	499.06
350.72	508.06
350.947	516.06
351.174	506.06
351.402	535.06
351.629	508.06
351.856	512.06
352.083	518.06
352.311	552.06
352.538	521.06
352.765	536.06
352.992	519.06
353.22	514.06
353.447	515.06
353.674	500.06
353.901	511.06
354.128	497.06
354.355	481.06
354.583	476.06
354.81	501.06
355.037	480.06
355.264	488.06
355.491	493.06
355.718	465.06
355.945	495.06
356.172	500.06
356.399	479.06
356.626	489.06
356.853	489.06
357.08	483.06
357.307	491.06
357.534	495.06
357.761	488.06
357.988	506.06
358.215	493.06
358.441	487.06
358.668	489.06
358.895	505.06
359.122	502.06
359.349	504.06
359.576	523.06
359.802	546.06
360.029	529.06
360.256	534.06
360.483	545.06
360.709	528.06
360.936	501.06
361.163	518.06
361.39	489.06
361.616	528.06
361.843	505.06
362.07	521.06
362.296	498.06
362.523	515.06
362.749	488.06
362.976	501.06
363.203	501.06
363.429	507.06
363.656	491.06
363.882	507.06
364.109	487.06
364.335	491.06
364.562	513.06
364.788	486.06
365.015	501.06
365.241	494.06
365.468	506.06
365.694	504.06
365.92	520.06
366.147	497.06
366.373	502.06
366.599	509.06
366.826	506.06
367.052	500.06
367.278	491.06
367.505	489.06
367.731	501.06
367.957	528.06
368.184	529.06
368.41	526.06
368.636	517.06
368.862	528.06
369.089	522.06
369.315	500.06
369.541	510.06
369.767	539.06
369.993	509.06
370.219	507.06
370.445	515.06
370.672	510.06
370.898	529.06
371.124	532.06
371.35	536.06
371.576	532.06
371.802	528.06
372.028	545.06
372.254	542.06
372.48	539.06
372.706	541.06
372.932	529.06
373.158	524.06
373.384	543.06
373.61	536.06
373.835	537.06
374.061	521.06
374.287	538.06
374.513	535.06
374.739	554.06
374.965	558.06
375.191	576.06
375.416	554.06
375.642	564.06
375.868	540.06
376.094	557.06
376.319	535.06
376.545	536.06
376.771	528.06
376.997	523.06
377.222	526.06
377.448	545.06
377.674	535.06
377.899	506.06
378.125	534.06
378.35	513.06
378.576	528.06
378.802	527.06
379.027	524.06
379.253	486.06
379.478	514.06
379.704	518.06
379.929	532.06
380.155	531.06
380.38	517.06
380.606	548.06
380.831	517.06
381.057	530.06
381.282	523.06
381.507	520.06
381.733	526.06
381.958	524.06
382.184	530.06
382.409	545.06
382.634	558.06
382.86	557.06
383.085	528.06
383.31	552.06
383.535	574.06
383.761	554.06
383.986	568.06
384.211	579.06
384.436	597.06
384.662	618.06
384.887	598.06
385.112	615.06
385.337	596.06
385.562	604.06
385.787	617.06
386.013	611.06
386.238	620.06
386.463	609.06
386.688	588.06
386.913	584.06
387.138	602.06
387.363	599.06
387.588	589.06
387.813	588.06
388.038	592.06
388.263	604.06
388.488	619.06
388.713	594.06
388.938	605.06
389.163	584.06
389.387	584.06
389.612	589.06
389.837	579.06
390.062	589.06
390.287	593.06
390.512	599.06
390.736	610.06
390.961	633.06
391.186	617.06
391.411	623.06
391.636	636.06
391.86	622.06
392.085	673.06
392.31	654.06
392.534	664.06
392.759	652.06
392.984	642.06
393.208	630.06
393.433	601.06
393.658	628.06
393.882	618.06
394.107	582.06
394.331	617.06
394.556	630.06
394.78	617.06
395.005	634.06
395.229	612.06
395.454	651.06
395.678	673.06
395.903	666.06
396.127	678.06
396.352	640.06
396.576	647.06
396.801	652.06
397.025	624.06
397.249	622.06
397.474	676.06
397.698	649.06
397.922	672.06
398.147	667.06
398.371	678.06
398.595	703.06
398.82	717.06
399.044	735.06
399.268	796.06
399.492	875.06
399.717	946.06
399.941	964.06
400.165	952.06
400.389	933.06
400.613	802.06
400.837	774.06
401.062	754.06
401.286	749.06
401.51	703.06
401.734	721.06
401.958	733.06
402.182	722.06
402.406	741.06
402.63	746.06
402.854	767.06
403.078	783.06
403.302	789.06
403.526	784.06
403.75	782.06
403.974	801.06
404.198	778.06
404.422	804.06
404.645	803.06
404.869	821.06
405.093	826.06
405.317	849.06
405.541	847.06
405.765	816.06
405.988	801.06
406.212	803.06
406.436	812.06
406.66	850.06
406.883	848.06
407.107	856.06
407.331	913.06
407.555	983.06
407.778	988.06
408.002	915.06
408.226	862.06
408.449	862.06
408.673	842.06
408.896	846.06
409.12	860.06
409.344	848.06
409.567	778.06
409.791	792.06
410.014	746.06
410.238	781.06
410.461	773.06
410.685	751.06
410.908	759.06
411.132	784.06
411.355	820.06
411.578	794.06
411.802	728.06
412.025	759.06
412.249	785.06
412.472	809.06
412.695	827.06
412.919	821.06
413.142	749.06
413.365	763.06
413.589	730.06
413.812	732.06
414.035	717.06
414.258	711.06
414.482	699.06
414.705	718.06
414.928	731.06
415.151	711.06
415.374	733.06
415.597	717.06
415.821	712.06
416.044	722.06
416.267	716.06
416.49	679.06
416.713	704.06
416.936	689.06
417.159	708.06
417.382	698.06
417.605	710.06
417.828	706.06
418.051	714.06
418.274	733.06
418.497	737.06
418.72	736.06
418.943	719.06
419.166	774.06
419.389	790.06
419.611	792.06
419.834	768.06
420.057	746.06
420.28	743.06
420.503	749.06
420.726	720.06
420.948	756.06
421.171	793.06
421.394	826.06
421.617	746.06
421.839	736.06
422.062	751.06
422.285	718.06
422.507	802.06
422.73	862.06
422.953	855.06
423.175	788.06
423.398	748.06
423.621	768.06
423.843	799.06
424.066	803.06
424.288	790.06
424.511	787.06
424.733	825.06
424.956	901.06
425.178	865.06
425.401	846.06
425.623	888.06
425.846	776.06
426.068	745.06
426.291	738.06
426.513	745.06
426.735	762.06
426.958	768.06
427.18	831.06
427.402	948.06
427.625	1012.06
427.847	878.06
428.069	814.06
428.292	763.06
428.514	716.06
428.736	672.06
428.958	688.06
429.181	657.06
429.403	688.06
429.625	688.06
429.847	686.06
430.069	768.06
430.292	779.06
430.514	716.06
430.736	689.06
430.958	671.06
431.18	658.06
431.402	646.06
431.624	670.06
431.846	655.06
432.068	651.06
432.29	667.06
432.512	665.06
432.734	666.06
432.956	661.06
433.178	676.06
433.4	684.06
433.622	669.06
433.844	669.06
434.066	653.06
434.287	663.06
434.509	686.06
434.731	704.06
434.953	724.06
435.175	714.06
435.397	742.06
435.618	759.06
435.84	774.06
436.062	832.06
436.284	903.06
436.505	786.06
436.727	722.06
436.949	716.06
437.17	699.06
437.392	679.06
437.614	672.06
437.835	689.06
438.057	776.06
438.278	865.06
438.5	858.06
438.721	897.06
438.943	891.06
439.165	762.06
439.386	722.06
439.608	722.06
439.829	727.06
440.05	748.06
440.272	772.06
440.493	749.06
440.715	730.06
440.936	704.06
441.158	681.06
441.379	712.06
441.6	729.06
441.822	728.06
442.043	762.06
442.264	869.06
442.486	874.06
442.707	791.06
442.928	787.06
443.149	770.06
443.371	768.06
443.592	843.06
443.813	900.06
444.034	941.06
444.255	834.06
444.476	801.06
444.698	805.06
444.919	812.06
445.14	932.06
445.361	837.06
445.582	799.06
445.803	826.06
446.024	908.06
446.245	876.06
446.466	841.06
446.687	770.06
446.908	708.06
447.129	694.06
447.35	684.06
447.571	670.06
447.792	652.06
448.013	644.06
448.234	657.06
448.455	692.06
448.675	803.06
448.896	879.06
449.117	808.06
449.338	768.06
449.559	837.06
449.779	936.06
450	788.06
450.221	660.06
450.442	656.06
450.662	639.06
450.883	635.06
451.104	671.06
451.324	646.06
451.545	608.06
451.766	622.06
451.986	624.06
452.207	612.06
452.428	578.06
452.648	598.06
452.869	621.06
453.089	615.06
453.31	622.06
453.53	618.06
453.751	593.06
453.971	613.06
454.192	629.06
454.412	600.06
454.633	597.06
454.853	592.06
455.073	598.06
455.294	612.06
455.514	683.06
455.734	660.06
455.955	602.06
456.175	596.06
456.395	590.06
456.616	559.06
456.836	573.06
457.056	577.06
457.276	559.06
457.497	567.06
457.717	586.06
457.937	588.06
458.157	591.06
458.377	599.06
458.598	617.06
458.818	652.06
459.038	738.06
459.258	761.06
459.478	695.06
459.698	695.06
459.918	647.06
460.138	700.06
460.358	736.06
460.578	726.06
460.798	728.06
461.018	727.06
461.238	720.06
461.458	727.06
461.678	746.06
461.898	749.06
462.118	726.06
462.338	748.06
462.558	782.06
462.777	810.06
462.997	842.06
463.217	897.06
463.437	876.06
463.657	826.06
463.876	830.06
464.096	823.06
464.316	840.06
464.536	820.06
464.755	792.06
464.975	796.06
465.195	801.06
465.414	810.06
465.634	733.06
465.854	710.06
466.073	693.06
466.293	654.06
466.512	628.06
466.732	622.06
466.951	646.06
467.171	641.06
467.391	622.06
467.61	654.06
467.829	634.06
468.049	653.06
468.268	635.06
468.488	650.06
468.707	589.06
468.927	600.06
469.146	611.06
469.365	598.06
469.585	616.06
469.804	653.06
470.023	650.06
470.243	671.06
470.462	669.06
470.681	684.06
470.901	677.06
471.12	669.06
471.339	670.06
471.558	653.06
471.777	630.06
471.997	607.06
472.216	611.06
472.435	649.06
472.654	649.06
472.873	613.06
473.092	634.06
473.311	630.06
473.53	607.06
473.749	648.06
473.968	653.06
474.187	739.06
474.406	752.06
474.625	670.06
474.844	607.06
475.063	602.06
475.282	624.06
475.501	641.06
475.72	646.06
475.939	610.06
476.158	653.06
476.377	640.06
476.596	642.06
476.814	645.06
477.033	646.06
477.252	683.06
477.471	667.06
477.69	683.06
477.908	696.06
478.127	710.06
478.346	729.06
478.564	719.06
478.783	725.06
479.002	743.06
479.22	732.06
479.439	745.06
479.658	778.06
479.876	762.06
480.095	766.06
480.313	795.06
480.532	838.06
480.751	827.06
480.969	806.06
481.188	855.06
481.406	865.06
481.624	803.06
481.843	745.06
482.061	758.06
482.28	758.06
482.498	718.06
482.717	726.06
482.935	724.06
483.153	741.06
483.372	710.06
483.59	715.06
483.808	724.06
484.027	712.06
484.245	742.06
484.463	728.06
484.681	774.06
484.9	737.06
485.118	749.06
485.336	753.06
485.554	751.06
485.772	778.06
485.99	790.06
486.209	785.06
486.427	765.06
486.645	782.06
486.863	793.06
487.081	820.06
487.299	786.06
487.517	803.06
487.735	758.06
487.953	787.06
488.171	777.06
488.389	783.06
488.607	782.06
488.825	788.06
489.043	786.06
489.261	770.06
489.479	792.06
489.696	805.06
489.914	813.06
490.132	802.06
490.35	820.06
490.568	829.06
490.786	834.06
491.003	829.06
491.221	871.06
491.439	845.06
491.657	857.06
491.874	874.06
492.092	873.06
492.31	857.06
492.527	866.06
492.745	889.06
492.963	877.06
493.18	900.06
493.398	898.06
493.615	900.06
493.833	913.06
494.05	924.06
494.268	902.06
494.485	910.06
494.703	898.06
494.92	907.06
495.138	911.06
495.355	907.06
495.573	887.06
495.79	914.06
496.008	917.06
496.225	924.06
496.442	933.06
496.66	952.06
496.877	927.06
497.094	938.06
497.312	978.06
497.529	978.06
497.746	981.06
497.963	1004.06
498.181	1040.06
498.398	1055.06
498.615	1074.06
498.832	1153.06
499.049	1197.06
499.267	1274.06
499.484	1341.06
499.701	1429.06
499.918	1538.06
500.135	1626.06
500.352	1805.06
500.569	1896.06
500.786	1841.06
501.003	1777.06
501.22	1647.06
501.437	1512.06
501.654	1420.06
