Data from 1963.PennyLincolnUp.Lamp.En5.5.200Scan.071719.P1._HRD10591_13-59-40-064.txt Node
Date: Thu Jul 18 13:59:40 EDT 2019
User: cochatt
Spectrometer: HR+D1059
Trigger mode: 1
Integration Time (sec): 1.000000E-1
Scans to average: 1
Electric dark correction enabled: true
Nonlinearity correction enabled: false
Boxcar width: 0
XAxis mode: Wavelengths
Number of Pixels in Spectrum: 2048
>>>>>Begin Spectral Data<<<<<
223.165	-23.75
223.4	-23.75
223.635	-23.75
223.869	-24.75
224.104	-9.75
224.338	-16.75
224.573	-6.75
224.808	-11.75
225.042	-8.75
225.277	-12.75
225.511	-7.75
225.746	15.25
225.98	10.25
226.215	11.25
226.449	14.25
226.683	9.25
226.918	39.25
227.152	23.25
227.387	28.25
227.621	38.25
227.856	51.25
228.09	51.25
228.324	57.25
228.559	68.25
228.793	61.25
229.027	105.25
229.262	101.25
229.496	106.25
229.73	120.25
229.964	136.25
230.199	136.25
230.433	111.25
230.667	112.25
230.901	119.25
231.136	122.25
231.37	116.25
231.604	115.25
231.838	123.25
232.072	117.25
232.306	124.25
232.541	112.25
232.775	125.25
233.009	135.25
233.243	134.25
233.477	110.25
233.711	115.25
233.945	135.25
234.179	139.25
234.413	146.25
234.647	124.25
234.881	121.25
235.115	125.25
235.349	126.25
235.583	143.25
235.817	126.25
236.051	129.25
236.285	132.25
236.519	135.25
236.753	131.25
236.987	154.25
237.221	170.25
237.455	227.25
237.689	188.25
237.922	156.25
238.156	151.25
238.39	145.25
238.624	136.25
238.858	151.25
239.091	150.25
239.325	135.25
239.559	131.25
239.793	135.25
240.027	142.25
240.26	152.25
240.494	156.25
240.728	143.25
240.961	160.25
241.195	158.25
241.429	155.25
241.662	140.25
241.896	139.25
242.13	155.25
242.363	161.25
242.597	166.25
242.83	151.25
243.064	145.25
243.298	160.25
243.531	158.25
243.765	153.25
243.998	146.25
244.232	166.25
244.465	173.25
244.699	175.25
244.932	171.25
245.166	171.25
245.399	173.25
245.633	162.25
245.866	164.25
246.099	173.25
246.333	163.25
246.566	169.25
246.8	190.25
247.033	189.25
247.266	172.25
247.5	196.25
247.733	195.25
247.966	205.25
248.2	193.25
248.433	200.25
248.666	194.25
248.899	205.25
249.133	192.25
249.366	220.25
249.599	217.25
249.832	205.25
250.066	195.25
250.299	206.25
250.532	219.25
250.765	224.25
250.998	251.25
251.231	255.25
251.465	234.25
251.698	245.25
251.931	223.25
252.164	205.25
252.397	226.25
252.63	213.25
252.863	214.25
253.096	231.25
253.329	245.25
253.562	248.25
253.795	240.25
254.028	238.25
254.261	246.25
254.494	243.25
254.727	257.25
254.96	300.25
255.193	286.25
255.426	279.25
255.659	263.25
255.892	248.25
256.124	277.25
256.357	259.25
256.59	236.25
256.823	233.25
257.056	231.25
257.289	232.25
257.521	227.25
257.754	231.25
257.987	223.25
258.22	230.25
258.452	241.25
258.685	252.25
258.918	239.25
259.151	234.25
259.383	259.25
259.616	248.25
259.849	252.25
260.081	253.25
260.314	250.25
260.547	279.25
260.779	289.25
261.012	282.25
261.244	246.25
261.477	260.25
261.71	251.25
261.942	246.25
262.175	246.25
262.407	248.25
262.64	249.25
262.872	254.25
263.105	243.25
263.337	237.25
263.57	240.25
263.802	264.25
264.035	246.25
264.267	243.25
264.499	271.25
264.732	248.25
264.964	259.25
265.197	251.25
265.429	249.25
265.661	240.25
265.894	241.25
266.126	231.25
266.358	254.25
266.591	267.25
266.823	267.25
267.055	260.25
267.287	267.25
267.52	277.25
267.752	271.25
267.984	268.25
268.216	261.25
268.448	267.25
268.681	264.25
268.913	276.25
269.145	294.25
269.377	334.25
269.609	323.25
269.841	317.25
270.073	303.25
270.306	328.25
270.538	345.25
270.77	337.25
271.002	332.25
271.234	333.25
271.466	335.25
271.698	331.25
271.93	331.25
272.162	349.25
272.394	337.25
272.626	335.25
272.858	343.25
273.09	319.25
273.322	315.25
273.553	327.25
273.785	325.25
274.017	335.25
274.249	324.25
274.481	327.25
274.713	298.25
274.945	317.25
275.176	321.25
275.408	311.25
275.64	318.25
275.872	302.25
276.104	295.25
276.335	318.25
276.567	333.25
276.799	352.25
277.031	352.25
277.262	355.25
277.494	332.25
277.726	344.25
277.957	313.25
278.189	324.25
278.421	327.25
278.652	318.25
278.884	313.25
279.115	321.25
279.347	332.25
279.579	343.25
279.81	331.25
280.042	349.25
280.273	323.25
280.505	335.25
280.736	321.25
280.968	336.25
281.199	347.25
281.431	333.25
281.662	334.25
281.894	341.25
282.125	326.25
282.356	341.25
282.588	367.25
282.819	373.25
283.051	347.25
283.282	333.25
283.513	326.25
283.745	362.25
283.976	357.25
284.207	332.25
284.439	364.25
284.67	347.25
284.901	363.25
285.132	354.25
285.364	341.25
285.595	346.25
285.826	351.25
286.057	364.25
286.288	337.25
286.52	371.25
286.751	368.25
286.982	360.25
287.213	364.25
287.444	367.25
287.675	365.25
287.906	389.25
288.138	358.25
288.369	392.25
288.6	394.25
288.831	360.25
289.062	373.25
289.293	355.25
289.524	368.25
289.755	369.25
289.986	375.25
290.217	360.25
290.448	397.25
290.679	375.25
290.91	353.25
291.141	366.25
291.371	364.25
291.602	375.25
291.833	383.25
292.064	393.25
292.295	379.25
292.526	360.25
292.757	347.25
292.987	377.25
293.218	385.25
293.449	340.25
293.68	390.25
293.91	383.25
294.141	380.25
294.372	367.25
294.603	371.25
294.833	387.25
295.064	387.25
295.295	376.25
295.525	369.25
295.756	375.25
295.987	376.25
296.217	406.25
296.448	416.25
296.679	386.25
296.909	390.25
297.14	412.25
297.37	399.25
297.601	399.25
297.831	398.25
298.062	401.25
298.292	397.25
298.523	400.25
298.753	397.25
298.984	377.25
299.214	415.25
299.445	407.25
299.675	401.25
299.905	419.25
300.136	403.25
300.366	375.25
300.597	409.25
300.827	419.25
301.057	431.25
301.288	420.25
301.518	417.25
301.748	414.25
301.979	429.25
302.209	437.25
302.439	435.25
302.669	416.25
302.9	418.25
303.13	409.25
303.36	431.25
303.59	424.25
303.82	428.25
304.051	419.25
304.281	404.25
304.511	443.25
304.741	423.25
304.971	415.25
305.201	420.25
305.431	424.25
305.661	431.25
305.891	418.25
306.121	422.25
306.352	422.25
306.582	414.25
306.812	423.25
307.042	407.25
307.272	400.25
307.502	413.25
307.731	428.25
307.961	436.25
308.191	411.25
308.421	407.25
308.651	445.25
308.881	416.25
309.111	419.25
309.341	407.25
309.571	434.25
309.8	435.25
310.03	446.25
310.26	452.25
310.49	437.25
310.72	456.25
310.949	465.25
311.179	457.25
311.409	469.25
311.639	444.25
311.868	466.25
312.098	466.25
312.328	450.25
312.557	470.25
312.787	483.25
313.017	485.25
313.246	464.25
313.476	450.25
313.706	473.25
313.935	481.25
314.165	488.25
314.394	486.25
314.624	486.25
314.853	463.25
315.083	462.25
315.312	460.25
315.542	485.25
315.771	479.25
316.001	475.25
316.23	472.25
316.46	471.25
316.689	463.25
316.919	462.25
317.148	472.25
317.377	487.25
317.607	477.25
317.836	483.25
318.065	477.25
318.295	484.25
318.524	484.25
318.753	475.25
318.983	455.25
319.212	451.25
319.441	476.25
319.67	476.25
319.9	482.25
320.129	487.25
320.358	463.25
320.587	464.25
320.816	481.25
321.046	492.25
321.275	493.25
321.504	497.25
321.733	484.25
321.962	503.25
322.191	521.25
322.42	512.25
322.649	519.25
322.878	505.25
323.108	520.25
323.337	526.25
323.566	537.25
323.795	586.25
324.024	593.25
324.253	667.25
324.482	871.25
324.71	1241.25
324.939	1844.25
325.168	1611.25
325.397	901.25
325.626	658.25
325.855	614.25
326.084	587.25
326.313	586.25
326.542	574.25
326.77	605.25
326.999	675.25
327.228	843.25
327.457	1171.25
327.686	1445.25
327.914	1019.25
328.143	725.25
328.372	678.25
328.6	636.25
328.829	611.25
329.058	610.25
329.287	649.25
329.515	598.25
329.744	567.25
329.972	581.25
330.201	619.25
330.43	638.25
330.658	642.25
330.887	662.25
331.115	671.25
331.344	606.25
331.572	585.25
331.801	600.25
332.03	611.25
332.258	592.25
332.486	593.25
332.715	608.25
332.943	609.25
333.172	592.25
333.4	620.25
333.629	644.25
333.857	661.25
334.085	659.25
334.314	665.25
334.542	715.25
334.771	703.25
334.999	652.25
335.227	630.25
335.455	634.25
335.684	592.25
335.912	592.25
336.14	606.25
336.369	598.25
336.597	601.25
336.825	579.25
337.053	587.25
337.281	592.25
337.51	556.25
337.738	581.25
337.966	575.25
338.194	564.25
338.422	564.25
338.65	582.25
338.878	570.25
339.106	560.25
339.334	588.25
339.562	551.25
339.79	535.25
340.018	539.25
340.246	549.25
340.474	550.25
340.702	538.25
340.93	525.25
341.158	558.25
341.386	531.25
341.614	555.25
341.842	532.25
342.07	537.25
342.298	557.25
342.526	547.25
342.754	538.25
342.981	548.25
343.209	520.25
343.437	562.25
343.665	589.25
343.893	604.25
344.12	619.25
344.348	605.25
344.576	580.25
344.804	555.25
345.031	552.25
345.259	563.25
345.487	556.25
345.714	552.25
345.942	535.25
346.17	525.25
346.397	547.25
346.625	520.25
346.853	524.25
347.08	526.25
347.308	533.25
347.535	519.25
347.763	551.25
347.99	525.25
348.218	533.25
348.445	539.25
348.673	541.25
348.9	520.25
349.128	523.25
349.355	533.25
349.583	508.25
349.81	517.25
350.037	506.25
350.265	519.25
350.492	480.25
350.72	509.25
350.947	517.25
351.174	524.25
351.402	521.25
351.629	525.25
351.856	520.25
352.083	525.25
352.311	555.25
352.538	495.25
352.765	521.25
352.992	510.25
353.22	496.25
353.447	504.25
353.674	505.25
353.901	526.25
354.128	499.25
354.355	496.25
354.583	525.25
354.81	497.25
355.037	513.25
355.264	489.25
355.491	499.25
355.718	483.25
355.945	515.25
356.172	510.25
356.399	474.25
356.626	471.25
356.853	513.25
357.08	509.25
357.307	483.25
357.534	495.25
357.761	501.25
357.988	478.25
358.215	485.25
358.441	505.25
358.668	529.25
358.895	550.25
359.122	510.25
359.349	524.25
359.576	517.25
359.802	546.25
360.029	560.25
360.256	580.25
360.483	550.25
360.709	512.25
360.936	519.25
361.163	521.25
361.39	541.25
361.616	528.25
361.843	517.25
362.07	505.25
362.296	524.25
362.523	490.25
362.749	507.25
362.976	519.25
363.203	519.25
363.429	512.25
363.656	494.25
363.882	506.25
364.109	514.25
364.335	517.25
364.562	513.25
364.788	513.25
365.015	495.25
365.241	510.25
365.468	489.25
365.694	501.25
365.92	490.25
366.147	529.25
366.373	500.25
366.599	526.25
366.826	513.25
367.052	518.25
367.278	512.25
367.505	513.25
367.731	488.25
367.957	523.25
368.184	508.25
368.41	541.25
368.636	527.25
368.862	544.25
369.089	531.25
369.315	529.25
369.541	517.25
369.767	516.25
369.993	527.25
370.219	517.25
370.445	514.25
370.672	512.25
370.898	536.25
371.124	528.25
371.35	543.25
371.576	537.25
371.802	546.25
372.028	517.25
372.254	509.25
372.48	517.25
372.706	549.25
372.932	550.25
373.158	535.25
373.384	544.25
373.61	529.25
373.835	552.25
374.061	533.25
374.287	529.25
374.513	554.25
374.739	540.25
374.965	572.25
375.191	574.25
375.416	566.25
375.642	550.25
375.868	557.25
376.094	524.25
376.319	556.25
376.545	537.25
376.771	520.25
376.997	520.25
377.222	533.25
377.448	511.25
377.674	537.25
377.899	537.25
378.125	525.25
378.35	520.25
378.576	542.25
378.802	501.25
379.027	525.25
379.253	522.25
379.478	528.25
379.704	520.25
379.929	518.25
380.155	520.25
380.38	535.25
380.606	538.25
380.831	515.25
381.057	525.25
381.282	537.25
381.507	518.25
381.733	565.25
381.958	531.25
382.184	517.25
382.409	557.25
382.634	527.25
382.86	552.25
383.085	542.25
383.31	564.25
383.535	595.25
383.761	554.25
383.986	565.25
384.211	584.25
384.436	570.25
384.662	605.25
384.887	610.25
385.112	588.25
385.337	627.25
385.562	627.25
385.787	599.25
386.013	635.25
386.238	616.25
386.463	599.25
386.688	610.25
386.913	599.25
387.138	609.25
387.363	614.25
387.588	601.25
387.813	624.25
388.038	608.25
388.263	589.25
388.488	608.25
388.713	623.25
388.938	589.25
389.163	598.25
389.387	613.25
389.612	583.25
389.837	617.25
390.062	605.25
390.287	601.25
390.512	621.25
390.736	600.25
390.961	610.25
391.186	612.25
391.411	647.25
391.636	632.25
391.86	631.25
392.085	677.25
392.31	645.25
392.534	657.25
392.759	646.25
392.984	639.25
393.208	633.25
393.433	645.25
393.658	639.25
393.882	606.25
394.107	620.25
394.331	636.25
394.556	638.25
394.78	632.25
395.005	648.25
395.229	652.25
395.454	655.25
395.678	685.25
395.903	668.25
396.127	676.25
396.352	665.25
396.576	646.25
396.801	641.25
397.025	637.25
397.249	657.25
397.474	643.25
397.698	652.25
397.922	669.25
398.147	668.25
398.371	694.25
398.595	692.25
398.82	726.25
399.044	747.25
399.268	817.25
399.492	890.25
399.717	992.25
399.941	1001.25
400.165	925.25
400.389	903.25
400.613	854.25
400.837	784.25
401.062	750.25
401.286	745.25
401.51	733.25
401.734	706.25
401.958	739.25
402.182	759.25
402.406	776.25
402.63	771.25
402.854	778.25
403.078	769.25
403.302	782.25
403.526	785.25
403.75	809.25
403.974	789.25
404.198	837.25
404.422	803.25
404.645	803.25
404.869	824.25
405.093	838.25
405.317	873.25
405.541	878.25
405.765	829.25
405.988	839.25
406.212	802.25
406.436	820.25
406.66	837.25
406.883	835.25
407.107	869.25
407.331	924.25
407.555	977.25
407.778	972.25
408.002	911.25
408.226	840.25
408.449	854.25
408.673	820.25
408.896	842.25
409.12	887.25
409.344	845.25
409.567	824.25
409.791	783.25
410.014	800.25
410.238	807.25
410.461	780.25
410.685	781.25
410.908	791.25
411.132	800.25
411.355	829.25
411.578	815.25
411.802	789.25
412.025	761.25
412.249	777.25
412.472	799.25
412.695	812.25
412.919	788.25
413.142	763.25
413.365	732.25
413.589	739.25
413.812	734.25
414.035	704.25
414.258	708.25
414.482	730.25
414.705	721.25
414.928	748.25
415.151	725.25
415.374	707.25
415.597	714.25
415.821	700.25
416.044	713.25
416.267	688.25
416.49	716.25
416.713	701.25
416.936	708.25
417.159	732.25
417.382	719.25
417.605	721.25
417.828	739.25
418.051	739.25
418.274	747.25
418.497	720.25
418.72	735.25
418.943	728.25
419.166	757.25
419.389	814.25
419.611	779.25
419.834	757.25
420.057	777.25
420.28	758.25
420.503	759.25
420.726	722.25
420.948	729.25
421.171	763.25
421.394	795.25
421.617	740.25
421.839	744.25
422.062	727.25
422.285	769.25
422.507	780.25
422.73	878.25
422.953	839.25
423.175	774.25
423.398	783.25
423.621	756.25
423.843	805.25
424.066	800.25
424.288	770.25
424.511	797.25
424.733	826.25
424.956	902.25
425.178	857.25
425.401	877.25
425.623	903.25
425.846	791.25
426.068	759.25
426.291	742.25
426.513	706.25
426.735	758.25
426.958	747.25
427.18	860.25
427.402	944.25
427.625	1033.25
427.847	870.25
428.069	826.25
428.292	802.25
428.514	726.25
428.736	727.25
428.958	705.25
429.181	698.25
429.403	695.25
429.625	694.25
429.847	691.25
430.069	751.25
430.292	770.25
430.514	682.25
430.736	693.25
430.958	663.25
431.18	670.25
431.402	671.25
431.624	670.25
431.846	657.25
432.068	674.25
432.29	668.25
432.512	677.25
432.734	682.25
432.956	667.25
433.178	682.25
433.4	683.25
433.622	676.25
433.844	691.25
434.066	661.25
434.287	684.25
434.509	695.25
434.731	712.25
434.953	730.25
435.175	746.25
435.397	742.25
435.618	755.25
435.84	777.25
436.062	849.25
436.284	897.25
436.505	766.25
436.727	725.25
436.949	702.25
437.17	708.25
437.392	654.25
437.614	685.25
437.835	687.25
438.057	808.25
438.278	859.25
438.5	859.25
438.721	928.25
438.943	900.25
439.165	769.25
439.386	714.25
439.608	701.25
439.829	708.25
440.05	742.25
440.272	765.25
440.493	760.25
440.715	750.25
440.936	680.25
441.158	700.25
441.379	719.25
441.6	721.25
441.822	778.25
442.043	811.25
442.264	859.25
442.486	896.25
442.707	789.25
442.928	740.25
443.149	791.25
443.371	777.25
443.592	839.25
443.813	906.25
444.034	979.25
444.255	895.25
444.476	823.25
444.698	837.25
444.919	839.25
445.14	929.25
445.361	840.25
445.582	798.25
445.803	826.25
446.024	923.25
446.245	929.25
446.466	847.25
446.687	775.25
446.908	725.25
447.129	669.25
447.35	670.25
447.571	669.25
447.792	665.25
448.013	661.25
448.234	681.25
448.455	721.25
448.675	812.25
448.896	908.25
449.117	813.25
449.338	753.25
449.559	850.25
449.779	915.25
450	795.25
450.221	708.25
450.442	665.25
450.662	667.25
450.883	637.25
451.104	661.25
451.324	654.25
451.545	641.25
451.766	618.25
451.986	610.25
452.207	609.25
452.428	606.25
452.648	618.25
452.869	600.25
453.089	646.25
453.31	653.25
453.53	638.25
453.751	600.25
453.971	617.25
454.192	617.25
454.412	600.25
454.633	606.25
454.853	587.25
455.073	574.25
455.294	628.25
455.514	644.25
455.734	659.25
455.955	602.25
456.175	571.25
456.395	599.25
456.616	555.25
456.836	601.25
457.056	596.25
457.276	550.25
457.497	578.25
457.717	597.25
457.937	600.25
458.157	591.25
458.377	591.25
458.598	602.25
458.818	652.25
459.038	734.25
459.258	789.25
459.478	695.25
459.698	667.25
459.918	699.25
460.138	695.25
460.358	720.25
460.578	703.25
460.798	727.25
461.018	728.25
461.238	742.25
461.458	717.25
461.678	718.25
461.898	728.25
462.118	734.25
462.338	730.25
462.558	775.25
462.777	807.25
462.997	843.25
463.217	872.25
463.437	912.25
463.657	832.25
463.876	809.25
464.096	816.25
464.316	815.25
464.536	808.25
464.755	811.25
464.975	779.25
465.195	798.25
465.414	839.25
465.634	733.25
465.854	709.25
466.073	700.25
466.293	665.25
466.512	678.25
466.732	641.25
466.951	652.25
467.171	643.25
467.391	660.25
467.61	647.25
467.829	663.25
468.049	625.25
468.268	628.25
468.488	627.25
468.707	613.25
468.927	620.25
469.146	619.25
469.365	628.25
469.585	605.25
469.804	652.25
470.023	649.25
470.243	663.25
470.462	674.25
470.681	678.25
470.901	678.25
471.12	667.25
471.339	624.25
471.558	647.25
471.777	663.25
471.997	649.25
472.216	655.25
472.435	679.25
472.654	672.25
472.873	646.25
473.092	612.25
473.311	635.25
473.53	624.25
473.749	641.25
473.968	665.25
474.187	732.25
474.406	742.25
474.625	667.25
474.844	669.25
475.063	623.25
475.282	647.25
475.501	620.25
475.72	650.25
475.939	631.25
476.158	639.25
476.377	649.25
476.596	650.25
476.814	637.25
477.033	661.25
477.252	684.25
477.471	688.25
477.69	698.25
477.908	709.25
478.127	689.25
478.346	701.25
478.564	722.25
478.783	734.25
479.002	788.25
479.22	781.25
479.439	746.25
479.658	795.25
479.876	809.25
480.095	782.25
480.313	855.25
480.532	833.25
480.751	819.25
480.969	824.25
481.188	866.25
481.406	883.25
481.624	849.25
481.843	795.25
482.061	744.25
482.28	761.25
482.498	750.25
482.717	741.25
482.935	749.25
483.153	732.25
483.372	732.25
483.59	743.25
483.808	742.25
484.027	734.25
484.245	750.25
484.463	749.25
484.681	764.25
484.9	755.25
485.118	771.25
485.336	767.25
485.554	764.25
485.772	783.25
485.99	783.25
486.209	766.25
486.427	770.25
486.645	811.25
486.863	809.25
487.081	801.25
487.299	805.25
487.517	783.25
487.735	780.25
487.953	783.25
488.171	763.25
488.389	777.25
488.607	781.25
488.825	759.25
489.043	796.25
489.261	812.25
489.479	807.25
489.696	791.25
489.914	802.25
490.132	820.25
490.35	818.25
490.568	846.25
490.786	824.25
491.003	840.25
491.221	852.25
491.439	851.25
491.657	851.25
491.874	884.25
492.092	880.25
492.31	885.25
492.527	868.25
492.745	886.25
492.963	876.25
493.18	893.25
493.398	914.25
493.615	914.25
493.833	923.25
494.05	908.25
494.268	939.25
494.485	920.25
494.703	921.25
494.92	929.25
495.138	933.25
495.355	908.25
495.573	915.25
495.79	932.25
496.008	913.25
496.225	937.25
496.442	928.25
496.66	909.25
496.877	927.25
497.094	958.25
497.312	982.25
497.529	1013.25
497.746	1005.25
497.963	1031.25
498.181	1087.25
498.398	1076.25
498.615	1133.25
498.832	1131.25
499.049	1225.25
499.267	1285.25
499.484	1349.25
499.701	1444.25
499.918	1533.25
500.135	1653.25
500.352	1814.25
500.569	1849.25
500.786	1854.25
501.003	1815.25
501.22	1719.25
501.437	1553.25
501.654	1450.25
