Data from 1963.PennyLincolnUp.Lamp.En5.5.200Scan.071719.P1._HRD10591_13-57-38-062.txt Node
Date: Thu Jul 18 13:57:38 EDT 2019
User: cochatt
Spectrometer: HR+D1059
Trigger mode: 1
Integration Time (sec): 1.000000E-1
Scans to average: 1
Electric dark correction enabled: true
Nonlinearity correction enabled: false
Boxcar width: 0
XAxis mode: Wavelengths
Number of Pixels in Spectrum: 2048
>>>>>Begin Spectral Data<<<<<
223.165	-0.81
223.4	-0.81
223.635	-0.81
223.869	-23.81
224.104	-9.81
224.338	-21.81
224.573	-13.81
224.808	-8.81
225.042	-15.81
225.277	2.19
225.511	9.19
225.746	10.19
225.98	13.19
226.215	-1.81
226.449	12.19
226.683	4.19
226.918	19.19
227.152	26.19
227.387	38.19
227.621	15.19
227.856	50.19
228.09	45.19
228.324	46.19
228.559	56.19
228.793	63.19
229.027	97.19
229.262	97.19
229.496	98.19
229.73	116.19
229.964	122.19
230.199	109.19
230.433	91.19
230.667	97.19
230.901	112.19
231.136	125.19
231.37	125.19
231.604	104.19
231.838	104.19
232.072	105.19
232.306	122.19
232.541	119.19
232.775	110.19
233.009	116.19
233.243	118.19
233.477	118.19
233.711	116.19
233.945	127.19
234.179	112.19
234.413	120.19
234.647	111.19
234.881	123.19
235.115	107.19
235.349	133.19
235.583	106.19
235.817	119.19
236.051	122.19
236.285	115.19
236.519	125.19
236.753	127.19
236.987	130.19
237.221	153.19
237.455	177.19
237.689	151.19
237.922	133.19
238.156	127.19
238.39	125.19
238.624	127.19
238.858	137.19
239.091	132.19
239.325	117.19
239.559	141.19
239.793	125.19
240.027	124.19
240.26	140.19
240.494	143.19
240.728	149.19
240.961	154.19
241.195	153.19
241.429	158.19
241.662	142.19
241.896	143.19
242.13	122.19
242.363	131.19
242.597	150.19
242.83	140.19
243.064	133.19
243.298	134.19
243.531	141.19
243.765	147.19
243.998	168.19
244.232	151.19
244.465	149.19
244.699	139.19
244.932	147.19
245.166	155.19
245.399	159.19
245.633	147.19
245.866	139.19
246.099	149.19
246.333	154.19
246.566	158.19
246.8	167.19
247.033	165.19
247.266	173.19
247.5	168.19
247.733	175.19
247.966	174.19
248.2	178.19
248.433	177.19
248.666	196.19
248.899	176.19
249.133	182.19
249.366	180.19
249.599	183.19
249.832	195.19
250.066	187.19
250.299	207.19
250.532	195.19
250.765	203.19
250.998	206.19
251.231	215.19
251.465	203.19
251.698	194.19
251.931	194.19
252.164	193.19
252.397	195.19
252.63	193.19
252.863	207.19
253.096	212.19
253.329	221.19
253.562	216.19
253.795	206.19
254.028	199.19
254.261	214.19
254.494	217.19
254.727	228.19
254.96	250.19
255.193	238.19
255.426	234.19
255.659	233.19
255.892	207.19
256.124	215.19
256.357	227.19
256.59	212.19
256.823	227.19
257.056	209.19
257.289	219.19
257.521	223.19
257.754	202.19
257.987	195.19
258.22	214.19
258.452	221.19
258.685	214.19
258.918	215.19
259.151	203.19
259.383	217.19
259.616	228.19
259.849	234.19
260.081	222.19
260.314	249.19
260.547	233.19
260.779	239.19
261.012	231.19
261.244	233.19
261.477	237.19
261.71	218.19
261.942	232.19
262.175	223.19
262.407	246.19
262.64	241.19
262.872	231.19
263.105	224.19
263.337	213.19
263.57	231.19
263.802	222.19
264.035	232.19
264.267	235.19
264.499	232.19
264.732	242.19
264.964	226.19
265.197	233.19
265.429	232.19
265.661	232.19
265.894	233.19
266.126	255.19
266.358	241.19
266.591	225.19
266.823	245.19
267.055	240.19
267.287	242.19
267.52	239.19
267.752	246.19
267.984	241.19
268.216	249.19
268.448	256.19
268.681	243.19
268.913	271.19
269.145	267.19
269.377	287.19
269.609	275.19
269.841	250.19
270.073	271.19
270.306	281.19
270.538	289.19
270.77	309.19
271.002	298.19
271.234	288.19
271.466	310.19
271.698	290.19
271.93	303.19
272.162	329.19
272.394	309.19
272.626	286.19
272.858	278.19
273.09	285.19
273.322	306.19
273.553	267.19
273.785	273.19
274.017	257.19
274.249	274.19
274.481	273.19
274.713	277.19
274.945	295.19
275.176	265.19
275.408	269.19
275.64	275.19
275.872	256.19
276.104	297.19
276.335	292.19
276.567	302.19
276.799	285.19
277.031	304.19
277.262	327.19
277.494	336.19
277.726	299.19
277.957	305.19
278.189	301.19
278.421	301.19
278.652	283.19
278.884	305.19
279.115	294.19
279.347	303.19
279.579	294.19
279.81	288.19
280.042	299.19
280.273	296.19
280.505	288.19
280.736	296.19
280.968	303.19
281.199	306.19
281.431	312.19
281.662	302.19
281.894	309.19
282.125	310.19
282.356	307.19
282.588	310.19
282.819	305.19
283.051	307.19
283.282	293.19
283.513	298.19
283.745	312.19
283.976	302.19
284.207	321.19
284.439	323.19
284.67	326.19
284.901	326.19
285.132	298.19
285.364	320.19
285.595	311.19
285.826	294.19
286.057	321.19
286.288	319.19
286.52	323.19
286.751	321.19
286.982	324.19
287.213	327.19
287.444	326.19
287.675	327.19
287.906	335.19
288.138	352.19
288.369	354.19
288.6	330.19
288.831	333.19
289.062	326.19
289.293	330.19
289.524	319.19
289.755	325.19
289.986	343.19
290.217	347.19
290.448	337.19
290.679	335.19
290.91	363.19
291.141	343.19
291.371	338.19
291.602	342.19
291.833	318.19
292.064	347.19
292.295	345.19
292.526	347.19
292.757	352.19
292.987	342.19
293.218	353.19
293.449	347.19
293.68	344.19
293.91	338.19
294.141	348.19
294.372	337.19
294.603	337.19
294.833	345.19
295.064	360.19
295.295	343.19
295.525	357.19
295.756	346.19
295.987	349.19
296.217	350.19
296.448	377.19
296.679	349.19
296.909	367.19
297.14	353.19
297.37	351.19
297.601	376.19
297.831	373.19
298.062	374.19
298.292	365.19
298.523	364.19
298.753	368.19
298.984	375.19
299.214	371.19
299.445	347.19
299.675	367.19
299.905	373.19
300.136	367.19
300.366	375.19
300.597	368.19
300.827	374.19
301.057	391.19
301.288	389.19
301.518	380.19
301.748	396.19
301.979	373.19
302.209	412.19
302.439	406.19
302.669	382.19
302.9	377.19
303.13	376.19
303.36	411.19
303.59	405.19
303.82	402.19
304.051	406.19
304.281	381.19
304.511	407.19
304.741	375.19
304.971	388.19
305.201	387.19
305.431	414.19
305.661	397.19
305.891	395.19
306.121	386.19
306.352	385.19
306.582	365.19
306.812	373.19
307.042	362.19
307.272	385.19
307.502	377.19
307.731	381.19
307.961	377.19
308.191	378.19
308.421	393.19
308.651	372.19
308.881	396.19
309.111	377.19
309.341	381.19
309.571	388.19
309.8	398.19
310.03	399.19
310.26	413.19
310.49	410.19
310.72	406.19
310.949	425.19
311.179	409.19
311.409	422.19
311.639	411.19
311.868	410.19
312.098	414.19
312.328	418.19
312.557	427.19
312.787	445.19
313.017	442.19
313.246	435.19
313.476	434.19
313.706	417.19
313.935	430.19
314.165	431.19
314.394	452.19
314.624	430.19
314.853	436.19
315.083	423.19
315.312	446.19
315.542	434.19
315.771	424.19
316.001	421.19
316.23	419.19
316.46	425.19
316.689	445.19
316.919	420.19
317.148	441.19
317.377	421.19
317.607	440.19
317.836	415.19
318.065	431.19
318.295	430.19
318.524	413.19
318.753	413.19
318.983	430.19
319.212	413.19
319.441	425.19
319.67	454.19
319.9	443.19
320.129	415.19
320.358	459.19
320.587	434.19
320.816	430.19
321.046	415.19
321.275	439.19
321.504	462.19
321.733	433.19
321.962	458.19
322.191	457.19
322.42	447.19
322.649	456.19
322.878	461.19
323.108	455.19
323.337	453.19
323.566	476.19
323.795	463.19
324.024	512.19
324.253	557.19
324.482	690.19
324.71	936.19
324.939	1295.19
325.168	1169.19
325.397	677.19
325.626	533.19
325.855	497.19
326.084	500.19
326.313	484.19
326.542	500.19
326.77	528.19
326.999	562.19
327.228	677.19
327.457	902.19
327.686	1069.19
327.914	783.19
328.143	619.19
328.372	536.19
328.6	541.19
328.829	531.19
329.058	523.19
329.287	532.19
329.515	523.19
329.744	511.19
329.972	515.19
330.201	518.19
330.43	547.19
330.658	557.19
330.887	565.19
331.115	549.19
331.344	497.19
331.572	512.19
331.801	515.19
332.03	533.19
332.258	524.19
332.486	522.19
332.715	505.19
332.943	530.19
333.172	550.19
333.4	568.19
333.629	567.19
333.857	612.19
334.085	601.19
334.314	598.19
334.542	621.19
334.771	635.19
334.999	584.19
335.227	579.19
335.455	559.19
335.684	553.19
335.912	561.19
336.14	535.19
336.369	528.19
336.597	545.19
336.825	536.19
337.053	547.19
337.281	523.19
337.51	530.19
337.738	515.19
337.966	533.19
338.194	530.19
338.422	507.19
338.65	515.19
338.878	502.19
339.106	521.19
339.334	494.19
339.562	510.19
339.79	495.19
340.018	484.19
340.246	511.19
340.474	499.19
340.702	475.19
340.93	506.19
341.158	501.19
341.386	496.19
341.614	504.19
341.842	491.19
342.07	491.19
342.298	480.19
342.526	474.19
342.754	480.19
342.981	486.19
343.209	487.19
343.437	506.19
343.665	548.19
343.893	547.19
344.12	583.19
344.348	567.19
344.576	540.19
344.804	527.19
345.031	521.19
345.259	539.19
345.487	501.19
345.714	513.19
345.942	488.19
346.17	472.19
346.397	466.19
346.625	480.19
346.853	470.19
347.08	461.19
347.308	460.19
347.535	481.19
347.763	463.19
347.99	461.19
348.218	480.19
348.445	462.19
348.673	484.19
348.9	487.19
349.128	471.19
349.355	475.19
349.583	459.19
349.81	487.19
350.037	456.19
350.265	445.19
350.492	463.19
350.72	464.19
350.947	469.19
351.174	470.19
351.402	484.19
351.629	478.19
351.856	475.19
352.083	451.19
352.311	461.19
352.538	468.19
352.765	475.19
352.992	460.19
353.22	472.19
353.447	471.19
353.674	478.19
353.901	446.19
354.128	464.19
354.355	464.19
354.583	437.19
354.81	457.19
355.037	479.19
355.264	457.19
355.491	457.19
355.718	447.19
355.945	464.19
356.172	465.19
356.399	462.19
356.626	459.19
356.853	451.19
357.08	446.19
357.307	457.19
357.534	457.19
357.761	455.19
357.988	455.19
358.215	448.19
358.441	475.19
358.668	465.19
358.895	450.19
359.122	455.19
359.349	482.19
359.576	476.19
359.802	466.19
360.029	511.19
360.256	497.19
360.483	498.19
360.709	478.19
360.936	487.19
361.163	471.19
361.39	468.19
361.616	489.19
361.843	481.19
362.07	463.19
362.296	486.19
362.523	460.19
362.749	466.19
362.976	465.19
363.203	460.19
363.429	467.19
363.656	470.19
363.882	458.19
364.109	473.19
364.335	458.19
364.562	468.19
364.788	444.19
365.015	445.19
365.241	446.19
365.468	464.19
365.694	450.19
365.92	458.19
366.147	473.19
366.373	450.19
366.599	470.19
366.826	459.19
367.052	448.19
367.278	471.19
367.505	470.19
367.731	462.19
367.957	438.19
368.184	449.19
368.41	453.19
368.636	451.19
368.862	464.19
369.089	462.19
369.315	477.19
369.541	478.19
369.767	487.19
369.993	484.19
370.219	485.19
370.445	466.19
370.672	473.19
370.898	488.19
371.124	469.19
371.35	485.19
371.576	501.19
371.802	502.19
372.028	480.19
372.254	480.19
372.48	490.19
372.706	497.19
372.932	494.19
373.158	486.19
373.384	512.19
373.61	482.19
373.835	514.19
374.061	503.19
374.287	516.19
374.513	499.19
374.739	507.19
374.965	539.19
375.191	516.19
375.416	533.19
375.642	521.19
375.868	512.19
376.094	501.19
376.319	486.19
376.545	475.19
376.771	494.19
376.997	460.19
377.222	486.19
377.448	490.19
377.674	467.19
377.899	463.19
378.125	483.19
378.35	474.19
378.576	486.19
378.802	501.19
379.027	485.19
379.253	495.19
379.478	480.19
379.704	501.19
379.929	490.19
380.155	484.19
380.38	493.19
380.606	477.19
380.831	470.19
381.057	489.19
381.282	488.19
381.507	486.19
381.733	498.19
381.958	497.19
382.184	484.19
382.409	495.19
382.634	505.19
382.86	521.19
383.085	517.19
383.31	493.19
383.535	527.19
383.761	529.19
383.986	510.19
384.211	527.19
384.436	567.19
384.662	558.19
384.887	567.19
385.112	575.19
385.337	572.19
385.562	557.19
385.787	577.19
386.013	601.19
386.238	593.19
386.463	572.19
386.688	562.19
386.913	554.19
387.138	552.19
387.363	570.19
387.588	583.19
387.813	568.19
388.038	552.19
388.263	563.19
388.488	557.19
388.713	581.19
388.938	562.19
389.163	556.19
389.387	560.19
389.612	565.19
389.837	542.19
390.062	541.19
390.287	556.19
390.512	568.19
390.736	558.19
390.961	557.19
391.186	571.19
391.411	600.19
391.636	581.19
391.86	596.19
392.085	603.19
392.31	610.19
392.534	587.19
392.759	593.19
392.984	591.19
393.208	591.19
393.433	583.19
393.658	601.19
393.882	600.19
394.107	581.19
394.331	573.19
394.556	603.19
394.78	589.19
395.005	593.19
395.229	583.19
395.454	609.19
395.678	609.19
395.903	627.19
396.127	644.19
396.352	632.19
396.576	599.19
396.801	598.19
397.025	609.19
397.249	605.19
397.474	597.19
397.698	625.19
397.922	646.19
398.147	621.19
398.371	657.19
398.595	618.19
398.82	652.19
399.044	699.19
399.268	760.19
399.492	829.19
399.717	875.19
399.941	905.19
400.165	882.19
400.389	822.19
400.613	751.19
400.837	702.19
401.062	691.19
401.286	687.19
401.51	697.19
401.734	661.19
401.958	677.19
402.182	706.19
402.406	683.19
402.63	689.19
402.854	715.19
403.078	699.19
403.302	716.19
403.526	709.19
403.75	726.19
403.974	758.19
404.198	744.19
404.422	749.19
404.645	740.19
404.869	757.19
405.093	762.19
405.317	758.19
405.541	830.19
405.765	744.19
405.988	735.19
406.212	725.19
406.436	734.19
406.66	791.19
406.883	743.19
407.107	767.19
407.331	847.19
407.555	883.19
407.778	856.19
408.002	849.19
408.226	819.19
408.449	799.19
408.673	752.19
408.896	771.19
409.12	787.19
409.344	777.19
409.567	737.19
409.791	723.19
410.014	722.19
410.238	689.19
410.461	713.19
410.685	704.19
410.908	698.19
411.132	742.19
411.355	734.19
411.578	721.19
411.802	701.19
412.025	695.19
412.249	702.19
412.472	742.19
412.695	733.19
412.919	712.19
413.142	681.19
413.365	698.19
413.589	686.19
413.812	663.19
414.035	636.19
414.258	687.19
414.482	665.19
414.705	660.19
414.928	666.19
415.151	669.19
415.374	661.19
415.597	652.19
415.821	645.19
416.044	643.19
416.267	662.19
416.49	655.19
416.713	641.19
416.936	653.19
417.159	656.19
417.382	660.19
417.605	675.19
417.828	695.19
418.051	706.19
418.274	664.19
418.497	655.19
418.72	677.19
418.943	665.19
419.166	681.19
419.389	728.19
419.611	712.19
419.834	708.19
420.057	678.19
420.28	680.19
420.503	693.19
420.726	695.19
420.948	695.19
421.171	709.19
421.394	725.19
421.617	709.19
421.839	678.19
422.062	686.19
422.285	693.19
422.507	713.19
422.73	765.19
422.953	738.19
423.175	723.19
423.398	715.19
423.621	705.19
423.843	734.19
424.066	727.19
424.288	709.19
424.511	709.19
424.733	746.19
424.956	795.19
425.178	771.19
425.401	770.19
425.623	766.19
425.846	719.19
426.068	678.19
426.291	677.19
426.513	678.19
426.735	686.19
426.958	701.19
427.18	753.19
427.402	830.19
427.625	890.19
427.847	769.19
428.069	691.19
428.292	683.19
428.514	639.19
428.736	662.19
428.958	616.19
429.181	637.19
429.403	624.19
429.625	616.19
429.847	633.19
430.069	685.19
430.292	679.19
430.514	631.19
430.736	601.19
430.958	581.19
431.18	597.19
431.402	617.19
431.624	628.19
431.846	611.19
432.068	611.19
432.29	617.19
432.512	604.19
432.734	634.19
432.956	604.19
433.178	629.19
433.4	631.19
433.622	619.19
433.844	611.19
434.066	625.19
434.287	630.19
434.509	629.19
434.731	641.19
434.953	639.19
435.175	687.19
435.397	696.19
435.618	664.19
435.84	686.19
436.062	725.19
436.284	786.19
436.505	695.19
436.727	657.19
436.949	633.19
437.17	618.19
437.392	597.19
437.614	622.19
437.835	638.19
438.057	681.19
438.278	744.19
438.5	755.19
438.721	816.19
438.943	793.19
439.165	681.19
439.386	661.19
439.608	669.19
439.829	642.19
440.05	681.19
440.272	678.19
440.493	659.19
440.715	642.19
440.936	643.19
441.158	622.19
441.379	640.19
441.6	685.19
441.822	676.19
442.043	689.19
442.264	738.19
442.486	795.19
442.707	703.19
442.928	680.19
443.149	682.19
443.371	672.19
443.592	745.19
443.813	786.19
444.034	832.19
444.255	783.19
444.476	730.19
444.698	735.19
444.919	779.19
445.14	873.19
445.361	804.19
445.582	727.19
445.803	757.19
446.024	799.19
446.245	797.19
446.466	749.19
446.687	703.19
446.908	637.19
447.129	628.19
447.35	597.19
447.571	592.19
447.792	579.19
448.013	597.19
448.234	615.19
448.455	616.19
448.675	719.19
448.896	788.19
449.117	695.19
449.338	679.19
449.559	711.19
449.779	814.19
450	703.19
450.221	622.19
450.442	589.19
450.662	578.19
450.883	571.19
451.104	602.19
451.324	598.19
451.545	579.19
451.766	561.19
451.986	557.19
452.207	553.19
452.428	559.19
452.648	560.19
452.869	557.19
453.089	578.19
453.31	569.19
453.53	566.19
453.751	569.19
453.971	541.19
454.192	527.19
454.412	550.19
454.633	528.19
454.853	538.19
455.073	549.19
455.294	575.19
455.514	609.19
455.734	587.19
455.955	531.19
456.175	511.19
456.395	530.19
456.616	522.19
456.836	521.19
457.056	539.19
457.276	517.19
457.497	521.19
457.717	543.19
457.937	533.19
458.157	546.19
458.377	533.19
458.598	548.19
458.818	598.19
459.038	623.19
459.258	675.19
459.478	639.19
459.698	635.19
459.918	626.19
460.138	631.19
460.358	667.19
460.578	673.19
460.798	665.19
461.018	669.19
461.238	647.19
461.458	682.19
461.678	663.19
461.898	699.19
462.118	682.19
462.338	712.19
462.558	735.19
462.777	754.19
462.997	807.19
463.217	798.19
463.437	805.19
463.657	789.19
463.876	770.19
464.096	765.19
464.316	754.19
464.536	757.19
464.755	716.19
464.975	709.19
465.195	740.19
465.414	723.19
465.634	681.19
465.854	643.19
466.073	606.19
466.293	595.19
466.512	618.19
466.732	600.19
466.951	597.19
467.171	597.19
467.391	598.19
467.61	576.19
467.829	577.19
468.049	574.19
468.268	600.19
468.488	559.19
468.707	575.19
468.927	579.19
469.146	568.19
469.365	562.19
469.585	578.19
469.804	606.19
470.023	604.19
470.243	599.19
470.462	614.19
470.681	624.19
470.901	587.19
471.12	623.19
471.339	583.19
471.558	578.19
471.777	602.19
471.997	580.19
472.216	582.19
472.435	607.19
472.654	557.19
472.873	573.19
473.092	579.19
473.311	573.19
473.53	573.19
473.749	578.19
473.968	606.19
474.187	682.19
474.406	667.19
474.625	631.19
474.844	576.19
475.063	559.19
475.282	581.19
475.501	588.19
475.72	580.19
475.939	595.19
476.158	604.19
476.377	608.19
476.596	582.19
476.814	621.19
477.033	623.19
477.252	617.19
477.471	625.19
477.69	629.19
477.908	649.19
478.127	665.19
478.346	680.19
478.564	682.19
478.783	681.19
479.002	693.19
479.22	723.19
479.439	715.19
479.658	749.19
479.876	724.19
480.095	719.19
480.313	762.19
480.532	770.19
480.751	741.19
480.969	724.19
481.188	751.19
481.406	793.19
481.624	733.19
481.843	711.19
482.061	677.19
482.28	690.19
482.498	680.19
482.717	671.19
482.935	685.19
483.153	661.19
483.372	670.19
483.59	673.19
483.808	669.19
484.027	699.19
484.245	684.19
484.463	681.19
484.681	673.19
484.9	695.19
485.118	698.19
485.336	703.19
485.554	669.19
485.772	718.19
485.99	715.19
486.209	706.19
486.427	693.19
486.645	731.19
486.863	741.19
487.081	714.19
487.299	708.19
487.517	735.19
487.735	714.19
487.953	731.19
488.171	727.19
488.389	728.19
488.607	710.19
488.825	714.19
489.043	719.19
489.261	735.19
489.479	733.19
489.696	756.19
489.914	740.19
490.132	726.19
490.35	757.19
490.568	725.19
490.786	725.19
491.003	749.19
491.221	742.19
491.439	781.19
491.657	785.19
491.874	768.19
492.092	798.19
492.31	769.19
492.527	798.19
492.745	811.19
492.963	796.19
493.18	802.19
493.398	815.19
493.615	805.19
493.833	810.19
494.05	833.19
494.268	829.19
494.485	820.19
494.703	817.19
494.92	817.19
495.138	789.19
495.355	807.19
495.573	822.19
495.79	833.19
496.008	834.19
496.225	842.19
496.442	852.19
496.66	847.19
496.877	829.19
497.094	836.19
497.312	869.19
497.529	898.19
497.746	890.19
497.963	905.19
498.181	949.19
498.398	952.19
498.615	1005.19
498.832	1063.19
499.049	1090.19
499.267	1164.19
499.484	1230.19
499.701	1306.19
499.918	1435.19
500.135	1520.19
500.352	1667.19
500.569	1737.19
500.786	1705.19
501.003	1647.19
501.22	1536.19
501.437	1399.19
501.654	1303.19
501.871	1269.19
