Data from 1963.PennyLincolnUp.Lamp.En5.5.200Scan.071719.P1._HRD10591_13-57-12-062.txt Node
Date: Thu Jul 18 13:57:12 EDT 2019
User: cochatt
Spectrometer: HR+D1059
Trigger mode: 1
Integration Time (sec): 1.000000E-1
Scans to average: 1
Electric dark correction enabled: true
Nonlinearity correction enabled: false
Boxcar width: 0
XAxis mode: Wavelengths
Number of Pixels in Spectrum: 2048
>>>>>Begin Spectral Data<<<<<
223.165	0.44
223.4	0.44
223.635	0.44
223.869	-10.56
224.104	-22.56
224.338	-21.56
224.573	-14.56
224.808	0.44
225.042	-22.56
225.277	-6.56
225.511	2.44
225.746	4.44
225.98	6.44
226.215	4.44
226.449	7.44
226.683	11.44
226.918	27.44
227.152	33.44
227.387	38.44
227.621	52.44
227.856	51.44
228.09	49.44
228.324	48.44
228.559	63.44
228.793	65.44
229.027	84.44
229.262	90.44
229.496	99.44
229.73	118.44
229.964	135.44
230.199	130.44
230.433	118.44
230.667	116.44
230.901	113.44
231.136	115.44
231.37	110.44
231.604	120.44
231.838	108.44
232.072	112.44
232.306	105.44
232.541	120.44
232.775	102.44
233.009	122.44
233.243	115.44
233.477	127.44
233.711	129.44
233.945	108.44
234.179	130.44
234.413	117.44
234.647	120.44
234.881	126.44
235.115	131.44
235.349	124.44
235.583	119.44
235.817	141.44
236.051	118.44
236.285	116.44
236.519	130.44
236.753	125.44
236.987	141.44
237.221	157.44
237.455	174.44
237.689	158.44
237.922	141.44
238.156	132.44
238.39	138.44
238.624	128.44
238.858	134.44
239.091	131.44
239.325	114.44
239.559	132.44
239.793	128.44
240.027	145.44
240.26	147.44
240.494	143.44
240.728	144.44
240.961	141.44
241.195	141.44
241.429	151.44
241.662	136.44
241.896	142.44
242.13	153.44
242.363	139.44
242.597	137.44
242.83	159.44
243.064	152.44
243.298	154.44
243.531	147.44
243.765	162.44
243.998	138.44
244.232	167.44
244.465	153.44
244.699	140.44
244.932	166.44
245.166	157.44
245.399	156.44
245.633	164.44
245.866	164.44
246.099	152.44
246.333	166.44
246.566	160.44
246.8	149.44
247.033	165.44
247.266	170.44
247.5	173.44
247.733	154.44
247.966	169.44
248.2	203.44
248.433	172.44
248.666	190.44
248.899	194.44
249.133	204.44
249.366	208.44
249.599	206.44
249.832	192.44
250.066	195.44
250.299	172.44
250.532	183.44
250.765	194.44
250.998	216.44
251.231	208.44
251.465	202.44
251.698	195.44
251.931	184.44
252.164	190.44
252.397	219.44
252.63	192.44
252.863	209.44
253.096	218.44
253.329	216.44
253.562	213.44
253.795	220.44
254.028	220.44
254.261	215.44
254.494	217.44
254.727	242.44
254.96	250.44
255.193	224.44
255.426	220.44
255.659	226.44
255.892	226.44
256.124	226.44
256.357	227.44
256.59	215.44
256.823	248.44
257.056	211.44
257.289	206.44
257.521	230.44
257.754	215.44
257.987	232.44
258.22	229.44
258.452	236.44
258.685	225.44
258.918	218.44
259.151	226.44
259.383	230.44
259.616	223.44
259.849	254.44
260.081	242.44
260.314	248.44
260.547	236.44
260.779	239.44
261.012	246.44
261.244	231.44
261.477	218.44
261.71	243.44
261.942	229.44
262.175	237.44
262.407	226.44
262.64	240.44
262.872	229.44
263.105	230.44
263.337	246.44
263.57	220.44
263.802	228.44
264.035	227.44
264.267	233.44
264.499	231.44
264.732	236.44
264.964	215.44
265.197	227.44
265.429	226.44
265.661	230.44
265.894	231.44
266.126	237.44
266.358	253.44
266.591	234.44
266.823	249.44
267.055	251.44
267.287	257.44
267.52	244.44
267.752	234.44
267.984	249.44
268.216	250.44
268.448	248.44
268.681	262.44
268.913	265.44
269.145	272.44
269.377	270.44
269.609	300.44
269.841	272.44
270.073	277.44
270.306	309.44
270.538	313.44
270.77	306.44
271.002	298.44
271.234	294.44
271.466	300.44
271.698	298.44
271.93	290.44
272.162	314.44
272.394	326.44
272.626	316.44
272.858	290.44
273.09	297.44
273.322	269.44
273.553	278.44
273.785	273.44
274.017	295.44
274.249	286.44
274.481	276.44
274.713	299.44
274.945	281.44
275.176	280.44
275.408	302.44
275.64	291.44
275.872	260.44
276.104	302.44
276.335	292.44
276.567	303.44
276.799	308.44
277.031	315.44
277.262	346.44
277.494	324.44
277.726	294.44
277.957	310.44
278.189	323.44
278.421	292.44
278.652	300.44
278.884	296.44
279.115	293.44
279.347	311.44
279.579	329.44
279.81	323.44
280.042	321.44
280.273	313.44
280.505	338.44
280.736	318.44
280.968	291.44
281.199	308.44
281.431	308.44
281.662	296.44
281.894	314.44
282.125	300.44
282.356	327.44
282.588	324.44
282.819	346.44
283.051	326.44
283.282	328.44
283.513	333.44
283.745	300.44
283.976	348.44
284.207	326.44
284.439	309.44
284.67	320.44
284.901	340.44
285.132	323.44
285.364	345.44
285.595	345.44
285.826	322.44
286.057	341.44
286.288	339.44
286.52	308.44
286.751	326.44
286.982	346.44
287.213	319.44
287.444	335.44
287.675	322.44
287.906	338.44
288.138	340.44
288.369	342.44
288.6	350.44
288.831	346.44
289.062	335.44
289.293	340.44
289.524	360.44
289.755	337.44
289.986	347.44
290.217	358.44
290.448	350.44
290.679	350.44
290.91	339.44
291.141	340.44
291.371	344.44
291.602	350.44
291.833	332.44
292.064	346.44
292.295	349.44
292.526	350.44
292.757	334.44
292.987	356.44
293.218	329.44
293.449	380.44
293.68	365.44
293.91	357.44
294.141	349.44
294.372	340.44
294.603	348.44
294.833	360.44
295.064	373.44
295.295	369.44
295.525	372.44
295.756	370.44
295.987	373.44
296.217	380.44
296.448	356.44
296.679	362.44
296.909	372.44
297.14	340.44
297.37	362.44
297.601	382.44
297.831	348.44
298.062	374.44
298.292	376.44
298.523	368.44
298.753	388.44
298.984	386.44
299.214	371.44
299.445	372.44
299.675	379.44
299.905	372.44
300.136	388.44
300.366	397.44
300.597	382.44
300.827	365.44
301.057	371.44
301.288	386.44
301.518	399.44
301.748	405.44
301.979	394.44
302.209	385.44
302.439	386.44
302.669	381.44
302.9	403.44
303.13	402.44
303.36	405.44
303.59	382.44
303.82	410.44
304.051	397.44
304.281	400.44
304.511	394.44
304.741	366.44
304.971	372.44
305.201	390.44
305.431	392.44
305.661	377.44
305.891	385.44
306.121	393.44
306.352	378.44
306.582	394.44
306.812	392.44
307.042	393.44
307.272	397.44
307.502	388.44
307.731	408.44
307.961	399.44
308.191	396.44
308.421	388.44
308.651	412.44
308.881	396.44
309.111	403.44
309.341	396.44
309.571	396.44
309.8	407.44
310.03	404.44
310.26	410.44
310.49	408.44
310.72	426.44
310.949	410.44
311.179	432.44
311.409	433.44
311.639	419.44
311.868	428.44
312.098	427.44
312.328	417.44
312.557	439.44
312.787	434.44
313.017	438.44
313.246	441.44
313.476	452.44
313.706	452.44
313.935	453.44
314.165	449.44
314.394	433.44
314.624	428.44
314.853	450.44
315.083	432.44
315.312	428.44
315.542	437.44
315.771	451.44
316.001	456.44
316.23	444.44
316.46	417.44
316.689	442.44
316.919	438.44
317.148	449.44
317.377	460.44
317.607	443.44
317.836	438.44
318.065	438.44
318.295	433.44
318.524	422.44
318.753	454.44
318.983	434.44
319.212	423.44
319.441	437.44
319.67	443.44
319.9	435.44
320.129	443.44
320.358	426.44
320.587	426.44
320.816	433.44
321.046	438.44
321.275	452.44
321.504	453.44
321.733	456.44
321.962	453.44
322.191	447.44
322.42	456.44
322.649	462.44
322.878	454.44
323.108	454.44
323.337	473.44
323.566	488.44
323.795	493.44
324.024	545.44
324.253	584.44
324.482	727.44
324.71	1054.44
324.939	1486.44
325.168	1287.44
325.397	732.44
325.626	573.44
325.855	527.44
326.084	486.44
326.313	481.44
326.542	524.44
326.77	548.44
326.999	604.44
327.228	729.44
327.457	979.44
327.686	1194.44
327.914	829.44
328.143	617.44
328.372	573.44
328.6	545.44
328.829	546.44
329.058	556.44
329.287	567.44
329.515	512.44
329.744	535.44
329.972	539.44
330.201	524.44
330.43	558.44
330.658	564.44
330.887	572.44
331.115	581.44
331.344	545.44
331.572	533.44
331.801	514.44
332.03	536.44
332.258	537.44
332.486	504.44
332.715	542.44
332.943	545.44
333.172	593.44
333.4	589.44
333.629	593.44
333.857	581.44
334.085	604.44
334.314	604.44
334.542	608.44
334.771	618.44
334.999	567.44
335.227	576.44
335.455	568.44
335.684	540.44
335.912	557.44
336.14	541.44
336.369	555.44
336.597	547.44
336.825	538.44
337.053	538.44
337.281	538.44
337.51	521.44
337.738	538.44
337.966	503.44
338.194	516.44
338.422	538.44
338.65	545.44
338.878	518.44
339.106	512.44
339.334	521.44
339.562	498.44
339.79	514.44
340.018	514.44
340.246	498.44
340.474	501.44
340.702	506.44
340.93	501.44
341.158	485.44
341.386	509.44
341.614	508.44
341.842	484.44
342.07	477.44
342.298	507.44
342.526	506.44
342.754	494.44
342.981	484.44
343.209	495.44
343.437	538.44
343.665	531.44
343.893	553.44
344.12	578.44
344.348	560.44
344.576	536.44
344.804	527.44
345.031	510.44
345.259	523.44
345.487	507.44
345.714	498.44
345.942	511.44
346.17	514.44
346.397	485.44
346.625	456.44
346.853	472.44
347.08	488.44
347.308	472.44
347.535	486.44
347.763	491.44
347.99	466.44
348.218	484.44
348.445	477.44
348.673	492.44
348.9	472.44
349.128	463.44
349.355	461.44
349.583	462.44
349.81	454.44
350.037	489.44
350.265	441.44
350.492	471.44
350.72	454.44
350.947	480.44
351.174	462.44
351.402	486.44
351.629	474.44
351.856	466.44
352.083	484.44
352.311	470.44
352.538	470.44
352.765	466.44
352.992	486.44
353.22	460.44
353.447	485.44
353.674	476.44
353.901	462.44
354.128	473.44
354.355	450.44
354.583	474.44
354.81	469.44
355.037	469.44
355.264	460.44
355.491	446.44
355.718	469.44
355.945	481.44
356.172	461.44
356.399	473.44
356.626	482.44
356.853	471.44
357.08	468.44
357.307	471.44
357.534	466.44
357.761	474.44
357.988	458.44
358.215	481.44
358.441	470.44
358.668	492.44
358.895	477.44
359.122	472.44
359.349	491.44
359.576	461.44
359.802	480.44
360.029	509.44
360.256	510.44
360.483	494.44
360.709	474.44
360.936	482.44
361.163	496.44
361.39	461.44
361.616	472.44
361.843	484.44
362.07	481.44
362.296	473.44
362.523	474.44
362.749	474.44
362.976	474.44
363.203	475.44
363.429	475.44
363.656	483.44
363.882	444.44
364.109	476.44
364.335	462.44
364.562	462.44
364.788	452.44
365.015	491.44
365.241	460.44
365.468	465.44
365.694	452.44
365.92	468.44
366.147	473.44
366.373	489.44
366.599	462.44
366.826	460.44
367.052	466.44
367.278	473.44
367.505	469.44
367.731	477.44
367.957	474.44
368.184	470.44
368.41	483.44
368.636	506.44
368.862	504.44
369.089	475.44
369.315	484.44
369.541	471.44
369.767	463.44
369.993	485.44
370.219	473.44
370.445	488.44
370.672	465.44
370.898	483.44
371.124	473.44
371.35	518.44
371.576	488.44
371.802	517.44
372.028	490.44
372.254	490.44
372.48	501.44
372.706	517.44
372.932	515.44
373.158	517.44
373.384	502.44
373.61	476.44
373.835	539.44
374.061	502.44
374.287	511.44
374.513	526.44
374.739	532.44
374.965	537.44
375.191	540.44
375.416	530.44
375.642	513.44
375.868	513.44
376.094	506.44
376.319	512.44
376.545	517.44
376.771	506.44
376.997	481.44
377.222	493.44
377.448	503.44
377.674	474.44
377.899	479.44
378.125	500.44
378.35	486.44
378.576	488.44
378.802	490.44
379.027	476.44
379.253	484.44
379.478	505.44
379.704	509.44
379.929	503.44
380.155	484.44
380.38	493.44
380.606	517.44
380.831	499.44
381.057	497.44
381.282	514.44
381.507	504.44
381.733	523.44
381.958	512.44
382.184	509.44
382.409	514.44
382.634	548.44
382.86	549.44
383.085	517.44
383.31	541.44
383.535	564.44
383.761	581.44
383.986	541.44
384.211	565.44
384.436	579.44
384.662	577.44
384.887	566.44
385.112	579.44
385.337	610.44
385.562	592.44
385.787	605.44
386.013	602.44
386.238	600.44
386.463	596.44
386.688	575.44
386.913	572.44
387.138	587.44
387.363	584.44
387.588	572.44
387.813	598.44
388.038	597.44
388.263	605.44
388.488	577.44
388.713	569.44
388.938	577.44
389.163	567.44
389.387	569.44
389.612	556.44
389.837	563.44
390.062	550.44
390.287	561.44
390.512	595.44
390.736	582.44
390.961	594.44
391.186	589.44
391.411	579.44
391.636	613.44
391.86	590.44
392.085	626.44
392.31	626.44
392.534	616.44
392.759	595.44
392.984	620.44
393.208	630.44
393.433	678.44
393.658	710.44
393.882	628.44
394.107	612.44
394.331	594.44
394.556	605.44
394.78	604.44
395.005	613.44
395.229	591.44
395.454	625.44
395.678	642.44
395.903	625.44
396.127	638.44
396.352	628.44
396.576	624.44
396.801	629.44
397.025	674.44
397.249	648.44
397.474	646.44
397.698	620.44
397.922	632.44
398.147	660.44
398.371	677.44
398.595	697.44
398.82	680.44
399.044	698.44
399.268	747.44
399.492	838.44
399.717	919.44
399.941	896.44
400.165	880.44
400.389	863.44
400.613	776.44
400.837	737.44
401.062	728.44
401.286	710.44
401.51	692.44
401.734	695.44
401.958	675.44
402.182	704.44
402.406	712.44
402.63	698.44
402.854	712.44
403.078	742.44
403.302	712.44
403.526	752.44
403.75	729.44
403.974	763.44
404.198	757.44
404.422	765.44
404.645	746.44
404.869	758.44
405.093	776.44
405.317	790.44
405.541	821.44
405.765	761.44
405.988	741.44
406.212	738.44
406.436	757.44
406.66	788.44
406.883	794.44
407.107	798.44
407.331	847.44
407.555	894.44
407.778	892.44
408.002	870.44
408.226	791.44
408.449	809.44
408.673	764.44
408.896	766.44
409.12	809.44
409.344	789.44
409.567	768.44
409.791	770.44
410.014	725.44
410.238	734.44
410.461	749.44
410.685	749.44
410.908	748.44
411.132	741.44
411.355	761.44
411.578	768.44
411.802	718.44
412.025	737.44
412.249	726.44
412.472	712.44
412.695	759.44
412.919	749.44
413.142	702.44
413.365	699.44
413.589	699.44
413.812	673.44
414.035	679.44
414.258	699.44
414.482	678.44
414.705	666.44
414.928	679.44
415.151	704.44
415.374	682.44
415.597	687.44
415.821	666.44
416.044	672.44
416.267	678.44
416.49	695.44
416.713	660.44
416.936	665.44
417.159	676.44
417.382	665.44
417.605	664.44
417.828	695.44
418.051	713.44
418.274	700.44
418.497	688.44
418.72	675.44
418.943	702.44
419.166	698.44
419.389	778.44
419.611	728.44
419.834	726.44
420.057	720.44
420.28	692.44
420.503	683.44
420.726	692.44
420.948	713.44
421.171	733.44
421.394	745.44
421.617	703.44
421.839	681.44
422.062	691.44
422.285	673.44
422.507	730.44
422.73	797.44
422.953	808.44
423.175	740.44
423.398	715.44
423.621	716.44
423.843	750.44
424.066	742.44
424.288	721.44
424.511	750.44
424.733	762.44
424.956	825.44
425.178	775.44
425.401	794.44
425.623	808.44
425.846	746.44
426.068	708.44
426.291	700.44
426.513	697.44
426.735	696.44
426.958	713.44
427.18	760.44
427.402	868.44
427.625	909.44
427.847	804.44
428.069	748.44
428.292	717.44
428.514	671.44
428.736	661.44
428.958	666.44
429.181	638.44
429.403	625.44
429.625	659.44
429.847	656.44
430.069	685.44
430.292	716.44
430.514	652.44
430.736	665.44
430.958	628.44
431.18	606.44
431.402	616.44
431.624	630.44
431.846	644.44
432.068	644.44
432.29	650.44
432.512	620.44
432.734	633.44
432.956	630.44
433.178	636.44
433.4	624.44
433.622	636.44
433.844	643.44
434.066	638.44
434.287	652.44
434.509	641.44
434.731	674.44
434.953	678.44
435.175	696.44
435.397	685.44
435.618	706.44
435.84	742.44
436.062	780.44
436.284	788.44
436.505	725.44
436.727	660.44
436.949	649.44
437.17	658.44
437.392	667.44
437.614	658.44
437.835	650.44
438.057	711.44
438.278	794.44
438.5	784.44
438.721	826.44
438.943	788.44
439.165	691.44
439.386	648.44
439.608	647.44
439.829	677.44
440.05	701.44
440.272	703.44
440.493	686.44
440.715	646.44
440.936	663.44
441.158	644.44
441.379	666.44
441.6	672.44
441.822	713.44
442.043	740.44
442.264	778.44
442.486	796.44
442.707	710.44
442.928	719.44
443.149	701.44
443.371	713.44
443.592	759.44
443.813	820.44
444.034	872.44
444.255	774.44
444.476	756.44
444.698	764.44
444.919	768.44
445.14	879.44
445.361	794.44
445.582	755.44
445.803	776.44
446.024	836.44
446.245	816.44
446.466	758.44
446.687	693.44
446.908	660.44
447.129	653.44
447.35	658.44
447.571	620.44
447.792	610.44
448.013	634.44
448.234	591.44
448.455	648.44
448.675	712.44
448.896	782.44
449.117	700.44
449.338	691.44
449.559	739.44
449.779	843.44
450	689.44
450.221	642.44
450.442	603.44
450.662	595.44
450.883	619.44
451.104	622.44
451.324	624.44
451.545	583.44
451.766	583.44
451.986	578.44
452.207	575.44
452.428	577.44
452.648	567.44
452.869	558.44
453.089	563.44
453.31	596.44
453.53	587.44
453.751	560.44
453.971	589.44
454.192	556.44
454.412	587.44
454.633	566.44
454.853	570.44
455.073	563.44
455.294	570.44
455.514	601.44
455.734	602.44
455.955	571.44
456.175	541.44
456.395	547.44
456.616	538.44
456.836	549.44
457.056	549.44
457.276	541.44
457.497	534.44
457.717	559.44
457.937	552.44
458.157	548.44
458.377	553.44
458.598	584.44
458.818	620.44
459.038	694.44
459.258	686.44
459.478	654.44
459.698	636.44
459.918	636.44
460.138	655.44
460.358	660.44
460.578	704.44
460.798	740.44
461.018	735.44
461.238	705.44
461.458	697.44
461.678	690.44
461.898	707.44
462.118	702.44
462.338	744.44
462.558	766.44
462.777	777.44
462.997	818.44
463.217	880.44
463.437	865.44
463.657	820.44
463.876	789.44
464.096	772.44
464.316	770.44
464.536	801.44
464.755	771.44
464.975	736.44
465.195	750.44
465.414	776.44
465.634	702.44
465.854	672.44
466.073	652.44
466.293	647.44
466.512	632.44
466.732	628.44
466.951	603.44
467.171	602.44
467.391	612.44
467.61	622.44
467.829	630.44
468.049	604.44
468.268	612.44
468.488	581.44
468.707	602.44
468.927	590.44
469.146	600.44
469.365	586.44
469.585	612.44
469.804	596.44
470.023	642.44
470.243	643.44
470.462	634.44
470.681	636.44
470.901	636.44
471.12	608.44
471.339	603.44
471.558	614.44
471.777	592.44
471.997	613.44
472.216	622.44
472.435	606.44
472.654	612.44
472.873	606.44
473.092	572.44
473.311	589.44
473.53	610.44
473.749	584.44
473.968	656.44
474.187	692.44
474.406	692.44
474.625	627.44
474.844	566.44
475.063	611.44
475.282	634.44
475.501	616.44
475.72	589.44
475.939	633.44
476.158	621.44
476.377	607.44
476.596	627.44
476.814	648.44
477.033	617.44
477.252	645.44
477.471	664.44
477.69	656.44
477.908	666.44
478.127	691.44
478.346	700.44
478.564	710.44
478.783	711.44
479.002	719.44
479.22	712.44
479.439	725.44
479.658	722.44
479.876	750.44
480.095	759.44
480.313	777.44
480.532	799.44
480.751	783.44
480.969	788.44
481.188	798.44
481.406	815.44
481.624	765.44
481.843	728.44
482.061	720.44
482.28	734.44
482.498	733.44
482.717	701.44
482.935	705.44
483.153	683.44
483.372	700.44
483.59	706.44
483.808	708.44
484.027	727.44
484.245	693.44
484.463	718.44
484.681	713.44
484.9	724.44
485.118	721.44
485.336	731.44
485.554	731.44
485.772	760.44
485.99	733.44
486.209	757.44
486.427	756.44
486.645	757.44
486.863	737.44
487.081	747.44
487.299	764.44
487.517	753.44
487.735	776.44
487.953	776.44
488.171	741.44
488.389	738.44
488.607	756.44
488.825	754.44
489.043	742.44
489.261	768.44
489.479	761.44
489.696	739.44
489.914	775.44
490.132	774.44
490.35	803.44
490.568	767.44
490.786	788.44
491.003	784.44
491.221	796.44
491.439	793.44
491.657	789.44
491.874	823.44
492.092	819.44
492.31	805.44
492.527	831.44
492.745	797.44
492.963	854.44
493.18	854.44
493.398	869.44
493.615	836.44
493.833	857.44
494.05	864.44
494.268	858.44
494.485	856.44
494.703	840.44
494.92	860.44
495.138	857.44
495.355	853.44
495.573	821.44
495.79	870.44
496.008	891.44
496.225	858.44
496.442	877.44
496.66	903.44
496.877	853.44
497.094	896.44
497.312	889.44
497.529	916.44
497.746	940.44
497.963	923.44
498.181	984.44
498.398	1005.44
498.615	1076.44
498.832	1134.44
499.049	1173.44
499.267	1184.44
499.484	1332.44
499.701	1369.44
499.918	1428.44
500.135	1585.44
500.352	1750.44
500.569	1803.44
500.786	1760.44
501.003	1718.44
501.22	1594.44
501.437	1486.44
501.654	1366.44
501.871	1311.44
