Data from 1963.PennyLincolnUp.Lamp.En5.5.200Scan.071719.P1._HRD10591_14-00-18-063.txt Node
Date: Thu Jul 18 14:00:18 EDT 2019
User: cochatt
Spectrometer: HR+D1059
Trigger mode: 1
Integration Time (sec): 1.000000E-1
Scans to average: 1
Electric dark correction enabled: true
Nonlinearity correction enabled: false
Boxcar width: 0
XAxis mode: Wavelengths
Number of Pixels in Spectrum: 2048
>>>>>Begin Spectral Data<<<<<
223.165	-2.31
223.4	-2.31
223.635	-2.31
223.869	-22.31
224.104	-15.31
224.338	-16.31
224.573	0.69
224.808	-14.31
225.042	-1.31
225.277	-6.31
225.511	0.69
225.746	0.69
225.98	1.69
226.215	8.69
226.449	5.69
226.683	11.69
226.918	16.69
227.152	31.69
227.387	39.69
227.621	16.69
227.856	26.69
228.09	33.69
228.324	46.69
228.559	51.69
228.793	61.69
229.027	86.69
229.262	92.69
229.496	112.69
229.73	122.69
229.964	149.69
230.199	131.69
230.433	123.69
230.667	109.69
230.901	111.69
231.136	124.69
231.37	114.69
231.604	122.69
231.838	118.69
232.072	114.69
232.306	102.69
232.541	127.69
232.775	119.69
233.009	132.69
233.243	138.69
233.477	127.69
233.711	111.69
233.945	114.69
234.179	109.69
234.413	130.69
234.647	118.69
234.881	121.69
235.115	118.69
235.349	129.69
235.583	127.69
235.817	125.69
236.051	123.69
236.285	132.69
236.519	135.69
236.753	144.69
236.987	134.69
237.221	173.69
237.455	207.69
237.689	204.69
237.922	142.69
238.156	145.69
238.39	140.69
238.624	129.69
238.858	146.69
239.091	134.69
239.325	137.69
239.559	148.69
239.793	153.69
240.027	159.69
240.26	147.69
240.494	175.69
240.728	161.69
240.961	153.69
241.195	149.69
241.429	161.69
241.662	150.69
241.896	140.69
242.13	152.69
242.363	138.69
242.597	161.69
242.83	154.69
243.064	149.69
243.298	158.69
243.531	143.69
243.765	157.69
243.998	150.69
244.232	151.69
244.465	155.69
244.699	169.69
244.932	152.69
245.166	151.69
245.399	152.69
245.633	163.69
245.866	171.69
246.099	150.69
246.333	170.69
246.566	170.69
246.8	164.69
247.033	166.69
247.266	177.69
247.5	180.69
247.733	186.69
247.966	190.69
248.2	202.69
248.433	189.69
248.666	179.69
248.899	205.69
249.133	204.69
249.366	221.69
249.599	209.69
249.832	190.69
250.066	195.69
250.299	207.69
250.532	208.69
250.765	227.69
250.998	241.69
251.231	244.69
251.465	229.69
251.698	238.69
251.931	217.69
252.164	215.69
252.397	208.69
252.63	219.69
252.863	242.69
253.096	224.69
253.329	255.69
253.562	253.69
253.795	241.69
254.028	225.69
254.261	242.69
254.494	248.69
254.727	272.69
254.96	290.69
255.193	276.69
255.426	265.69
255.659	246.69
255.892	254.69
256.124	243.69
256.357	237.69
256.59	265.69
256.823	245.69
257.056	227.69
257.289	244.69
257.521	257.69
257.754	234.69
257.987	248.69
258.22	244.69
258.452	222.69
258.685	227.69
258.918	229.69
259.151	247.69
259.383	249.69
259.616	234.69
259.849	242.69
260.081	257.69
260.314	280.69
260.547	278.69
260.779	279.69
261.012	281.69
261.244	255.69
261.477	252.69
261.71	251.69
261.942	259.69
262.175	265.69
262.407	247.69
262.64	254.69
262.872	247.69
263.105	264.69
263.337	245.69
263.57	254.69
263.802	244.69
264.035	257.69
264.267	255.69
264.499	242.69
264.732	253.69
264.964	257.69
265.197	245.69
265.429	251.69
265.661	255.69
265.894	262.69
266.126	269.69
266.358	246.69
266.591	260.69
266.823	255.69
267.055	271.69
267.287	276.69
267.52	272.69
267.752	259.69
267.984	269.69
268.216	277.69
268.448	286.69
268.681	269.69
268.913	297.69
269.145	304.69
269.377	305.69
269.609	310.69
269.841	315.69
270.073	309.69
270.306	347.69
270.538	339.69
270.77	351.69
271.002	330.69
271.234	322.69
271.466	327.69
271.698	330.69
271.93	350.69
272.162	343.69
272.394	350.69
272.626	342.69
272.858	330.69
273.09	309.69
273.322	311.69
273.553	318.69
273.785	294.69
274.017	307.69
274.249	313.69
274.481	309.69
274.713	304.69
274.945	318.69
275.176	327.69
275.408	297.69
275.64	303.69
275.872	292.69
276.104	317.69
276.335	313.69
276.567	312.69
276.799	328.69
277.031	355.69
277.262	349.69
277.494	350.69
277.726	341.69
277.957	327.69
278.189	355.69
278.421	324.69
278.652	311.69
278.884	329.69
279.115	338.69
279.347	331.69
279.579	323.69
279.81	332.69
280.042	317.69
280.273	328.69
280.505	316.69
280.736	302.69
280.968	327.69
281.199	304.69
281.431	348.69
281.662	339.69
281.894	342.69
282.125	338.69
282.356	335.69
282.588	347.69
282.819	349.69
283.051	341.69
283.282	321.69
283.513	332.69
283.745	327.69
283.976	336.69
284.207	337.69
284.439	349.69
284.67	365.69
284.901	338.69
285.132	329.69
285.364	333.69
285.595	342.69
285.826	336.69
286.057	354.69
286.288	359.69
286.52	340.69
286.751	340.69
286.982	361.69
287.213	352.69
287.444	363.69
287.675	371.69
287.906	362.69
288.138	375.69
288.369	362.69
288.6	371.69
288.831	379.69
289.062	377.69
289.293	374.69
289.524	366.69
289.755	366.69
289.986	362.69
290.217	373.69
290.448	361.69
290.679	363.69
290.91	356.69
291.141	374.69
291.371	356.69
291.602	363.69
291.833	358.69
292.064	363.69
292.295	365.69
292.526	374.69
292.757	385.69
292.987	374.69
293.218	395.69
293.449	381.69
293.68	369.69
293.91	361.69
294.141	362.69
294.372	373.69
294.603	386.69
294.833	380.69
295.064	385.69
295.295	363.69
295.525	377.69
295.756	372.69
295.987	394.69
296.217	429.69
296.448	414.69
296.679	388.69
296.909	384.69
297.14	389.69
297.37	381.69
297.601	383.69
297.831	365.69
298.062	400.69
298.292	392.69
298.523	399.69
298.753	396.69
298.984	395.69
299.214	405.69
299.445	378.69
299.675	396.69
299.905	419.69
300.136	407.69
300.366	386.69
300.597	397.69
300.827	414.69
301.057	404.69
301.288	417.69
301.518	431.69
301.748	405.69
301.979	414.69
302.209	408.69
302.439	413.69
302.669	429.69
302.9	414.69
303.13	429.69
303.36	424.69
303.59	426.69
303.82	433.69
304.051	410.69
304.281	427.69
304.511	414.69
304.741	432.69
304.971	435.69
305.201	412.69
305.431	424.69
305.661	406.69
305.891	424.69
306.121	409.69
306.352	445.69
306.582	440.69
306.812	431.69
307.042	403.69
307.272	417.69
307.502	421.69
307.731	406.69
307.961	426.69
308.191	414.69
308.421	430.69
308.651	430.69
308.881	436.69
309.111	427.69
309.341	436.69
309.571	430.69
309.8	459.69
310.03	465.69
310.26	438.69
310.49	450.69
310.72	447.69
310.949	441.69
311.179	480.69
311.409	453.69
311.639	463.69
311.868	478.69
312.098	460.69
312.328	458.69
312.557	474.69
312.787	471.69
313.017	480.69
313.246	491.69
313.476	445.69
313.706	483.69
313.935	467.69
314.165	501.69
314.394	493.69
314.624	464.69
314.853	475.69
315.083	461.69
315.312	463.69
315.542	450.69
315.771	455.69
316.001	480.69
316.23	461.69
316.46	460.69
316.689	469.69
316.919	434.69
317.148	464.69
317.377	476.69
317.607	472.69
317.836	472.69
318.065	482.69
318.295	462.69
318.524	458.69
318.753	453.69
318.983	460.69
319.212	466.69
319.441	483.69
319.67	485.69
319.9	463.69
320.129	494.69
320.358	446.69
320.587	482.69
320.816	476.69
321.046	475.69
321.275	486.69
321.504	480.69
321.733	474.69
321.962	490.69
322.191	494.69
322.42	490.69
322.649	534.69
322.878	523.69
323.108	514.69
323.337	546.69
323.566	560.69
323.795	580.69
324.024	605.69
324.253	676.69
324.482	872.69
324.71	1285.69
324.939	1834.69
325.168	1617.69
325.397	881.69
325.626	657.69
325.855	587.69
326.084	576.69
326.313	561.69
326.542	562.69
326.77	598.69
326.999	640.69
327.228	851.69
327.457	1217.69
327.686	1493.69
327.914	1026.69
328.143	710.69
328.372	661.69
328.6	637.69
328.829	606.69
329.058	645.69
329.287	659.69
329.515	610.69
329.744	583.69
329.972	576.69
330.201	605.69
330.43	627.69
330.658	639.69
330.887	675.69
331.115	659.69
331.344	613.69
331.572	555.69
331.801	608.69
332.03	593.69
332.258	591.69
332.486	614.69
332.715	575.69
332.943	609.69
333.172	612.69
333.4	643.69
333.629	648.69
333.857	655.69
334.085	643.69
334.314	669.69
334.542	680.69
334.771	697.69
334.999	657.69
335.227	630.69
335.455	615.69
335.684	611.69
335.912	597.69
336.14	581.69
336.369	601.69
336.597	612.69
336.825	597.69
337.053	595.69
337.281	606.69
337.51	585.69
337.738	575.69
337.966	577.69
338.194	568.69
338.422	573.69
338.65	569.69
338.878	554.69
339.106	531.69
339.334	545.69
339.562	563.69
339.79	548.69
340.018	541.69
340.246	543.69
340.474	540.69
340.702	526.69
340.93	537.69
341.158	537.69
341.386	533.69
341.614	550.69
341.842	553.69
342.07	549.69
342.298	535.69
342.526	539.69
342.754	547.69
342.981	518.69
343.209	539.69
343.437	565.69
343.665	567.69
343.893	576.69
344.12	632.69
344.348	618.69
344.576	595.69
344.804	564.69
345.031	569.69
345.259	555.69
345.487	569.69
345.714	541.69
345.942	526.69
346.17	541.69
346.397	511.69
346.625	518.69
346.853	526.69
347.08	521.69
347.308	527.69
347.535	520.69
347.763	539.69
347.99	547.69
348.218	527.69
348.445	516.69
348.673	523.69
348.9	523.69
349.128	540.69
349.355	525.69
349.583	493.69
349.81	509.69
350.037	518.69
350.265	521.69
350.492	513.69
350.72	499.69
350.947	498.69
351.174	512.69
351.402	522.69
351.629	523.69
351.856	535.69
352.083	525.69
352.311	536.69
352.538	525.69
352.765	525.69
352.992	514.69
353.22	519.69
353.447	509.69
353.674	511.69
353.901	506.69
354.128	505.69
354.355	494.69
354.583	502.69
354.81	487.69
355.037	519.69
355.264	496.69
355.491	481.69
355.718	491.69
355.945	492.69
356.172	489.69
356.399	498.69
356.626	495.69
356.853	494.69
357.08	480.69
357.307	471.69
357.534	477.69
357.761	515.69
357.988	490.69
358.215	501.69
358.441	498.69
358.668	518.69
358.895	498.69
359.122	521.69
359.349	514.69
359.576	529.69
359.802	541.69
360.029	554.69
360.256	539.69
360.483	544.69
360.709	523.69
360.936	542.69
361.163	538.69
361.39	530.69
361.616	533.69
361.843	539.69
362.07	494.69
362.296	501.69
362.523	509.69
362.749	527.69
362.976	503.69
363.203	501.69
363.429	510.69
363.656	530.69
363.882	523.69
364.109	490.69
364.335	507.69
364.562	517.69
364.788	505.69
365.015	512.69
365.241	533.69
365.468	503.69
365.694	517.69
365.92	503.69
366.147	496.69
366.373	493.69
366.599	497.69
366.826	495.69
367.052	502.69
367.278	502.69
367.505	513.69
367.731	506.69
367.957	513.69
368.184	511.69
368.41	523.69
368.636	524.69
368.862	511.69
369.089	501.69
369.315	516.69
369.541	537.69
369.767	510.69
369.993	521.69
370.219	529.69
370.445	525.69
370.672	526.69
370.898	544.69
371.124	529.69
371.35	534.69
371.576	533.69
371.802	517.69
372.028	520.69
372.254	528.69
372.48	525.69
372.706	550.69
372.932	539.69
373.158	518.69
373.384	522.69
373.61	531.69
373.835	546.69
374.061	541.69
374.287	521.69
374.513	561.69
374.739	554.69
374.965	533.69
375.191	570.69
375.416	577.69
375.642	543.69
375.868	553.69
376.094	530.69
376.319	513.69
376.545	555.69
376.771	554.69
376.997	549.69
377.222	490.69
377.448	516.69
377.674	526.69
377.899	540.69
378.125	517.69
378.35	529.69
378.576	523.69
378.802	511.69
379.027	529.69
379.253	542.69
379.478	541.69
379.704	527.69
379.929	534.69
380.155	522.69
380.38	523.69
380.606	531.69
380.831	513.69
381.057	538.69
381.282	537.69
381.507	529.69
381.733	523.69
381.958	524.69
382.184	529.69
382.409	561.69
382.634	547.69
382.86	560.69
383.085	559.69
383.31	566.69
383.535	572.69
383.761	576.69
383.986	564.69
384.211	584.69
384.436	593.69
384.662	573.69
384.887	597.69
385.112	623.69
385.337	598.69
385.562	587.69
385.787	608.69
386.013	614.69
386.238	609.69
386.463	626.69
386.688	607.69
386.913	611.69
387.138	599.69
387.363	604.69
387.588	593.69
387.813	597.69
388.038	595.69
388.263	599.69
388.488	592.69
388.713	600.69
388.938	624.69
389.163	599.69
389.387	606.69
389.612	592.69
389.837	622.69
390.062	598.69
390.287	602.69
390.512	602.69
390.736	601.69
390.961	633.69
391.186	625.69
391.411	634.69
391.636	631.69
391.86	648.69
392.085	641.69
392.31	647.69
392.534	631.69
392.759	647.69
392.984	633.69
393.208	625.69
393.433	604.69
393.658	634.69
393.882	607.69
394.107	632.69
394.331	625.69
394.556	645.69
394.78	614.69
395.005	641.69
395.229	626.69
395.454	649.69
395.678	651.69
395.903	645.69
396.127	657.69
396.352	677.69
396.576	649.69
396.801	633.69
397.025	641.69
397.249	675.69
397.474	666.69
397.698	648.69
397.922	701.69
398.147	697.69
398.371	695.69
398.595	698.69
398.82	723.69
399.044	741.69
399.268	833.69
399.492	881.69
399.717	952.69
399.941	977.69
400.165	916.69
400.389	905.69
400.613	821.69
400.837	774.69
401.062	738.69
401.286	753.69
401.51	741.69
401.734	717.69
401.958	755.69
402.182	726.69
402.406	746.69
402.63	768.69
402.854	785.69
403.078	774.69
403.302	788.69
403.526	803.69
403.75	801.69
403.974	808.69
404.198	783.69
404.422	804.69
404.645	804.69
404.869	805.69
405.093	848.69
405.317	858.69
405.541	872.69
405.765	811.69
405.988	775.69
406.212	800.69
406.436	823.69
406.66	829.69
406.883	820.69
407.107	870.69
407.331	931.69
407.555	995.69
407.778	975.69
408.002	903.69
408.226	877.69
408.449	839.69
408.673	813.69
408.896	835.69
409.12	879.69
409.344	861.69
409.567	801.69
409.791	808.69
410.014	784.69
410.238	760.69
410.461	786.69
410.685	761.69
410.908	797.69
411.132	790.69
411.355	819.69
411.578	797.69
411.802	764.69
412.025	738.69
412.249	773.69
412.472	792.69
412.695	816.69
412.919	789.69
413.142	739.69
413.365	757.69
413.589	741.69
413.812	749.69
414.035	724.69
414.258	718.69
414.482	717.69
414.705	708.69
414.928	713.69
415.151	718.69
415.374	723.69
415.597	706.69
415.821	712.69
416.044	706.69
416.267	702.69
416.49	716.69
416.713	704.69
416.936	731.69
417.159	701.69
417.382	750.69
417.605	709.69
417.828	733.69
418.051	744.69
418.274	750.69
418.497	719.69
418.72	741.69
418.943	733.69
419.166	770.69
419.389	799.69
419.611	769.69
419.834	765.69
420.057	760.69
420.28	755.69
420.503	767.69
420.726	730.69
420.948	763.69
421.171	766.69
421.394	812.69
421.617	749.69
421.839	762.69
422.062	731.69
422.285	751.69
422.507	793.69
422.73	862.69
422.953	858.69
423.175	810.69
423.398	773.69
423.621	762.69
423.843	761.69
424.066	802.69
424.288	775.69
424.511	793.69
424.733	861.69
424.956	903.69
425.178	850.69
425.401	870.69
425.623	874.69
425.846	811.69
426.068	779.69
426.291	727.69
426.513	756.69
426.735	773.69
426.958	770.69
427.18	850.69
427.402	957.69
427.625	1074.69
427.847	909.69
428.069	810.69
428.292	781.69
428.514	698.69
428.736	701.69
428.958	677.69
429.181	666.69
429.403	674.69
429.625	696.69
429.847	722.69
430.069	777.69
430.292	761.69
430.514	685.69
430.736	700.69
430.958	693.69
431.18	681.69
431.402	665.69
431.624	647.69
431.846	673.69
432.068	664.69
432.29	670.69
432.512	654.69
432.734	651.69
432.956	683.69
433.178	700.69
433.4	674.69
433.622	666.69
433.844	658.69
434.066	690.69
434.287	667.69
434.509	685.69
434.731	702.69
434.953	716.69
435.175	756.69
435.397	760.69
435.618	763.69
435.84	765.69
436.062	840.69
436.284	902.69
436.505	776.69
436.727	745.69
436.949	697.69
437.17	678.69
437.392	689.69
437.614	689.69
437.835	702.69
438.057	813.69
438.278	864.69
438.5	865.69
438.721	954.69
438.943	917.69
439.165	753.69
439.386	729.69
439.608	745.69
439.829	745.69
440.05	756.69
440.272	795.69
440.493	752.69
440.715	731.69
440.936	714.69
441.158	701.69
441.379	707.69
441.6	714.69
441.822	768.69
442.043	807.69
442.264	852.69
442.486	880.69
442.707	787.69
442.928	741.69
443.149	789.69
443.371	801.69
443.592	843.69
443.813	901.69
444.034	978.69
444.255	844.69
444.476	814.69
444.698	810.69
444.919	850.69
445.14	919.69
445.361	844.69
445.582	807.69
445.803	821.69
446.024	930.69
446.245	885.69
446.466	840.69
446.687	746.69
446.908	730.69
447.129	719.69
447.35	652.69
447.571	695.69
447.792	667.69
448.013	647.69
448.234	697.69
448.455	716.69
448.675	791.69
448.896	914.69
449.117	776.69
449.338	773.69
449.559	858.69
449.779	950.69
450	799.69
450.221	696.69
450.442	680.69
450.662	654.69
450.883	644.69
451.104	689.69
451.324	656.69
451.545	633.69
451.766	635.69
451.986	585.69
452.207	618.69
452.428	600.69
452.648	618.69
452.869	610.69
453.089	595.69
453.31	634.69
453.53	633.69
453.751	598.69
453.971	599.69
454.192	632.69
454.412	615.69
454.633	608.69
454.853	594.69
455.073	590.69
455.294	610.69
455.514	687.69
455.734	668.69
455.955	609.69
456.175	603.69
456.395	593.69
456.616	573.69
456.836	590.69
457.056	589.69
457.276	569.69
457.497	592.69
457.717	569.69
457.937	619.69
458.157	592.69
458.377	591.69
458.598	638.69
458.818	674.69
459.038	726.69
459.258	779.69
459.478	680.69
459.698	691.69
459.918	684.69
460.138	693.69
460.358	721.69
460.578	751.69
460.798	744.69
461.018	735.69
461.238	742.69
461.458	730.69
461.678	735.69
461.898	719.69
462.118	732.69
462.338	765.69
462.558	802.69
462.777	804.69
462.997	840.69
463.217	877.69
463.437	891.69
463.657	834.69
463.876	791.69
464.096	788.69
464.316	797.69
464.536	804.69
464.755	803.69
464.975	794.69
465.195	805.69
465.414	827.69
465.634	738.69
465.854	694.69
466.073	708.69
466.293	647.69
466.512	650.69
466.732	638.69
466.951	655.69
467.171	646.69
467.391	647.69
467.61	667.69
467.829	653.69
468.049	642.69
468.268	633.69
468.488	613.69
468.707	617.69
468.927	638.69
469.146	603.69
469.365	622.69
469.585	633.69
469.804	650.69
470.023	671.69
470.243	664.69
470.462	658.69
470.681	663.69
470.901	660.69
471.12	659.69
471.339	649.69
471.558	647.69
471.777	669.69
471.997	650.69
472.216	641.69
472.435	679.69
472.654	634.69
472.873	625.69
473.092	629.69
473.311	630.69
473.53	619.69
473.749	648.69
473.968	672.69
474.187	733.69
474.406	753.69
474.625	678.69
474.844	643.69
475.063	632.69
475.282	645.69
475.501	617.69
475.72	634.69
475.939	660.69
476.158	654.69
476.377	655.69
476.596	649.69
476.814	681.69
477.033	679.69
477.252	663.69
477.471	675.69
477.69	713.69
477.908	673.69
478.127	725.69
478.346	715.69
478.564	736.69
478.783	735.69
479.002	777.69
479.22	774.69
479.439	779.69
479.658	772.69
479.876	784.69
480.095	790.69
480.313	850.69
480.532	841.69
480.751	818.69
480.969	830.69
481.188	853.69
481.406	899.69
481.624	813.69
481.843	759.69
482.061	734.69
482.28	739.69
482.498	746.69
482.717	729.69
482.935	745.69
483.153	755.69
483.372	723.69
483.59	745.69
483.808	752.69
484.027	744.69
484.245	774.69
484.463	758.69
484.681	757.69
484.9	753.69
485.118	753.69
485.336	752.69
485.554	758.69
485.772	771.69
485.99	789.69
486.209	782.69
486.427	770.69
486.645	779.69
486.863	818.69
487.081	792.69
487.299	803.69
487.517	778.69
487.735	784.69
487.953	785.69
488.171	774.69
488.389	797.69
488.607	794.69
488.825	796.69
489.043	765.69
489.261	778.69
489.479	815.69
489.696	812.69
489.914	818.69
490.132	808.69
490.35	814.69
490.568	811.69
490.786	823.69
491.003	843.69
491.221	843.69
491.439	881.69
491.657	851.69
491.874	889.69
492.092	898.69
492.31	890.69
492.527	913.69
492.745	908.69
492.963	921.69
493.18	908.69
493.398	901.69
493.615	916.69
493.833	926.69
494.05	925.69
494.268	919.69
494.485	957.69
494.703	938.69
494.92	939.69
495.138	923.69
495.355	920.69
495.573	915.69
495.79	913.69
496.008	951.69
496.225	927.69
496.442	931.69
496.66	914.69
496.877	950.69
497.094	948.69
497.312	989.69
497.529	960.69
497.746	965.69
497.963	1030.69
498.181	1046.69
498.398	1073.69
498.615	1118.69
498.832	1167.69
499.049	1207.69
499.267	1276.69
499.484	1369.69
499.701	1472.69
499.918	1547.69
500.135	1671.69
500.352	1823.69
500.569	1846.69
500.786	1864.69
501.003	1774.69
501.22	1631.69
501.437	1553.69
501.654	1433.69
501.871	1381.69
