Data from 1963.PennyLincolnUp.Lamp.En5.5.200Scan.071719.P1._HRD10591_13-59-56-064.txt Node
Date: Thu Jul 18 13:59:56 EDT 2019
User: cochatt
Spectrometer: HR+D1059
Trigger mode: 1
Integration Time (sec): 1.000000E-1
Scans to average: 1
Electric dark correction enabled: true
Nonlinearity correction enabled: false
Boxcar width: 0
XAxis mode: Wavelengths
Number of Pixels in Spectrum: 2048
>>>>>Begin Spectral Data<<<<<
223.165	-9.62
223.4	-9.62
223.635	-9.62
223.869	-22.62
224.104	-11.62
224.338	-19.62
224.573	-15.62
224.808	-17.62
225.042	-15.62
225.277	-10.62
225.511	1.38
225.746	5.38
225.98	23.38
226.215	1.38
226.449	20.38
226.683	32.38
226.918	12.38
227.152	26.38
227.387	28.38
227.621	35.38
227.856	34.38
228.09	54.38
228.324	57.38
228.559	65.38
228.793	69.38
229.027	75.38
229.262	102.38
229.496	93.38
229.73	112.38
229.964	129.38
230.199	122.38
230.433	123.38
230.667	115.38
230.901	115.38
231.136	109.38
231.37	116.38
231.604	113.38
231.838	120.38
232.072	124.38
232.306	118.38
232.541	116.38
232.775	121.38
233.009	120.38
233.243	124.38
233.477	128.38
233.711	128.38
233.945	118.38
234.179	123.38
234.413	130.38
234.647	115.38
234.881	114.38
235.115	125.38
235.349	129.38
235.583	134.38
235.817	111.38
236.051	120.38
236.285	135.38
236.519	130.38
236.753	115.38
236.987	122.38
237.221	161.38
237.455	221.38
237.689	163.38
237.922	139.38
238.156	134.38
238.39	136.38
238.624	136.38
238.858	132.38
239.091	141.38
239.325	134.38
239.559	144.38
239.793	136.38
240.027	149.38
240.26	150.38
240.494	151.38
240.728	147.38
240.961	153.38
241.195	147.38
241.429	148.38
241.662	167.38
241.896	141.38
242.13	152.38
242.363	138.38
242.597	146.38
242.83	136.38
243.064	158.38
243.298	148.38
243.531	170.38
243.765	153.38
243.998	156.38
244.232	156.38
244.465	175.38
244.699	159.38
244.932	163.38
245.166	148.38
245.399	170.38
245.633	156.38
245.866	170.38
246.099	185.38
246.333	162.38
246.566	160.38
246.8	174.38
247.033	164.38
247.266	169.38
247.5	178.38
247.733	172.38
247.966	180.38
248.2	165.38
248.433	168.38
248.666	173.38
248.899	203.38
249.133	201.38
249.366	204.38
249.599	214.38
249.832	206.38
250.066	199.38
250.299	195.38
250.532	205.38
250.765	205.38
250.998	232.38
251.231	250.38
251.465	224.38
251.698	213.38
251.931	193.38
252.164	204.38
252.397	215.38
252.63	231.38
252.863	228.38
253.096	210.38
253.329	229.38
253.562	222.38
253.795	214.38
254.028	231.38
254.261	216.38
254.494	229.38
254.727	270.38
254.96	278.38
255.193	274.38
255.426	257.38
255.659	240.38
255.892	229.38
256.124	236.38
256.357	257.38
256.59	254.38
256.823	234.38
257.056	226.38
257.289	222.38
257.521	225.38
257.754	231.38
257.987	237.38
258.22	242.38
258.452	219.38
258.685	231.38
258.918	234.38
259.151	238.38
259.383	246.38
259.616	243.38
259.849	248.38
260.081	249.38
260.314	250.38
260.547	274.38
260.779	257.38
261.012	254.38
261.244	233.38
261.477	243.38
261.71	223.38
261.942	252.38
262.175	248.38
262.407	257.38
262.64	237.38
262.872	243.38
263.105	235.38
263.337	244.38
263.57	230.38
263.802	234.38
264.035	229.38
264.267	245.38
264.499	234.38
264.732	249.38
264.964	259.38
265.197	253.38
265.429	246.38
265.661	236.38
265.894	241.38
266.126	246.38
266.358	253.38
266.591	234.38
266.823	243.38
267.055	254.38
267.287	252.38
267.52	271.38
267.752	266.38
267.984	270.38
268.216	263.38
268.448	272.38
268.681	278.38
268.913	267.38
269.145	284.38
269.377	307.38
269.609	296.38
269.841	287.38
270.073	284.38
270.306	304.38
270.538	327.38
270.77	320.38
271.002	321.38
271.234	309.38
271.466	312.38
271.698	314.38
271.93	324.38
272.162	325.38
272.394	324.38
272.626	339.38
272.858	327.38
273.09	300.38
273.322	310.38
273.553	304.38
273.785	309.38
274.017	298.38
274.249	295.38
274.481	285.38
274.713	297.38
274.945	311.38
275.176	307.38
275.408	306.38
275.64	300.38
275.872	307.38
276.104	300.38
276.335	302.38
276.567	310.38
276.799	322.38
277.031	336.38
277.262	341.38
277.494	345.38
277.726	346.38
277.957	341.38
278.189	329.38
278.421	310.38
278.652	310.38
278.884	325.38
279.115	297.38
279.347	313.38
279.579	310.38
279.81	296.38
280.042	322.38
280.273	318.38
280.505	317.38
280.736	312.38
280.968	295.38
281.199	303.38
281.431	327.38
281.662	327.38
281.894	314.38
282.125	337.38
282.356	336.38
282.588	337.38
282.819	340.38
283.051	322.38
283.282	330.38
283.513	332.38
283.745	315.38
283.976	349.38
284.207	349.38
284.439	317.38
284.67	340.38
284.901	330.38
285.132	341.38
285.364	328.38
285.595	324.38
285.826	338.38
286.057	354.38
286.288	331.38
286.52	338.38
286.751	339.38
286.982	344.38
287.213	347.38
287.444	344.38
287.675	332.38
287.906	348.38
288.138	347.38
288.369	368.38
288.6	359.38
288.831	360.38
289.062	339.38
289.293	331.38
289.524	340.38
289.755	342.38
289.986	356.38
290.217	360.38
290.448	335.38
290.679	326.38
290.91	339.38
291.141	361.38
291.371	361.38
291.602	365.38
291.833	331.38
292.064	359.38
292.295	374.38
292.526	372.38
292.757	370.38
292.987	357.38
293.218	368.38
293.449	346.38
293.68	343.38
293.91	381.38
294.141	365.38
294.372	347.38
294.603	349.38
294.833	379.38
295.064	374.38
295.295	364.38
295.525	363.38
295.756	366.38
295.987	359.38
296.217	374.38
296.448	380.38
296.679	368.38
296.909	369.38
297.14	357.38
297.37	403.38
297.601	358.38
297.831	376.38
298.062	360.38
298.292	383.38
298.523	365.38
298.753	382.38
298.984	384.38
299.214	385.38
299.445	383.38
299.675	400.38
299.905	389.38
300.136	390.38
300.366	382.38
300.597	377.38
300.827	402.38
301.057	389.38
301.288	428.38
301.518	402.38
301.748	398.38
301.979	429.38
302.209	399.38
302.439	412.38
302.669	407.38
302.9	422.38
303.13	374.38
303.36	435.38
303.59	424.38
303.82	438.38
304.051	411.38
304.281	404.38
304.511	394.38
304.741	394.38
304.971	387.38
305.201	406.38
305.431	387.38
305.661	423.38
305.891	402.38
306.121	392.38
306.352	412.38
306.582	407.38
306.812	400.38
307.042	391.38
307.272	407.38
307.502	407.38
307.731	391.38
307.961	418.38
308.191	427.38
308.421	430.38
308.651	418.38
308.881	420.38
309.111	412.38
309.341	409.38
309.571	426.38
309.8	445.38
310.03	430.38
310.26	436.38
310.49	424.38
310.72	424.38
310.949	451.38
311.179	452.38
311.409	443.38
311.639	435.38
311.868	443.38
312.098	443.38
312.328	448.38
312.557	454.38
312.787	462.38
313.017	444.38
313.246	450.38
313.476	425.38
313.706	442.38
313.935	446.38
314.165	473.38
314.394	472.38
314.624	479.38
314.853	461.38
315.083	460.38
315.312	458.38
315.542	428.38
315.771	462.38
316.001	437.38
316.23	457.38
316.46	469.38
316.689	460.38
316.919	450.38
317.148	454.38
317.377	490.38
317.607	433.38
317.836	448.38
318.065	454.38
318.295	448.38
318.524	452.38
318.753	446.38
318.983	442.38
319.212	468.38
319.441	433.38
319.67	443.38
319.9	458.38
320.129	440.38
320.358	459.38
320.587	434.38
320.816	449.38
321.046	460.38
321.275	456.38
321.504	448.38
321.733	456.38
321.962	476.38
322.191	456.38
322.42	493.38
322.649	496.38
322.878	492.38
323.108	504.38
323.337	514.38
323.566	529.38
323.795	525.38
324.024	574.38
324.253	611.38
324.482	826.38
324.71	1197.38
324.939	1616.38
325.168	1460.38
325.397	807.38
325.626	610.38
325.855	564.38
326.084	559.38
326.313	538.38
326.542	525.38
326.77	569.38
326.999	630.38
327.228	784.38
327.457	1086.38
327.686	1349.38
327.914	901.38
328.143	668.38
328.372	603.38
328.6	606.38
328.829	577.38
329.058	595.38
329.287	597.38
329.515	581.38
329.744	558.38
329.972	570.38
330.201	574.38
330.43	590.38
330.658	598.38
330.887	644.38
331.115	627.38
331.344	576.38
331.572	562.38
331.801	551.38
332.03	538.38
332.258	561.38
332.486	546.38
332.715	545.38
332.943	584.38
333.172	572.38
333.4	597.38
333.629	610.38
333.857	627.38
334.085	613.38
334.314	634.38
334.542	644.38
334.771	658.38
334.999	615.38
335.227	573.38
335.455	594.38
335.684	549.38
335.912	576.38
336.14	568.38
336.369	541.38
336.597	571.38
336.825	589.38
337.053	571.38
337.281	553.38
337.51	562.38
337.738	533.38
337.966	536.38
338.194	530.38
338.422	538.38
338.65	539.38
338.878	537.38
339.106	549.38
339.334	541.38
339.562	512.38
339.79	526.38
340.018	517.38
340.246	520.38
340.474	530.38
340.702	506.38
340.93	532.38
341.158	524.38
341.386	536.38
341.614	526.38
341.842	516.38
342.07	537.38
342.298	510.38
342.526	515.38
342.754	518.38
342.981	524.38
343.209	525.38
343.437	542.38
343.665	540.38
343.893	567.38
344.12	583.38
344.348	584.38
344.576	581.38
344.804	565.38
345.031	536.38
345.259	544.38
345.487	501.38
345.714	522.38
345.942	525.38
346.17	497.38
346.397	493.38
346.625	498.38
346.853	504.38
347.08	483.38
347.308	492.38
347.535	510.38
347.763	507.38
347.99	523.38
348.218	501.38
348.445	513.38
348.673	512.38
348.9	498.38
349.128	496.38
349.355	520.38
349.583	471.38
349.81	479.38
350.037	483.38
350.265	477.38
350.492	502.38
350.72	483.38
350.947	477.38
351.174	481.38
351.402	469.38
351.629	466.38
351.856	496.38
352.083	506.38
352.311	489.38
352.538	475.38
352.765	522.38
352.992	499.38
353.22	496.38
353.447	487.38
353.674	491.38
353.901	507.38
354.128	476.38
354.355	491.38
354.583	487.38
354.81	483.38
355.037	470.38
355.264	482.38
355.491	486.38
355.718	481.38
355.945	482.38
356.172	473.38
356.399	474.38
356.626	480.38
356.853	487.38
357.08	465.38
357.307	488.38
357.534	470.38
357.761	482.38
357.988	480.38
358.215	489.38
358.441	470.38
358.668	476.38
358.895	487.38
359.122	476.38
359.349	476.38
359.576	509.38
359.802	515.38
360.029	516.38
360.256	531.38
360.483	492.38
360.709	512.38
360.936	498.38
361.163	496.38
361.39	486.38
361.616	485.38
361.843	476.38
362.07	496.38
362.296	520.38
362.523	489.38
362.749	485.38
362.976	516.38
363.203	486.38
363.429	466.38
363.656	514.38
363.882	484.38
364.109	478.38
364.335	497.38
364.562	480.38
364.788	490.38
365.015	481.38
365.241	501.38
365.468	498.38
365.694	465.38
365.92	500.38
366.147	488.38
366.373	472.38
366.599	470.38
366.826	484.38
367.052	473.38
367.278	502.38
367.505	491.38
367.731	498.38
367.957	504.38
368.184	498.38
368.41	497.38
368.636	492.38
368.862	499.38
369.089	518.38
369.315	482.38
369.541	480.38
369.767	502.38
369.993	502.38
370.219	500.38
370.445	507.38
370.672	506.38
370.898	506.38
371.124	498.38
371.35	521.38
371.576	490.38
371.802	501.38
372.028	498.38
372.254	482.38
372.48	508.38
372.706	519.38
372.932	531.38
373.158	526.38
373.384	514.38
373.61	520.38
373.835	503.38
374.061	509.38
374.287	536.38
374.513	524.38
374.739	540.38
374.965	548.38
375.191	541.38
375.416	541.38
375.642	536.38
375.868	536.38
376.094	529.38
376.319	510.38
376.545	489.38
376.771	519.38
376.997	528.38
377.222	500.38
377.448	528.38
377.674	502.38
377.899	496.38
378.125	493.38
378.35	510.38
378.576	500.38
378.802	496.38
379.027	493.38
379.253	519.38
379.478	490.38
379.704	523.38
379.929	506.38
380.155	518.38
380.38	501.38
380.606	498.38
380.831	523.38
381.057	502.38
381.282	492.38
381.507	508.38
381.733	516.38
381.958	512.38
382.184	523.38
382.409	532.38
382.634	548.38
382.86	522.38
383.085	516.38
383.31	526.38
383.535	553.38
383.761	575.38
383.986	538.38
384.211	532.38
384.436	570.38
384.662	584.38
384.887	593.38
385.112	594.38
385.337	590.38
385.562	590.38
385.787	616.38
386.013	587.38
386.238	587.38
386.463	587.38
386.688	614.38
386.913	586.38
387.138	570.38
387.363	592.38
387.588	584.38
387.813	562.38
388.038	558.38
388.263	568.38
388.488	600.38
388.713	593.38
388.938	588.38
389.163	577.38
389.387	594.38
389.612	587.38
389.837	578.38
390.062	578.38
390.287	574.38
390.512	584.38
390.736	584.38
390.961	593.38
391.186	585.38
391.411	599.38
391.636	633.38
391.86	627.38
392.085	640.38
392.31	638.38
392.534	609.38
392.759	609.38
392.984	615.38
393.208	606.38
393.433	610.38
393.658	619.38
393.882	602.38
394.107	604.38
394.331	608.38
394.556	624.38
394.78	619.38
395.005	609.38
395.229	621.38
395.454	643.38
395.678	624.38
395.903	640.38
396.127	664.38
396.352	647.38
396.576	613.38
396.801	598.38
397.025	620.38
397.249	620.38
397.474	612.38
397.698	629.38
397.922	676.38
398.147	668.38
398.371	644.38
398.595	690.38
398.82	684.38
399.044	719.38
399.268	787.38
399.492	852.38
399.717	939.38
399.941	955.38
400.165	907.38
400.389	876.38
400.613	824.38
400.837	731.38
401.062	736.38
401.286	702.38
401.51	696.38
401.734	680.38
401.958	709.38
402.182	714.38
402.406	709.38
402.63	735.38
402.854	747.38
403.078	747.38
403.302	758.38
403.526	762.38
403.75	771.38
403.974	767.38
404.198	741.38
404.422	779.38
404.645	782.38
404.869	794.38
405.093	825.38
405.317	838.38
405.541	845.38
405.765	830.38
405.988	769.38
406.212	768.38
406.436	800.38
406.66	812.38
406.883	808.38
407.107	841.38
407.331	877.38
407.555	940.38
407.778	946.38
408.002	897.38
408.226	811.38
408.449	797.38
408.673	790.38
408.896	795.38
409.12	850.38
409.344	830.38
409.567	765.38
409.791	775.38
410.014	737.38
410.238	735.38
410.461	732.38
410.685	744.38
410.908	736.38
411.132	761.38
411.355	790.38
411.578	782.38
411.802	733.38
412.025	710.38
412.249	747.38
412.472	763.38
412.695	765.38
412.919	753.38
413.142	754.38
413.365	700.38
413.589	728.38
413.812	709.38
414.035	709.38
414.258	683.38
414.482	685.38
414.705	699.38
414.928	708.38
415.151	702.38
415.374	692.38
415.597	673.38
415.821	669.38
416.044	708.38
416.267	698.38
416.49	682.38
416.713	672.38
416.936	677.38
417.159	681.38
417.382	673.38
417.605	686.38
417.828	708.38
418.051	698.38
418.274	682.38
418.497	697.38
418.72	724.38
418.943	696.38
419.166	724.38
419.389	775.38
419.611	768.38
419.834	752.38
420.057	752.38
420.28	709.38
420.503	726.38
420.726	696.38
420.948	700.38
421.171	746.38
421.394	737.38
421.617	727.38
421.839	706.38
422.062	706.38
422.285	723.38
422.507	748.38
422.73	839.38
422.953	836.38
423.175	776.38
423.398	748.38
423.621	734.38
423.843	747.38
424.066	769.38
424.288	756.38
424.511	748.38
424.733	826.38
424.956	865.38
425.178	848.38
425.401	819.38
425.623	851.38
425.846	764.38
426.068	708.38
426.291	718.38
426.513	708.38
426.735	740.38
426.958	748.38
427.18	804.38
427.402	924.38
427.625	972.38
427.847	859.38
428.069	782.38
428.292	732.38
428.514	704.38
428.736	671.38
428.958	681.38
429.181	661.38
429.403	664.38
429.625	662.38
429.847	685.38
430.069	722.38
430.292	755.38
430.514	661.38
430.736	674.38
430.958	622.38
431.18	653.38
431.402	648.38
431.624	657.38
431.846	649.38
432.068	638.38
432.29	636.38
432.512	630.38
432.734	669.38
432.956	645.38
433.178	641.38
433.4	654.38
433.622	651.38
433.844	649.38
434.066	625.38
434.287	647.38
434.509	688.38
434.731	713.38
434.953	691.38
435.175	716.38
435.397	709.38
435.618	723.38
435.84	745.38
436.062	790.38
436.284	866.38
436.505	731.38
436.727	720.38
436.949	672.38
437.17	634.38
437.392	635.38
437.614	667.38
437.835	684.38
438.057	768.38
438.278	808.38
438.5	808.38
438.721	878.38
438.943	851.38
439.165	734.38
439.386	680.38
439.608	718.38
439.829	707.38
440.05	718.38
440.272	713.38
440.493	700.38
440.715	696.38
440.936	677.38
441.158	674.38
441.379	679.38
441.6	717.38
441.822	730.38
442.043	762.38
442.264	802.38
442.486	834.38
442.707	773.38
442.928	726.38
443.149	736.38
443.371	747.38
443.592	785.38
443.813	858.38
444.034	924.38
444.255	794.38
444.476	796.38
444.698	804.38
444.919	811.38
445.14	864.38
445.361	817.38
445.582	738.38
445.803	783.38
446.024	848.38
446.245	844.38
446.466	801.38
446.687	716.38
446.908	668.38
447.129	668.38
447.35	651.38
447.571	651.38
447.792	641.38
448.013	641.38
448.234	637.38
448.455	668.38
448.675	762.38
448.896	861.38
449.117	758.38
449.338	722.38
449.559	789.38
449.779	904.38
450	737.38
450.221	647.38
450.442	635.38
450.662	620.38
450.883	636.38
451.104	644.38
451.324	618.38
451.545	622.38
451.766	609.38
451.986	592.38
452.207	578.38
452.428	562.38
452.648	591.38
452.869	557.38
453.089	590.38
453.31	584.38
453.53	588.38
453.751	577.38
453.971	598.38
454.192	613.38
454.412	584.38
454.633	562.38
454.853	570.38
455.073	584.38
455.294	604.38
455.514	620.38
455.734	626.38
455.955	584.38
456.175	582.38
456.395	539.38
456.616	562.38
456.836	556.38
457.056	538.38
457.276	532.38
457.497	563.38
457.717	547.38
457.937	574.38
458.157	576.38
458.377	588.38
458.598	598.38
458.818	647.38
459.038	701.38
459.258	718.38
459.478	676.38
459.698	678.38
459.918	668.38
460.138	683.38
460.358	688.38
460.578	683.38
460.798	713.38
461.018	724.38
461.238	700.38
461.458	676.38
461.678	710.38
461.898	720.38
462.118	710.38
462.338	750.38
462.558	737.38
462.777	773.38
462.997	804.38
463.217	886.38
463.437	873.38
463.657	818.38
463.876	788.38
464.096	778.38
464.316	786.38
464.536	797.38
464.755	795.38
464.975	786.38
465.195	748.38
465.414	790.38
465.634	712.38
465.854	674.38
466.073	668.38
466.293	645.38
466.512	634.38
466.732	605.38
466.951	612.38
467.171	618.38
467.391	630.38
467.61	645.38
467.829	626.38
468.049	617.38
468.268	624.38
468.488	612.38
468.707	620.38
468.927	617.38
469.146	607.38
469.365	609.38
469.585	595.38
469.804	616.38
470.023	652.38
470.243	632.38
470.462	646.38
470.681	632.38
470.901	638.38
471.12	629.38
471.339	646.38
471.558	620.38
471.777	624.38
471.997	624.38
472.216	641.38
472.435	649.38
472.654	609.38
472.873	596.38
473.092	614.38
473.311	601.38
473.53	593.38
473.749	610.38
473.968	617.38
474.187	718.38
474.406	725.38
474.625	639.38
474.844	611.38
475.063	630.38
475.282	619.38
475.501	638.38
475.72	636.38
475.939	633.38
476.158	617.38
476.377	634.38
476.596	640.38
476.814	633.38
477.033	648.38
477.252	660.38
477.471	678.38
477.69	670.38
477.908	680.38
478.127	662.38
478.346	720.38
478.564	691.38
478.783	725.38
479.002	727.38
479.22	736.38
479.439	718.38
479.658	757.38
479.876	729.38
480.095	768.38
480.313	803.38
480.532	788.38
480.751	791.38
480.969	788.38
481.188	811.38
481.406	841.38
481.624	756.38
481.843	745.38
482.061	725.38
482.28	723.38
482.498	690.38
482.717	705.38
482.935	694.38
483.153	729.38
483.372	724.38
483.59	702.38
483.808	718.38
484.027	731.38
484.245	737.38
484.463	733.38
484.681	707.38
484.9	710.38
485.118	749.38
485.336	714.38
485.554	729.38
485.772	759.38
485.99	742.38
486.209	731.38
486.427	724.38
486.645	763.38
486.863	761.38
487.081	771.38
487.299	771.38
487.517	733.38
487.735	766.38
487.953	752.38
488.171	772.38
488.389	765.38
488.607	748.38
488.825	768.38
489.043	778.38
489.261	781.38
489.479	775.38
489.696	771.38
489.914	778.38
490.132	806.38
490.35	781.38
490.568	788.38
490.786	786.38
491.003	825.38
491.221	813.38
491.439	848.38
491.657	819.38
491.874	841.38
492.092	836.38
492.31	857.38
492.527	832.38
492.745	834.38
492.963	868.38
493.18	853.38
493.398	872.38
493.615	867.38
493.833	893.38
494.05	874.38
494.268	875.38
494.485	886.38
494.703	885.38
494.92	908.38
495.138	866.38
495.355	880.38
495.573	918.38
495.79	898.38
496.008	909.38
496.225	917.38
496.442	886.38
496.66	854.38
496.877	883.38
497.094	904.38
497.312	901.38
497.529	923.38
497.746	968.38
497.963	976.38
498.181	1020.38
498.398	1000.38
498.615	1053.38
498.832	1158.38
499.049	1165.38
499.267	1221.38
499.484	1312.38
499.701	1395.38
499.918	1488.38
500.135	1616.38
500.352	1778.38
500.569	1808.38
500.786	1825.38
501.003	1736.38
501.22	1586.38
501.437	1511.38
501.654	1415.38
