Data from 1963.PennyLincolnUp.Lamp.En5.5.200Scan.071719.P1._HRD10591_13-58-55-063.txt Node
Date: Thu Jul 18 13:58:55 EDT 2019
User: cochatt
Spectrometer: HR+D1059
Trigger mode: 1
Integration Time (sec): 1.000000E-1
Scans to average: 1
Electric dark correction enabled: true
Nonlinearity correction enabled: false
Boxcar width: 0
XAxis mode: Wavelengths
Number of Pixels in Spectrum: 2048
>>>>>Begin Spectral Data<<<<<
223.165	-20.81
223.4	-20.81
223.635	-20.81
223.869	-17.81
224.104	-11.81
224.338	-6.81
224.573	-8.81
224.808	-14.81
225.042	-11.81
225.277	1.19
225.511	0.19
225.746	-5.81
225.98	13.19
226.215	12.19
226.449	-1.81
226.683	22.19
226.918	24.19
227.152	27.19
227.387	35.19
227.621	44.19
227.856	35.19
228.09	47.19
228.324	47.19
228.559	57.19
228.793	79.19
229.027	85.19
229.262	104.19
229.496	115.19
229.73	116.19
229.964	148.19
230.199	126.19
230.433	120.19
230.667	107.19
230.901	119.19
231.136	96.19
231.37	118.19
231.604	103.19
231.838	114.19
232.072	117.19
232.306	116.19
232.541	124.19
232.775	111.19
233.009	120.19
233.243	121.19
233.477	113.19
233.711	111.19
233.945	122.19
234.179	124.19
234.413	126.19
234.647	126.19
234.881	111.19
235.115	117.19
235.349	124.19
235.583	125.19
235.817	122.19
236.051	116.19
236.285	129.19
236.519	135.19
236.753	124.19
236.987	139.19
237.221	175.19
237.455	194.19
237.689	170.19
237.922	132.19
238.156	139.19
238.39	140.19
238.624	131.19
238.858	137.19
239.091	126.19
239.325	140.19
239.559	120.19
239.793	140.19
240.027	127.19
240.26	128.19
240.494	131.19
240.728	156.19
240.961	156.19
241.195	157.19
241.429	158.19
241.662	138.19
241.896	152.19
242.13	144.19
242.363	153.19
242.597	158.19
242.83	169.19
243.064	141.19
243.298	157.19
243.531	145.19
243.765	155.19
243.998	149.19
244.232	166.19
244.465	144.19
244.699	154.19
244.932	162.19
245.166	159.19
245.399	153.19
245.633	154.19
245.866	161.19
246.099	171.19
246.333	163.19
246.566	169.19
246.8	180.19
247.033	170.19
247.266	171.19
247.5	172.19
247.733	194.19
247.966	178.19
248.2	182.19
248.433	191.19
248.666	184.19
248.899	170.19
249.133	204.19
249.366	200.19
249.599	195.19
249.832	190.19
250.066	203.19
250.299	192.19
250.532	213.19
250.765	208.19
250.998	218.19
251.231	228.19
251.465	235.19
251.698	210.19
251.931	208.19
252.164	211.19
252.397	202.19
252.63	212.19
252.863	228.19
253.096	220.19
253.329	234.19
253.562	234.19
253.795	223.19
254.028	217.19
254.261	235.19
254.494	226.19
254.727	235.19
254.96	280.19
255.193	259.19
255.426	242.19
255.659	244.19
255.892	256.19
256.124	252.19
256.357	253.19
256.59	232.19
256.823	225.19
257.056	227.19
257.289	243.19
257.521	220.19
257.754	220.19
257.987	218.19
258.22	231.19
258.452	228.19
258.685	224.19
258.918	243.19
259.151	205.19
259.383	232.19
259.616	249.19
259.849	234.19
260.081	240.19
260.314	259.19
260.547	257.19
260.779	242.19
261.012	236.19
261.244	267.19
261.477	251.19
261.71	235.19
261.942	250.19
262.175	260.19
262.407	237.19
262.64	214.19
262.872	243.19
263.105	210.19
263.337	252.19
263.57	242.19
263.802	252.19
264.035	253.19
264.267	247.19
264.499	223.19
264.732	265.19
264.964	247.19
265.197	243.19
265.429	265.19
265.661	248.19
265.894	262.19
266.126	246.19
266.358	252.19
266.591	238.19
266.823	257.19
267.055	261.19
267.287	251.19
267.52	244.19
267.752	251.19
267.984	267.19
268.216	256.19
268.448	264.19
268.681	266.19
268.913	276.19
269.145	289.19
269.377	283.19
269.609	312.19
269.841	279.19
270.073	294.19
270.306	308.19
270.538	322.19
270.77	316.19
271.002	310.19
271.234	298.19
271.466	297.19
271.698	330.19
271.93	310.19
272.162	311.19
272.394	328.19
272.626	314.19
272.858	313.19
273.09	305.19
273.322	318.19
273.553	296.19
273.785	296.19
274.017	276.19
274.249	294.19
274.481	299.19
274.713	287.19
274.945	314.19
275.176	313.19
275.408	304.19
275.64	290.19
275.872	300.19
276.104	296.19
276.335	299.19
276.567	311.19
276.799	299.19
277.031	325.19
277.262	336.19
277.494	346.19
277.726	337.19
277.957	314.19
278.189	299.19
278.421	319.19
278.652	314.19
278.884	321.19
279.115	290.19
279.347	308.19
279.579	322.19
279.81	325.19
280.042	311.19
280.273	318.19
280.505	321.19
280.736	311.19
280.968	313.19
281.199	331.19
281.431	314.19
281.662	317.19
281.894	323.19
282.125	320.19
282.356	323.19
282.588	353.19
282.819	340.19
283.051	347.19
283.282	321.19
283.513	332.19
283.745	336.19
283.976	338.19
284.207	333.19
284.439	342.19
284.67	303.19
284.901	332.19
285.132	353.19
285.364	333.19
285.595	339.19
285.826	342.19
286.057	323.19
286.288	336.19
286.52	337.19
286.751	344.19
286.982	358.19
287.213	334.19
287.444	340.19
287.675	355.19
287.906	357.19
288.138	358.19
288.369	356.19
288.6	358.19
288.831	346.19
289.062	342.19
289.293	362.19
289.524	355.19
289.755	360.19
289.986	374.19
290.217	329.19
290.448	371.19
290.679	346.19
290.91	370.19
291.141	338.19
291.371	368.19
291.602	350.19
291.833	347.19
292.064	351.19
292.295	374.19
292.526	358.19
292.757	350.19
292.987	356.19
293.218	353.19
293.449	361.19
293.68	359.19
293.91	338.19
294.141	352.19
294.372	351.19
294.603	351.19
294.833	359.19
295.064	360.19
295.295	362.19
295.525	371.19
295.756	351.19
295.987	361.19
296.217	375.19
296.448	407.19
296.679	384.19
296.909	370.19
297.14	370.19
297.37	384.19
297.601	389.19
297.831	378.19
298.062	385.19
298.292	383.19
298.523	386.19
298.753	383.19
298.984	389.19
299.214	386.19
299.445	390.19
299.675	367.19
299.905	370.19
300.136	386.19
300.366	415.19
300.597	390.19
300.827	410.19
301.057	387.19
301.288	406.19
301.518	421.19
301.748	407.19
301.979	396.19
302.209	414.19
302.439	417.19
302.669	418.19
302.9	386.19
303.13	402.19
303.36	412.19
303.59	426.19
303.82	432.19
304.051	432.19
304.281	407.19
304.511	409.19
304.741	418.19
304.971	406.19
305.201	415.19
305.431	403.19
305.661	397.19
305.891	421.19
306.121	409.19
306.352	400.19
306.582	397.19
306.812	399.19
307.042	429.19
307.272	418.19
307.502	417.19
307.731	415.19
307.961	415.19
308.191	410.19
308.421	423.19
308.651	417.19
308.881	402.19
309.111	403.19
309.341	412.19
309.571	435.19
309.8	408.19
310.03	435.19
310.26	436.19
310.49	425.19
310.72	452.19
310.949	420.19
311.179	449.19
311.409	432.19
311.639	445.19
311.868	431.19
312.098	445.19
312.328	425.19
312.557	459.19
312.787	459.19
313.017	464.19
313.246	462.19
313.476	448.19
313.706	445.19
313.935	461.19
314.165	454.19
314.394	476.19
314.624	463.19
314.853	471.19
315.083	450.19
315.312	443.19
315.542	435.19
315.771	460.19
316.001	438.19
316.23	455.19
316.46	448.19
316.689	442.19
316.919	455.19
317.148	449.19
317.377	451.19
317.607	448.19
317.836	456.19
318.065	422.19
318.295	446.19
318.524	465.19
318.753	449.19
318.983	460.19
319.212	430.19
319.441	458.19
319.67	464.19
319.9	443.19
320.129	439.19
320.358	467.19
320.587	472.19
320.816	457.19
321.046	457.19
321.275	482.19
321.504	465.19
321.733	472.19
321.962	472.19
322.191	484.19
322.42	466.19
322.649	484.19
322.878	477.19
323.108	503.19
323.337	501.19
323.566	520.19
323.795	526.19
324.024	550.19
324.253	624.19
324.482	825.19
324.71	1154.19
324.939	1594.19
325.168	1418.19
325.397	815.19
325.626	640.19
325.855	566.19
326.084	554.19
326.313	548.19
326.542	538.19
326.77	569.19
326.999	626.19
327.228	787.19
327.457	1072.19
327.686	1298.19
327.914	907.19
328.143	664.19
328.372	632.19
328.6	597.19
328.829	583.19
329.058	595.19
329.287	596.19
329.515	559.19
329.744	545.19
329.972	559.19
330.201	576.19
330.43	599.19
330.658	592.19
330.887	609.19
331.115	592.19
331.344	571.19
331.572	560.19
331.801	559.19
332.03	547.19
332.258	552.19
332.486	593.19
332.715	580.19
332.943	585.19
333.172	573.19
333.4	596.19
333.629	623.19
333.857	646.19
334.085	620.19
334.314	652.19
334.542	656.19
334.771	678.19
334.999	618.19
335.227	592.19
335.455	598.19
335.684	583.19
335.912	600.19
336.14	565.19
336.369	542.19
336.597	576.19
336.825	571.19
337.053	574.19
337.281	548.19
337.51	540.19
337.738	574.19
337.966	548.19
338.194	554.19
338.422	565.19
338.65	544.19
338.878	523.19
339.106	523.19
339.334	523.19
339.562	545.19
339.79	523.19
340.018	531.19
340.246	535.19
340.474	546.19
340.702	522.19
340.93	518.19
341.158	546.19
341.386	523.19
341.614	546.19
341.842	522.19
342.07	521.19
342.298	496.19
342.526	516.19
342.754	541.19
342.981	492.19
343.209	514.19
343.437	546.19
343.665	531.19
343.893	566.19
344.12	600.19
344.348	565.19
344.576	575.19
344.804	577.19
345.031	544.19
345.259	526.19
345.487	527.19
345.714	527.19
345.942	509.19
346.17	498.19
346.397	500.19
346.625	518.19
346.853	494.19
347.08	497.19
347.308	509.19
347.535	503.19
347.763	504.19
347.99	515.19
348.218	523.19
348.445	489.19
348.673	483.19
348.9	500.19
349.128	478.19
349.355	494.19
349.583	487.19
349.81	488.19
350.037	499.19
350.265	488.19
350.492	494.19
350.72	483.19
350.947	483.19
351.174	490.19
351.402	492.19
351.629	490.19
351.856	485.19
352.083	486.19
352.311	495.19
352.538	489.19
352.765	534.19
352.992	506.19
353.22	476.19
353.447	492.19
353.674	498.19
353.901	499.19
354.128	496.19
354.355	483.19
354.583	471.19
354.81	483.19
355.037	483.19
355.264	483.19
355.491	478.19
355.718	464.19
355.945	464.19
356.172	482.19
356.399	487.19
356.626	499.19
356.853	482.19
357.08	473.19
357.307	482.19
357.534	475.19
357.761	479.19
357.988	463.19
358.215	495.19
358.441	486.19
358.668	481.19
358.895	478.19
359.122	503.19
359.349	516.19
359.576	494.19
359.802	508.19
360.029	529.19
360.256	536.19
360.483	514.19
360.709	480.19
360.936	516.19
361.163	501.19
361.39	496.19
361.616	511.19
361.843	507.19
362.07	483.19
362.296	505.19
362.523	478.19
362.749	520.19
362.976	502.19
363.203	501.19
363.429	488.19
363.656	492.19
363.882	498.19
364.109	472.19
364.335	463.19
364.562	502.19
364.788	476.19
365.015	474.19
365.241	497.19
365.468	510.19
365.694	468.19
365.92	508.19
366.147	504.19
366.373	486.19
366.599	486.19
366.826	486.19
367.052	496.19
367.278	496.19
367.505	491.19
367.731	512.19
367.957	470.19
368.184	481.19
368.41	484.19
368.636	510.19
368.862	491.19
369.089	506.19
369.315	532.19
369.541	495.19
369.767	489.19
369.993	480.19
370.219	502.19
370.445	484.19
370.672	494.19
370.898	504.19
371.124	523.19
371.35	489.19
371.576	527.19
371.802	537.19
372.028	520.19
372.254	510.19
372.48	499.19
372.706	527.19
372.932	535.19
373.158	537.19
373.384	535.19
373.61	536.19
373.835	531.19
374.061	510.19
374.287	512.19
374.513	530.19
374.739	522.19
374.965	538.19
375.191	529.19
375.416	563.19
375.642	534.19
375.868	520.19
376.094	519.19
376.319	527.19
376.545	516.19
376.771	523.19
376.997	516.19
377.222	513.19
377.448	532.19
377.674	523.19
377.899	498.19
378.125	499.19
378.35	507.19
378.576	497.19
378.802	524.19
379.027	503.19
379.253	495.19
379.478	475.19
379.704	512.19
379.929	514.19
380.155	499.19
380.38	516.19
380.606	512.19
380.831	515.19
381.057	500.19
381.282	516.19
381.507	536.19
381.733	535.19
381.958	529.19
382.184	523.19
382.409	533.19
382.634	536.19
382.86	537.19
383.085	522.19
383.31	558.19
383.535	560.19
383.761	534.19
383.986	550.19
384.211	563.19
384.436	581.19
384.662	571.19
384.887	572.19
385.112	575.19
385.337	596.19
385.562	581.19
385.787	584.19
386.013	602.19
386.238	585.19
386.463	614.19
386.688	602.19
386.913	588.19
387.138	576.19
387.363	602.19
387.588	576.19
387.813	579.19
388.038	593.19
388.263	606.19
388.488	590.19
388.713	572.19
388.938	591.19
389.163	588.19
389.387	590.19
389.612	574.19
389.837	584.19
390.062	547.19
390.287	571.19
390.512	599.19
390.736	603.19
390.961	603.19
391.186	630.19
391.411	596.19
391.636	626.19
391.86	645.19
392.085	624.19
392.31	624.19
392.534	620.19
392.759	616.19
392.984	625.19
393.208	618.19
393.433	632.19
393.658	619.19
393.882	611.19
394.107	591.19
394.331	602.19
394.556	602.19
394.78	606.19
395.005	630.19
395.229	615.19
395.454	631.19
395.678	635.19
395.903	646.19
396.127	646.19
396.352	659.19
396.576	620.19
396.801	620.19
397.025	631.19
397.249	626.19
397.474	641.19
397.698	646.19
397.922	659.19
398.147	659.19
398.371	690.19
398.595	673.19
398.82	699.19
399.044	737.19
399.268	775.19
399.492	896.19
399.717	938.19
399.941	961.19
400.165	922.19
400.389	857.19
400.613	791.19
400.837	744.19
401.062	725.19
401.286	708.19
401.51	698.19
401.734	692.19
401.958	730.19
402.182	709.19
402.406	713.19
402.63	742.19
402.854	747.19
403.078	751.19
403.302	740.19
403.526	776.19
403.75	758.19
403.974	798.19
404.198	756.19
404.422	788.19
404.645	761.19
404.869	779.19
405.093	804.19
405.317	828.19
405.541	864.19
405.765	807.19
405.988	752.19
406.212	783.19
406.436	830.19
406.66	807.19
406.883	809.19
407.107	827.19
407.331	876.19
407.555	931.19
407.778	942.19
408.002	870.19
408.226	831.19
408.449	841.19
408.673	813.19
408.896	816.19
409.12	850.19
409.344	847.19
409.567	779.19
409.791	771.19
410.014	793.19
410.238	742.19
410.461	724.19
410.685	758.19
410.908	755.19
411.132	781.19
411.355	772.19
411.578	756.19
411.802	738.19
412.025	726.19
412.249	760.19
412.472	763.19
412.695	780.19
412.919	766.19
413.142	729.19
413.365	703.19
413.589	729.19
413.812	715.19
414.035	706.19
414.258	692.19
414.482	708.19
414.705	709.19
414.928	696.19
415.151	671.19
415.374	672.19
415.597	699.19
415.821	668.19
416.044	700.19
416.267	688.19
416.49	694.19
416.713	675.19
416.936	686.19
417.159	690.19
417.382	700.19
417.605	708.19
417.828	695.19
418.051	719.19
418.274	700.19
418.497	712.19
418.72	706.19
418.943	695.19
419.166	722.19
419.389	798.19
419.611	778.19
419.834	741.19
420.057	755.19
420.28	723.19
420.503	707.19
420.726	729.19
420.948	726.19
421.171	730.19
421.394	772.19
421.617	728.19
421.839	726.19
422.062	708.19
422.285	732.19
422.507	752.19
422.73	815.19
422.953	838.19
423.175	770.19
423.398	728.19
423.621	720.19
423.843	753.19
424.066	779.19
424.288	768.19
424.511	785.19
424.733	812.19
424.956	891.19
425.178	849.19
425.401	820.19
425.623	835.19
425.846	786.19
426.068	736.19
426.291	719.19
426.513	698.19
426.735	711.19
426.958	738.19
427.18	790.19
427.402	880.19
427.625	966.19
427.847	873.19
428.069	778.19
428.292	741.19
428.514	694.19
428.736	668.19
428.958	648.19
429.181	648.19
429.403	649.19
429.625	655.19
429.847	694.19
430.069	740.19
430.292	733.19
430.514	678.19
430.736	638.19
430.958	647.19
431.18	642.19
431.402	642.19
431.624	634.19
431.846	646.19
432.068	623.19
432.29	660.19
432.512	653.19
432.734	644.19
432.956	651.19
433.178	660.19
433.4	670.19
433.622	653.19
433.844	641.19
434.066	657.19
434.287	635.19
434.509	681.19
434.731	711.19
434.953	700.19
435.175	741.19
435.397	743.19
435.618	732.19
435.84	744.19
436.062	804.19
436.284	840.19
436.505	752.19
436.727	702.19
436.949	674.19
437.17	670.19
437.392	662.19
437.614	664.19
437.835	679.19
438.057	740.19
438.278	807.19
438.5	782.19
438.721	851.19
438.943	850.19
439.165	734.19
439.386	693.19
439.608	696.19
439.829	679.19
440.05	699.19
440.272	722.19
440.493	711.19
440.715	675.19
440.936	699.19
441.158	660.19
441.379	673.19
441.6	718.19
441.822	718.19
442.043	755.19
442.264	817.19
442.486	803.19
442.707	758.19
442.928	743.19
443.149	754.19
443.371	754.19
443.592	782.19
443.813	839.19
444.034	894.19
444.255	834.19
444.476	779.19
444.698	759.19
444.919	795.19
445.14	925.19
445.361	816.19
445.582	785.19
445.803	812.19
446.024	852.19
446.245	878.19
446.466	774.19
446.687	698.19
446.908	697.19
447.129	647.19
447.35	648.19
447.571	643.19
447.792	641.19
448.013	656.19
448.234	653.19
448.455	682.19
448.675	737.19
448.896	823.19
449.117	756.19
449.338	719.19
449.559	805.19
449.779	882.19
450	733.19
450.221	665.19
450.442	638.19
450.662	640.19
450.883	628.19
451.104	629.19
451.324	613.19
451.545	594.19
451.766	600.19
451.986	594.19
452.207	593.19
452.428	590.19
452.648	587.19
452.869	594.19
453.089	604.19
453.31	595.19
453.53	576.19
453.751	584.19
453.971	574.19
454.192	598.19
454.412	575.19
454.633	570.19
454.853	580.19
455.073	568.19
455.294	587.19
455.514	623.19
455.734	619.19
455.955	555.19
456.175	582.19
456.395	582.19
456.616	560.19
456.836	544.19
457.056	555.19
457.276	552.19
457.497	552.19
457.717	586.19
457.937	572.19
458.157	590.19
458.377	571.19
458.598	586.19
458.818	635.19
459.038	712.19
459.258	712.19
459.478	677.19
459.698	676.19
459.918	665.19
460.138	686.19
460.358	720.19
460.578	715.19
460.798	716.19
461.018	729.19
461.238	710.19
461.458	707.19
461.678	722.19
461.898	707.19
462.118	723.19
462.338	734.19
462.558	736.19
462.777	773.19
462.997	808.19
463.217	880.19
463.437	853.19
463.657	814.19
463.876	849.19
464.096	786.19
464.316	786.19
464.536	803.19
464.755	787.19
464.975	759.19
465.195	763.19
465.414	774.19
465.634	733.19
465.854	677.19
466.073	650.19
466.293	648.19
466.512	650.19
466.732	625.19
466.951	625.19
467.171	615.19
467.391	608.19
467.61	620.19
467.829	628.19
468.049	622.19
468.268	619.19
468.488	612.19
468.707	603.19
468.927	607.19
469.146	616.19
469.365	615.19
469.585	605.19
469.804	637.19
470.023	627.19
470.243	612.19
470.462	639.19
470.681	643.19
470.901	639.19
471.12	635.19
471.339	628.19
471.558	627.19
471.777	647.19
471.997	625.19
472.216	631.19
472.435	641.19
472.654	649.19
472.873	604.19
473.092	597.19
473.311	604.19
473.53	603.19
473.749	588.19
473.968	638.19
474.187	700.19
474.406	723.19
474.625	626.19
474.844	616.19
475.063	606.19
475.282	635.19
475.501	628.19
475.72	624.19
475.939	635.19
476.158	643.19
476.377	627.19
476.596	655.19
476.814	649.19
477.033	652.19
477.252	662.19
477.471	662.19
477.69	689.19
477.908	714.19
478.127	716.19
478.346	700.19
478.564	739.19
478.783	713.19
479.002	744.19
479.22	755.19
479.439	772.19
479.658	757.19
479.876	742.19
480.095	776.19
480.313	828.19
480.532	802.19
480.751	799.19
480.969	798.19
481.188	805.19
481.406	842.19
481.624	786.19
481.843	716.19
482.061	739.19
482.28	730.19
482.498	710.19
482.717	747.19
482.935	735.19
483.153	738.19
483.372	750.19
483.59	713.19
483.808	710.19
484.027	708.19
484.245	712.19
484.463	711.19
484.681	767.19
484.9	741.19
485.118	750.19
485.336	735.19
485.554	750.19
485.772	771.19
485.99	777.19
486.209	739.19
486.427	748.19
486.645	741.19
486.863	790.19
487.081	770.19
487.299	768.19
487.517	761.19
487.735	775.19
487.953	745.19
488.171	780.19
488.389	771.19
488.607	783.19
488.825	770.19
489.043	766.19
489.261	777.19
489.479	784.19
489.696	761.19
489.914	778.19
490.132	784.19
490.35	793.19
490.568	770.19
490.786	789.19
491.003	819.19
491.221	799.19
491.439	830.19
491.657	807.19
491.874	826.19
492.092	833.19
492.31	839.19
492.527	824.19
492.745	842.19
492.963	844.19
493.18	875.19
493.398	883.19
493.615	871.19
493.833	891.19
494.05	882.19
494.268	895.19
494.485	892.19
494.703	888.19
494.92	854.19
495.138	863.19
495.355	876.19
495.573	874.19
495.79	879.19
496.008	898.19
496.225	894.19
496.442	904.19
496.66	899.19
496.877	905.19
497.094	911.19
497.312	938.19
497.529	957.19
497.746	954.19
497.963	975.19
498.181	999.19
498.398	1027.19
498.615	1076.19
498.832	1143.19
499.049	1182.19
499.267	1218.19
499.484	1298.19
499.701	1382.19
499.918	1489.19
500.135	1627.19
500.352	1800.19
500.569	1824.19
500.786	1817.19
501.003	1737.19
501.22	1580.19
501.437	1518.19
501.654	1404.19
