Data from 1963.PennyLincolnUp.Lamp.En5.5.200Scan.071719.P1._HRD10591_13-58-37-063.txt Node
Date: Thu Jul 18 13:58:37 EDT 2019
User: cochatt
Spectrometer: HR+D1059
Trigger mode: 1
Integration Time (sec): 1.000000E-1
Scans to average: 1
Electric dark correction enabled: true
Nonlinearity correction enabled: false
Boxcar width: 0
XAxis mode: Wavelengths
Number of Pixels in Spectrum: 2048
>>>>>Begin Spectral Data<<<<<
223.165	-8.25
223.4	-8.25
223.635	-8.25
223.869	-21.25
224.104	-9.25
224.338	-10.25
224.573	-10.25
224.808	-5.25
225.042	2.75
225.277	-6.25
225.511	-15.25
225.746	1.75
225.98	7.75
226.215	3.75
226.449	15.75
226.683	25.75
226.918	10.75
227.152	17.75
227.387	30.75
227.621	39.75
227.856	60.75
228.09	40.75
228.324	37.75
228.559	63.75
228.793	78.75
229.027	95.75
229.262	107.75
229.496	122.75
229.73	145.75
229.964	140.75
230.199	118.75
230.433	127.75
230.667	114.75
230.901	123.75
231.136	133.75
231.37	138.75
231.604	104.75
231.838	113.75
232.072	111.75
232.306	121.75
232.541	128.75
232.775	123.75
233.009	115.75
233.243	132.75
233.477	125.75
233.711	124.75
233.945	126.75
234.179	125.75
234.413	139.75
234.647	136.75
234.881	131.75
235.115	129.75
235.349	125.75
235.583	138.75
235.817	129.75
236.051	130.75
236.285	127.75
236.519	125.75
236.753	129.75
236.987	156.75
237.221	163.75
237.455	203.75
237.689	200.75
237.922	158.75
238.156	141.75
238.39	148.75
238.624	145.75
238.858	131.75
239.091	138.75
239.325	141.75
239.559	145.75
239.793	138.75
240.027	162.75
240.26	155.75
240.494	161.75
240.728	158.75
240.961	159.75
241.195	152.75
241.429	135.75
241.662	151.75
241.896	157.75
242.13	132.75
242.363	149.75
242.597	147.75
242.83	143.75
243.064	154.75
243.298	168.75
243.531	160.75
243.765	167.75
243.998	147.75
244.232	161.75
244.465	170.75
244.699	175.75
244.932	178.75
245.166	159.75
245.399	166.75
245.633	166.75
245.866	165.75
246.099	145.75
246.333	153.75
246.566	176.75
246.8	181.75
247.033	178.75
247.266	169.75
247.5	186.75
247.733	174.75
247.966	198.75
248.2	183.75
248.433	185.75
248.666	207.75
248.899	203.75
249.133	199.75
249.366	216.75
249.599	226.75
249.832	189.75
250.066	189.75
250.299	197.75
250.532	220.75
250.765	209.75
250.998	253.75
251.231	241.75
251.465	210.75
251.698	209.75
251.931	212.75
252.164	219.75
252.397	210.75
252.63	215.75
252.863	200.75
253.096	217.75
253.329	246.75
253.562	226.75
253.795	229.75
254.028	223.75
254.261	225.75
254.494	221.75
254.727	247.75
254.96	285.75
255.193	255.75
255.426	254.75
255.659	236.75
255.892	253.75
256.124	253.75
256.357	248.75
256.59	239.75
256.823	228.75
257.056	209.75
257.289	221.75
257.521	236.75
257.754	235.75
257.987	246.75
258.22	250.75
258.452	244.75
258.685	228.75
258.918	223.75
259.151	247.75
259.383	251.75
259.616	233.75
259.849	226.75
260.081	261.75
260.314	269.75
260.547	269.75
260.779	259.75
261.012	263.75
261.244	254.75
261.477	256.75
261.71	246.75
261.942	249.75
262.175	254.75
262.407	272.75
262.64	236.75
262.872	257.75
263.105	246.75
263.337	234.75
263.57	239.75
263.802	246.75
264.035	255.75
264.267	248.75
264.499	249.75
264.732	246.75
264.964	242.75
265.197	242.75
265.429	239.75
265.661	240.75
265.894	232.75
266.126	254.75
266.358	243.75
266.591	252.75
266.823	261.75
267.055	251.75
267.287	264.75
267.52	272.75
267.752	246.75
267.984	258.75
268.216	259.75
268.448	275.75
268.681	258.75
268.913	281.75
269.145	294.75
269.377	311.75
269.609	293.75
269.841	279.75
270.073	279.75
270.306	315.75
270.538	332.75
270.77	337.75
271.002	334.75
271.234	298.75
271.466	313.75
271.698	315.75
271.93	331.75
272.162	315.75
272.394	332.75
272.626	314.75
272.858	322.75
273.09	312.75
273.322	311.75
273.553	323.75
273.785	319.75
274.017	307.75
274.249	299.75
274.481	287.75
274.713	286.75
274.945	295.75
275.176	310.75
275.408	305.75
275.64	311.75
275.872	306.75
276.104	311.75
276.335	300.75
276.567	324.75
276.799	306.75
277.031	342.75
277.262	349.75
277.494	358.75
277.726	329.75
277.957	322.75
278.189	319.75
278.421	305.75
278.652	317.75
278.884	319.75
279.115	310.75
279.347	333.75
279.579	321.75
279.81	315.75
280.042	305.75
280.273	314.75
280.505	322.75
280.736	310.75
280.968	315.75
281.199	316.75
281.431	315.75
281.662	330.75
281.894	319.75
282.125	333.75
282.356	336.75
282.588	341.75
282.819	353.75
283.051	316.75
283.282	329.75
283.513	330.75
283.745	321.75
283.976	346.75
284.207	343.75
284.439	331.75
284.67	352.75
284.901	332.75
285.132	341.75
285.364	329.75
285.595	329.75
285.826	339.75
286.057	352.75
286.288	333.75
286.52	343.75
286.751	342.75
286.982	343.75
287.213	358.75
287.444	351.75
287.675	351.75
287.906	344.75
288.138	355.75
288.369	363.75
288.6	339.75
288.831	366.75
289.062	358.75
289.293	383.75
289.524	363.75
289.755	358.75
289.986	358.75
290.217	360.75
290.448	358.75
290.679	362.75
290.91	358.75
291.141	360.75
291.371	354.75
291.602	358.75
291.833	348.75
292.064	367.75
292.295	361.75
292.526	361.75
292.757	356.75
292.987	366.75
293.218	366.75
293.449	362.75
293.68	362.75
293.91	374.75
294.141	365.75
294.372	351.75
294.603	370.75
294.833	370.75
295.064	359.75
295.295	370.75
295.525	361.75
295.756	353.75
295.987	378.75
296.217	404.75
296.448	408.75
296.679	390.75
296.909	366.75
297.14	383.75
297.37	387.75
297.601	371.75
297.831	383.75
298.062	379.75
298.292	388.75
298.523	381.75
298.753	383.75
298.984	396.75
299.214	401.75
299.445	374.75
299.675	391.75
299.905	388.75
300.136	399.75
300.366	404.75
300.597	387.75
300.827	380.75
301.057	415.75
301.288	397.75
301.518	423.75
301.748	424.75
301.979	419.75
302.209	425.75
302.439	397.75
302.669	409.75
302.9	422.75
303.13	404.75
303.36	431.75
303.59	412.75
303.82	405.75
304.051	414.75
304.281	415.75
304.511	404.75
304.741	404.75
304.971	412.75
305.201	417.75
305.431	406.75
305.661	425.75
305.891	394.75
306.121	410.75
306.352	415.75
306.582	408.75
306.812	400.75
307.042	398.75
307.272	424.75
307.502	396.75
307.731	406.75
307.961	421.75
308.191	399.75
308.421	404.75
308.651	405.75
308.881	414.75
309.111	419.75
309.341	430.75
309.571	424.75
309.8	432.75
310.03	438.75
310.26	424.75
310.49	429.75
310.72	431.75
310.949	443.75
311.179	446.75
311.409	444.75
311.639	434.75
311.868	457.75
312.098	462.75
312.328	462.75
312.557	460.75
312.787	452.75
313.017	469.75
313.246	468.75
313.476	452.75
313.706	450.75
313.935	461.75
314.165	445.75
314.394	482.75
314.624	490.75
314.853	461.75
315.083	435.75
315.312	467.75
315.542	443.75
315.771	461.75
316.001	446.75
316.23	435.75
316.46	448.75
316.689	473.75
316.919	453.75
317.148	472.75
317.377	472.75
317.607	450.75
317.836	460.75
318.065	426.75
318.295	458.75
318.524	467.75
318.753	455.75
318.983	445.75
319.212	434.75
319.441	467.75
319.67	467.75
319.9	464.75
320.129	460.75
320.358	484.75
320.587	439.75
320.816	445.75
321.046	464.75
321.275	461.75
321.504	451.75
321.733	458.75
321.962	478.75
322.191	473.75
322.42	474.75
322.649	500.75
322.878	494.75
323.108	506.75
323.337	528.75
323.566	512.75
323.795	546.75
324.024	562.75
324.253	643.75
324.482	798.75
324.71	1127.75
324.939	1603.75
325.168	1453.75
325.397	807.75
325.626	622.75
325.855	559.75
326.084	539.75
326.313	533.75
326.542	545.75
326.77	541.75
326.999	623.75
327.228	762.75
327.457	1077.75
327.686	1289.75
327.914	897.75
328.143	669.75
328.372	610.75
328.6	582.75
328.829	599.75
329.058	578.75
329.287	592.75
329.515	569.75
329.744	557.75
329.972	541.75
330.201	587.75
330.43	604.75
330.658	606.75
330.887	625.75
331.115	600.75
331.344	577.75
331.572	587.75
331.801	557.75
332.03	574.75
332.258	560.75
332.486	549.75
332.715	541.75
332.943	587.75
333.172	571.75
333.4	621.75
333.629	607.75
333.857	638.75
334.085	654.75
334.314	621.75
334.542	651.75
334.771	677.75
334.999	625.75
335.227	598.75
335.455	585.75
335.684	586.75
335.912	584.75
336.14	585.75
336.369	549.75
336.597	594.75
336.825	581.75
337.053	581.75
337.281	576.75
337.51	565.75
337.738	560.75
337.966	536.75
338.194	554.75
338.422	553.75
338.65	555.75
338.878	555.75
339.106	532.75
339.334	542.75
339.562	530.75
339.79	513.75
340.018	527.75
340.246	526.75
340.474	524.75
340.702	558.75
340.93	533.75
341.158	509.75
341.386	529.75
341.614	526.75
341.842	526.75
342.07	506.75
342.298	497.75
342.526	517.75
342.754	514.75
342.981	523.75
343.209	529.75
343.437	523.75
343.665	541.75
343.893	586.75
344.12	614.75
344.348	599.75
344.576	552.75
344.804	560.75
345.031	541.75
345.259	551.75
345.487	557.75
345.714	532.75
345.942	505.75
346.17	519.75
346.397	504.75
346.625	497.75
346.853	500.75
347.08	491.75
347.308	514.75
347.535	533.75
347.763	514.75
347.99	497.75
348.218	505.75
348.445	515.75
348.673	516.75
348.9	505.75
349.128	497.75
349.355	509.75
349.583	487.75
349.81	478.75
350.037	501.75
350.265	497.75
350.492	493.75
350.72	519.75
350.947	496.75
351.174	500.75
351.402	498.75
351.629	488.75
351.856	481.75
352.083	507.75
352.311	506.75
352.538	511.75
352.765	493.75
352.992	507.75
353.22	517.75
353.447	487.75
353.674	487.75
353.901	483.75
354.128	457.75
354.355	469.75
354.583	504.75
354.81	453.75
355.037	496.75
355.264	460.75
355.491	495.75
355.718	486.75
355.945	478.75
356.172	494.75
356.399	512.75
356.626	499.75
356.853	488.75
357.08	481.75
357.307	488.75
357.534	485.75
357.761	486.75
357.988	483.75
358.215	483.75
358.441	482.75
358.668	481.75
358.895	497.75
359.122	506.75
359.349	484.75
359.576	511.75
359.802	494.75
360.029	502.75
360.256	527.75
360.483	525.75
360.709	503.75
360.936	489.75
361.163	497.75
361.39	518.75
361.616	496.75
361.843	495.75
362.07	486.75
362.296	509.75
362.523	507.75
362.749	496.75
362.976	488.75
363.203	486.75
363.429	478.75
363.656	491.75
363.882	462.75
364.109	486.75
364.335	492.75
364.562	505.75
364.788	495.75
365.015	504.75
365.241	473.75
365.468	501.75
365.694	501.75
365.92	509.75
366.147	483.75
366.373	477.75
366.599	497.75
366.826	480.75
367.052	497.75
367.278	494.75
367.505	486.75
367.731	468.75
367.957	482.75
368.184	493.75
368.41	498.75
368.636	519.75
368.862	508.75
369.089	512.75
369.315	506.75
369.541	502.75
369.767	485.75
369.993	498.75
370.219	473.75
370.445	495.75
370.672	501.75
370.898	493.75
371.124	514.75
371.35	495.75
371.576	510.75
371.802	492.75
372.028	531.75
372.254	517.75
372.48	494.75
372.706	523.75
372.932	507.75
373.158	515.75
373.384	529.75
373.61	515.75
373.835	503.75
374.061	495.75
374.287	521.75
374.513	522.75
374.739	526.75
374.965	545.75
375.191	560.75
375.416	546.75
375.642	538.75
375.868	522.75
376.094	524.75
376.319	501.75
376.545	519.75
376.771	515.75
376.997	518.75
377.222	486.75
377.448	493.75
377.674	520.75
377.899	503.75
378.125	506.75
378.35	531.75
378.576	513.75
378.802	504.75
379.027	526.75
379.253	512.75
379.478	517.75
379.704	515.75
379.929	515.75
380.155	505.75
380.38	509.75
380.606	504.75
380.831	506.75
381.057	526.75
381.282	534.75
381.507	510.75
381.733	513.75
381.958	507.75
382.184	508.75
382.409	520.75
382.634	525.75
382.86	541.75
383.085	535.75
383.31	539.75
383.535	551.75
383.761	585.75
383.986	554.75
384.211	558.75
384.436	587.75
384.662	582.75
384.887	579.75
385.112	605.75
385.337	573.75
385.562	579.75
385.787	599.75
386.013	599.75
386.238	631.75
386.463	615.75
386.688	605.75
386.913	582.75
387.138	577.75
387.363	579.75
387.588	572.75
387.813	586.75
388.038	612.75
388.263	586.75
388.488	579.75
388.713	594.75
388.938	582.75
389.163	581.75
389.387	616.75
389.612	586.75
389.837	574.75
390.062	591.75
390.287	590.75
390.512	605.75
390.736	602.75
390.961	605.75
391.186	587.75
391.411	605.75
391.636	605.75
391.86	630.75
392.085	631.75
392.31	640.75
392.534	631.75
392.759	598.75
392.984	621.75
393.208	600.75
393.433	621.75
393.658	599.75
393.882	597.75
394.107	616.75
394.331	618.75
394.556	610.75
394.78	594.75
395.005	622.75
395.229	611.75
395.454	606.75
395.678	639.75
395.903	641.75
396.127	638.75
396.352	653.75
396.576	625.75
396.801	613.75
397.025	625.75
397.249	614.75
397.474	647.75
397.698	625.75
397.922	664.75
398.147	679.75
398.371	674.75
398.595	679.75
398.82	695.75
399.044	741.75
399.268	782.75
399.492	852.75
399.717	955.75
399.941	988.75
400.165	934.75
400.389	840.75
400.613	785.75
400.837	763.75
401.062	736.75
401.286	709.75
401.51	669.75
401.734	707.75
401.958	702.75
402.182	713.75
402.406	723.75
402.63	761.75
402.854	747.75
403.078	737.75
403.302	748.75
403.526	773.75
403.75	772.75
403.974	788.75
404.198	779.75
404.422	770.75
404.645	774.75
404.869	787.75
405.093	792.75
405.317	815.75
405.541	837.75
405.765	798.75
405.988	764.75
406.212	792.75
406.436	797.75
406.66	818.75
406.883	803.75
407.107	842.75
407.331	887.75
407.555	907.75
407.778	929.75
408.002	846.75
408.226	816.75
408.449	824.75
408.673	801.75
408.896	812.75
409.12	857.75
409.344	825.75
409.567	788.75
409.791	751.75
410.014	757.75
410.238	746.75
410.461	755.75
410.685	733.75
410.908	734.75
411.132	765.75
411.355	795.75
411.578	785.75
411.802	724.75
412.025	731.75
412.249	760.75
412.472	764.75
412.695	781.75
412.919	770.75
413.142	724.75
413.365	720.75
413.589	712.75
413.812	712.75
414.035	717.75
414.258	732.75
414.482	711.75
414.705	725.75
414.928	701.75
415.151	707.75
415.374	710.75
415.597	682.75
415.821	697.75
416.044	699.75
416.267	689.75
416.49	678.75
416.713	686.75
416.936	700.75
417.159	688.75
417.382	707.75
417.605	679.75
417.828	687.75
418.051	724.75
418.274	735.75
418.497	692.75
418.72	727.75
418.943	710.75
419.166	730.75
419.389	785.75
419.611	765.75
419.834	757.75
420.057	755.75
420.28	747.75
420.503	730.75
420.726	699.75
420.948	688.75
421.171	748.75
421.394	759.75
421.617	730.75
421.839	725.75
422.062	719.75
422.285	716.75
422.507	797.75
422.73	819.75
422.953	783.75
423.175	752.75
423.398	739.75
423.621	743.75
423.843	763.75
424.066	785.75
424.288	751.75
424.511	741.75
424.733	818.75
424.956	871.75
425.178	832.75
425.401	829.75
425.623	818.75
425.846	746.75
426.068	709.75
426.291	689.75
426.513	702.75
426.735	693.75
426.958	724.75
427.18	793.75
427.402	906.75
427.625	955.75
427.847	831.75
428.069	775.75
428.292	746.75
428.514	701.75
428.736	683.75
428.958	675.75
429.181	652.75
429.403	641.75
429.625	672.75
429.847	661.75
430.069	706.75
430.292	732.75
430.514	648.75
430.736	652.75
430.958	644.75
431.18	635.75
431.402	633.75
431.624	628.75
431.846	654.75
432.068	653.75
432.29	679.75
432.512	667.75
432.734	632.75
432.956	657.75
433.178	665.75
433.4	651.75
433.622	649.75
433.844	641.75
434.066	630.75
434.287	654.75
434.509	646.75
434.731	702.75
434.953	694.75
435.175	723.75
435.397	727.75
435.618	710.75
435.84	743.75
436.062	790.75
436.284	845.75
436.505	767.75
436.727	707.75
436.949	706.75
437.17	640.75
437.392	648.75
437.614	658.75
437.835	678.75
438.057	743.75
438.278	835.75
438.5	803.75
438.721	887.75
438.943	855.75
439.165	713.75
439.386	700.75
439.608	703.75
439.829	707.75
440.05	709.75
440.272	737.75
440.493	726.75
440.715	683.75
440.936	686.75
441.158	661.75
441.379	675.75
441.6	723.75
441.822	723.75
442.043	759.75
442.264	816.75
442.486	829.75
442.707	746.75
442.928	737.75
443.149	731.75
443.371	765.75
443.592	779.75
443.813	850.75
444.034	889.75
444.255	819.75
444.476	773.75
444.698	786.75
444.919	788.75
445.14	889.75
445.361	846.75
445.582	775.75
445.803	841.75
446.024	848.75
446.245	840.75
446.466	810.75
446.687	732.75
446.908	687.75
447.129	663.75
447.35	658.75
447.571	648.75
447.792	644.75
448.013	653.75
448.234	666.75
448.455	685.75
448.675	775.75
448.896	851.75
449.117	777.75
449.338	709.75
449.559	787.75
449.779	877.75
450	741.75
450.221	665.75
450.442	643.75
450.662	622.75
450.883	603.75
451.104	654.75
451.324	619.75
451.545	620.75
451.766	600.75
451.986	600.75
452.207	602.75
452.428	586.75
452.648	575.75
452.869	603.75
453.089	583.75
453.31	576.75
453.53	580.75
453.751	588.75
453.971	579.75
454.192	565.75
454.412	572.75
454.633	578.75
454.853	580.75
455.073	562.75
455.294	592.75
455.514	640.75
455.734	633.75
455.955	571.75
456.175	563.75
456.395	550.75
456.616	560.75
456.836	560.75
457.056	576.75
457.276	550.75
457.497	573.75
457.717	556.75
457.937	585.75
458.157	578.75
458.377	592.75
458.598	612.75
458.818	642.75
459.038	675.75
459.258	737.75
459.478	696.75
459.698	659.75
459.918	665.75
460.138	679.75
460.358	702.75
460.578	707.75
460.798	706.75
461.018	699.75
461.238	738.75
461.458	684.75
461.678	719.75
461.898	730.75
462.118	710.75
462.338	758.75
462.558	747.75
462.777	779.75
462.997	822.75
463.217	870.75
463.437	872.75
463.657	810.75
463.876	808.75
464.096	802.75
464.316	791.75
464.536	784.75
464.755	785.75
464.975	749.75
465.195	777.75
465.414	751.75
465.634	728.75
465.854	670.75
466.073	685.75
466.293	661.75
466.512	624.75
466.732	636.75
466.951	628.75
467.171	621.75
467.391	627.75
467.61	631.75
467.829	617.75
468.049	625.75
468.268	625.75
468.488	603.75
468.707	599.75
468.927	602.75
469.146	609.75
469.365	604.75
469.585	610.75
469.804	609.75
470.023	639.75
470.243	632.75
470.462	636.75
470.681	657.75
470.901	656.75
471.12	643.75
471.339	614.75
471.558	634.75
471.777	615.75
471.997	619.75
472.216	610.75
472.435	663.75
472.654	623.75
472.873	586.75
473.092	603.75
473.311	627.75
473.53	635.75
473.749	595.75
473.968	619.75
474.187	685.75
474.406	723.75
474.625	645.75
474.844	613.75
475.063	590.75
475.282	593.75
475.501	646.75
475.72	616.75
475.939	611.75
476.158	630.75
476.377	623.75
476.596	635.75
476.814	657.75
477.033	664.75
477.252	647.75
477.471	674.75
477.69	675.75
477.908	683.75
478.127	710.75
478.346	675.75
478.564	715.75
478.783	712.75
479.002	739.75
479.22	729.75
479.439	712.75
479.658	757.75
479.876	790.75
480.095	753.75
480.313	789.75
480.532	801.75
480.751	807.75
480.969	773.75
481.188	842.75
481.406	829.75
481.624	758.75
481.843	761.75
482.061	761.75
482.28	741.75
482.498	733.75
482.717	710.75
482.935	700.75
483.153	730.75
483.372	705.75
483.59	715.75
483.808	708.75
484.027	697.75
484.245	709.75
484.463	724.75
484.681	741.75
484.9	733.75
485.118	734.75
485.336	720.75
485.554	747.75
485.772	748.75
485.99	745.75
486.209	771.75
486.427	761.75
486.645	752.75
486.863	739.75
487.081	748.75
487.299	762.75
487.517	737.75
487.735	757.75
487.953	736.75
488.171	791.75
488.389	757.75
488.607	742.75
488.825	745.75
489.043	742.75
489.261	738.75
489.479	779.75
489.696	807.75
489.914	773.75
490.132	792.75
490.35	787.75
490.568	789.75
490.786	764.75
491.003	806.75
491.221	808.75
491.439	811.75
491.657	823.75
491.874	838.75
492.092	839.75
492.31	842.75
492.527	854.75
492.745	866.75
492.963	832.75
493.18	856.75
493.398	875.75
493.615	883.75
493.833	882.75
494.05	886.75
494.268	879.75
494.485	873.75
494.703	893.75
494.92	881.75
495.138	866.75
495.355	913.75
495.573	891.75
495.79	864.75
496.008	896.75
496.225	869.75
496.442	875.75
496.66	904.75
496.877	868.75
497.094	880.75
497.312	933.75
497.529	963.75
497.746	961.75
497.963	986.75
498.181	1017.75
498.398	1017.75
498.615	1085.75
498.832	1157.75
499.049	1170.75
499.267	1205.75
499.484	1298.75
499.701	1366.75
499.918	1455.75
500.135	1599.75
500.352	1736.75
500.569	1787.75
500.786	1806.75
501.003	1713.75
501.22	1563.75
501.437	1461.75
501.654	1372.75
501.871	1305.75
