Data from 1963.PennyLincolnUp.Lamp.En5.5.200Scan.071719.P1._HRD10591_13-58-46-063.txt Node
Date: Thu Jul 18 13:58:46 EDT 2019
User: cochatt
Spectrometer: HR+D1059
Trigger mode: 1
Integration Time (sec): 1.000000E-1
Scans to average: 1
Electric dark correction enabled: true
Nonlinearity correction enabled: false
Boxcar width: 0
XAxis mode: Wavelengths
Number of Pixels in Spectrum: 2048
>>>>>Begin Spectral Data<<<<<
223.165	-19.75
223.4	-19.75
223.635	-19.75
223.869	-10.75
224.104	-26.75
224.338	-20.75
224.573	-25.75
224.808	-11.75
225.042	-5.75
225.277	-5.75
225.511	-2.75
225.746	7.25
225.98	-2.75
226.215	17.25
226.449	19.25
226.683	16.25
226.918	33.25
227.152	39.25
227.387	36.25
227.621	30.25
227.856	36.25
228.09	41.25
228.324	54.25
228.559	41.25
228.793	67.25
229.027	95.25
229.262	117.25
229.496	122.25
229.73	140.25
229.964	134.25
230.199	126.25
230.433	122.25
230.667	111.25
230.901	127.25
231.136	105.25
231.37	123.25
231.604	105.25
231.838	126.25
232.072	125.25
232.306	122.25
232.541	129.25
232.775	110.25
233.009	109.25
233.243	110.25
233.477	125.25
233.711	136.25
233.945	113.25
234.179	122.25
234.413	140.25
234.647	115.25
234.881	121.25
235.115	130.25
235.349	132.25
235.583	135.25
235.817	130.25
236.051	131.25
236.285	129.25
236.519	133.25
236.753	119.25
236.987	148.25
237.221	171.25
237.455	201.25
237.689	166.25
237.922	134.25
238.156	157.25
238.39	146.25
238.624	136.25
238.858	134.25
239.091	128.25
239.325	124.25
239.559	141.25
239.793	143.25
240.027	132.25
240.26	153.25
240.494	147.25
240.728	155.25
240.961	164.25
241.195	171.25
241.429	166.25
241.662	148.25
241.896	153.25
242.13	174.25
242.363	143.25
242.597	155.25
242.83	149.25
243.064	156.25
243.298	149.25
243.531	150.25
243.765	158.25
243.998	157.25
244.232	150.25
244.465	167.25
244.699	157.25
244.932	148.25
245.166	165.25
245.399	173.25
245.633	169.25
245.866	162.25
246.099	156.25
246.333	171.25
246.566	170.25
246.8	165.25
247.033	185.25
247.266	173.25
247.5	178.25
247.733	190.25
247.966	186.25
248.2	183.25
248.433	189.25
248.666	183.25
248.899	189.25
249.133	202.25
249.366	219.25
249.599	204.25
249.832	189.25
250.066	198.25
250.299	183.25
250.532	207.25
250.765	207.25
250.998	225.25
251.231	243.25
251.465	207.25
251.698	225.25
251.931	220.25
252.164	207.25
252.397	226.25
252.63	232.25
252.863	233.25
253.096	231.25
253.329	233.25
253.562	247.25
253.795	216.25
254.028	222.25
254.261	241.25
254.494	241.25
254.727	234.25
254.96	291.25
255.193	291.25
255.426	241.25
255.659	235.25
255.892	238.25
256.124	236.25
256.357	258.25
256.59	243.25
256.823	222.25
257.056	241.25
257.289	223.25
257.521	226.25
257.754	239.25
257.987	227.25
258.22	242.25
258.452	227.25
258.685	221.25
258.918	233.25
259.151	244.25
259.383	245.25
259.616	247.25
259.849	265.25
260.081	283.25
260.314	285.25
260.547	282.25
260.779	246.25
261.012	247.25
261.244	254.25
261.477	242.25
261.71	270.25
261.942	257.25
262.175	252.25
262.407	251.25
262.64	228.25
262.872	227.25
263.105	245.25
263.337	247.25
263.57	226.25
263.802	255.25
264.035	236.25
264.267	226.25
264.499	246.25
264.732	238.25
264.964	235.25
265.197	257.25
265.429	260.25
265.661	257.25
265.894	251.25
266.126	233.25
266.358	246.25
266.591	257.25
266.823	282.25
267.055	274.25
267.287	271.25
267.52	262.25
267.752	267.25
267.984	261.25
268.216	290.25
268.448	279.25
268.681	290.25
268.913	256.25
269.145	307.25
269.377	322.25
269.609	305.25
269.841	286.25
270.073	306.25
270.306	322.25
270.538	343.25
270.77	346.25
271.002	326.25
271.234	327.25
271.466	315.25
271.698	332.25
271.93	344.25
272.162	342.25
272.394	356.25
272.626	347.25
272.858	333.25
273.09	300.25
273.322	293.25
273.553	298.25
273.785	299.25
274.017	308.25
274.249	298.25
274.481	291.25
274.713	297.25
274.945	312.25
275.176	305.25
275.408	285.25
275.64	297.25
275.872	317.25
276.104	287.25
276.335	318.25
276.567	322.25
276.799	311.25
277.031	337.25
277.262	360.25
277.494	343.25
277.726	338.25
277.957	313.25
278.189	314.25
278.421	307.25
278.652	312.25
278.884	319.25
279.115	321.25
279.347	315.25
279.579	327.25
279.81	310.25
280.042	306.25
280.273	328.25
280.505	310.25
280.736	323.25
280.968	324.25
281.199	317.25
281.431	337.25
281.662	336.25
281.894	323.25
282.125	325.25
282.356	344.25
282.588	349.25
282.819	355.25
283.051	337.25
283.282	338.25
283.513	332.25
283.745	344.25
283.976	350.25
284.207	327.25
284.439	358.25
284.67	343.25
284.901	350.25
285.132	359.25
285.364	341.25
285.595	341.25
285.826	329.25
286.057	349.25
286.288	342.25
286.52	343.25
286.751	324.25
286.982	358.25
287.213	345.25
287.444	348.25
287.675	364.25
287.906	357.25
288.138	356.25
288.369	331.25
288.6	363.25
288.831	358.25
289.062	365.25
289.293	354.25
289.524	358.25
289.755	356.25
289.986	355.25
290.217	342.25
290.448	359.25
290.679	363.25
290.91	374.25
291.141	361.25
291.371	360.25
291.602	371.25
291.833	383.25
292.064	373.25
292.295	382.25
292.526	351.25
292.757	347.25
292.987	360.25
293.218	358.25
293.449	381.25
293.68	371.25
293.91	372.25
294.141	353.25
294.372	367.25
294.603	355.25
294.833	383.25
295.064	369.25
295.295	369.25
295.525	363.25
295.756	383.25
295.987	377.25
296.217	396.25
296.448	389.25
296.679	399.25
296.909	389.25
297.14	367.25
297.37	362.25
297.601	378.25
297.831	373.25
298.062	373.25
298.292	379.25
298.523	406.25
298.753	397.25
298.984	399.25
299.214	403.25
299.445	387.25
299.675	395.25
299.905	393.25
300.136	406.25
300.366	393.25
300.597	421.25
300.827	398.25
301.057	417.25
301.288	396.25
301.518	407.25
301.748	413.25
301.979	413.25
302.209	425.25
302.439	425.25
302.669	411.25
302.9	422.25
303.13	412.25
303.36	415.25
303.59	407.25
303.82	415.25
304.051	422.25
304.281	412.25
304.511	405.25
304.741	410.25
304.971	398.25
305.201	402.25
305.431	405.25
305.661	427.25
305.891	411.25
306.121	413.25
306.352	419.25
306.582	419.25
306.812	405.25
307.042	414.25
307.272	423.25
307.502	410.25
307.731	432.25
307.961	409.25
308.191	393.25
308.421	406.25
308.651	415.25
308.881	417.25
309.111	428.25
309.341	426.25
309.571	427.25
309.8	423.25
310.03	444.25
310.26	427.25
310.49	430.25
310.72	442.25
310.949	460.25
311.179	468.25
311.409	462.25
311.639	446.25
311.868	456.25
312.098	449.25
312.328	464.25
312.557	476.25
312.787	457.25
313.017	460.25
313.246	468.25
313.476	441.25
313.706	451.25
313.935	455.25
314.165	465.25
314.394	467.25
314.624	475.25
314.853	452.25
315.083	456.25
315.312	469.25
315.542	461.25
315.771	445.25
316.001	453.25
316.23	469.25
316.46	473.25
316.689	441.25
316.919	454.25
317.148	466.25
317.377	451.25
317.607	458.25
317.836	441.25
318.065	435.25
318.295	442.25
318.524	465.25
318.753	455.25
318.983	437.25
319.212	441.25
319.441	468.25
319.67	454.25
319.9	452.25
320.129	453.25
320.358	459.25
320.587	455.25
320.816	461.25
321.046	483.25
321.275	480.25
321.504	491.25
321.733	468.25
321.962	488.25
322.191	487.25
322.42	488.25
322.649	510.25
322.878	483.25
323.108	509.25
323.337	518.25
323.566	546.25
323.795	547.25
324.024	581.25
324.253	639.25
324.482	827.25
324.71	1164.25
324.939	1651.25
325.168	1481.25
325.397	832.25
325.626	635.25
325.855	567.25
326.084	550.25
326.313	542.25
326.542	532.25
326.77	541.25
326.999	632.25
327.228	771.25
327.457	1131.25
327.686	1324.25
327.914	916.25
328.143	685.25
328.372	613.25
328.6	637.25
328.829	581.25
329.058	587.25
329.287	602.25
329.515	578.25
329.744	575.25
329.972	572.25
330.201	582.25
330.43	605.25
330.658	645.25
330.887	645.25
331.115	638.25
331.344	601.25
331.572	581.25
331.801	568.25
332.03	581.25
332.258	580.25
332.486	553.25
332.715	569.25
332.943	603.25
333.172	621.25
333.4	619.25
333.629	642.25
333.857	623.25
334.085	641.25
334.314	665.25
334.542	651.25
334.771	681.25
334.999	644.25
335.227	610.25
335.455	600.25
335.684	590.25
335.912	582.25
336.14	584.25
336.369	574.25
336.597	595.25
336.825	586.25
337.053	559.25
337.281	545.25
337.51	553.25
337.738	556.25
337.966	566.25
338.194	557.25
338.422	552.25
338.65	555.25
338.878	548.25
339.106	547.25
339.334	543.25
339.562	531.25
339.79	548.25
340.018	523.25
340.246	525.25
340.474	528.25
340.702	542.25
340.93	541.25
341.158	535.25
341.386	538.25
341.614	526.25
341.842	554.25
342.07	514.25
342.298	535.25
342.526	522.25
342.754	518.25
342.981	521.25
343.209	533.25
343.437	541.25
343.665	551.25
343.893	619.25
344.12	608.25
344.348	602.25
344.576	567.25
344.804	554.25
345.031	545.25
345.259	547.25
345.487	537.25
345.714	519.25
345.942	518.25
346.17	515.25
346.397	518.25
346.625	520.25
346.853	503.25
347.08	519.25
347.308	510.25
347.535	525.25
347.763	535.25
347.99	520.25
348.218	511.25
348.445	506.25
348.673	523.25
348.9	531.25
349.128	513.25
349.355	484.25
349.583	509.25
349.81	501.25
350.037	504.25
350.265	503.25
350.492	494.25
350.72	493.25
350.947	492.25
351.174	495.25
351.402	509.25
351.629	522.25
351.856	493.25
352.083	510.25
352.311	517.25
352.538	526.25
352.765	528.25
352.992	519.25
353.22	495.25
353.447	506.25
353.674	510.25
353.901	500.25
354.128	499.25
354.355	489.25
354.583	492.25
354.81	493.25
355.037	484.25
355.264	460.25
355.491	486.25
355.718	500.25
355.945	479.25
356.172	485.25
356.399	474.25
356.626	485.25
356.853	488.25
357.08	491.25
357.307	492.25
357.534	518.25
357.761	471.25
357.988	487.25
358.215	484.25
358.441	490.25
358.668	486.25
358.895	481.25
359.122	499.25
359.349	491.25
359.576	508.25
359.802	517.25
360.029	529.25
360.256	554.25
360.483	531.25
360.709	502.25
360.936	515.25
361.163	524.25
361.39	525.25
361.616	510.25
361.843	525.25
362.07	518.25
362.296	509.25
362.523	511.25
362.749	508.25
362.976	487.25
363.203	494.25
363.429	506.25
363.656	493.25
363.882	488.25
364.109	515.25
364.335	486.25
364.562	495.25
364.788	491.25
365.015	478.25
365.241	478.25
365.468	485.25
365.694	485.25
365.92	532.25
366.147	497.25
366.373	479.25
366.599	494.25
366.826	498.25
367.052	500.25
367.278	491.25
367.505	491.25
367.731	501.25
367.957	494.25
368.184	505.25
368.41	510.25
368.636	519.25
368.862	538.25
369.089	507.25
369.315	512.25
369.541	498.25
369.767	510.25
369.993	500.25
370.219	529.25
370.445	500.25
370.672	523.25
370.898	498.25
371.124	510.25
371.35	536.25
371.576	504.25
371.802	492.25
372.028	516.25
372.254	525.25
372.48	513.25
372.706	545.25
372.932	555.25
373.158	527.25
373.384	522.25
373.61	532.25
373.835	523.25
374.061	537.25
374.287	514.25
374.513	515.25
374.739	530.25
374.965	547.25
375.191	557.25
375.416	554.25
375.642	545.25
375.868	542.25
376.094	515.25
376.319	531.25
376.545	529.25
376.771	531.25
376.997	531.25
377.222	532.25
377.448	511.25
377.674	516.25
377.899	528.25
378.125	499.25
378.35	500.25
378.576	498.25
378.802	501.25
379.027	542.25
379.253	501.25
379.478	519.25
379.704	522.25
379.929	534.25
380.155	507.25
380.38	513.25
380.606	513.25
380.831	516.25
381.057	523.25
381.282	518.25
381.507	546.25
381.733	533.25
381.958	498.25
382.184	533.25
382.409	525.25
382.634	527.25
382.86	545.25
383.085	543.25
383.31	549.25
383.535	567.25
383.761	560.25
383.986	562.25
384.211	591.25
384.436	570.25
384.662	577.25
384.887	596.25
385.112	593.25
385.337	601.25
385.562	611.25
385.787	609.25
386.013	603.25
386.238	610.25
386.463	603.25
386.688	582.25
386.913	582.25
387.138	591.25
387.363	602.25
387.588	591.25
387.813	602.25
388.038	599.25
388.263	589.25
388.488	627.25
388.713	595.25
388.938	602.25
389.163	577.25
389.387	616.25
389.612	566.25
389.837	594.25
390.062	587.25
390.287	591.25
390.512	594.25
390.736	589.25
390.961	589.25
391.186	587.25
391.411	604.25
391.636	590.25
391.86	632.25
392.085	638.25
392.31	623.25
392.534	628.25
392.759	636.25
392.984	633.25
393.208	627.25
393.433	617.25
393.658	593.25
393.882	610.25
394.107	629.25
394.331	601.25
394.556	607.25
394.78	603.25
395.005	650.25
395.229	625.25
395.454	616.25
395.678	634.25
395.903	652.25
396.127	649.25
396.352	657.25
396.576	644.25
396.801	636.25
397.025	639.25
397.249	646.25
397.474	663.25
397.698	659.25
397.922	671.25
398.147	659.25
398.371	689.25
398.595	685.25
398.82	664.25
399.044	730.25
399.268	812.25
399.492	875.25
399.717	960.25
399.941	953.25
400.165	941.25
400.389	866.25
400.613	821.25
400.837	740.25
401.062	754.25
401.286	688.25
401.51	698.25
401.734	727.25
401.958	722.25
402.182	724.25
402.406	734.25
402.63	762.25
402.854	741.25
403.078	750.25
403.302	765.25
403.526	777.25
403.75	775.25
403.974	785.25
404.198	790.25
404.422	804.25
404.645	777.25
404.869	795.25
405.093	805.25
405.317	841.25
405.541	861.25
405.765	826.25
405.988	781.25
406.212	817.25
406.436	811.25
406.66	835.25
406.883	822.25
407.107	848.25
407.331	889.25
407.555	970.25
407.778	984.25
408.002	904.25
408.226	841.25
408.449	847.25
408.673	805.25
408.896	808.25
409.12	846.25
409.344	849.25
409.567	785.25
409.791	795.25
410.014	777.25
410.238	764.25
410.461	745.25
410.685	754.25
410.908	749.25
411.132	773.25
411.355	826.25
411.578	793.25
411.802	743.25
412.025	761.25
412.249	757.25
412.472	786.25
412.695	787.25
412.919	793.25
413.142	749.25
413.365	745.25
413.589	758.25
413.812	711.25
414.035	701.25
414.258	709.25
414.482	729.25
414.705	729.25
414.928	697.25
415.151	709.25
415.374	702.25
415.597	701.25
415.821	706.25
416.044	705.25
416.267	690.25
416.49	719.25
416.713	689.25
416.936	702.25
417.159	709.25
417.382	682.25
417.605	725.25
417.828	693.25
418.051	696.25
418.274	720.25
418.497	706.25
418.72	722.25
418.943	712.25
419.166	746.25
419.389	782.25
419.611	795.25
419.834	737.25
420.057	739.25
420.28	774.25
420.503	771.25
420.726	721.25
420.948	733.25
421.171	770.25
421.394	775.25
421.617	746.25
421.839	725.25
422.062	715.25
422.285	742.25
422.507	779.25
422.73	846.25
422.953	812.25
423.175	769.25
423.398	774.25
423.621	760.25
423.843	787.25
424.066	796.25
424.288	757.25
424.511	757.25
424.733	809.25
424.956	894.25
425.178	838.25
425.401	860.25
425.623	865.25
425.846	788.25
426.068	739.25
426.291	737.25
426.513	740.25
426.735	741.25
426.958	763.25
427.18	829.25
427.402	922.25
427.625	997.25
427.847	844.25
428.069	792.25
428.292	753.25
428.514	702.25
428.736	667.25
428.958	684.25
429.181	646.25
429.403	667.25
429.625	665.25
429.847	690.25
430.069	763.25
430.292	735.25
430.514	685.25
430.736	668.25
430.958	660.25
431.18	665.25
431.402	659.25
431.624	674.25
431.846	675.25
432.068	643.25
432.29	671.25
432.512	677.25
432.734	666.25
432.956	653.25
433.178	665.25
433.4	640.25
433.622	669.25
433.844	658.25
434.066	678.25
434.287	654.25
434.509	676.25
434.731	709.25
434.953	721.25
435.175	732.25
435.397	735.25
435.618	719.25
435.84	762.25
436.062	796.25
436.284	859.25
436.505	781.25
436.727	720.25
436.949	693.25
437.17	649.25
437.392	658.25
437.614	685.25
437.835	685.25
438.057	748.25
438.278	837.25
438.5	853.25
438.721	915.25
438.943	866.25
439.165	732.25
439.386	734.25
439.608	729.25
439.829	691.25
440.05	717.25
440.272	750.25
440.493	737.25
440.715	705.25
440.936	686.25
441.158	718.25
441.379	713.25
441.6	741.25
441.822	759.25
442.043	754.25
442.264	825.25
442.486	887.25
442.707	803.25
442.928	755.25
443.149	780.25
443.371	771.25
443.592	789.25
443.813	901.25
444.034	906.25
444.255	811.25
444.476	789.25
444.698	821.25
444.919	834.25
445.14	922.25
445.361	833.25
445.582	771.25
445.803	798.25
446.024	856.25
446.245	885.25
446.466	795.25
446.687	747.25
446.908	738.25
447.129	675.25
447.35	661.25
447.571	655.25
447.792	658.25
448.013	661.25
448.234	666.25
448.455	694.25
448.675	755.25
448.896	885.25
449.117	775.25
449.338	723.25
449.559	822.25
449.779	924.25
450	750.25
450.221	687.25
450.442	645.25
450.662	612.25
450.883	616.25
451.104	659.25
451.324	627.25
451.545	642.25
451.766	614.25
451.986	613.25
452.207	592.25
452.428	574.25
452.648	584.25
452.869	590.25
453.089	585.25
453.31	619.25
453.53	591.25
453.751	600.25
453.971	604.25
454.192	614.25
454.412	603.25
454.633	571.25
454.853	590.25
455.073	611.25
455.294	622.25
455.514	652.25
455.734	642.25
455.955	579.25
456.175	586.25
456.395	570.25
456.616	562.25
456.836	572.25
457.056	574.25
457.276	554.25
457.497	577.25
457.717	565.25
457.937	557.25
458.157	577.25
458.377	591.25
458.598	593.25
458.818	648.25
459.038	739.25
459.258	746.25
459.478	697.25
459.698	694.25
459.918	677.25
460.138	683.25
460.358	697.25
460.578	709.25
460.798	731.25
461.018	731.25
461.238	706.25
461.458	710.25
461.678	718.25
461.898	713.25
462.118	714.25
462.338	740.25
462.558	760.25
462.777	797.25
462.997	826.25
463.217	859.25
463.437	878.25
463.657	840.25
463.876	783.25
464.096	805.25
464.316	797.25
464.536	819.25
464.755	824.25
464.975	773.25
465.195	763.25
465.414	794.25
465.634	747.25
465.854	698.25
466.073	693.25
466.293	655.25
466.512	633.25
466.732	656.25
466.951	629.25
467.171	641.25
467.391	634.25
467.61	625.25
467.829	643.25
468.049	640.25
468.268	618.25
468.488	605.25
468.707	617.25
468.927	596.25
469.146	613.25
469.365	626.25
469.585	609.25
469.804	634.25
470.023	654.25
470.243	627.25
470.462	641.25
470.681	662.25
470.901	682.25
471.12	663.25
471.339	653.25
471.558	631.25
471.777	630.25
471.997	626.25
472.216	641.25
472.435	643.25
472.654	619.25
472.873	611.25
473.092	618.25
473.311	617.25
473.53	610.25
473.749	627.25
473.968	662.25
474.187	726.25
474.406	737.25
474.625	643.25
474.844	636.25
475.063	631.25
475.282	630.25
475.501	627.25
475.72	617.25
475.939	629.25
476.158	641.25
476.377	639.25
476.596	637.25
476.814	659.25
477.033	650.25
477.252	667.25
477.471	672.25
477.69	682.25
477.908	714.25
478.127	695.25
478.346	716.25
478.564	739.25
478.783	742.25
479.002	741.25
479.22	743.25
479.439	777.25
479.658	762.25
479.876	775.25
480.095	755.25
480.313	819.25
480.532	838.25
480.751	818.25
480.969	817.25
481.188	840.25
481.406	830.25
481.624	780.25
481.843	731.25
482.061	734.25
482.28	735.25
482.498	722.25
482.717	713.25
482.935	735.25
483.153	749.25
483.372	725.25
483.59	718.25
483.808	725.25
484.027	729.25
484.245	726.25
484.463	735.25
484.681	747.25
484.9	741.25
485.118	753.25
485.336	742.25
485.554	740.25
485.772	751.25
485.99	750.25
486.209	778.25
486.427	798.25
486.645	783.25
486.863	799.25
487.081	783.25
487.299	773.25
487.517	780.25
487.735	783.25
487.953	790.25
488.171	777.25
488.389	787.25
488.607	747.25
488.825	755.25
489.043	771.25
489.261	786.25
489.479	781.25
489.696	799.25
489.914	789.25
490.132	799.25
490.35	802.25
490.568	793.25
490.786	824.25
491.003	827.25
491.221	818.25
491.439	817.25
491.657	829.25
491.874	844.25
492.092	819.25
492.31	883.25
492.527	879.25
492.745	875.25
492.963	870.25
493.18	894.25
493.398	895.25
493.615	921.25
493.833	923.25
494.05	893.25
494.268	925.25
494.485	895.25
494.703	922.25
494.92	896.25
495.138	903.25
495.355	853.25
495.573	901.25
495.79	911.25
496.008	904.25
496.225	920.25
496.442	915.25
496.66	899.25
496.877	889.25
497.094	946.25
497.312	956.25
497.529	929.25
497.746	983.25
497.963	999.25
498.181	1035.25
498.398	1074.25
498.615	1101.25
498.832	1143.25
499.049	1173.25
499.267	1229.25
499.484	1313.25
499.701	1390.25
499.918	1496.25
500.135	1609.25
500.352	1761.25
500.569	1828.25
500.786	1834.25
501.003	1744.25
501.22	1638.25
501.437	1511.25
501.654	1404.25
