Data from 1963.PennyLincolnUp.Lamp.En5.5.200Scan.071719.P1._HRD10591_13-57-13-062.txt Node
Date: Thu Jul 18 13:57:13 EDT 2019
User: cochatt
Spectrometer: HR+D1059
Trigger mode: 1
Integration Time (sec): 1.000000E-1
Scans to average: 1
Electric dark correction enabled: true
Nonlinearity correction enabled: false
Boxcar width: 0
XAxis mode: Wavelengths
Number of Pixels in Spectrum: 2048
>>>>>Begin Spectral Data<<<<<
223.165	-24.19
223.4	-24.19
223.635	-24.19
223.869	-10.19
224.104	-27.19
224.338	1.81
224.573	-14.19
224.808	-10.19
225.042	-5.19
225.277	-6.19
225.511	-6.19
225.746	-3.19
225.98	5.81
226.215	17.81
226.449	21.81
226.683	20.81
226.918	26.81
227.152	11.81
227.387	29.81
227.621	32.81
227.856	40.81
228.09	38.81
228.324	38.81
228.559	39.81
228.793	70.81
229.027	89.81
229.262	111.81
229.496	103.81
229.73	113.81
229.964	129.81
230.199	117.81
230.433	115.81
230.667	106.81
230.901	105.81
231.136	103.81
231.37	117.81
231.604	119.81
231.838	100.81
232.072	116.81
232.306	109.81
232.541	119.81
232.775	109.81
233.009	123.81
233.243	112.81
233.477	116.81
233.711	103.81
233.945	121.81
234.179	114.81
234.413	118.81
234.647	115.81
234.881	111.81
235.115	119.81
235.349	115.81
235.583	117.81
235.817	115.81
236.051	120.81
236.285	124.81
236.519	118.81
236.753	122.81
236.987	133.81
237.221	163.81
237.455	187.81
237.689	156.81
237.922	123.81
238.156	141.81
238.39	124.81
238.624	133.81
238.858	126.81
239.091	126.81
239.325	141.81
239.559	140.81
239.793	114.81
240.027	136.81
240.26	153.81
240.494	141.81
240.728	152.81
240.961	148.81
241.195	138.81
241.429	136.81
241.662	141.81
241.896	134.81
242.13	137.81
242.363	131.81
242.597	134.81
242.83	145.81
243.064	149.81
243.298	151.81
243.531	154.81
243.765	145.81
243.998	143.81
244.232	136.81
244.465	169.81
244.699	163.81
244.932	146.81
245.166	138.81
245.399	142.81
245.633	139.81
245.866	150.81
246.099	148.81
246.333	141.81
246.566	154.81
246.8	160.81
247.033	168.81
247.266	159.81
247.5	186.81
247.733	170.81
247.966	170.81
248.2	174.81
248.433	183.81
248.666	179.81
248.899	186.81
249.133	198.81
249.366	173.81
249.599	186.81
249.832	177.81
250.066	166.81
250.299	169.81
250.532	170.81
250.765	183.81
250.998	217.81
251.231	215.81
251.465	208.81
251.698	201.81
251.931	204.81
252.164	197.81
252.397	184.81
252.63	209.81
252.863	208.81
253.096	206.81
253.329	211.81
253.562	201.81
253.795	199.81
254.028	200.81
254.261	227.81
254.494	200.81
254.727	224.81
254.96	226.81
255.193	233.81
255.426	233.81
255.659	220.81
255.892	223.81
256.124	221.81
256.357	209.81
256.59	210.81
256.823	204.81
257.056	212.81
257.289	192.81
257.521	196.81
257.754	210.81
257.987	219.81
258.22	220.81
258.452	223.81
258.685	202.81
258.918	220.81
259.151	208.81
259.383	202.81
259.616	219.81
259.849	223.81
260.081	218.81
260.314	228.81
260.547	242.81
260.779	223.81
261.012	226.81
261.244	230.81
261.477	236.81
261.71	215.81
261.942	226.81
262.175	219.81
262.407	220.81
262.64	235.81
262.872	245.81
263.105	221.81
263.337	226.81
263.57	230.81
263.802	235.81
264.035	210.81
264.267	213.81
264.499	226.81
264.732	224.81
264.964	234.81
265.197	231.81
265.429	222.81
265.661	243.81
265.894	225.81
266.126	246.81
266.358	241.81
266.591	214.81
266.823	253.81
267.055	247.81
267.287	244.81
267.52	235.81
267.752	243.81
267.984	246.81
268.216	242.81
268.448	219.81
268.681	263.81
268.913	239.81
269.145	285.81
269.377	286.81
269.609	254.81
269.841	271.81
270.073	276.81
270.306	268.81
270.538	273.81
270.77	285.81
271.002	281.81
271.234	291.81
271.466	284.81
271.698	285.81
271.93	306.81
272.162	310.81
272.394	290.81
272.626	271.81
272.858	287.81
273.09	272.81
273.322	277.81
273.553	278.81
273.785	285.81
274.017	276.81
274.249	286.81
274.481	283.81
274.713	263.81
274.945	288.81
275.176	281.81
275.408	270.81
275.64	282.81
275.872	287.81
276.104	283.81
276.335	296.81
276.567	269.81
276.799	297.81
277.031	316.81
277.262	318.81
277.494	316.81
277.726	285.81
277.957	293.81
278.189	294.81
278.421	287.81
278.652	290.81
278.884	296.81
279.115	297.81
279.347	299.81
279.579	293.81
279.81	308.81
280.042	309.81
280.273	317.81
280.505	297.81
280.736	300.81
280.968	302.81
281.199	297.81
281.431	299.81
281.662	310.81
281.894	311.81
282.125	313.81
282.356	331.81
282.588	309.81
282.819	319.81
283.051	309.81
283.282	314.81
283.513	324.81
283.745	338.81
283.976	310.81
284.207	304.81
284.439	322.81
284.67	337.81
284.901	327.81
285.132	332.81
285.364	306.81
285.595	325.81
285.826	313.81
286.057	321.81
286.288	327.81
286.52	324.81
286.751	317.81
286.982	317.81
287.213	334.81
287.444	330.81
287.675	324.81
287.906	338.81
288.138	347.81
288.369	334.81
288.6	331.81
288.831	350.81
289.062	344.81
289.293	358.81
289.524	332.81
289.755	347.81
289.986	346.81
290.217	365.81
290.448	347.81
290.679	353.81
290.91	335.81
291.141	324.81
291.371	344.81
291.602	329.81
291.833	330.81
292.064	335.81
292.295	345.81
292.526	342.81
292.757	351.81
292.987	336.81
293.218	333.81
293.449	354.81
293.68	333.81
293.91	360.81
294.141	357.81
294.372	345.81
294.603	340.81
294.833	350.81
295.064	349.81
295.295	340.81
295.525	345.81
295.756	342.81
295.987	354.81
296.217	372.81
296.448	361.81
296.679	359.81
296.909	358.81
297.14	348.81
297.37	363.81
297.601	362.81
297.831	369.81
298.062	364.81
298.292	350.81
298.523	361.81
298.753	363.81
298.984	363.81
299.214	369.81
299.445	389.81
299.675	383.81
299.905	357.81
300.136	372.81
300.366	383.81
300.597	358.81
300.827	367.81
301.057	388.81
301.288	388.81
301.518	392.81
301.748	390.81
301.979	393.81
302.209	372.81
302.439	388.81
302.669	360.81
302.9	383.81
303.13	375.81
303.36	393.81
303.59	401.81
303.82	396.81
304.051	393.81
304.281	375.81
304.511	398.81
304.741	383.81
304.971	380.81
305.201	379.81
305.431	403.81
305.661	384.81
305.891	394.81
306.121	405.81
306.352	384.81
306.582	393.81
306.812	399.81
307.042	398.81
307.272	373.81
307.502	381.81
307.731	400.81
307.961	391.81
308.191	364.81
308.421	374.81
308.651	393.81
308.881	392.81
309.111	393.81
309.341	386.81
309.571	399.81
309.8	388.81
310.03	396.81
310.26	407.81
310.49	397.81
310.72	411.81
310.949	414.81
311.179	412.81
311.409	405.81
311.639	415.81
311.868	406.81
312.098	412.81
312.328	408.81
312.557	434.81
312.787	404.81
313.017	414.81
313.246	411.81
313.476	421.81
313.706	436.81
313.935	447.81
314.165	447.81
314.394	403.81
314.624	443.81
314.853	433.81
315.083	421.81
315.312	421.81
315.542	419.81
315.771	420.81
316.001	428.81
316.23	437.81
316.46	426.81
316.689	419.81
316.919	439.81
317.148	433.81
317.377	428.81
317.607	405.81
317.836	427.81
318.065	442.81
318.295	415.81
318.524	414.81
318.753	408.81
318.983	405.81
319.212	413.81
319.441	436.81
319.67	427.81
319.9	425.81
320.129	441.81
320.358	466.81
320.587	433.81
320.816	444.81
321.046	430.81
321.275	426.81
321.504	425.81
321.733	436.81
321.962	436.81
322.191	438.81
322.42	431.81
322.649	449.81
322.878	448.81
323.108	467.81
323.337	467.81
323.566	471.81
323.795	485.81
324.024	474.81
324.253	547.81
324.482	670.81
324.71	918.81
324.939	1238.81
325.168	1121.81
325.397	655.81
325.626	525.81
325.855	490.81
326.084	495.81
326.313	494.81
326.542	499.81
326.77	528.81
326.999	544.81
327.228	654.81
327.457	879.81
327.686	1018.81
327.914	732.81
328.143	568.81
328.372	539.81
328.6	526.81
328.829	503.81
329.058	513.81
329.287	516.81
329.515	513.81
329.744	519.81
329.972	498.81
330.201	509.81
330.43	522.81
330.658	535.81
330.887	550.81
331.115	543.81
331.344	525.81
331.572	492.81
331.801	517.81
332.03	495.81
332.258	517.81
332.486	531.81
332.715	538.81
332.943	570.81
333.172	553.81
333.4	564.81
333.629	563.81
333.857	579.81
334.085	577.81
334.314	593.81
334.542	586.81
334.771	602.81
334.999	569.81
335.227	565.81
335.455	560.81
335.684	551.81
335.912	539.81
336.14	530.81
336.369	536.81
336.597	513.81
336.825	529.81
337.053	535.81
337.281	544.81
337.51	531.81
337.738	532.81
337.966	513.81
338.194	508.81
338.422	511.81
338.65	536.81
338.878	521.81
339.106	525.81
339.334	511.81
339.562	502.81
339.79	486.81
340.018	498.81
340.246	513.81
340.474	500.81
340.702	492.81
340.93	502.81
341.158	471.81
341.386	490.81
341.614	481.81
341.842	480.81
342.07	475.81
342.298	509.81
342.526	475.81
342.754	491.81
342.981	522.81
343.209	483.81
343.437	503.81
343.665	545.81
343.893	561.81
344.12	576.81
344.348	542.81
344.576	554.81
344.804	530.81
345.031	500.81
345.259	498.81
345.487	516.81
345.714	477.81
345.942	468.81
346.17	495.81
346.397	460.81
346.625	473.81
346.853	475.81
347.08	453.81
347.308	485.81
347.535	470.81
347.763	486.81
347.99	473.81
348.218	462.81
348.445	456.81
348.673	463.81
348.9	481.81
349.128	483.81
349.355	470.81
349.583	463.81
349.81	461.81
350.037	471.81
350.265	456.81
350.492	473.81
350.72	472.81
350.947	484.81
351.174	472.81
351.402	488.81
351.629	489.81
351.856	465.81
352.083	468.81
352.311	456.81
352.538	484.81
352.765	484.81
352.992	481.81
353.22	453.81
353.447	473.81
353.674	456.81
353.901	468.81
354.128	471.81
354.355	463.81
354.583	474.81
354.81	468.81
355.037	449.81
355.264	455.81
355.491	472.81
355.718	449.81
355.945	457.81
356.172	455.81
356.399	464.81
356.626	464.81
356.853	454.81
357.08	474.81
357.307	450.81
357.534	426.81
357.761	449.81
357.988	469.81
358.215	473.81
358.441	456.81
358.668	450.81
358.895	457.81
359.122	466.81
359.349	451.81
359.576	470.81
359.802	459.81
360.029	471.81
360.256	491.81
360.483	466.81
360.709	480.81
360.936	455.81
361.163	479.81
361.39	476.81
361.616	487.81
361.843	484.81
362.07	462.81
362.296	489.81
362.523	461.81
362.749	474.81
362.976	466.81
363.203	448.81
363.429	430.81
363.656	454.81
363.882	481.81
364.109	492.81
364.335	481.81
364.562	460.81
364.788	451.81
365.015	456.81
365.241	460.81
365.468	465.81
365.694	486.81
365.92	475.81
366.147	468.81
366.373	463.81
366.599	454.81
366.826	449.81
367.052	480.81
367.278	492.81
367.505	471.81
367.731	479.81
367.957	465.81
368.184	454.81
368.41	482.81
368.636	471.81
368.862	477.81
369.089	483.81
369.315	462.81
369.541	461.81
369.767	460.81
369.993	467.81
370.219	472.81
370.445	477.81
370.672	496.81
370.898	488.81
371.124	484.81
371.35	477.81
371.576	465.81
371.802	469.81
372.028	499.81
372.254	480.81
372.48	485.81
372.706	496.81
372.932	487.81
373.158	487.81
373.384	502.81
373.61	531.81
373.835	492.81
374.061	513.81
374.287	498.81
374.513	505.81
374.739	502.81
374.965	523.81
375.191	522.81
375.416	552.81
375.642	507.81
375.868	495.81
376.094	517.81
376.319	501.81
376.545	499.81
376.771	476.81
376.997	489.81
377.222	485.81
377.448	475.81
377.674	491.81
377.899	496.81
378.125	498.81
378.35	483.81
378.576	499.81
378.802	492.81
379.027	493.81
379.253	532.81
379.478	476.81
379.704	470.81
379.929	495.81
380.155	493.81
380.38	493.81
380.606	496.81
380.831	500.81
381.057	491.81
381.282	485.81
381.507	506.81
381.733	515.81
381.958	497.81
382.184	504.81
382.409	494.81
382.634	554.81
382.86	514.81
383.085	523.81
383.31	534.81
383.535	527.81
383.761	536.81
383.986	540.81
384.211	532.81
384.436	556.81
384.662	551.81
384.887	575.81
385.112	598.81
385.337	599.81
385.562	606.81
385.787	586.81
386.013	578.81
386.238	602.81
386.463	593.81
386.688	600.81
386.913	579.81
387.138	556.81
387.363	572.81
387.588	563.81
387.813	585.81
388.038	567.81
388.263	598.81
388.488	609.81
388.713	589.81
388.938	540.81
389.163	552.81
389.387	566.81
389.612	561.81
389.837	559.81
390.062	554.81
390.287	566.81
390.512	549.81
390.736	583.81
390.961	570.81
391.186	570.81
391.411	593.81
391.636	581.81
391.86	612.81
392.085	604.81
392.31	600.81
392.534	612.81
392.759	598.81
392.984	626.81
393.208	623.81
393.433	691.81
393.658	700.81
393.882	614.81
394.107	626.81
394.331	597.81
394.556	600.81
394.78	605.81
395.005	595.81
395.229	601.81
395.454	604.81
395.678	582.81
395.903	615.81
396.127	630.81
396.352	623.81
396.576	610.81
396.801	623.81
397.025	668.81
397.249	658.81
397.474	637.81
397.698	640.81
397.922	637.81
398.147	642.81
398.371	651.81
398.595	657.81
398.82	661.81
399.044	714.81
399.268	741.81
399.492	826.81
399.717	906.81
399.941	929.81
400.165	869.81
400.389	819.81
400.613	757.81
400.837	720.81
401.062	712.81
401.286	701.81
401.51	676.81
401.734	671.81
401.958	692.81
402.182	674.81
402.406	687.81
402.63	700.81
402.854	711.81
403.078	726.81
403.302	739.81
403.526	721.81
403.75	724.81
403.974	731.81
404.198	713.81
404.422	751.81
404.645	774.81
404.869	731.81
405.093	753.81
405.317	744.81
405.541	799.81
405.765	786.81
405.988	727.81
406.212	753.81
406.436	778.81
406.66	767.81
406.883	736.81
407.107	793.81
407.331	852.81
407.555	901.81
407.778	879.81
408.002	854.81
408.226	818.81
408.449	777.81
408.673	783.81
408.896	773.81
409.12	785.81
409.344	773.81
409.567	738.81
409.791	743.81
410.014	724.81
410.238	699.81
410.461	703.81
410.685	737.81
410.908	725.81
411.132	724.81
411.355	731.81
411.578	752.81
411.802	705.81
412.025	691.81
412.249	708.81
412.472	729.81
412.695	754.81
412.919	725.81
413.142	677.81
413.365	682.81
413.589	683.81
413.812	684.81
414.035	680.81
414.258	661.81
414.482	684.81
414.705	691.81
414.928	697.81
415.151	667.81
415.374	695.81
415.597	672.81
415.821	664.81
416.044	662.81
416.267	663.81
416.49	658.81
416.713	644.81
416.936	661.81
417.159	665.81
417.382	693.81
417.605	665.81
417.828	681.81
418.051	673.81
418.274	701.81
418.497	692.81
418.72	688.81
418.943	665.81
419.166	700.81
419.389	760.81
419.611	742.81
419.834	695.81
420.057	677.81
420.28	694.81
420.503	673.81
420.726	707.81
420.948	682.81
421.171	694.81
421.394	712.81
421.617	711.81
421.839	692.81
422.062	674.81
422.285	671.81
422.507	720.81
422.73	786.81
422.953	777.81
423.175	707.81
423.398	685.81
423.621	716.81
423.843	725.81
424.066	709.81
424.288	724.81
424.511	722.81
424.733	765.81
424.956	793.81
425.178	779.81
425.401	777.81
425.623	769.81
425.846	714.81
426.068	693.81
426.291	660.81
426.513	663.81
426.735	689.81
426.958	708.81
427.18	737.81
427.402	809.81
427.625	868.81
427.847	770.81
428.069	707.81
428.292	668.81
428.514	647.81
428.736	644.81
428.958	639.81
429.181	647.81
429.403	638.81
429.625	625.81
429.847	629.81
430.069	688.81
430.292	695.81
430.514	628.81
430.736	599.81
430.958	608.81
431.18	612.81
431.402	627.81
431.624	620.81
431.846	616.81
432.068	599.81
432.29	617.81
432.512	630.81
432.734	652.81
432.956	632.81
433.178	623.81
433.4	626.81
433.622	624.81
433.844	651.81
434.066	625.81
434.287	645.81
434.509	650.81
434.731	667.81
434.953	694.81
435.175	703.81
435.397	695.81
435.618	703.81
435.84	694.81
436.062	731.81
436.284	777.81
436.505	691.81
436.727	663.81
436.949	648.81
437.17	636.81
437.392	604.81
437.614	630.81
437.835	656.81
438.057	690.81
438.278	730.81
438.5	767.81
438.721	781.81
438.943	790.81
439.165	667.81
439.386	667.81
439.608	669.81
439.829	667.81
440.05	647.81
440.272	697.81
440.493	656.81
440.715	648.81
440.936	652.81
441.158	642.81
441.379	656.81
441.6	679.81
441.822	689.81
442.043	714.81
442.264	747.81
442.486	775.81
442.707	725.81
442.928	691.81
443.149	708.81
443.371	697.81
443.592	771.81
443.813	800.81
444.034	844.81
444.255	764.81
444.476	736.81
444.698	736.81
444.919	793.81
445.14	857.81
445.361	815.81
445.582	727.81
445.803	743.81
446.024	757.81
446.245	773.81
446.466	723.81
446.687	659.81
446.908	644.81
447.129	631.81
447.35	639.81
447.571	610.81
447.792	625.81
448.013	612.81
448.234	627.81
448.455	618.81
448.675	709.81
448.896	751.81
449.117	671.81
449.338	659.81
449.559	731.81
449.779	808.81
450	671.81
450.221	628.81
450.442	593.81
450.662	606.81
450.883	599.81
451.104	611.81
451.324	584.81
451.545	587.81
451.766	557.81
451.986	569.81
452.207	586.81
452.428	556.81
452.648	554.81
452.869	552.81
453.089	555.81
453.31	590.81
453.53	555.81
453.751	552.81
453.971	544.81
454.192	569.81
454.412	532.81
454.633	547.81
454.853	561.81
455.073	551.81
455.294	572.81
455.514	599.81
455.734	592.81
455.955	542.81
456.175	571.81
456.395	543.81
456.616	512.81
456.836	531.81
457.056	531.81
457.276	518.81
457.497	554.81
457.717	547.81
457.937	552.81
458.157	538.81
458.377	561.81
458.598	573.81
458.818	616.81
459.038	640.81
459.258	654.81
459.478	636.81
459.698	640.81
459.918	632.81
460.138	660.81
460.358	716.81
460.578	671.81
460.798	685.81
461.018	697.81
461.238	696.81
461.458	693.81
461.678	681.81
461.898	716.81
462.118	724.81
462.338	749.81
462.558	761.81
462.777	729.81
462.997	788.81
463.217	871.81
463.437	849.81
463.657	790.81
463.876	764.81
464.096	769.81
464.316	769.81
464.536	777.81
464.755	768.81
464.975	741.81
465.195	749.81
465.414	737.81
465.634	673.81
465.854	653.81
466.073	640.81
466.293	636.81
466.512	633.81
466.732	610.81
466.951	595.81
467.171	614.81
467.391	609.81
467.61	627.81
467.829	599.81
468.049	598.81
468.268	584.81
468.488	591.81
468.707	572.81
468.927	587.81
469.146	568.81
469.365	589.81
469.585	575.81
469.804	610.81
470.023	614.81
470.243	600.81
470.462	604.81
470.681	602.81
470.901	631.81
471.12	603.81
471.339	609.81
471.558	591.81
471.777	606.81
471.997	593.81
472.216	592.81
472.435	615.81
472.654	605.81
472.873	585.81
473.092	599.81
473.311	563.81
473.53	596.81
473.749	615.81
473.968	600.81
474.187	636.81
474.406	671.81
474.625	640.81
474.844	594.81
475.063	586.81
475.282	601.81
475.501	626.81
475.72	630.81
475.939	600.81
476.158	615.81
476.377	634.81
476.596	620.81
476.814	627.81
477.033	621.81
477.252	619.81
477.471	651.81
477.69	659.81
477.908	659.81
478.127	692.81
478.346	718.81
478.564	699.81
478.783	692.81
479.002	727.81
479.22	712.81
479.439	731.81
479.658	724.81
479.876	747.81
480.095	776.81
480.313	797.81
480.532	759.81
480.751	776.81
480.969	764.81
481.188	756.81
481.406	777.81
481.624	710.81
481.843	713.81
482.061	705.81
482.28	721.81
482.498	687.81
482.717	687.81
482.935	693.81
483.153	680.81
483.372	680.81
483.59	707.81
483.808	693.81
484.027	725.81
484.245	689.81
484.463	706.81
484.681	736.81
484.9	705.81
485.118	713.81
485.336	736.81
485.554	716.81
485.772	744.81
485.99	742.81
486.209	729.81
486.427	736.81
486.645	738.81
486.863	754.81
487.081	745.81
487.299	745.81
487.517	745.81
487.735	729.81
487.953	743.81
488.171	732.81
488.389	710.81
488.607	734.81
488.825	738.81
489.043	728.81
489.261	725.81
489.479	746.81
489.696	736.81
489.914	758.81
490.132	746.81
490.35	751.81
490.568	757.81
490.786	753.81
491.003	759.81
491.221	780.81
491.439	781.81
491.657	775.81
491.874	800.81
492.092	838.81
492.31	772.81
492.527	789.81
492.745	803.81
492.963	832.81
493.18	832.81
493.398	812.81
493.615	829.81
493.833	847.81
494.05	831.81
494.268	832.81
494.485	849.81
494.703	825.81
494.92	833.81
495.138	835.81
495.355	822.81
495.573	815.81
495.79	855.81
496.008	846.81
496.225	861.81
496.442	847.81
496.66	860.81
496.877	858.81
497.094	883.81
497.312	885.81
497.529	922.81
497.746	943.81
497.963	940.81
498.181	945.81
498.398	1003.81
498.615	1067.81
498.832	1103.81
499.049	1139.81
499.267	1208.81
499.484	1252.81
499.701	1351.81
499.918	1442.81
500.135	1609.81
500.352	1753.81
500.569	1765.81
500.786	1769.81
501.003	1730.81
501.22	1577.81
501.437	1472.81
501.654	1341.81
