Data from 1963.PennyLincolnUp.Lamp.En5.5.200Scan.071719.P1._HRD10591_13-58-10-062.txt Node
Date: Thu Jul 18 13:58:10 EDT 2019
User: cochatt
Spectrometer: HR+D1059
Trigger mode: 1
Integration Time (sec): 1.000000E-1
Scans to average: 1
Electric dark correction enabled: true
Nonlinearity correction enabled: false
Boxcar width: 0
XAxis mode: Wavelengths
Number of Pixels in Spectrum: 2048
>>>>>Begin Spectral Data<<<<<
223.165	-27.44
223.4	-27.44
223.635	-27.44
223.869	-28.44
224.104	-21.44
224.338	-10.44
224.573	-16.44
224.808	-9.44
225.042	-16.44
225.277	-6.44
225.511	6.56
225.746	19.56
225.98	9.56
226.215	0.56
226.449	25.56
226.683	20.56
226.918	26.56
227.152	27.56
227.387	41.56
227.621	36.56
227.856	43.56
228.09	41.56
228.324	47.56
228.559	60.56
228.793	79.56
229.027	86.56
229.262	94.56
229.496	110.56
229.73	113.56
229.964	129.56
230.199	114.56
230.433	110.56
230.667	105.56
230.901	108.56
231.136	109.56
231.37	121.56
231.604	106.56
231.838	107.56
232.072	120.56
232.306	123.56
232.541	115.56
232.775	125.56
233.009	114.56
233.243	118.56
233.477	116.56
233.711	119.56
233.945	134.56
234.179	117.56
234.413	127.56
234.647	121.56
234.881	130.56
235.115	117.56
235.349	119.56
235.583	125.56
235.817	119.56
236.051	108.56
236.285	125.56
236.519	129.56
236.753	131.56
236.987	153.56
237.221	150.56
237.455	199.56
237.689	174.56
237.922	135.56
238.156	141.56
238.39	146.56
238.624	125.56
238.858	125.56
239.091	132.56
239.325	123.56
239.559	133.56
239.793	137.56
240.027	133.56
240.26	146.56
240.494	179.56
240.728	154.56
240.961	149.56
241.195	147.56
241.429	149.56
241.662	155.56
241.896	141.56
242.13	139.56
242.363	149.56
242.597	137.56
242.83	146.56
243.064	151.56
243.298	150.56
243.531	141.56
243.765	150.56
243.998	161.56
244.232	147.56
244.465	150.56
244.699	145.56
244.932	164.56
245.166	170.56
245.399	154.56
245.633	169.56
245.866	156.56
246.099	176.56
246.333	164.56
246.566	179.56
246.8	160.56
247.033	170.56
247.266	173.56
247.5	181.56
247.733	172.56
247.966	175.56
248.2	180.56
248.433	188.56
248.666	181.56
248.899	191.56
249.133	211.56
249.366	204.56
249.599	204.56
249.832	198.56
250.066	197.56
250.299	189.56
250.532	206.56
250.765	209.56
250.998	221.56
251.231	218.56
251.465	222.56
251.698	206.56
251.931	193.56
252.164	203.56
252.397	219.56
252.63	220.56
252.863	213.56
253.096	205.56
253.329	231.56
253.562	232.56
253.795	215.56
254.028	235.56
254.261	234.56
254.494	238.56
254.727	245.56
254.96	256.56
255.193	275.56
255.426	246.56
255.659	248.56
255.892	225.56
256.124	225.56
256.357	222.56
256.59	237.56
256.823	225.56
257.056	225.56
257.289	207.56
257.521	213.56
257.754	209.56
257.987	222.56
258.22	213.56
258.452	217.56
258.685	219.56
258.918	230.56
259.151	233.56
259.383	237.56
259.616	234.56
259.849	247.56
260.081	231.56
260.314	261.56
260.547	272.56
260.779	269.56
261.012	241.56
261.244	251.56
261.477	254.56
261.71	237.56
261.942	229.56
262.175	233.56
262.407	239.56
262.64	234.56
262.872	254.56
263.105	241.56
263.337	259.56
263.57	242.56
263.802	240.56
264.035	238.56
264.267	237.56
264.499	260.56
264.732	241.56
264.964	231.56
265.197	246.56
265.429	228.56
265.661	236.56
265.894	246.56
266.126	249.56
266.358	249.56
266.591	258.56
266.823	257.56
267.055	242.56
267.287	260.56
267.52	267.56
267.752	236.56
267.984	250.56
268.216	246.56
268.448	243.56
268.681	257.56
268.913	280.56
269.145	293.56
269.377	282.56
269.609	273.56
269.841	286.56
270.073	292.56
270.306	297.56
270.538	333.56
270.77	294.56
271.002	319.56
271.234	289.56
271.466	305.56
271.698	327.56
271.93	321.56
272.162	324.56
272.394	323.56
272.626	309.56
272.858	306.56
273.09	293.56
273.322	298.56
273.553	287.56
273.785	289.56
274.017	286.56
274.249	283.56
274.481	278.56
274.713	312.56
274.945	312.56
275.176	308.56
275.408	296.56
275.64	299.56
275.872	281.56
276.104	291.56
276.335	308.56
276.567	295.56
276.799	299.56
277.031	318.56
277.262	336.56
277.494	325.56
277.726	317.56
277.957	304.56
278.189	307.56
278.421	299.56
278.652	317.56
278.884	310.56
279.115	308.56
279.347	319.56
279.579	293.56
279.81	313.56
280.042	300.56
280.273	313.56
280.505	319.56
280.736	300.56
280.968	306.56
281.199	329.56
281.431	289.56
281.662	301.56
281.894	311.56
282.125	316.56
282.356	334.56
282.588	338.56
282.819	339.56
283.051	338.56
283.282	324.56
283.513	335.56
283.745	331.56
283.976	315.56
284.207	329.56
284.439	320.56
284.67	322.56
284.901	315.56
285.132	339.56
285.364	335.56
285.595	330.56
285.826	321.56
286.057	338.56
286.288	321.56
286.52	330.56
286.751	343.56
286.982	333.56
287.213	325.56
287.444	331.56
287.675	343.56
287.906	350.56
288.138	335.56
288.369	362.56
288.6	359.56
288.831	341.56
289.062	354.56
289.293	355.56
289.524	344.56
289.755	347.56
289.986	344.56
290.217	343.56
290.448	342.56
290.679	358.56
290.91	361.56
291.141	355.56
291.371	341.56
291.602	350.56
291.833	350.56
292.064	357.56
292.295	332.56
292.526	351.56
292.757	369.56
292.987	345.56
293.218	346.56
293.449	340.56
293.68	360.56
293.91	374.56
294.141	356.56
294.372	355.56
294.603	368.56
294.833	358.56
295.064	366.56
295.295	375.56
295.525	356.56
295.756	357.56
295.987	372.56
296.217	383.56
296.448	381.56
296.679	371.56
296.909	372.56
297.14	366.56
297.37	364.56
297.601	386.56
297.831	375.56
298.062	373.56
298.292	389.56
298.523	380.56
298.753	399.56
298.984	384.56
299.214	375.56
299.445	382.56
299.675	351.56
299.905	397.56
300.136	387.56
300.366	385.56
300.597	375.56
300.827	404.56
301.057	405.56
301.288	396.56
301.518	425.56
301.748	390.56
301.979	395.56
302.209	419.56
302.439	412.56
302.669	410.56
302.9	386.56
303.13	413.56
303.36	400.56
303.59	386.56
303.82	403.56
304.051	410.56
304.281	395.56
304.511	404.56
304.741	389.56
304.971	391.56
305.201	415.56
305.431	407.56
305.661	399.56
305.891	409.56
306.121	404.56
306.352	389.56
306.582	404.56
306.812	402.56
307.042	406.56
307.272	411.56
307.502	387.56
307.731	400.56
307.961	400.56
308.191	404.56
308.421	389.56
308.651	410.56
308.881	404.56
309.111	417.56
309.341	399.56
309.571	423.56
309.8	413.56
310.03	420.56
310.26	441.56
310.49	417.56
310.72	431.56
310.949	427.56
311.179	435.56
311.409	436.56
311.639	429.56
311.868	443.56
312.098	443.56
312.328	438.56
312.557	433.56
312.787	449.56
313.017	428.56
313.246	441.56
313.476	435.56
313.706	434.56
313.935	455.56
314.165	467.56
314.394	447.56
314.624	463.56
314.853	468.56
315.083	451.56
315.312	461.56
315.542	439.56
315.771	444.56
316.001	436.56
316.23	426.56
316.46	451.56
316.689	462.56
316.919	458.56
317.148	454.56
317.377	469.56
317.607	447.56
317.836	453.56
318.065	448.56
318.295	443.56
318.524	441.56
318.753	452.56
318.983	435.56
319.212	428.56
319.441	445.56
319.67	436.56
319.9	441.56
320.129	454.56
320.358	446.56
320.587	472.56
320.816	468.56
321.046	443.56
321.275	485.56
321.504	466.56
321.733	461.56
321.962	466.56
322.191	476.56
322.42	467.56
322.649	472.56
322.878	487.56
323.108	472.56
323.337	481.56
323.566	514.56
323.795	503.56
324.024	518.56
324.253	589.56
324.482	744.56
324.71	1082.56
324.939	1510.56
325.168	1359.56
325.397	750.56
325.626	613.56
325.855	515.56
326.084	515.56
326.313	526.56
326.542	531.56
326.77	541.56
326.999	613.56
327.228	726.56
327.457	1015.56
327.686	1192.56
327.914	841.56
328.143	629.56
328.372	586.56
328.6	587.56
328.829	556.56
329.058	562.56
329.287	549.56
329.515	539.56
329.744	531.56
329.972	509.56
330.201	556.56
330.43	582.56
330.658	591.56
330.887	605.56
331.115	585.56
331.344	570.56
331.572	549.56
331.801	543.56
332.03	544.56
332.258	561.56
332.486	551.56
332.715	568.56
332.943	569.56
333.172	598.56
333.4	579.56
333.629	618.56
333.857	602.56
334.085	621.56
334.314	635.56
334.542	626.56
334.771	630.56
334.999	623.56
335.227	606.56
335.455	590.56
335.684	570.56
335.912	557.56
336.14	560.56
336.369	555.56
336.597	553.56
336.825	587.56
337.053	566.56
337.281	567.56
337.51	547.56
337.738	541.56
337.966	544.56
338.194	540.56
338.422	526.56
338.65	540.56
338.878	537.56
339.106	522.56
339.334	527.56
339.562	517.56
339.79	501.56
340.018	537.56
340.246	522.56
340.474	537.56
340.702	508.56
340.93	540.56
341.158	518.56
341.386	523.56
341.614	507.56
341.842	540.56
342.07	502.56
342.298	507.56
342.526	481.56
342.754	513.56
342.981	486.56
343.209	517.56
343.437	531.56
343.665	542.56
343.893	542.56
344.12	588.56
344.348	552.56
344.576	553.56
344.804	531.56
345.031	525.56
345.259	535.56
345.487	530.56
345.714	508.56
345.942	488.56
346.17	512.56
346.397	499.56
346.625	485.56
346.853	478.56
347.08	500.56
347.308	507.56
347.535	487.56
347.763	499.56
347.99	498.56
348.218	489.56
348.445	482.56
348.673	505.56
348.9	509.56
349.128	491.56
349.355	484.56
349.583	500.56
349.81	505.56
350.037	485.56
350.265	496.56
350.492	470.56
350.72	485.56
350.947	478.56
351.174	484.56
351.402	495.56
351.629	486.56
351.856	485.56
352.083	485.56
352.311	506.56
352.538	503.56
352.765	490.56
352.992	478.56
353.22	472.56
353.447	485.56
353.674	479.56
353.901	480.56
354.128	494.56
354.355	483.56
354.583	473.56
354.81	478.56
355.037	492.56
355.264	491.56
355.491	457.56
355.718	494.56
355.945	460.56
356.172	467.56
356.399	483.56
356.626	458.56
356.853	470.56
357.08	485.56
357.307	472.56
357.534	472.56
357.761	464.56
357.988	487.56
358.215	478.56
358.441	486.56
358.668	469.56
358.895	485.56
359.122	497.56
359.349	492.56
359.576	488.56
359.802	519.56
360.029	526.56
360.256	486.56
360.483	492.56
360.709	495.56
360.936	507.56
361.163	491.56
361.39	502.56
361.616	481.56
361.843	511.56
362.07	491.56
362.296	481.56
362.523	463.56
362.749	479.56
362.976	486.56
363.203	486.56
363.429	459.56
363.656	479.56
363.882	474.56
364.109	476.56
364.335	464.56
364.562	466.56
364.788	469.56
365.015	467.56
365.241	478.56
365.468	480.56
365.694	514.56
365.92	485.56
366.147	509.56
366.373	492.56
366.599	485.56
366.826	490.56
367.052	490.56
367.278	482.56
367.505	479.56
367.731	486.56
367.957	485.56
368.184	477.56
368.41	498.56
368.636	505.56
368.862	489.56
369.089	482.56
369.315	485.56
369.541	486.56
369.767	503.56
369.993	492.56
370.219	468.56
370.445	491.56
370.672	499.56
370.898	509.56
371.124	502.56
371.35	505.56
371.576	521.56
371.802	493.56
372.028	502.56
372.254	492.56
372.48	511.56
372.706	528.56
372.932	525.56
373.158	515.56
373.384	508.56
373.61	517.56
373.835	507.56
374.061	522.56
374.287	515.56
374.513	523.56
374.739	508.56
374.965	551.56
375.191	543.56
375.416	509.56
375.642	531.56
375.868	525.56
376.094	506.56
376.319	527.56
376.545	517.56
376.771	502.56
376.997	507.56
377.222	523.56
377.448	510.56
377.674	495.56
377.899	502.56
378.125	482.56
378.35	502.56
378.576	502.56
378.802	486.56
379.027	510.56
379.253	505.56
379.478	506.56
379.704	527.56
379.929	503.56
380.155	513.56
380.38	499.56
380.606	519.56
380.831	522.56
381.057	504.56
381.282	522.56
381.507	510.56
381.733	504.56
381.958	528.56
382.184	519.56
382.409	524.56
382.634	526.56
382.86	515.56
383.085	544.56
383.31	556.56
383.535	527.56
383.761	539.56
383.986	549.56
384.211	545.56
384.436	578.56
384.662	569.56
384.887	575.56
385.112	573.56
385.337	572.56
385.562	575.56
385.787	584.56
386.013	611.56
386.238	597.56
386.463	593.56
386.688	583.56
386.913	611.56
387.138	597.56
387.363	610.56
387.588	582.56
387.813	562.56
388.038	570.56
388.263	578.56
388.488	579.56
388.713	578.56
388.938	588.56
389.163	570.56
389.387	592.56
389.612	587.56
389.837	563.56
390.062	555.56
390.287	575.56
390.512	576.56
390.736	582.56
390.961	573.56
391.186	584.56
391.411	597.56
391.636	580.56
391.86	606.56
392.085	641.56
392.31	641.56
392.534	621.56
392.759	618.56
392.984	590.56
393.208	601.56
393.433	601.56
393.658	607.56
393.882	595.56
394.107	595.56
394.331	603.56
394.556	591.56
394.78	605.56
395.005	611.56
395.229	607.56
395.454	636.56
395.678	616.56
395.903	653.56
396.127	618.56
396.352	623.56
396.576	620.56
396.801	605.56
397.025	624.56
397.249	614.56
397.474	645.56
397.698	623.56
397.922	639.56
398.147	664.56
398.371	656.56
398.595	699.56
398.82	677.56
399.044	727.56
399.268	774.56
399.492	829.56
399.717	928.56
399.941	964.56
400.165	906.56
400.389	872.56
400.613	766.56
400.837	746.56
401.062	723.56
401.286	717.56
401.51	697.56
401.734	683.56
401.958	689.56
402.182	711.56
402.406	711.56
402.63	702.56
402.854	706.56
403.078	716.56
403.302	748.56
403.526	764.56
403.75	756.56
403.974	786.56
404.198	760.56
404.422	759.56
404.645	773.56
404.869	780.56
405.093	814.56
405.317	794.56
405.541	874.56
405.765	814.56
405.988	758.56
406.212	769.56
406.436	775.56
406.66	780.56
406.883	780.56
407.107	825.56
407.331	854.56
407.555	927.56
407.778	943.56
408.002	894.56
408.226	843.56
408.449	827.56
408.673	802.56
408.896	816.56
409.12	818.56
409.344	795.56
409.567	749.56
409.791	725.56
410.014	727.56
410.238	756.56
410.461	734.56
410.685	745.56
410.908	731.56
411.132	766.56
411.355	759.56
411.578	777.56
411.802	728.56
412.025	719.56
412.249	746.56
412.472	746.56
412.695	790.56
412.919	757.56
413.142	732.56
413.365	705.56
413.589	695.56
413.812	692.56
414.035	684.56
414.258	689.56
414.482	705.56
414.705	692.56
414.928	701.56
415.151	688.56
415.374	687.56
415.597	660.56
415.821	681.56
416.044	686.56
416.267	667.56
416.49	677.56
416.713	678.56
416.936	678.56
417.159	685.56
417.382	692.56
417.605	699.56
417.828	693.56
418.051	709.56
418.274	689.56
418.497	667.56
418.72	675.56
418.943	698.56
419.166	738.56
419.389	761.56
419.611	767.56
419.834	750.56
420.057	740.56
420.28	722.56
420.503	707.56
420.726	697.56
420.948	716.56
421.171	743.56
421.394	772.56
421.617	712.56
421.839	706.56
422.062	715.56
422.285	726.56
422.507	734.56
422.73	831.56
422.953	795.56
423.175	717.56
423.398	741.56
423.621	715.56
423.843	741.56
424.066	755.56
424.288	769.56
424.511	727.56
424.733	781.56
424.956	839.56
425.178	809.56
425.401	787.56
425.623	833.56
425.846	737.56
426.068	715.56
426.291	683.56
426.513	708.56
426.735	712.56
426.958	747.56
427.18	778.56
427.402	893.56
427.625	935.56
427.847	830.56
428.069	754.56
428.292	713.56
428.514	660.56
428.736	667.56
428.958	669.56
429.181	651.56
429.403	637.56
429.625	678.56
429.847	687.56
430.069	714.56
430.292	715.56
430.514	661.56
430.736	669.56
430.958	617.56
431.18	636.56
431.402	628.56
431.624	627.56
431.846	627.56
432.068	639.56
432.29	641.56
432.512	644.56
432.734	679.56
432.956	650.56
433.178	655.56
433.4	631.56
433.622	632.56
433.844	635.56
434.066	639.56
434.287	637.56
434.509	651.56
434.731	691.56
434.953	684.56
435.175	705.56
435.397	699.56
435.618	712.56
435.84	722.56
436.062	757.56
436.284	809.56
436.505	702.56
436.727	681.56
436.949	659.56
437.17	655.56
437.392	634.56
437.614	647.56
437.835	682.56
438.057	709.56
438.278	777.56
438.5	790.56
438.721	844.56
438.943	829.56
439.165	723.56
439.386	676.56
439.608	673.56
439.829	635.56
440.05	685.56
440.272	715.56
440.493	699.56
440.715	655.56
440.936	676.56
441.158	660.56
441.379	660.56
441.6	687.56
441.822	733.56
442.043	730.56
442.264	784.56
442.486	821.56
442.707	769.56
442.928	718.56
443.149	726.56
443.371	745.56
443.592	766.56
443.813	845.56
444.034	900.56
444.255	803.56
444.476	761.56
444.698	784.56
444.919	797.56
445.14	889.56
445.361	811.56
445.582	782.56
445.803	794.56
446.024	842.56
446.245	825.56
446.466	791.56
446.687	720.56
446.908	685.56
447.129	660.56
447.35	637.56
447.571	623.56
447.792	631.56
448.013	639.56
448.234	647.56
448.455	660.56
448.675	724.56
448.896	873.56
449.117	718.56
449.338	705.56
449.559	778.56
449.779	837.56
450	724.56
450.221	653.56
450.442	627.56
450.662	602.56
450.883	591.56
451.104	620.56
451.324	611.56
451.545	579.56
451.766	588.56
451.986	580.56
452.207	583.56
452.428	595.56
452.648	618.56
452.869	572.56
453.089	582.56
453.31	587.56
453.53	573.56
453.751	590.56
453.971	568.56
454.192	606.56
454.412	580.56
454.633	565.56
454.853	571.56
455.073	568.56
455.294	578.56
455.514	612.56
455.734	595.56
455.955	541.56
456.175	542.56
456.395	573.56
456.616	557.56
456.836	564.56
457.056	540.56
457.276	529.56
457.497	537.56
457.717	539.56
457.937	576.56
458.157	566.56
458.377	557.56
458.598	592.56
458.818	640.56
459.038	702.56
459.258	699.56
459.478	654.56
459.698	658.56
459.918	655.56
460.138	669.56
460.358	694.56
460.578	713.56
460.798	738.56
461.018	726.56
461.238	712.56
461.458	716.56
461.678	680.56
461.898	692.56
462.118	711.56
462.338	761.56
462.558	734.56
462.777	780.56
462.997	840.56
463.217	862.56
463.437	852.56
463.657	823.56
463.876	790.56
464.096	793.56
464.316	793.56
464.536	791.56
464.755	762.56
464.975	779.56
465.195	741.56
465.414	765.56
465.634	687.56
465.854	643.56
466.073	637.56
466.293	637.56
466.512	607.56
466.732	619.56
466.951	625.56
467.171	619.56
467.391	620.56
467.61	619.56
467.829	629.56
468.049	631.56
468.268	605.56
468.488	594.56
468.707	582.56
468.927	556.56
469.146	574.56
469.365	599.56
469.585	595.56
469.804	603.56
470.023	621.56
470.243	632.56
470.462	641.56
470.681	649.56
470.901	652.56
471.12	637.56
471.339	611.56
471.558	629.56
471.777	616.56
471.997	598.56
472.216	595.56
472.435	641.56
472.654	627.56
472.873	598.56
473.092	589.56
473.311	587.56
473.53	593.56
473.749	600.56
473.968	618.56
474.187	694.56
474.406	717.56
474.625	629.56
474.844	582.56
475.063	602.56
475.282	594.56
475.501	618.56
475.72	603.56
475.939	597.56
476.158	626.56
476.377	633.56
476.596	623.56
476.814	645.56
477.033	660.56
477.252	667.56
477.471	641.56
477.69	660.56
477.908	695.56
478.127	710.56
478.346	703.56
478.564	683.56
478.783	697.56
479.002	725.56
479.22	735.56
479.439	739.56
479.658	745.56
479.876	766.56
480.095	765.56
480.313	798.56
480.532	803.56
480.751	803.56
480.969	776.56
481.188	809.56
481.406	827.56
481.624	750.56
481.843	707.56
482.061	703.56
482.28	714.56
482.498	725.56
482.717	702.56
482.935	710.56
483.153	691.56
483.372	725.56
483.59	677.56
483.808	710.56
484.027	705.56
484.245	717.56
484.463	720.56
484.681	731.56
484.9	714.56
485.118	742.56
485.336	711.56
485.554	747.56
485.772	729.56
485.99	741.56
486.209	739.56
486.427	757.56
486.645	739.56
486.863	747.56
487.081	757.56
487.299	760.56
487.517	743.56
487.735	747.56
487.953	730.56
488.171	763.56
488.389	757.56
488.607	725.56
488.825	724.56
489.043	722.56
489.261	745.56
489.479	755.56
489.696	744.56
489.914	756.56
490.132	750.56
490.35	772.56
490.568	797.56
490.786	796.56
491.003	801.56
491.221	797.56
491.439	798.56
491.657	822.56
491.874	816.56
492.092	827.56
492.31	835.56
492.527	837.56
492.745	832.56
492.963	853.56
493.18	796.56
493.398	834.56
493.615	849.56
493.833	863.56
494.05	857.56
494.268	861.56
494.485	843.56
494.703	855.56
494.92	887.56
495.138	844.56
495.355	866.56
495.573	861.56
495.79	867.56
496.008	876.56
496.225	876.56
496.442	865.56
496.66	883.56
496.877	858.56
497.094	886.56
497.312	899.56
497.529	925.56
497.746	930.56
497.963	948.56
498.181	985.56
498.398	998.56
498.615	1043.56
498.832	1099.56
499.049	1149.56
499.267	1214.56
499.484	1271.56
499.701	1379.56
499.918	1449.56
500.135	1572.56
500.352	1748.56
500.569	1782.56
500.786	1813.56
501.003	1717.56
501.22	1618.56
501.437	1485.56
501.654	1365.56
