Data from 1963.PennyLincolnUp.Lamp.En5.5.200Scan.071719.P1._HRD10591_13-58-30-064.txt Node
Date: Thu Jul 18 13:58:30 EDT 2019
User: cochatt
Spectrometer: HR+D1059
Trigger mode: 1
Integration Time (sec): 1.000000E-1
Scans to average: 1
Electric dark correction enabled: true
Nonlinearity correction enabled: false
Boxcar width: 0
XAxis mode: Wavelengths
Number of Pixels in Spectrum: 2048
>>>>>Begin Spectral Data<<<<<
223.165	-11.25
223.4	-11.25
223.635	-11.25
223.869	-10.25
224.104	-18.25
224.338	-11.25
224.573	-2.25
224.808	-17.25
225.042	-6.25
225.277	-4.25
225.511	-14.25
225.746	-10.25
225.98	-6.25
226.215	11.75
226.449	10.75
226.683	22.75
226.918	40.75
227.152	25.75
227.387	27.75
227.621	39.75
227.856	42.75
228.09	39.75
228.324	74.75
228.559	50.75
228.793	63.75
229.027	100.75
229.262	106.75
229.496	98.75
229.73	130.75
229.964	147.75
230.199	122.75
230.433	115.75
230.667	113.75
230.901	117.75
231.136	113.75
231.37	107.75
231.604	119.75
231.838	114.75
232.072	130.75
232.306	127.75
232.541	110.75
232.775	100.75
233.009	121.75
233.243	115.75
233.477	114.75
233.711	119.75
233.945	117.75
234.179	125.75
234.413	121.75
234.647	119.75
234.881	100.75
235.115	121.75
235.349	131.75
235.583	121.75
235.817	125.75
236.051	130.75
236.285	133.75
236.519	147.75
236.753	121.75
236.987	152.75
237.221	150.75
237.455	198.75
237.689	171.75
237.922	159.75
238.156	131.75
238.39	133.75
238.624	145.75
238.858	145.75
239.091	150.75
239.325	125.75
239.559	137.75
239.793	146.75
240.027	150.75
240.26	130.75
240.494	157.75
240.728	150.75
240.961	139.75
241.195	163.75
241.429	146.75
241.662	161.75
241.896	141.75
242.13	134.75
242.363	140.75
242.597	141.75
242.83	156.75
243.064	151.75
243.298	163.75
243.531	159.75
243.765	147.75
243.998	163.75
244.232	164.75
244.465	161.75
244.699	146.75
244.932	155.75
245.166	147.75
245.399	170.75
245.633	181.75
245.866	141.75
246.099	146.75
246.333	185.75
246.566	169.75
246.8	176.75
247.033	174.75
247.266	159.75
247.5	183.75
247.733	181.75
247.966	177.75
248.2	171.75
248.433	194.75
248.666	172.75
248.899	185.75
249.133	213.75
249.366	222.75
249.599	210.75
249.832	205.75
250.066	200.75
250.299	189.75
250.532	195.75
250.765	214.75
250.998	214.75
251.231	236.75
251.465	213.75
251.698	213.75
251.931	207.75
252.164	196.75
252.397	220.75
252.63	211.75
252.863	213.75
253.096	226.75
253.329	246.75
253.562	233.75
253.795	215.75
254.028	222.75
254.261	226.75
254.494	241.75
254.727	260.75
254.96	277.75
255.193	257.75
255.426	237.75
255.659	243.75
255.892	253.75
256.124	230.75
256.357	254.75
256.59	234.75
256.823	231.75
257.056	216.75
257.289	221.75
257.521	220.75
257.754	230.75
257.987	236.75
258.22	224.75
258.452	221.75
258.685	229.75
258.918	226.75
259.151	228.75
259.383	235.75
259.616	239.75
259.849	230.75
260.081	252.75
260.314	246.75
260.547	273.75
260.779	257.75
261.012	245.75
261.244	239.75
261.477	252.75
261.71	245.75
261.942	238.75
262.175	246.75
262.407	251.75
262.64	232.75
262.872	218.75
263.105	231.75
263.337	226.75
263.57	253.75
263.802	246.75
264.035	257.75
264.267	237.75
264.499	245.75
264.732	246.75
264.964	237.75
265.197	226.75
265.429	249.75
265.661	254.75
265.894	254.75
266.126	253.75
266.358	216.75
266.591	258.75
266.823	256.75
267.055	253.75
267.287	271.75
267.52	244.75
267.752	254.75
267.984	261.75
268.216	249.75
268.448	268.75
268.681	257.75
268.913	249.75
269.145	273.75
269.377	279.75
269.609	283.75
269.841	284.75
270.073	295.75
270.306	291.75
270.538	340.75
270.77	329.75
271.002	331.75
271.234	323.75
271.466	331.75
271.698	344.75
271.93	337.75
272.162	307.75
272.394	330.75
272.626	316.75
272.858	316.75
273.09	305.75
273.322	297.75
273.553	290.75
273.785	264.75
274.017	264.75
274.249	307.75
274.481	279.75
274.713	289.75
274.945	298.75
275.176	306.75
275.408	302.75
275.64	308.75
275.872	309.75
276.104	308.75
276.335	279.75
276.567	305.75
276.799	330.75
277.031	332.75
277.262	343.75
277.494	355.75
277.726	326.75
277.957	334.75
278.189	309.75
278.421	316.75
278.652	314.75
278.884	307.75
279.115	330.75
279.347	309.75
279.579	300.75
279.81	318.75
280.042	313.75
280.273	309.75
280.505	329.75
280.736	321.75
280.968	318.75
281.199	327.75
281.431	324.75
281.662	333.75
281.894	332.75
282.125	310.75
282.356	321.75
282.588	332.75
282.819	355.75
283.051	325.75
283.282	335.75
283.513	338.75
283.745	320.75
283.976	331.75
284.207	342.75
284.439	329.75
284.67	343.75
284.901	336.75
285.132	330.75
285.364	343.75
285.595	323.75
285.826	339.75
286.057	334.75
286.288	328.75
286.52	359.75
286.751	351.75
286.982	359.75
287.213	358.75
287.444	361.75
287.675	345.75
287.906	347.75
288.138	354.75
288.369	363.75
288.6	360.75
288.831	341.75
289.062	330.75
289.293	353.75
289.524	341.75
289.755	371.75
289.986	340.75
290.217	355.75
290.448	364.75
290.679	372.75
290.91	353.75
291.141	343.75
291.371	359.75
291.602	365.75
291.833	363.75
292.064	354.75
292.295	334.75
292.526	365.75
292.757	355.75
292.987	356.75
293.218	369.75
293.449	353.75
293.68	361.75
293.91	372.75
294.141	377.75
294.372	356.75
294.603	356.75
294.833	359.75
295.064	345.75
295.295	351.75
295.525	363.75
295.756	361.75
295.987	372.75
296.217	374.75
296.448	405.75
296.679	395.75
296.909	383.75
297.14	380.75
297.37	377.75
297.601	376.75
297.831	371.75
298.062	389.75
298.292	380.75
298.523	372.75
298.753	373.75
298.984	392.75
299.214	392.75
299.445	365.75
299.675	397.75
299.905	386.75
300.136	379.75
300.366	394.75
300.597	384.75
300.827	382.75
301.057	403.75
301.288	419.75
301.518	404.75
301.748	418.75
301.979	408.75
302.209	422.75
302.439	423.75
302.669	396.75
302.9	380.75
303.13	398.75
303.36	406.75
303.59	420.75
303.82	412.75
304.051	428.75
304.281	409.75
304.511	411.75
304.741	413.75
304.971	401.75
305.201	414.75
305.431	397.75
305.661	410.75
305.891	426.75
306.121	413.75
306.352	408.75
306.582	406.75
306.812	393.75
307.042	426.75
307.272	401.75
307.502	385.75
307.731	408.75
307.961	415.75
308.191	403.75
308.421	392.75
308.651	417.75
308.881	403.75
309.111	422.75
309.341	406.75
309.571	408.75
309.8	405.75
310.03	435.75
310.26	443.75
310.49	421.75
310.72	427.75
310.949	447.75
311.179	459.75
311.409	437.75
311.639	430.75
311.868	458.75
312.098	449.75
312.328	467.75
312.557	430.75
312.787	470.75
313.017	473.75
313.246	445.75
313.476	447.75
313.706	454.75
313.935	462.75
314.165	448.75
314.394	449.75
314.624	456.75
314.853	461.75
315.083	460.75
315.312	452.75
315.542	441.75
315.771	446.75
316.001	457.75
316.23	453.75
316.46	443.75
316.689	443.75
316.919	449.75
317.148	453.75
317.377	471.75
317.607	450.75
317.836	447.75
318.065	449.75
318.295	437.75
318.524	466.75
318.753	430.75
318.983	471.75
319.212	444.75
319.441	443.75
319.67	463.75
319.9	440.75
320.129	460.75
320.358	462.75
320.587	446.75
320.816	444.75
321.046	483.75
321.275	474.75
321.504	465.75
321.733	466.75
321.962	486.75
322.191	477.75
322.42	476.75
322.649	476.75
322.878	483.75
323.108	485.75
323.337	507.75
323.566	510.75
323.795	526.75
324.024	574.75
324.253	643.75
324.482	795.75
324.71	1144.75
324.939	1626.75
325.168	1436.75
325.397	797.75
325.626	613.75
325.855	556.75
326.084	553.75
326.313	536.75
326.542	526.75
326.77	569.75
326.999	610.75
327.228	789.75
327.457	1061.75
327.686	1269.75
327.914	906.75
328.143	647.75
328.372	618.75
328.6	596.75
328.829	569.75
329.058	569.75
329.287	584.75
329.515	550.75
329.744	559.75
329.972	541.75
330.201	583.75
330.43	585.75
330.658	597.75
330.887	617.75
331.115	609.75
331.344	568.75
331.572	542.75
331.801	559.75
332.03	573.75
332.258	569.75
332.486	564.75
332.715	562.75
332.943	599.75
333.172	591.75
333.4	606.75
333.629	610.75
333.857	639.75
334.085	639.75
334.314	642.75
334.542	653.75
334.771	666.75
334.999	606.75
335.227	610.75
335.455	561.75
335.684	587.75
335.912	588.75
336.14	571.75
336.369	586.75
336.597	553.75
336.825	547.75
337.053	566.75
337.281	578.75
337.51	537.75
337.738	569.75
337.966	563.75
338.194	533.75
338.422	558.75
338.65	537.75
338.878	528.75
339.106	529.75
339.334	542.75
339.562	542.75
339.79	542.75
340.018	536.75
340.246	523.75
340.474	559.75
340.702	537.75
340.93	509.75
341.158	507.75
341.386	524.75
341.614	526.75
341.842	531.75
342.07	550.75
342.298	520.75
342.526	516.75
342.754	493.75
342.981	510.75
343.209	513.75
343.437	511.75
343.665	553.75
343.893	565.75
344.12	584.75
344.348	576.75
344.576	554.75
344.804	553.75
345.031	544.75
345.259	562.75
345.487	529.75
345.714	520.75
345.942	513.75
346.17	522.75
346.397	504.75
346.625	509.75
346.853	501.75
347.08	488.75
347.308	520.75
347.535	518.75
347.763	515.75
347.99	508.75
348.218	504.75
348.445	523.75
348.673	513.75
348.9	506.75
349.128	487.75
349.355	488.75
349.583	477.75
349.81	488.75
350.037	471.75
350.265	490.75
350.492	513.75
350.72	493.75
350.947	509.75
351.174	500.75
351.402	514.75
351.629	501.75
351.856	497.75
352.083	513.75
352.311	504.75
352.538	509.75
352.765	522.75
352.992	502.75
353.22	511.75
353.447	494.75
353.674	491.75
353.901	472.75
354.128	489.75
354.355	492.75
354.583	476.75
354.81	483.75
355.037	475.75
355.264	482.75
355.491	479.75
355.718	469.75
355.945	462.75
356.172	484.75
356.399	460.75
356.626	473.75
356.853	487.75
357.08	490.75
357.307	485.75
357.534	469.75
357.761	483.75
357.988	480.75
358.215	480.75
358.441	471.75
358.668	491.75
358.895	500.75
359.122	479.75
359.349	488.75
359.576	511.75
359.802	511.75
360.029	526.75
360.256	526.75
360.483	503.75
360.709	489.75
360.936	513.75
361.163	486.75
361.39	489.75
361.616	507.75
361.843	503.75
362.07	466.75
362.296	502.75
362.523	486.75
362.749	505.75
362.976	472.75
363.203	496.75
363.429	483.75
363.656	485.75
363.882	477.75
364.109	503.75
364.335	498.75
364.562	482.75
364.788	485.75
365.015	483.75
365.241	478.75
365.468	508.75
365.694	508.75
365.92	499.75
366.147	483.75
366.373	480.75
366.599	485.75
366.826	469.75
367.052	462.75
367.278	483.75
367.505	490.75
367.731	502.75
367.957	474.75
368.184	503.75
368.41	525.75
368.636	498.75
368.862	516.75
369.089	500.75
369.315	482.75
369.541	509.75
369.767	506.75
369.993	493.75
370.219	499.75
370.445	497.75
370.672	505.75
370.898	508.75
371.124	486.75
371.35	485.75
371.576	492.75
371.802	501.75
372.028	524.75
372.254	526.75
372.48	516.75
372.706	519.75
372.932	527.75
373.158	540.75
373.384	530.75
373.61	517.75
373.835	524.75
374.061	528.75
374.287	508.75
374.513	532.75
374.739	541.75
374.965	551.75
375.191	550.75
375.416	548.75
375.642	536.75
375.868	530.75
376.094	514.75
376.319	521.75
376.545	510.75
376.771	497.75
376.997	525.75
377.222	503.75
377.448	524.75
377.674	499.75
377.899	487.75
378.125	508.75
378.35	509.75
378.576	513.75
378.802	501.75
379.027	495.75
379.253	517.75
379.478	517.75
379.704	527.75
379.929	488.75
380.155	484.75
380.38	522.75
380.606	505.75
380.831	493.75
381.057	520.75
381.282	513.75
381.507	513.75
381.733	520.75
381.958	505.75
382.184	532.75
382.409	544.75
382.634	539.75
382.86	523.75
383.085	577.75
383.31	531.75
383.535	547.75
383.761	548.75
383.986	531.75
384.211	561.75
384.436	577.75
384.662	561.75
384.887	591.75
385.112	571.75
385.337	592.75
385.562	612.75
385.787	576.75
386.013	602.75
386.238	611.75
386.463	606.75
386.688	586.75
386.913	574.75
387.138	569.75
387.363	586.75
387.588	581.75
387.813	594.75
388.038	570.75
388.263	586.75
388.488	586.75
388.713	577.75
388.938	573.75
389.163	602.75
389.387	590.75
389.612	572.75
389.837	590.75
390.062	591.75
390.287	575.75
390.512	583.75
390.736	607.75
390.961	600.75
391.186	586.75
391.411	575.75
391.636	609.75
391.86	633.75
392.085	641.75
392.31	664.75
392.534	652.75
392.759	645.75
392.984	627.75
393.208	612.75
393.433	625.75
393.658	609.75
393.882	607.75
394.107	621.75
394.331	612.75
394.556	608.75
394.78	585.75
395.005	622.75
395.229	604.75
395.454	630.75
395.678	653.75
395.903	651.75
396.127	641.75
396.352	643.75
396.576	610.75
396.801	639.75
397.025	646.75
397.249	633.75
397.474	657.75
397.698	653.75
397.922	666.75
398.147	659.75
398.371	674.75
398.595	678.75
398.82	694.75
399.044	716.75
399.268	759.75
399.492	846.75
399.717	922.75
399.941	947.75
400.165	917.75
400.389	865.75
400.613	801.75
400.837	770.75
401.062	737.75
401.286	723.75
401.51	697.75
401.734	715.75
401.958	698.75
402.182	700.75
402.406	710.75
402.63	715.75
402.854	741.75
403.078	724.75
403.302	748.75
403.526	770.75
403.75	767.75
403.974	782.75
404.198	770.75
404.422	776.75
404.645	796.75
404.869	771.75
405.093	783.75
405.317	836.75
405.541	831.75
405.765	803.75
405.988	762.75
406.212	793.75
406.436	782.75
406.66	834.75
406.883	797.75
407.107	829.75
407.331	883.75
407.555	954.75
407.778	942.75
408.002	894.75
408.226	857.75
408.449	845.75
408.673	822.75
408.896	812.75
409.12	853.75
409.344	849.75
409.567	772.75
409.791	757.75
410.014	758.75
410.238	749.75
410.461	739.75
410.685	717.75
410.908	738.75
411.132	739.75
411.355	788.75
411.578	748.75
411.802	724.75
412.025	737.75
412.249	742.75
412.472	751.75
412.695	788.75
412.919	745.75
413.142	750.75
413.365	707.75
413.589	710.75
413.812	727.75
414.035	675.75
414.258	700.75
414.482	681.75
414.705	706.75
414.928	702.75
415.151	710.75
415.374	711.75
415.597	709.75
415.821	707.75
416.044	693.75
416.267	695.75
416.49	686.75
416.713	668.75
416.936	688.75
417.159	699.75
417.382	697.75
417.605	693.75
417.828	695.75
418.051	716.75
418.274	725.75
418.497	676.75
418.72	732.75
418.943	730.75
419.166	726.75
419.389	777.75
419.611	777.75
419.834	782.75
420.057	748.75
420.28	750.75
420.503	707.75
420.726	714.75
420.948	724.75
421.171	746.75
421.394	769.75
421.617	727.75
421.839	705.75
422.062	707.75
422.285	719.75
422.507	775.75
422.73	809.75
422.953	831.75
423.175	759.75
423.398	760.75
423.621	755.75
423.843	782.75
424.066	790.75
424.288	757.75
424.511	759.75
424.733	811.75
424.956	858.75
425.178	819.75
425.401	843.75
425.623	856.75
425.846	773.75
426.068	724.75
426.291	731.75
426.513	717.75
426.735	719.75
426.958	706.75
427.18	810.75
427.402	912.75
427.625	965.75
427.847	852.75
428.069	775.75
428.292	692.75
428.514	671.75
428.736	654.75
428.958	655.75
429.181	648.75
429.403	632.75
429.625	648.75
429.847	691.75
430.069	721.75
430.292	758.75
430.514	661.75
430.736	642.75
430.958	657.75
431.18	655.75
431.402	655.75
431.624	644.75
431.846	647.75
432.068	653.75
432.29	665.75
432.512	641.75
432.734	638.75
432.956	657.75
433.178	637.75
433.4	651.75
433.622	636.75
433.844	631.75
434.066	649.75
434.287	663.75
434.509	666.75
434.731	693.75
434.953	675.75
435.175	721.75
435.397	739.75
435.618	733.75
435.84	740.75
436.062	813.75
436.284	828.75
436.505	725.75
436.727	669.75
436.949	654.75
437.17	671.75
437.392	655.75
437.614	666.75
437.835	680.75
438.057	750.75
438.278	813.75
438.5	814.75
438.721	870.75
438.943	860.75
439.165	738.75
439.386	691.75
439.608	685.75
439.829	677.75
440.05	691.75
440.272	733.75
440.493	717.75
440.715	687.75
440.936	693.75
441.158	669.75
441.379	700.75
441.6	698.75
441.822	763.75
442.043	757.75
442.264	791.75
442.486	806.75
442.707	772.75
442.928	748.75
443.149	745.75
443.371	758.75
443.592	779.75
443.813	867.75
444.034	912.75
444.255	819.75
444.476	767.75
444.698	778.75
444.919	788.75
445.14	915.75
445.361	840.75
445.582	770.75
445.803	821.75
446.024	874.75
446.245	854.75
446.466	821.75
446.687	730.75
446.908	689.75
447.129	659.75
447.35	646.75
447.571	647.75
447.792	665.75
448.013	646.75
448.234	646.75
448.455	692.75
448.675	765.75
448.896	843.75
449.117	764.75
449.338	717.75
449.559	807.75
449.779	909.75
450	729.75
450.221	648.75
450.442	627.75
450.662	623.75
450.883	607.75
451.104	622.75
451.324	636.75
451.545	611.75
451.766	617.75
451.986	622.75
452.207	590.75
452.428	591.75
452.648	590.75
452.869	573.75
453.089	612.75
453.31	621.75
453.53	596.75
453.751	575.75
453.971	582.75
454.192	588.75
454.412	571.75
454.633	571.75
454.853	571.75
455.073	567.75
455.294	598.75
455.514	638.75
455.734	620.75
455.955	571.75
456.175	564.75
456.395	540.75
456.616	540.75
456.836	543.75
457.056	560.75
457.276	562.75
457.497	564.75
457.717	563.75
457.937	566.75
458.157	595.75
458.377	577.75
458.598	607.75
458.818	655.75
459.038	699.75
459.258	729.75
459.478	691.75
459.698	665.75
459.918	682.75
460.138	674.75
460.358	701.75
460.578	701.75
460.798	693.75
461.018	718.75
461.238	724.75
461.458	708.75
461.678	715.75
461.898	730.75
462.118	722.75
462.338	761.75
462.558	771.75
462.777	791.75
462.997	825.75
463.217	874.75
463.437	843.75
463.657	814.75
463.876	815.75
464.096	788.75
464.316	785.75
464.536	791.75
464.755	773.75
464.975	790.75
465.195	772.75
465.414	791.75
465.634	703.75
465.854	654.75
466.073	651.75
466.293	650.75
466.512	633.75
466.732	633.75
466.951	621.75
467.171	637.75
467.391	622.75
467.61	625.75
467.829	633.75
468.049	643.75
468.268	636.75
468.488	606.75
468.707	602.75
468.927	612.75
469.146	597.75
469.365	611.75
469.585	604.75
469.804	635.75
470.023	621.75
470.243	618.75
470.462	624.75
470.681	652.75
470.901	649.75
471.12	651.75
471.339	620.75
471.558	629.75
471.777	623.75
471.997	634.75
472.216	615.75
472.435	656.75
472.654	593.75
472.873	609.75
473.092	625.75
473.311	605.75
473.53	601.75
473.749	608.75
473.968	622.75
474.187	690.75
474.406	729.75
474.625	639.75
474.844	610.75
475.063	603.75
475.282	609.75
475.501	613.75
475.72	610.75
475.939	625.75
476.158	635.75
476.377	629.75
476.596	655.75
476.814	617.75
477.033	639.75
477.252	641.75
477.471	669.75
477.69	668.75
477.908	692.75
478.127	687.75
478.346	686.75
478.564	693.75
478.783	698.75
479.002	745.75
479.22	726.75
479.439	754.75
479.658	745.75
479.876	777.75
480.095	764.75
480.313	794.75
480.532	803.75
480.751	806.75
480.969	795.75
481.188	825.75
481.406	834.75
481.624	771.75
481.843	738.75
482.061	718.75
482.28	730.75
482.498	717.75
482.717	710.75
482.935	700.75
483.153	684.75
483.372	679.75
483.59	707.75
483.808	722.75
484.027	690.75
484.245	705.75
484.463	721.75
484.681	746.75
484.9	743.75
485.118	734.75
485.336	766.75
485.554	742.75
485.772	758.75
485.99	744.75
486.209	760.75
486.427	736.75
486.645	740.75
486.863	758.75
487.081	754.75
487.299	749.75
487.517	756.75
487.735	773.75
487.953	734.75
488.171	725.75
488.389	754.75
488.607	713.75
488.825	779.75
489.043	733.75
489.261	742.75
489.479	793.75
489.696	789.75
489.914	787.75
490.132	793.75
490.35	782.75
490.568	780.75
490.786	818.75
491.003	796.75
491.221	797.75
491.439	815.75
491.657	799.75
491.874	843.75
492.092	809.75
492.31	875.75
492.527	829.75
492.745	857.75
492.963	857.75
493.18	876.75
493.398	851.75
493.615	876.75
493.833	879.75
494.05	870.75
494.268	895.75
494.485	860.75
494.703	866.75
494.92	886.75
495.138	893.75
495.355	891.75
495.573	868.75
495.79	885.75
496.008	897.75
496.225	889.75
496.442	873.75
496.66	934.75
496.877	905.75
497.094	908.75
497.312	931.75
497.529	937.75
497.746	975.75
497.963	950.75
498.181	1047.75
498.398	1041.75
498.615	1057.75
498.832	1108.75
499.049	1179.75
499.267	1221.75
499.484	1341.75
499.701	1410.75
499.918	1479.75
500.135	1629.75
500.352	1733.75
500.569	1814.75
500.786	1797.75
501.003	1732.75
501.22	1621.75
501.437	1489.75
501.654	1396.75
