Data from 1963.PennyLincolnUp.Lamp.En5.5.200Scan.071719.P1._HRD10591_13-57-17-062.txt Node
Date: Thu Jul 18 13:57:17 EDT 2019
User: cochatt
Spectrometer: HR+D1059
Trigger mode: 1
Integration Time (sec): 1.000000E-1
Scans to average: 1
Electric dark correction enabled: true
Nonlinearity correction enabled: false
Boxcar width: 0
XAxis mode: Wavelengths
Number of Pixels in Spectrum: 2048
>>>>>Begin Spectral Data<<<<<
223.165	-13.94
223.4	-13.94
223.635	-13.94
223.869	-11.94
224.104	-26.94
224.338	-13.94
224.573	-19.94
224.808	-6.94
225.042	-11.94
225.277	3.06
225.511	5.06
225.746	2.06
225.98	9.06
226.215	-7.94
226.449	14.06
226.683	30.06
226.918	26.06
227.152	24.06
227.387	24.06
227.621	46.06
227.856	39.06
228.09	52.06
228.324	59.06
228.559	57.06
228.793	57.06
229.027	88.06
229.262	92.06
229.496	98.06
229.73	101.06
229.964	134.06
230.199	115.06
230.433	108.06
230.667	118.06
230.901	105.06
231.136	113.06
231.37	114.06
231.604	120.06
231.838	107.06
232.072	108.06
232.306	114.06
232.541	121.06
232.775	115.06
233.009	120.06
233.243	116.06
233.477	111.06
233.711	109.06
233.945	114.06
234.179	118.06
234.413	116.06
234.647	126.06
234.881	110.06
235.115	119.06
235.349	109.06
235.583	129.06
235.817	108.06
236.051	132.06
236.285	132.06
236.519	137.06
236.753	132.06
236.987	129.06
237.221	148.06
237.455	172.06
237.689	146.06
237.922	131.06
238.156	124.06
238.39	121.06
238.624	116.06
238.858	134.06
239.091	126.06
239.325	131.06
239.559	121.06
239.793	129.06
240.027	135.06
240.26	142.06
240.494	147.06
240.728	143.06
240.961	139.06
241.195	141.06
241.429	131.06
241.662	127.06
241.896	151.06
242.13	143.06
242.363	129.06
242.597	131.06
242.83	136.06
243.064	151.06
243.298	140.06
243.531	138.06
243.765	159.06
243.998	135.06
244.232	150.06
244.465	141.06
244.699	153.06
244.932	171.06
245.166	157.06
245.399	166.06
245.633	157.06
245.866	157.06
246.099	167.06
246.333	151.06
246.566	162.06
246.8	158.06
247.033	162.06
247.266	167.06
247.5	156.06
247.733	169.06
247.966	169.06
248.2	172.06
248.433	169.06
248.666	180.06
248.899	173.06
249.133	181.06
249.366	186.06
249.599	185.06
249.832	174.06
250.066	188.06
250.299	171.06
250.532	193.06
250.765	199.06
250.998	198.06
251.231	218.06
251.465	212.06
251.698	202.06
251.931	203.06
252.164	206.06
252.397	195.06
252.63	211.06
252.863	210.06
253.096	212.06
253.329	204.06
253.562	219.06
253.795	210.06
254.028	211.06
254.261	211.06
254.494	205.06
254.727	235.06
254.96	230.06
255.193	221.06
255.426	220.06
255.659	217.06
255.892	228.06
256.124	234.06
256.357	233.06
256.59	230.06
256.823	220.06
257.056	226.06
257.289	203.06
257.521	207.06
257.754	208.06
257.987	219.06
258.22	221.06
258.452	209.06
258.685	217.06
258.918	214.06
259.151	233.06
259.383	203.06
259.616	228.06
259.849	212.06
260.081	240.06
260.314	259.06
260.547	238.06
260.779	235.06
261.012	228.06
261.244	222.06
261.477	226.06
261.71	234.06
261.942	233.06
262.175	236.06
262.407	230.06
262.64	226.06
262.872	214.06
263.105	228.06
263.337	226.06
263.57	237.06
263.802	229.06
264.035	228.06
264.267	229.06
264.499	216.06
264.732	225.06
264.964	234.06
265.197	232.06
265.429	224.06
265.661	238.06
265.894	240.06
266.126	225.06
266.358	239.06
266.591	243.06
266.823	253.06
267.055	245.06
267.287	249.06
267.52	234.06
267.752	244.06
267.984	240.06
268.216	236.06
268.448	259.06
268.681	251.06
268.913	262.06
269.145	275.06
269.377	270.06
269.609	277.06
269.841	271.06
270.073	262.06
270.306	298.06
270.538	286.06
270.77	303.06
271.002	290.06
271.234	263.06
271.466	278.06
271.698	291.06
271.93	297.06
272.162	309.06
272.394	309.06
272.626	309.06
272.858	287.06
273.09	279.06
273.322	278.06
273.553	289.06
273.785	279.06
274.017	275.06
274.249	281.06
274.481	287.06
274.713	267.06
274.945	293.06
275.176	269.06
275.408	283.06
275.64	284.06
275.872	284.06
276.104	277.06
276.335	291.06
276.567	292.06
276.799	287.06
277.031	305.06
277.262	278.06
277.494	322.06
277.726	297.06
277.957	290.06
278.189	308.06
278.421	300.06
278.652	300.06
278.884	293.06
279.115	293.06
279.347	327.06
279.579	296.06
279.81	296.06
280.042	294.06
280.273	315.06
280.505	305.06
280.736	296.06
280.968	293.06
281.199	300.06
281.431	305.06
281.662	291.06
281.894	322.06
282.125	311.06
282.356	308.06
282.588	308.06
282.819	326.06
283.051	318.06
283.282	297.06
283.513	307.06
283.745	317.06
283.976	314.06
284.207	334.06
284.439	332.06
284.67	319.06
284.901	325.06
285.132	347.06
285.364	320.06
285.595	344.06
285.826	334.06
286.057	332.06
286.288	338.06
286.52	317.06
286.751	329.06
286.982	328.06
287.213	329.06
287.444	329.06
287.675	318.06
287.906	325.06
288.138	334.06
288.369	334.06
288.6	326.06
288.831	350.06
289.062	352.06
289.293	318.06
289.524	344.06
289.755	330.06
289.986	346.06
290.217	350.06
290.448	344.06
290.679	341.06
290.91	341.06
291.141	345.06
291.371	349.06
291.602	344.06
291.833	337.06
292.064	349.06
292.295	342.06
292.526	351.06
292.757	325.06
292.987	346.06
293.218	350.06
293.449	350.06
293.68	330.06
293.91	356.06
294.141	352.06
294.372	349.06
294.603	336.06
294.833	344.06
295.064	367.06
295.295	356.06
295.525	356.06
295.756	334.06
295.987	326.06
296.217	354.06
296.448	378.06
296.679	337.06
296.909	346.06
297.14	355.06
297.37	350.06
297.601	376.06
297.831	353.06
298.062	357.06
298.292	373.06
298.523	349.06
298.753	366.06
298.984	367.06
299.214	355.06
299.445	354.06
299.675	377.06
299.905	359.06
300.136	361.06
300.366	385.06
300.597	351.06
300.827	381.06
301.057	381.06
301.288	378.06
301.518	394.06
301.748	390.06
301.979	401.06
302.209	391.06
302.439	398.06
302.669	389.06
302.9	383.06
303.13	386.06
303.36	371.06
303.59	381.06
303.82	384.06
304.051	386.06
304.281	400.06
304.511	380.06
304.741	376.06
304.971	407.06
305.201	362.06
305.431	372.06
305.661	372.06
305.891	379.06
306.121	400.06
306.352	377.06
306.582	378.06
306.812	382.06
307.042	379.06
307.272	382.06
307.502	392.06
307.731	378.06
307.961	398.06
308.191	382.06
308.421	382.06
308.651	401.06
308.881	395.06
309.111	402.06
309.341	381.06
309.571	399.06
309.8	389.06
310.03	392.06
310.26	380.06
310.49	399.06
310.72	426.06
310.949	407.06
311.179	396.06
311.409	428.06
311.639	426.06
311.868	398.06
312.098	407.06
312.328	409.06
312.557	434.06
312.787	425.06
313.017	430.06
313.246	413.06
313.476	426.06
313.706	424.06
313.935	406.06
314.165	412.06
314.394	435.06
314.624	423.06
314.853	409.06
315.083	413.06
315.312	422.06
315.542	420.06
315.771	417.06
316.001	422.06
316.23	440.06
316.46	431.06
316.689	428.06
316.919	424.06
317.148	415.06
317.377	414.06
317.607	423.06
317.836	430.06
318.065	420.06
318.295	433.06
318.524	443.06
318.753	416.06
318.983	414.06
319.212	431.06
319.441	430.06
319.67	420.06
319.9	422.06
320.129	420.06
320.358	435.06
320.587	423.06
320.816	427.06
321.046	433.06
321.275	430.06
321.504	425.06
321.733	425.06
321.962	443.06
322.191	449.06
322.42	438.06
322.649	407.06
322.878	457.06
323.108	479.06
323.337	478.06
323.566	476.06
323.795	466.06
324.024	481.06
324.253	527.06
324.482	620.06
324.71	818.06
324.939	1132.06
325.168	1033.06
325.397	623.06
325.626	499.06
325.855	477.06
326.084	470.06
326.313	486.06
326.542	478.06
326.77	499.06
326.999	543.06
327.228	629.06
327.457	793.06
327.686	919.06
327.914	682.06
328.143	542.06
328.372	521.06
328.6	521.06
328.829	495.06
329.058	508.06
329.287	521.06
329.515	511.06
329.744	503.06
329.972	497.06
330.201	515.06
330.43	524.06
330.658	514.06
330.887	538.06
331.115	542.06
331.344	522.06
331.572	508.06
331.801	511.06
332.03	523.06
332.258	506.06
332.486	520.06
332.715	507.06
332.943	527.06
333.172	533.06
333.4	563.06
333.629	578.06
333.857	590.06
334.085	574.06
334.314	580.06
334.542	584.06
334.771	591.06
334.999	582.06
335.227	581.06
335.455	554.06
335.684	557.06
335.912	562.06
336.14	545.06
336.369	539.06
336.597	538.06
336.825	509.06
337.053	523.06
337.281	527.06
337.51	536.06
337.738	501.06
337.966	518.06
338.194	507.06
338.422	518.06
338.65	513.06
338.878	506.06
339.106	512.06
339.334	509.06
339.562	487.06
339.79	494.06
340.018	485.06
340.246	490.06
340.474	492.06
340.702	492.06
340.93	492.06
341.158	481.06
341.386	478.06
341.614	495.06
341.842	485.06
342.07	466.06
342.298	489.06
342.526	478.06
342.754	477.06
342.981	494.06
343.209	481.06
343.437	504.06
343.665	527.06
343.893	541.06
344.12	585.06
344.348	555.06
344.576	548.06
344.804	543.06
345.031	494.06
345.259	500.06
345.487	505.06
345.714	491.06
345.942	473.06
346.17	487.06
346.397	459.06
346.625	453.06
346.853	467.06
347.08	463.06
347.308	470.06
347.535	486.06
347.763	475.06
347.99	443.06
348.218	464.06
348.445	458.06
348.673	470.06
348.9	470.06
349.128	457.06
349.355	442.06
349.583	451.06
349.81	466.06
350.037	451.06
350.265	458.06
350.492	489.06
350.72	446.06
350.947	462.06
351.174	466.06
351.402	456.06
351.629	467.06
351.856	466.06
352.083	482.06
352.311	465.06
352.538	466.06
352.765	469.06
352.992	464.06
353.22	461.06
353.447	454.06
353.674	451.06
353.901	463.06
354.128	448.06
354.355	461.06
354.583	449.06
354.81	452.06
355.037	453.06
355.264	451.06
355.491	454.06
355.718	487.06
355.945	459.06
356.172	447.06
356.399	479.06
356.626	437.06
356.853	465.06
357.08	444.06
357.307	458.06
357.534	452.06
357.761	471.06
357.988	478.06
358.215	455.06
358.441	458.06
358.668	461.06
358.895	471.06
359.122	460.06
359.349	475.06
359.576	467.06
359.802	462.06
360.029	484.06
360.256	471.06
360.483	502.06
360.709	452.06
360.936	477.06
361.163	474.06
361.39	457.06
361.616	451.06
361.843	453.06
362.07	457.06
362.296	461.06
362.523	468.06
362.749	467.06
362.976	450.06
363.203	456.06
363.429	447.06
363.656	466.06
363.882	474.06
364.109	446.06
364.335	449.06
364.562	459.06
364.788	476.06
365.015	447.06
365.241	456.06
365.468	447.06
365.694	483.06
365.92	461.06
366.147	466.06
366.373	470.06
366.599	456.06
366.826	475.06
367.052	475.06
367.278	470.06
367.505	472.06
367.731	497.06
367.957	477.06
368.184	449.06
368.41	455.06
368.636	485.06
368.862	474.06
369.089	472.06
369.315	467.06
369.541	477.06
369.767	472.06
369.993	467.06
370.219	466.06
370.445	471.06
370.672	477.06
370.898	460.06
371.124	489.06
371.35	482.06
371.576	482.06
371.802	481.06
372.028	484.06
372.254	486.06
372.48	493.06
372.706	480.06
372.932	501.06
373.158	498.06
373.384	504.06
373.61	486.06
373.835	479.06
374.061	485.06
374.287	499.06
374.513	491.06
374.739	499.06
374.965	530.06
375.191	538.06
375.416	536.06
375.642	507.06
375.868	504.06
376.094	478.06
376.319	503.06
376.545	475.06
376.771	504.06
376.997	489.06
377.222	474.06
377.448	484.06
377.674	486.06
377.899	490.06
378.125	482.06
378.35	476.06
378.576	495.06
378.802	470.06
379.027	484.06
379.253	490.06
379.478	484.06
379.704	462.06
379.929	462.06
380.155	473.06
380.38	490.06
380.606	460.06
380.831	502.06
381.057	491.06
381.282	488.06
381.507	499.06
381.733	494.06
381.958	512.06
382.184	501.06
382.409	485.06
382.634	514.06
382.86	521.06
383.085	541.06
383.31	547.06
383.535	525.06
383.761	513.06
383.986	523.06
384.211	527.06
384.436	511.06
384.662	551.06
384.887	555.06
385.112	571.06
385.337	557.06
385.562	538.06
385.787	573.06
386.013	571.06
386.238	564.06
386.463	569.06
386.688	581.06
386.913	563.06
387.138	579.06
387.363	561.06
387.588	546.06
387.813	564.06
388.038	550.06
388.263	547.06
388.488	565.06
388.713	554.06
388.938	565.06
389.163	549.06
389.387	551.06
389.612	554.06
389.837	543.06
390.062	565.06
390.287	553.06
390.512	548.06
390.736	550.06
390.961	571.06
391.186	577.06
391.411	574.06
391.636	580.06
391.86	609.06
392.085	613.06
392.31	626.06
392.534	612.06
392.759	587.06
392.984	628.06
393.208	625.06
393.433	664.06
393.658	687.06
393.882	613.06
394.107	588.06
394.331	590.06
394.556	580.06
394.78	578.06
395.005	574.06
395.229	584.06
395.454	608.06
395.678	620.06
395.903	611.06
396.127	627.06
396.352	631.06
396.576	592.06
396.801	629.06
397.025	651.06
397.249	630.06
397.474	618.06
397.698	638.06
397.922	618.06
398.147	635.06
398.371	646.06
398.595	638.06
398.82	663.06
399.044	693.06
399.268	756.06
399.492	803.06
399.717	893.06
399.941	906.06
400.165	856.06
400.389	814.06
400.613	763.06
400.837	723.06
401.062	708.06
401.286	684.06
401.51	659.06
401.734	666.06
401.958	698.06
402.182	669.06
402.406	677.06
402.63	696.06
402.854	701.06
403.078	692.06
403.302	727.06
403.526	736.06
403.75	733.06
403.974	735.06
404.198	728.06
404.422	741.06
404.645	732.06
404.869	729.06
405.093	781.06
405.317	783.06
405.541	774.06
405.765	729.06
405.988	688.06
406.212	729.06
406.436	742.06
406.66	747.06
406.883	747.06
407.107	761.06
407.331	833.06
407.555	863.06
407.778	881.06
408.002	835.06
408.226	785.06
408.449	796.06
408.673	746.06
408.896	774.06
409.12	792.06
409.344	759.06
409.567	715.06
409.791	734.06
410.014	706.06
410.238	702.06
410.461	700.06
410.685	714.06
410.908	699.06
411.132	716.06
411.355	723.06
411.578	751.06
411.802	717.06
412.025	713.06
412.249	703.06
412.472	699.06
412.695	737.06
412.919	722.06
413.142	695.06
413.365	646.06
413.589	673.06
413.812	664.06
414.035	647.06
414.258	693.06
414.482	659.06
414.705	671.06
414.928	651.06
415.151	677.06
415.374	654.06
415.597	663.06
415.821	650.06
416.044	655.06
416.267	654.06
416.49	654.06
416.713	665.06
416.936	643.06
417.159	649.06
417.382	673.06
417.605	655.06
417.828	686.06
418.051	670.06
418.274	692.06
418.497	657.06
418.72	651.06
418.943	676.06
419.166	685.06
419.389	729.06
419.611	725.06
419.834	706.06
420.057	702.06
420.28	680.06
420.503	667.06
420.726	678.06
420.948	695.06
421.171	677.06
421.394	709.06
421.617	672.06
421.839	673.06
422.062	660.06
422.285	642.06
422.507	720.06
422.73	773.06
422.953	741.06
423.175	708.06
423.398	693.06
423.621	705.06
423.843	723.06
424.066	701.06
424.288	714.06
424.511	717.06
424.733	719.06
424.956	780.06
425.178	774.06
425.401	743.06
425.623	751.06
425.846	693.06
426.068	670.06
426.291	670.06
426.513	647.06
426.735	661.06
426.958	691.06
427.18	733.06
427.402	806.06
427.625	872.06
427.847	750.06
428.069	707.06
428.292	653.06
428.514	620.06
428.736	609.06
428.958	643.06
429.181	616.06
429.403	627.06
429.625	630.06
429.847	641.06
430.069	659.06
430.292	678.06
430.514	621.06
430.736	611.06
430.958	597.06
431.18	617.06
431.402	598.06
431.624	601.06
431.846	606.06
432.068	587.06
432.29	629.06
432.512	618.06
432.734	615.06
432.956	594.06
433.178	615.06
433.4	590.06
433.622	596.06
433.844	613.06
434.066	615.06
434.287	618.06
434.509	641.06
434.731	650.06
434.953	690.06
435.175	685.06
435.397	693.06
435.618	663.06
435.84	671.06
436.062	694.06
436.284	749.06
436.505	698.06
436.727	637.06
436.949	599.06
437.17	609.06
437.392	613.06
437.614	615.06
437.835	626.06
438.057	671.06
438.278	729.06
438.5	735.06
438.721	807.06
438.943	745.06
439.165	677.06
439.386	651.06
439.608	621.06
439.829	641.06
440.05	647.06
440.272	663.06
440.493	655.06
440.715	622.06
440.936	652.06
441.158	621.06
441.379	647.06
441.6	653.06
441.822	661.06
442.043	689.06
442.264	726.06
442.486	735.06
442.707	698.06
442.928	683.06
443.149	691.06
443.371	694.06
443.592	732.06
443.813	774.06
444.034	822.06
444.255	750.06
444.476	710.06
444.698	720.06
444.919	728.06
445.14	867.06
445.361	787.06
445.582	710.06
445.803	693.06
446.024	761.06
446.245	758.06
446.466	680.06
446.687	655.06
446.908	639.06
447.129	602.06
447.35	615.06
447.571	611.06
447.792	590.06
448.013	599.06
448.234	587.06
448.455	623.06
448.675	685.06
448.896	759.06
449.117	675.06
449.338	683.06
449.559	720.06
449.779	767.06
450	669.06
450.221	593.06
450.442	607.06
450.662	576.06
450.883	562.06
451.104	581.06
451.324	564.06
451.545	558.06
451.766	565.06
451.986	527.06
452.207	549.06
452.428	546.06
452.648	539.06
452.869	541.06
453.089	561.06
453.31	575.06
453.53	545.06
453.751	551.06
453.971	531.06
454.192	560.06
454.412	534.06
454.633	525.06
454.853	535.06
455.073	541.06
455.294	540.06
455.514	589.06
455.734	579.06
455.955	537.06
456.175	530.06
456.395	513.06
456.616	533.06
456.836	531.06
457.056	526.06
457.276	519.06
457.497	535.06
457.717	518.06
457.937	547.06
458.157	558.06
458.377	547.06
458.598	578.06
458.818	584.06
459.038	631.06
459.258	669.06
459.478	599.06
459.698	633.06
459.918	621.06
460.138	662.06
460.358	667.06
460.578	662.06
460.798	668.06
461.018	685.06
461.238	670.06
461.458	675.06
461.678	650.06
461.898	683.06
462.118	685.06
462.338	701.06
462.558	723.06
462.777	742.06
462.997	775.06
463.217	826.06
463.437	817.06
463.657	758.06
463.876	736.06
464.096	771.06
464.316	744.06
464.536	745.06
464.755	732.06
464.975	725.06
465.195	739.06
465.414	747.06
465.634	662.06
465.854	649.06
466.073	606.06
466.293	622.06
466.512	608.06
466.732	611.06
466.951	594.06
467.171	567.06
467.391	585.06
467.61	595.06
467.829	576.06
468.049	607.06
468.268	575.06
468.488	575.06
468.707	565.06
468.927	591.06
469.146	576.06
469.365	589.06
469.585	563.06
469.804	611.06
470.023	590.06
470.243	594.06
470.462	610.06
470.681	599.06
470.901	628.06
471.12	625.06
471.339	601.06
471.558	593.06
471.777	590.06
471.997	589.06
472.216	590.06
472.435	608.06
472.654	589.06
472.873	573.06
473.092	583.06
473.311	573.06
473.53	561.06
473.749	549.06
473.968	591.06
474.187	659.06
474.406	643.06
474.625	602.06
474.844	600.06
475.063	607.06
475.282	570.06
475.501	585.06
475.72	585.06
475.939	567.06
476.158	585.06
476.377	618.06
476.596	595.06
476.814	618.06
477.033	610.06
477.252	636.06
477.471	651.06
477.69	643.06
477.908	660.06
478.127	670.06
478.346	667.06
478.564	684.06
478.783	703.06
479.002	699.06
479.22	692.06
479.439	731.06
479.658	697.06
479.876	702.06
480.095	732.06
480.313	787.06
480.532	774.06
480.751	755.06
480.969	740.06
481.188	745.06
481.406	749.06
481.624	713.06
481.843	703.06
482.061	674.06
482.28	670.06
482.498	663.06
482.717	678.06
482.935	674.06
483.153	677.06
483.372	671.06
483.59	691.06
483.808	673.06
484.027	694.06
484.245	707.06
484.463	705.06
484.681	697.06
484.9	684.06
485.118	706.06
485.336	691.06
485.554	728.06
485.772	686.06
485.99	701.06
486.209	735.06
486.427	716.06
486.645	713.06
486.863	687.06
487.081	689.06
487.299	718.06
487.517	717.06
487.735	708.06
487.953	718.06
488.171	720.06
488.389	691.06
488.607	735.06
488.825	711.06
489.043	706.06
489.261	731.06
489.479	741.06
489.696	740.06
489.914	715.06
490.132	739.06
490.35	724.06
490.568	730.06
490.786	740.06
491.003	751.06
491.221	771.06
491.439	746.06
491.657	777.06
491.874	796.06
492.092	765.06
492.31	770.06
492.527	781.06
492.745	790.06
492.963	813.06
493.18	781.06
493.398	806.06
493.615	790.06
493.833	831.06
494.05	807.06
494.268	813.06
494.485	805.06
494.703	836.06
494.92	826.06
495.138	806.06
495.355	828.06
495.573	835.06
495.79	832.06
496.008	839.06
496.225	828.06
496.442	836.06
496.66	819.06
496.877	822.06
497.094	865.06
497.312	880.06
497.529	873.06
497.746	885.06
497.963	920.06
498.181	954.06
498.398	958.06
498.615	991.06
498.832	1042.06
499.049	1109.06
499.267	1161.06
499.484	1249.06
499.701	1324.06
499.918	1414.06
500.135	1565.06
500.352	1684.06
500.569	1741.06
500.786	1715.06
501.003	1647.06
501.22	1557.06
501.437	1415.06
501.654	1309.06
501.871	1228.06
