Data from 1963.PennyLincolnUp.Lamp.En5.5.200Scan.071719.P1._HRD10591_13-58-41-063.txt Node
Date: Thu Jul 18 13:58:41 EDT 2019
User: cochatt
Spectrometer: HR+D1059
Trigger mode: 1
Integration Time (sec): 1.000000E-1
Scans to average: 1
Electric dark correction enabled: true
Nonlinearity correction enabled: false
Boxcar width: 0
XAxis mode: Wavelengths
Number of Pixels in Spectrum: 2048
>>>>>Begin Spectral Data<<<<<
223.165	-11.12
223.4	-11.12
223.635	-11.12
223.869	-18.12
224.104	-21.12
224.338	-1.12
224.573	-8.12
224.808	-22.12
225.042	-8.12
225.277	1.88
225.511	-7.12
225.746	3.88
225.98	3.88
226.215	11.88
226.449	17.88
226.683	8.88
226.918	25.88
227.152	22.88
227.387	38.88
227.621	52.88
227.856	40.88
228.09	45.88
228.324	62.88
228.559	60.88
228.793	74.88
229.027	87.88
229.262	103.88
229.496	114.88
229.73	112.88
229.964	136.88
230.199	135.88
230.433	124.88
230.667	101.88
230.901	118.88
231.136	117.88
231.37	108.88
231.604	118.88
231.838	118.88
232.072	115.88
232.306	112.88
232.541	118.88
232.775	129.88
233.009	115.88
233.243	123.88
233.477	116.88
233.711	129.88
233.945	126.88
234.179	122.88
234.413	126.88
234.647	126.88
234.881	117.88
235.115	112.88
235.349	123.88
235.583	120.88
235.817	117.88
236.051	114.88
236.285	112.88
236.519	125.88
236.753	135.88
236.987	141.88
237.221	165.88
237.455	199.88
237.689	179.88
237.922	128.88
238.156	126.88
238.39	124.88
238.624	125.88
238.858	134.88
239.091	130.88
239.325	123.88
239.559	140.88
239.793	141.88
240.027	147.88
240.26	154.88
240.494	165.88
240.728	154.88
240.961	149.88
241.195	139.88
241.429	147.88
241.662	150.88
241.896	141.88
242.13	153.88
242.363	145.88
242.597	156.88
242.83	144.88
243.064	142.88
243.298	148.88
243.531	156.88
243.765	166.88
243.998	159.88
244.232	151.88
244.465	150.88
244.699	153.88
244.932	155.88
245.166	162.88
245.399	178.88
245.633	164.88
245.866	161.88
246.099	147.88
246.333	167.88
246.566	165.88
246.8	161.88
247.033	172.88
247.266	192.88
247.5	183.88
247.733	184.88
247.966	182.88
248.2	173.88
248.433	171.88
248.666	185.88
248.899	192.88
249.133	217.88
249.366	216.88
249.599	205.88
249.832	182.88
250.066	194.88
250.299	194.88
250.532	207.88
250.765	207.88
250.998	238.88
251.231	209.88
251.465	207.88
251.698	233.88
251.931	221.88
252.164	220.88
252.397	206.88
252.63	217.88
252.863	222.88
253.096	225.88
253.329	238.88
253.562	209.88
253.795	215.88
254.028	225.88
254.261	234.88
254.494	231.88
254.727	246.88
254.96	264.88
255.193	282.88
255.426	244.88
255.659	238.88
255.892	232.88
256.124	237.88
256.357	248.88
256.59	240.88
256.823	232.88
257.056	237.88
257.289	211.88
257.521	213.88
257.754	222.88
257.987	222.88
258.22	211.88
258.452	237.88
258.685	217.88
258.918	224.88
259.151	234.88
259.383	233.88
259.616	230.88
259.849	246.88
260.081	253.88
260.314	260.88
260.547	256.88
260.779	242.88
261.012	239.88
261.244	249.88
261.477	256.88
261.71	231.88
261.942	241.88
262.175	245.88
262.407	259.88
262.64	235.88
262.872	246.88
263.105	241.88
263.337	240.88
263.57	226.88
263.802	245.88
264.035	238.88
264.267	235.88
264.499	240.88
264.732	265.88
264.964	242.88
265.197	245.88
265.429	245.88
265.661	235.88
265.894	232.88
266.126	252.88
266.358	229.88
266.591	250.88
266.823	251.88
267.055	249.88
267.287	257.88
267.52	258.88
267.752	276.88
267.984	254.88
268.216	264.88
268.448	250.88
268.681	261.88
268.913	280.88
269.145	282.88
269.377	309.88
269.609	294.88
269.841	272.88
270.073	293.88
270.306	310.88
270.538	334.88
270.77	307.88
271.002	318.88
271.234	304.88
271.466	311.88
271.698	327.88
271.93	311.88
272.162	331.88
272.394	301.88
272.626	302.88
272.858	308.88
273.09	306.88
273.322	288.88
273.553	296.88
273.785	291.88
274.017	295.88
274.249	296.88
274.481	308.88
274.713	306.88
274.945	312.88
275.176	299.88
275.408	311.88
275.64	292.88
275.872	312.88
276.104	299.88
276.335	307.88
276.567	306.88
276.799	304.88
277.031	328.88
277.262	341.88
277.494	326.88
277.726	282.88
277.957	326.88
278.189	314.88
278.421	301.88
278.652	306.88
278.884	329.88
279.115	323.88
279.347	311.88
279.579	317.88
279.81	310.88
280.042	298.88
280.273	306.88
280.505	297.88
280.736	305.88
280.968	320.88
281.199	326.88
281.431	293.88
281.662	308.88
281.894	310.88
282.125	315.88
282.356	321.88
282.588	352.88
282.819	362.88
283.051	331.88
283.282	312.88
283.513	336.88
283.745	335.88
283.976	322.88
284.207	336.88
284.439	324.88
284.67	328.88
284.901	320.88
285.132	326.88
285.364	331.88
285.595	342.88
285.826	325.88
286.057	332.88
286.288	342.88
286.52	321.88
286.751	354.88
286.982	334.88
287.213	340.88
287.444	372.88
287.675	356.88
287.906	354.88
288.138	344.88
288.369	351.88
288.6	357.88
288.831	336.88
289.062	345.88
289.293	358.88
289.524	347.88
289.755	354.88
289.986	356.88
290.217	360.88
290.448	346.88
290.679	340.88
290.91	347.88
291.141	364.88
291.371	384.88
291.602	351.88
291.833	359.88
292.064	369.88
292.295	345.88
292.526	347.88
292.757	346.88
292.987	347.88
293.218	332.88
293.449	370.88
293.68	344.88
293.91	357.88
294.141	368.88
294.372	370.88
294.603	382.88
294.833	357.88
295.064	359.88
295.295	365.88
295.525	370.88
295.756	374.88
295.987	369.88
296.217	379.88
296.448	381.88
296.679	369.88
296.909	364.88
297.14	360.88
297.37	379.88
297.601	368.88
297.831	381.88
298.062	371.88
298.292	374.88
298.523	381.88
298.753	378.88
298.984	382.88
299.214	379.88
299.445	385.88
299.675	372.88
299.905	388.88
300.136	381.88
300.366	373.88
300.597	385.88
300.827	387.88
301.057	394.88
301.288	400.88
301.518	426.88
301.748	427.88
301.979	400.88
302.209	402.88
302.439	405.88
302.669	421.88
302.9	391.88
303.13	400.88
303.36	409.88
303.59	403.88
303.82	405.88
304.051	416.88
304.281	393.88
304.511	404.88
304.741	401.88
304.971	413.88
305.201	396.88
305.431	404.88
305.661	423.88
305.891	389.88
306.121	407.88
306.352	416.88
306.582	408.88
306.812	396.88
307.042	416.88
307.272	409.88
307.502	418.88
307.731	403.88
307.961	398.88
308.191	400.88
308.421	391.88
308.651	419.88
308.881	436.88
309.111	427.88
309.341	408.88
309.571	408.88
309.8	421.88
310.03	423.88
310.26	432.88
310.49	429.88
310.72	438.88
310.949	433.88
311.179	465.88
311.409	445.88
311.639	451.88
311.868	444.88
312.098	418.88
312.328	435.88
312.557	466.88
312.787	456.88
313.017	471.88
313.246	454.88
313.476	425.88
313.706	452.88
313.935	456.88
314.165	450.88
314.394	471.88
314.624	456.88
314.853	473.88
315.083	455.88
315.312	464.88
315.542	447.88
315.771	440.88
316.001	441.88
316.23	430.88
316.46	442.88
316.689	459.88
316.919	452.88
317.148	473.88
317.377	456.88
317.607	460.88
317.836	446.88
318.065	445.88
318.295	449.88
318.524	434.88
318.753	438.88
318.983	452.88
319.212	421.88
319.441	445.88
319.67	449.88
319.9	465.88
320.129	442.88
320.358	455.88
320.587	462.88
320.816	463.88
321.046	448.88
321.275	462.88
321.504	446.88
321.733	435.88
321.962	464.88
322.191	471.88
322.42	456.88
322.649	467.88
322.878	487.88
323.108	487.88
323.337	496.88
323.566	510.88
323.795	532.88
324.024	550.88
324.253	643.88
324.482	777.88
324.71	1096.88
324.939	1578.88
325.168	1360.88
325.397	782.88
325.626	596.88
325.855	560.88
326.084	539.88
326.313	514.88
326.542	519.88
326.77	555.88
326.999	617.88
327.228	753.88
327.457	1046.88
327.686	1269.88
327.914	867.88
328.143	644.88
328.372	594.88
328.6	573.88
328.829	571.88
329.058	576.88
329.287	574.88
329.515	566.88
329.744	526.88
329.972	525.88
330.201	564.88
330.43	591.88
330.658	596.88
330.887	586.88
331.115	623.88
331.344	584.88
331.572	552.88
331.801	564.88
332.03	570.88
332.258	567.88
332.486	539.88
332.715	555.88
332.943	569.88
333.172	586.88
333.4	607.88
333.629	630.88
333.857	611.88
334.085	633.88
334.314	619.88
334.542	648.88
334.771	661.88
334.999	610.88
335.227	614.88
335.455	624.88
335.684	594.88
335.912	578.88
336.14	562.88
336.369	551.88
336.597	561.88
336.825	557.88
337.053	561.88
337.281	560.88
337.51	570.88
337.738	556.88
337.966	552.88
338.194	540.88
338.422	541.88
338.65	548.88
338.878	534.88
339.106	529.88
339.334	561.88
339.562	531.88
339.79	537.88
340.018	497.88
340.246	510.88
340.474	510.88
340.702	533.88
340.93	520.88
341.158	516.88
341.386	530.88
341.614	526.88
341.842	514.88
342.07	517.88
342.298	498.88
342.526	514.88
342.754	513.88
342.981	513.88
343.209	521.88
343.437	534.88
343.665	534.88
343.893	576.88
344.12	578.88
344.348	585.88
344.576	561.88
344.804	522.88
345.031	556.88
345.259	537.88
345.487	534.88
345.714	511.88
345.942	500.88
346.17	516.88
346.397	485.88
346.625	507.88
346.853	506.88
347.08	480.88
347.308	508.88
347.535	520.88
347.763	494.88
347.99	492.88
348.218	507.88
348.445	485.88
348.673	508.88
348.9	496.88
349.128	497.88
349.355	491.88
349.583	506.88
349.81	478.88
350.037	482.88
350.265	465.88
350.492	472.88
350.72	497.88
350.947	502.88
351.174	493.88
351.402	505.88
351.629	484.88
351.856	498.88
352.083	499.88
352.311	492.88
352.538	484.88
352.765	484.88
352.992	480.88
353.22	485.88
353.447	490.88
353.674	482.88
353.901	478.88
354.128	471.88
354.355	491.88
354.583	485.88
354.81	478.88
355.037	485.88
355.264	480.88
355.491	491.88
355.718	471.88
355.945	502.88
356.172	500.88
356.399	487.88
356.626	470.88
356.853	480.88
357.08	477.88
357.307	477.88
357.534	492.88
357.761	485.88
357.988	478.88
358.215	485.88
358.441	507.88
358.668	475.88
358.895	475.88
359.122	471.88
359.349	477.88
359.576	486.88
359.802	507.88
360.029	512.88
360.256	542.88
360.483	521.88
360.709	497.88
360.936	465.88
361.163	477.88
361.39	497.88
361.616	486.88
361.843	493.88
362.07	498.88
362.296	508.88
362.523	523.88
362.749	476.88
362.976	487.88
363.203	493.88
363.429	478.88
363.656	479.88
363.882	490.88
364.109	493.88
364.335	491.88
364.562	480.88
364.788	477.88
365.015	487.88
365.241	485.88
365.468	504.88
365.694	481.88
365.92	491.88
366.147	473.88
366.373	520.88
366.599	487.88
366.826	501.88
367.052	471.88
367.278	496.88
367.505	486.88
367.731	485.88
367.957	481.88
368.184	489.88
368.41	474.88
368.636	499.88
368.862	518.88
369.089	507.88
369.315	498.88
369.541	503.88
369.767	499.88
369.993	489.88
370.219	493.88
370.445	521.88
370.672	514.88
370.898	523.88
371.124	493.88
371.35	511.88
371.576	512.88
371.802	527.88
372.028	496.88
372.254	497.88
372.48	508.88
372.706	533.88
372.932	536.88
373.158	534.88
373.384	513.88
373.61	514.88
373.835	526.88
374.061	514.88
374.287	537.88
374.513	526.88
374.739	567.88
374.965	546.88
375.191	541.88
375.416	546.88
375.642	534.88
375.868	548.88
376.094	504.88
376.319	496.88
376.545	513.88
376.771	529.88
376.997	508.88
377.222	520.88
377.448	505.88
377.674	503.88
377.899	532.88
378.125	503.88
378.35	493.88
378.576	508.88
378.802	517.88
379.027	503.88
379.253	513.88
379.478	499.88
379.704	494.88
379.929	481.88
380.155	502.88
380.38	492.88
380.606	510.88
380.831	508.88
381.057	510.88
381.282	506.88
381.507	510.88
381.733	515.88
381.958	513.88
382.184	524.88
382.409	518.88
382.634	516.88
382.86	513.88
383.085	522.88
383.31	525.88
383.535	547.88
383.761	543.88
383.986	564.88
384.211	523.88
384.436	562.88
384.662	566.88
384.887	584.88
385.112	574.88
385.337	574.88
385.562	593.88
385.787	581.88
386.013	627.88
386.238	607.88
386.463	588.88
386.688	582.88
386.913	577.88
387.138	588.88
387.363	586.88
387.588	585.88
387.813	573.88
388.038	598.88
388.263	601.88
388.488	602.88
388.713	552.88
388.938	578.88
389.163	588.88
389.387	596.88
389.612	576.88
389.837	559.88
390.062	591.88
390.287	598.88
390.512	594.88
390.736	600.88
390.961	602.88
391.186	616.88
391.411	585.88
391.636	619.88
391.86	633.88
392.085	635.88
392.31	635.88
392.534	621.88
392.759	621.88
392.984	605.88
393.208	593.88
393.433	603.88
393.658	620.88
393.882	618.88
394.107	608.88
394.331	601.88
394.556	606.88
394.78	630.88
395.005	617.88
395.229	606.88
395.454	617.88
395.678	632.88
395.903	650.88
396.127	652.88
396.352	653.88
396.576	642.88
396.801	603.88
397.025	637.88
397.249	618.88
397.474	660.88
397.698	637.88
397.922	650.88
398.147	651.88
398.371	674.88
398.595	690.88
398.82	703.88
399.044	736.88
399.268	796.88
399.492	820.88
399.717	925.88
399.941	955.88
400.165	908.88
400.389	868.88
400.613	816.88
400.837	774.88
401.062	752.88
401.286	741.88
401.51	720.88
401.734	702.88
401.958	671.88
402.182	695.88
402.406	724.88
402.63	729.88
402.854	723.88
403.078	733.88
403.302	728.88
403.526	744.88
403.75	769.88
403.974	757.88
404.198	791.88
404.422	778.88
404.645	775.88
404.869	774.88
405.093	773.88
405.317	813.88
405.541	822.88
405.765	810.88
405.988	749.88
406.212	768.88
406.436	788.88
406.66	806.88
406.883	808.88
407.107	824.88
407.331	892.88
407.555	973.88
407.778	958.88
408.002	886.88
408.226	853.88
408.449	839.88
408.673	805.88
408.896	832.88
409.12	838.88
409.344	816.88
409.567	747.88
409.791	761.88
410.014	745.88
410.238	724.88
410.461	747.88
410.685	769.88
410.908	766.88
411.132	782.88
411.355	786.88
411.578	782.88
411.802	737.88
412.025	737.88
412.249	724.88
412.472	790.88
412.695	771.88
412.919	769.88
413.142	704.88
413.365	712.88
413.589	701.88
413.812	686.88
414.035	701.88
414.258	698.88
414.482	699.88
414.705	706.88
414.928	715.88
415.151	684.88
415.374	706.88
415.597	712.88
415.821	662.88
416.044	671.88
416.267	690.88
416.49	692.88
416.713	685.88
416.936	671.88
417.159	689.88
417.382	691.88
417.605	708.88
417.828	716.88
418.051	712.88
418.274	716.88
418.497	706.88
418.72	704.88
418.943	692.88
419.166	737.88
419.389	770.88
419.611	767.88
419.834	757.88
420.057	742.88
420.28	728.88
420.503	720.88
420.726	698.88
420.948	705.88
421.171	713.88
421.394	774.88
421.617	704.88
421.839	707.88
422.062	726.88
422.285	692.88
422.507	744.88
422.73	820.88
422.953	811.88
423.175	750.88
423.398	745.88
423.621	732.88
423.843	760.88
424.066	761.88
424.288	768.88
424.511	794.88
424.733	808.88
424.956	866.88
425.178	823.88
425.401	828.88
425.623	830.88
425.846	742.88
426.068	727.88
426.291	725.88
426.513	722.88
426.735	706.88
426.958	717.88
427.18	777.88
427.402	883.88
427.625	960.88
427.847	843.88
428.069	778.88
428.292	714.88
428.514	660.88
428.736	642.88
428.958	679.88
429.181	644.88
429.403	680.88
429.625	644.88
429.847	706.88
430.069	730.88
430.292	707.88
430.514	659.88
430.736	667.88
430.958	629.88
431.18	642.88
431.402	660.88
431.624	657.88
431.846	646.88
432.068	660.88
432.29	646.88
432.512	628.88
432.734	652.88
432.956	627.88
433.178	656.88
433.4	637.88
433.622	632.88
433.844	640.88
434.066	629.88
434.287	638.88
434.509	674.88
434.731	659.88
434.953	696.88
435.175	716.88
435.397	705.88
435.618	717.88
435.84	723.88
436.062	763.88
436.284	864.88
436.505	715.88
436.727	713.88
436.949	684.88
437.17	659.88
437.392	649.88
437.614	658.88
437.835	655.88
438.057	740.88
438.278	819.88
438.5	799.88
438.721	882.88
438.943	864.88
439.165	715.88
439.386	682.88
439.608	704.88
439.829	680.88
440.05	700.88
440.272	748.88
440.493	704.88
440.715	706.88
440.936	681.88
441.158	661.88
441.379	684.88
441.6	707.88
441.822	708.88
442.043	754.88
442.264	820.88
442.486	841.88
442.707	738.88
442.928	738.88
443.149	735.88
443.371	776.88
443.592	764.88
443.813	849.88
444.034	899.88
444.255	804.88
444.476	781.88
444.698	776.88
444.919	794.88
445.14	897.88
445.361	837.88
445.582	767.88
445.803	793.88
446.024	874.88
446.245	852.88
446.466	803.88
446.687	724.88
446.908	672.88
447.129	679.88
447.35	658.88
447.571	659.88
447.792	634.88
448.013	646.88
448.234	639.88
448.455	680.88
448.675	756.88
448.896	846.88
449.117	734.88
449.338	713.88
449.559	792.88
449.779	877.88
450	734.88
450.221	659.88
450.442	624.88
450.662	613.88
450.883	640.88
451.104	652.88
451.324	617.88
451.545	626.88
451.766	595.88
451.986	590.88
452.207	590.88
452.428	579.88
452.648	583.88
452.869	594.88
453.089	578.88
453.31	597.88
453.53	601.88
453.751	580.88
453.971	554.88
454.192	612.88
454.412	565.88
454.633	564.88
454.853	569.88
455.073	573.88
455.294	585.88
455.514	636.88
455.734	646.88
455.955	571.88
456.175	568.88
456.395	568.88
456.616	561.88
456.836	574.88
457.056	544.88
457.276	508.88
457.497	556.88
457.717	552.88
457.937	575.88
458.157	549.88
458.377	574.88
458.598	593.88
458.818	658.88
459.038	681.88
459.258	725.88
459.478	673.88
459.698	640.88
459.918	659.88
460.138	666.88
460.358	710.88
460.578	699.88
460.798	699.88
461.018	730.88
461.238	738.88
461.458	709.88
461.678	701.88
461.898	722.88
462.118	706.88
462.338	758.88
462.558	750.88
462.777	777.88
462.997	840.88
463.217	843.88
463.437	875.88
463.657	831.88
463.876	790.88
464.096	819.88
464.316	795.88
464.536	788.88
464.755	809.88
464.975	762.88
465.195	767.88
465.414	776.88
465.634	709.88
465.854	686.88
466.073	652.88
466.293	627.88
466.512	632.88
466.732	606.88
466.951	627.88
467.171	594.88
467.391	613.88
467.61	613.88
467.829	602.88
468.049	614.88
468.268	604.88
468.488	610.88
468.707	599.88
468.927	604.88
469.146	596.88
469.365	611.88
469.585	627.88
469.804	627.88
470.023	632.88
470.243	644.88
470.462	646.88
470.681	640.88
470.901	663.88
471.12	617.88
471.339	636.88
471.558	608.88
471.777	617.88
471.997	624.88
472.216	616.88
472.435	618.88
472.654	604.88
472.873	593.88
473.092	607.88
473.311	586.88
473.53	591.88
473.749	585.88
473.968	609.88
474.187	716.88
474.406	696.88
474.625	626.88
474.844	634.88
475.063	631.88
475.282	599.88
475.501	613.88
475.72	635.88
475.939	623.88
476.158	629.88
476.377	627.88
476.596	629.88
476.814	630.88
477.033	652.88
477.252	654.88
477.471	655.88
477.69	705.88
477.908	673.88
478.127	701.88
478.346	684.88
478.564	707.88
478.783	718.88
479.002	720.88
479.22	741.88
479.439	732.88
479.658	749.88
479.876	724.88
480.095	753.88
480.313	791.88
480.532	801.88
480.751	796.88
480.969	790.88
481.188	810.88
481.406	831.88
481.624	770.88
481.843	741.88
482.061	736.88
482.28	695.88
482.498	715.88
482.717	699.88
482.935	731.88
483.153	715.88
483.372	709.88
483.59	702.88
483.808	702.88
484.027	724.88
484.245	726.88
484.463	721.88
484.681	720.88
484.9	709.88
485.118	736.88
485.336	732.88
485.554	744.88
485.772	756.88
485.99	749.88
486.209	749.88
486.427	724.88
486.645	752.88
486.863	748.88
487.081	749.88
487.299	753.88
487.517	734.88
487.735	763.88
487.953	775.88
488.171	780.88
488.389	740.88
488.607	716.88
488.825	750.88
489.043	748.88
489.261	756.88
489.479	754.88
489.696	761.88
489.914	754.88
490.132	804.88
490.35	766.88
490.568	777.88
490.786	804.88
491.003	820.88
491.221	807.88
491.439	808.88
491.657	852.88
491.874	837.88
492.092	830.88
492.31	850.88
492.527	840.88
492.745	865.88
492.963	852.88
493.18	855.88
493.398	849.88
493.615	849.88
493.833	858.88
494.05	864.88
494.268	864.88
494.485	868.88
494.703	843.88
494.92	857.88
495.138	836.88
495.355	880.88
495.573	874.88
495.79	893.88
496.008	925.88
496.225	881.88
496.442	888.88
496.66	896.88
496.877	913.88
497.094	918.88
497.312	904.88
497.529	932.88
497.746	973.88
497.963	977.88
498.181	995.88
498.398	1049.88
498.615	1030.88
498.832	1119.88
499.049	1156.88
499.267	1221.88
499.484	1287.88
499.701	1371.88
499.918	1468.88
500.135	1638.88
500.352	1805.88
500.569	1840.88
500.786	1840.88
501.003	1713.88
501.22	1590.88
501.437	1466.88
501.654	1390.88
