Data from 1963.PennyLincolnUp.Lamp.En5.5.200Scan.071719.P1._HRD10591_13-59-13-063.txt Node
Date: Thu Jul 18 13:59:13 EDT 2019
User: cochatt
Spectrometer: HR+D1059
Trigger mode: 1
Integration Time (sec): 1.000000E-1
Scans to average: 1
Electric dark correction enabled: true
Nonlinearity correction enabled: false
Boxcar width: 0
XAxis mode: Wavelengths
Number of Pixels in Spectrum: 2048
>>>>>Begin Spectral Data<<<<<
223.165	-17.69
223.4	-17.69
223.635	-17.69
223.869	-20.69
224.104	-21.69
224.338	-22.69
224.573	-20.69
224.808	-8.69
225.042	-8.69
225.277	-20.69
225.511	-15.69
225.746	0.31
225.98	15.31
226.215	11.31
226.449	25.31
226.683	32.31
226.918	34.31
227.152	38.31
227.387	29.31
227.621	46.31
227.856	45.31
228.09	48.31
228.324	53.31
228.559	57.31
228.793	77.31
229.027	93.31
229.262	110.31
229.496	112.31
229.73	113.31
229.964	139.31
230.199	125.31
230.433	127.31
230.667	121.31
230.901	97.31
231.136	119.31
231.37	111.31
231.604	112.31
231.838	118.31
232.072	117.31
232.306	117.31
232.541	113.31
232.775	118.31
233.009	116.31
233.243	121.31
233.477	108.31
233.711	126.31
233.945	126.31
234.179	137.31
234.413	117.31
234.647	134.31
234.881	132.31
235.115	134.31
235.349	125.31
235.583	131.31
235.817	131.31
236.051	135.31
236.285	146.31
236.519	141.31
236.753	129.31
236.987	135.31
237.221	169.31
237.455	214.31
237.689	187.31
237.922	160.31
238.156	133.31
238.39	130.31
238.624	128.31
238.858	128.31
239.091	137.31
239.325	142.31
239.559	158.31
239.793	127.31
240.027	134.31
240.26	157.31
240.494	163.31
240.728	153.31
240.961	171.31
241.195	168.31
241.429	157.31
241.662	132.31
241.896	155.31
242.13	150.31
242.363	151.31
242.597	157.31
242.83	148.31
243.064	167.31
243.298	150.31
243.531	142.31
243.765	154.31
243.998	144.31
244.232	161.31
244.465	168.31
244.699	158.31
244.932	157.31
245.166	158.31
245.399	175.31
245.633	168.31
245.866	175.31
246.099	160.31
246.333	167.31
246.566	175.31
246.8	174.31
247.033	166.31
247.266	165.31
247.5	167.31
247.733	198.31
247.966	191.31
248.2	180.31
248.433	208.31
248.666	175.31
248.899	195.31
249.133	219.31
249.366	220.31
249.599	200.31
249.832	186.31
250.066	204.31
250.299	201.31
250.532	204.31
250.765	209.31
250.998	218.31
251.231	223.31
251.465	219.31
251.698	217.31
251.931	221.31
252.164	209.31
252.397	218.31
252.63	214.31
252.863	219.31
253.096	229.31
253.329	225.31
253.562	223.31
253.795	226.31
254.028	225.31
254.261	222.31
254.494	243.31
254.727	257.31
254.96	277.31
255.193	268.31
255.426	263.31
255.659	238.31
255.892	240.31
256.124	270.31
256.357	261.31
256.59	233.31
256.823	249.31
257.056	244.31
257.289	236.31
257.521	251.31
257.754	230.31
257.987	229.31
258.22	235.31
258.452	218.31
258.685	242.31
258.918	247.31
259.151	241.31
259.383	259.31
259.616	223.31
259.849	267.31
260.081	264.31
260.314	258.31
260.547	266.31
260.779	266.31
261.012	260.31
261.244	250.31
261.477	249.31
261.71	259.31
261.942	249.31
262.175	252.31
262.407	245.31
262.64	236.31
262.872	253.31
263.105	243.31
263.337	239.31
263.57	243.31
263.802	247.31
264.035	246.31
264.267	250.31
264.499	229.31
264.732	259.31
264.964	248.31
265.197	266.31
265.429	236.31
265.661	245.31
265.894	237.31
266.126	237.31
266.358	260.31
266.591	249.31
266.823	268.31
267.055	266.31
267.287	288.31
267.52	268.31
267.752	267.31
267.984	251.31
268.216	267.31
268.448	261.31
268.681	269.31
268.913	292.31
269.145	295.31
269.377	310.31
269.609	309.31
269.841	293.31
270.073	310.31
270.306	290.31
270.538	342.31
270.77	337.31
271.002	316.31
271.234	320.31
271.466	319.31
271.698	337.31
271.93	346.31
272.162	337.31
272.394	325.31
272.626	319.31
272.858	319.31
273.09	309.31
273.322	303.31
273.553	299.31
273.785	293.31
274.017	303.31
274.249	285.31
274.481	302.31
274.713	292.31
274.945	315.31
275.176	303.31
275.408	293.31
275.64	295.31
275.872	304.31
276.104	312.31
276.335	296.31
276.567	312.31
276.799	329.31
277.031	342.31
277.262	351.31
277.494	347.31
277.726	343.31
277.957	329.31
278.189	315.31
278.421	330.31
278.652	333.31
278.884	328.31
279.115	304.31
279.347	313.31
279.579	310.31
279.81	304.31
280.042	327.31
280.273	309.31
280.505	305.31
280.736	333.31
280.968	337.31
281.199	307.31
281.431	324.31
281.662	331.31
281.894	321.31
282.125	335.31
282.356	346.31
282.588	353.31
282.819	363.31
283.051	334.31
283.282	321.31
283.513	342.31
283.745	349.31
283.976	350.31
284.207	367.31
284.439	337.31
284.67	344.31
284.901	352.31
285.132	348.31
285.364	347.31
285.595	340.31
285.826	348.31
286.057	350.31
286.288	358.31
286.52	363.31
286.751	352.31
286.982	358.31
287.213	363.31
287.444	352.31
287.675	351.31
287.906	363.31
288.138	359.31
288.369	363.31
288.6	373.31
288.831	357.31
289.062	379.31
289.293	362.31
289.524	375.31
289.755	372.31
289.986	362.31
290.217	362.31
290.448	380.31
290.679	379.31
290.91	352.31
291.141	366.31
291.371	345.31
291.602	391.31
291.833	372.31
292.064	364.31
292.295	357.31
292.526	360.31
292.757	371.31
292.987	375.31
293.218	355.31
293.449	377.31
293.68	377.31
293.91	368.31
294.141	378.31
294.372	360.31
294.603	373.31
294.833	359.31
295.064	373.31
295.295	355.31
295.525	363.31
295.756	385.31
295.987	374.31
296.217	383.31
296.448	392.31
296.679	386.31
296.909	371.31
297.14	381.31
297.37	382.31
297.601	379.31
297.831	381.31
298.062	392.31
298.292	395.31
298.523	396.31
298.753	384.31
298.984	389.31
299.214	391.31
299.445	392.31
299.675	402.31
299.905	414.31
300.136	395.31
300.366	407.31
300.597	398.31
300.827	408.31
301.057	409.31
301.288	427.31
301.518	397.31
301.748	424.31
301.979	421.31
302.209	432.31
302.439	423.31
302.669	418.31
302.9	415.31
303.13	409.31
303.36	415.31
303.59	410.31
303.82	440.31
304.051	433.31
304.281	435.31
304.511	402.31
304.741	412.31
304.971	396.31
305.201	411.31
305.431	414.31
305.661	403.31
305.891	409.31
306.121	407.31
306.352	416.31
306.582	408.31
306.812	404.31
307.042	406.31
307.272	407.31
307.502	412.31
307.731	401.31
307.961	421.31
308.191	422.31
308.421	439.31
308.651	426.31
308.881	399.31
309.111	420.31
309.341	409.31
309.571	415.31
309.8	458.31
310.03	444.31
310.26	440.31
310.49	413.31
310.72	438.31
310.949	453.31
311.179	465.31
311.409	448.31
311.639	461.31
311.868	443.31
312.098	442.31
312.328	452.31
312.557	481.31
312.787	475.31
313.017	465.31
313.246	480.31
313.476	469.31
313.706	470.31
313.935	448.31
314.165	464.31
314.394	485.31
314.624	491.31
314.853	470.31
315.083	456.31
315.312	474.31
315.542	461.31
315.771	460.31
316.001	462.31
316.23	465.31
316.46	448.31
316.689	481.31
316.919	475.31
317.148	473.31
317.377	464.31
317.607	465.31
317.836	465.31
318.065	465.31
318.295	469.31
318.524	473.31
318.753	445.31
318.983	473.31
319.212	473.31
319.441	508.31
319.67	472.31
319.9	447.31
320.129	445.31
320.358	451.31
320.587	467.31
320.816	466.31
321.046	465.31
321.275	464.31
321.504	463.31
321.733	472.31
321.962	467.31
322.191	487.31
322.42	497.31
322.649	480.31
322.878	508.31
323.108	508.31
323.337	519.31
323.566	516.31
323.795	556.31
324.024	587.31
324.253	616.31
324.482	827.31
324.71	1191.31
324.939	1667.31
325.168	1479.31
325.397	812.31
325.626	635.31
325.855	580.31
326.084	535.31
326.313	527.31
326.542	546.31
326.77	581.31
326.999	638.31
327.228	750.31
327.457	1101.31
327.686	1328.31
327.914	935.31
328.143	684.31
328.372	608.31
328.6	603.31
328.829	566.31
329.058	578.31
329.287	610.31
329.515	600.31
329.744	555.31
329.972	563.31
330.201	570.31
330.43	602.31
330.658	629.31
330.887	636.31
331.115	612.31
331.344	571.31
331.572	559.31
331.801	570.31
332.03	577.31
332.258	585.31
332.486	593.31
332.715	580.31
332.943	608.31
333.172	584.31
333.4	608.31
333.629	612.31
333.857	659.31
334.085	664.31
334.314	647.31
334.542	676.31
334.771	680.31
334.999	655.31
335.227	597.31
335.455	623.31
335.684	594.31
335.912	590.31
336.14	594.31
336.369	558.31
336.597	577.31
336.825	584.31
337.053	577.31
337.281	580.31
337.51	566.31
337.738	568.31
337.966	550.31
338.194	563.31
338.422	543.31
338.65	541.31
338.878	560.31
339.106	535.31
339.334	538.31
339.562	547.31
339.79	527.31
340.018	527.31
340.246	524.31
340.474	522.31
340.702	534.31
340.93	549.31
341.158	545.31
341.386	530.31
341.614	533.31
341.842	519.31
342.07	544.31
342.298	520.31
342.526	521.31
342.754	520.31
342.981	530.31
343.209	548.31
343.437	573.31
343.665	567.31
343.893	592.31
344.12	612.31
344.348	597.31
344.576	577.31
344.804	551.31
345.031	559.31
345.259	543.31
345.487	519.31
345.714	514.31
345.942	553.31
346.17	502.31
346.397	492.31
346.625	507.31
346.853	507.31
347.08	521.31
347.308	524.31
347.535	528.31
347.763	492.31
347.99	504.31
348.218	504.31
348.445	509.31
348.673	518.31
348.9	528.31
349.128	499.31
349.355	501.31
349.583	508.31
349.81	491.31
350.037	492.31
350.265	483.31
350.492	492.31
350.72	488.31
350.947	491.31
351.174	508.31
351.402	493.31
351.629	505.31
351.856	500.31
352.083	501.31
352.311	512.31
352.538	521.31
352.765	512.31
352.992	517.31
353.22	526.31
353.447	504.31
353.674	497.31
353.901	513.31
354.128	505.31
354.355	471.31
354.583	493.31
354.81	473.31
355.037	496.31
355.264	471.31
355.491	484.31
355.718	486.31
355.945	509.31
356.172	492.31
356.399	504.31
356.626	478.31
356.853	485.31
357.08	502.31
357.307	501.31
357.534	478.31
357.761	495.31
357.988	478.31
358.215	482.31
358.441	512.31
358.668	504.31
358.895	503.31
359.122	500.31
359.349	493.31
359.576	504.31
359.802	501.31
360.029	544.31
360.256	539.31
360.483	537.31
360.709	505.31
360.936	508.31
361.163	504.31
361.39	514.31
361.616	508.31
361.843	509.31
362.07	498.31
362.296	485.31
362.523	487.31
362.749	512.31
362.976	507.31
363.203	503.31
363.429	492.31
363.656	513.31
363.882	505.31
364.109	524.31
364.335	511.31
364.562	486.31
364.788	495.31
365.015	517.31
365.241	469.31
365.468	514.31
365.694	496.31
365.92	499.31
366.147	499.31
366.373	501.31
366.599	501.31
366.826	492.31
367.052	484.31
367.278	505.31
367.505	505.31
367.731	507.31
367.957	492.31
368.184	519.31
368.41	497.31
368.636	537.31
368.862	515.31
369.089	518.31
369.315	514.31
369.541	480.31
369.767	502.31
369.993	503.31
370.219	501.31
370.445	491.31
370.672	516.31
370.898	516.31
371.124	509.31
371.35	527.31
371.576	524.31
371.802	520.31
372.028	529.31
372.254	514.31
372.48	529.31
372.706	540.31
372.932	574.31
373.158	533.31
373.384	535.31
373.61	509.31
373.835	529.31
374.061	545.31
374.287	525.31
374.513	541.31
374.739	533.31
374.965	555.31
375.191	553.31
375.416	567.31
375.642	519.31
375.868	556.31
376.094	541.31
376.319	535.31
376.545	537.31
376.771	520.31
376.997	504.31
377.222	515.31
377.448	513.31
377.674	504.31
377.899	520.31
378.125	537.31
378.35	516.31
378.576	526.31
378.802	507.31
379.027	501.31
379.253	538.31
379.478	519.31
379.704	515.31
379.929	528.31
380.155	522.31
380.38	533.31
380.606	534.31
380.831	512.31
381.057	546.31
381.282	523.31
381.507	531.31
381.733	535.31
381.958	536.31
382.184	528.31
382.409	550.31
382.634	554.31
382.86	539.31
383.085	557.31
383.31	556.31
383.535	542.31
383.761	565.31
383.986	559.31
384.211	575.31
384.436	595.31
384.662	578.31
384.887	608.31
385.112	598.31
385.337	591.31
385.562	606.31
385.787	591.31
386.013	605.31
386.238	607.31
386.463	608.31
386.688	598.31
386.913	581.31
387.138	614.31
387.363	598.31
387.588	622.31
387.813	605.31
388.038	578.31
388.263	584.31
388.488	615.31
388.713	594.31
388.938	629.31
389.163	608.31
389.387	629.31
389.612	579.31
389.837	596.31
390.062	583.31
390.287	588.31
390.512	600.31
390.736	585.31
390.961	607.31
391.186	619.31
391.411	633.31
391.636	633.31
391.86	608.31
392.085	659.31
392.31	652.31
392.534	643.31
392.759	647.31
392.984	624.31
393.208	606.31
393.433	640.31
393.658	621.31
393.882	608.31
394.107	592.31
394.331	631.31
394.556	614.31
394.78	605.31
395.005	621.31
395.229	610.31
395.454	647.31
395.678	655.31
395.903	697.31
396.127	657.31
396.352	659.31
396.576	647.31
396.801	621.31
397.025	633.31
397.249	651.31
397.474	675.31
397.698	684.31
397.922	676.31
398.147	670.31
398.371	702.31
398.595	699.31
398.82	726.31
399.044	743.31
399.268	821.31
399.492	885.31
399.717	949.31
399.941	963.31
400.165	949.31
400.389	874.31
400.613	807.31
400.837	747.31
401.062	757.31
401.286	740.31
401.51	724.31
401.734	700.31
401.958	713.31
402.182	713.31
402.406	747.31
402.63	752.31
402.854	737.31
403.078	752.31
403.302	754.31
403.526	793.31
403.75	790.31
403.974	805.31
404.198	781.31
404.422	810.31
404.645	792.31
404.869	783.31
405.093	819.31
405.317	821.31
405.541	843.31
405.765	834.31
405.988	775.31
406.212	795.31
406.436	796.31
406.66	819.31
406.883	814.31
407.107	849.31
407.331	880.31
407.555	956.31
407.778	955.31
408.002	904.31
408.226	849.31
408.449	839.31
408.673	824.31
408.896	824.31
409.12	853.31
409.344	812.31
409.567	771.31
409.791	753.31
410.014	760.31
410.238	744.31
410.461	749.31
410.685	752.31
410.908	777.31
411.132	776.31
411.355	804.31
411.578	788.31
411.802	757.31
412.025	743.31
412.249	763.31
412.472	777.31
412.695	805.31
412.919	787.31
413.142	734.31
413.365	743.31
413.589	722.31
413.812	720.31
414.035	725.31
414.258	699.31
414.482	699.31
414.705	712.31
414.928	697.31
415.151	679.31
415.374	729.31
415.597	716.31
415.821	715.31
416.044	694.31
416.267	687.31
416.49	703.31
416.713	687.31
416.936	695.31
417.159	714.31
417.382	705.31
417.605	716.31
417.828	711.31
418.051	725.31
418.274	743.31
418.497	706.31
418.72	715.31
418.943	709.31
419.166	739.31
419.389	784.31
419.611	781.31
419.834	764.31
420.057	745.31
420.28	756.31
420.503	713.31
420.726	717.31
420.948	748.31
421.171	754.31
421.394	771.31
421.617	714.31
421.839	738.31
422.062	695.31
422.285	720.31
422.507	774.31
422.73	812.31
422.953	821.31
423.175	762.31
423.398	773.31
423.621	771.31
423.843	748.31
424.066	777.31
424.288	796.31
424.511	783.31
424.733	814.31
424.956	861.31
425.178	809.31
425.401	839.31
425.623	857.31
425.846	764.31
426.068	752.31
426.291	704.31
426.513	725.31
426.735	731.31
426.958	774.31
427.18	796.31
427.402	919.31
427.625	971.31
427.847	849.31
428.069	770.31
428.292	753.31
428.514	720.31
428.736	665.31
428.958	693.31
429.181	668.31
429.403	647.31
429.625	663.31
429.847	696.31
430.069	770.31
430.292	749.31
430.514	675.31
430.736	650.31
430.958	658.31
431.18	641.31
431.402	632.31
431.624	649.31
431.846	649.31
432.068	665.31
432.29	641.31
432.512	660.31
432.734	664.31
432.956	662.31
433.178	664.31
433.4	682.31
433.622	653.31
433.844	650.31
434.066	645.31
434.287	676.31
434.509	663.31
434.731	698.31
434.953	724.31
435.175	730.31
435.397	709.31
435.618	715.31
435.84	721.31
436.062	810.31
436.284	855.31
436.505	750.31
436.727	716.31
436.949	680.31
437.17	654.31
437.392	657.31
437.614	679.31
437.835	686.31
438.057	763.31
438.278	842.31
438.5	830.31
438.721	876.31
438.943	893.31
439.165	749.31
439.386	713.31
439.608	724.31
439.829	714.31
440.05	731.31
440.272	751.31
440.493	711.31
440.715	683.31
440.936	687.31
441.158	691.31
441.379	689.31
441.6	734.31
441.822	755.31
442.043	754.31
442.264	816.31
442.486	859.31
442.707	773.31
442.928	765.31
443.149	752.31
443.371	789.31
443.592	798.31
443.813	888.31
444.034	943.31
444.255	808.31
444.476	784.31
444.698	813.31
444.919	850.31
445.14	925.31
445.361	840.31
445.582	787.31
445.803	828.31
446.024	880.31
446.245	900.31
446.466	823.31
446.687	734.31
446.908	705.31
447.129	698.31
447.35	656.31
447.571	660.31
447.792	649.31
448.013	671.31
448.234	656.31
448.455	688.31
448.675	822.31
448.896	859.31
449.117	780.31
449.338	714.31
449.559	843.31
449.779	903.31
450	765.31
450.221	689.31
450.442	666.31
450.662	632.31
450.883	646.31
451.104	631.31
451.324	626.31
451.545	633.31
451.766	613.31
451.986	609.31
452.207	597.31
452.428	598.31
452.648	604.31
452.869	588.31
453.089	577.31
453.31	595.31
453.53	580.31
453.751	609.31
453.971	618.31
454.192	596.31
454.412	587.31
454.633	581.31
454.853	630.31
455.073	583.31
455.294	607.31
455.514	631.31
455.734	628.31
455.955	576.31
456.175	560.31
456.395	578.31
456.616	565.31
456.836	581.31
457.056	572.31
457.276	554.31
457.497	567.31
457.717	541.31
457.937	579.31
458.157	588.31
458.377	586.31
458.598	607.31
458.818	649.31
459.038	705.31
459.258	757.31
459.478	721.31
459.698	693.31
459.918	692.31
460.138	704.31
460.358	731.31
460.578	736.31
460.798	719.31
461.018	743.31
461.238	733.31
461.458	721.31
461.678	723.31
461.898	742.31
462.118	715.31
462.338	756.31
462.558	758.31
462.777	769.31
462.997	832.31
463.217	880.31
463.437	896.31
463.657	829.31
463.876	815.31
464.096	783.31
464.316	818.31
464.536	789.31
464.755	832.31
464.975	802.31
465.195	775.31
465.414	806.31
465.634	740.31
465.854	680.31
466.073	662.31
466.293	656.31
466.512	619.31
466.732	639.31
466.951	630.31
467.171	651.31
467.391	661.31
467.61	638.31
467.829	625.31
468.049	641.31
468.268	612.31
468.488	629.31
468.707	603.31
468.927	603.31
469.146	621.31
469.365	595.31
469.585	617.31
469.804	638.31
470.023	657.31
470.243	656.31
470.462	699.31
470.681	636.31
470.901	674.31
471.12	637.31
471.339	619.31
471.558	654.31
471.777	613.31
471.997	616.31
472.216	638.31
472.435	649.31
472.654	629.31
472.873	616.31
473.092	627.31
473.311	619.31
473.53	612.31
473.749	591.31
473.968	639.31
474.187	729.31
474.406	736.31
474.625	675.31
474.844	619.31
475.063	614.31
475.282	606.31
475.501	633.31
475.72	623.31
475.939	663.31
476.158	633.31
476.377	664.31
476.596	652.31
476.814	679.31
477.033	636.31
477.252	641.31
477.471	669.31
477.69	686.31
477.908	708.31
478.127	711.31
478.346	718.31
478.564	720.31
478.783	745.31
479.002	749.31
479.22	739.31
479.439	771.31
479.658	739.31
479.876	759.31
480.095	787.31
480.313	838.31
480.532	808.31
480.751	819.31
480.969	807.31
481.188	842.31
481.406	863.31
481.624	786.31
481.843	761.31
482.061	734.31
482.28	689.31
482.498	730.31
482.717	710.31
482.935	726.31
483.153	730.31
483.372	719.31
483.59	724.31
483.808	718.31
484.027	715.31
484.245	709.31
484.463	722.31
484.681	729.31
484.9	750.31
485.118	756.31
485.336	754.31
485.554	738.31
485.772	743.31
485.99	763.31
486.209	768.31
486.427	799.31
486.645	765.31
486.863	785.31
487.081	781.31
487.299	783.31
487.517	782.31
487.735	790.31
487.953	766.31
488.171	791.31
488.389	773.31
488.607	776.31
488.825	745.31
489.043	749.31
489.261	782.31
489.479	791.31
489.696	779.31
489.914	780.31
490.132	808.31
490.35	790.31
490.568	792.31
490.786	805.31
491.003	800.31
491.221	830.31
491.439	838.31
491.657	825.31
491.874	835.31
492.092	844.31
492.31	844.31
492.527	852.31
492.745	876.31
492.963	861.31
493.18	875.31
493.398	866.31
493.615	863.31
493.833	899.31
494.05	881.31
494.268	900.31
494.485	875.31
494.703	885.31
494.92	888.31
495.138	889.31
495.355	879.31
495.573	884.31
495.79	906.31
496.008	879.31
496.225	909.31
496.442	897.31
496.66	900.31
496.877	916.31
497.094	922.31
497.312	922.31
497.529	962.31
497.746	963.31
497.963	973.31
498.181	1037.31
498.398	1020.31
498.615	1090.31
498.832	1136.31
499.049	1193.31
499.267	1258.31
499.484	1347.31
499.701	1415.31
499.918	1516.31
500.135	1663.31
500.352	1799.31
500.569	1869.31
500.786	1823.31
501.003	1776.31
501.22	1610.31
501.437	1494.31
501.654	1413.31
