Data from 1963.PennyLincolnUp.Lamp.En5.5.200Scan.071719.P1._HRD10591_13-58-14-063.txt Node
Date: Thu Jul 18 13:58:14 EDT 2019
User: cochatt
Spectrometer: HR+D1059
Trigger mode: 1
Integration Time (sec): 1.000000E-1
Scans to average: 1
Electric dark correction enabled: true
Nonlinearity correction enabled: false
Boxcar width: 0
XAxis mode: Wavelengths
Number of Pixels in Spectrum: 2048
>>>>>Begin Spectral Data<<<<<
223.165	-12.62
223.4	-12.62
223.635	-12.62
223.869	-19.62
224.104	-12.62
224.338	-9.62
224.573	-15.62
224.808	-17.62
225.042	-12.62
225.277	7.38
225.511	-9.62
225.746	9.38
225.98	0.38
226.215	7.38
226.449	6.38
226.683	18.38
226.918	25.38
227.152	35.38
227.387	32.38
227.621	37.38
227.856	45.38
228.09	55.38
228.324	76.38
228.559	59.38
228.793	68.38
229.027	94.38
229.262	106.38
229.496	114.38
229.73	139.38
229.964	132.38
230.199	129.38
230.433	117.38
230.667	109.38
230.901	114.38
231.136	121.38
231.37	100.38
231.604	124.38
231.838	117.38
232.072	124.38
232.306	123.38
232.541	118.38
232.775	134.38
233.009	129.38
233.243	119.38
233.477	121.38
233.711	136.38
233.945	126.38
234.179	123.38
234.413	127.38
234.647	135.38
234.881	127.38
235.115	126.38
235.349	115.38
235.583	109.38
235.817	133.38
236.051	126.38
236.285	128.38
236.519	115.38
236.753	153.38
236.987	129.38
237.221	161.38
237.455	191.38
237.689	171.38
237.922	139.38
238.156	131.38
238.39	132.38
238.624	136.38
238.858	134.38
239.091	143.38
239.325	139.38
239.559	120.38
239.793	133.38
240.027	155.38
240.26	143.38
240.494	155.38
240.728	152.38
240.961	145.38
241.195	152.38
241.429	151.38
241.662	145.38
241.896	145.38
242.13	133.38
242.363	139.38
242.597	145.38
242.83	154.38
243.064	146.38
243.298	159.38
243.531	141.38
243.765	159.38
243.998	158.38
244.232	152.38
244.465	149.38
244.699	170.38
244.932	169.38
245.166	152.38
245.399	157.38
245.633	157.38
245.866	158.38
246.099	158.38
246.333	164.38
246.566	160.38
246.8	165.38
247.033	176.38
247.266	164.38
247.5	172.38
247.733	168.38
247.966	187.38
248.2	190.38
248.433	190.38
248.666	181.38
248.899	189.38
249.133	185.38
249.366	224.38
249.599	194.38
249.832	201.38
250.066	202.38
250.299	205.38
250.532	199.38
250.765	204.38
250.998	230.38
251.231	230.38
251.465	197.38
251.698	197.38
251.931	215.38
252.164	210.38
252.397	204.38
252.63	214.38
252.863	218.38
253.096	225.38
253.329	232.38
253.562	231.38
253.795	223.38
254.028	205.38
254.261	225.38
254.494	235.38
254.727	253.38
254.96	263.38
255.193	250.38
255.426	237.38
255.659	235.38
255.892	232.38
256.124	236.38
256.357	241.38
256.59	235.38
256.823	212.38
257.056	230.38
257.289	236.38
257.521	233.38
257.754	231.38
257.987	220.38
258.22	229.38
258.452	221.38
258.685	238.38
258.918	214.38
259.151	239.38
259.383	228.38
259.616	217.38
259.849	222.38
260.081	237.38
260.314	253.38
260.547	251.38
260.779	238.38
261.012	243.38
261.244	238.38
261.477	248.38
261.71	236.38
261.942	227.38
262.175	251.38
262.407	224.38
262.64	231.38
262.872	239.38
263.105	242.38
263.337	236.38
263.57	246.38
263.802	224.38
264.035	238.38
264.267	233.38
264.499	216.38
264.732	230.38
264.964	212.38
265.197	229.38
265.429	238.38
265.661	220.38
265.894	245.38
266.126	230.38
266.358	231.38
266.591	240.38
266.823	249.38
267.055	251.38
267.287	245.38
267.52	244.38
267.752	243.38
267.984	263.38
268.216	251.38
268.448	247.38
268.681	284.38
268.913	265.38
269.145	300.38
269.377	293.38
269.609	273.38
269.841	273.38
270.073	277.38
270.306	308.38
270.538	317.38
270.77	305.38
271.002	303.38
271.234	297.38
271.466	299.38
271.698	312.38
271.93	318.38
272.162	313.38
272.394	311.38
272.626	317.38
272.858	282.38
273.09	287.38
273.322	302.38
273.553	289.38
273.785	297.38
274.017	276.38
274.249	287.38
274.481	284.38
274.713	287.38
274.945	281.38
275.176	296.38
275.408	303.38
275.64	292.38
275.872	293.38
276.104	282.38
276.335	291.38
276.567	299.38
276.799	294.38
277.031	333.38
277.262	331.38
277.494	332.38
277.726	317.38
277.957	323.38
278.189	313.38
278.421	301.38
278.652	306.38
278.884	310.38
279.115	321.38
279.347	292.38
279.579	314.38
279.81	313.38
280.042	325.38
280.273	315.38
280.505	314.38
280.736	329.38
280.968	319.38
281.199	318.38
281.431	318.38
281.662	315.38
281.894	310.38
282.125	307.38
282.356	320.38
282.588	321.38
282.819	348.38
283.051	326.38
283.282	322.38
283.513	303.38
283.745	320.38
283.976	329.38
284.207	324.38
284.439	339.38
284.67	315.38
284.901	321.38
285.132	332.38
285.364	326.38
285.595	324.38
285.826	343.38
286.057	334.38
286.288	333.38
286.52	339.38
286.751	330.38
286.982	334.38
287.213	340.38
287.444	352.38
287.675	348.38
287.906	342.38
288.138	364.38
288.369	346.38
288.6	341.38
288.831	338.38
289.062	338.38
289.293	340.38
289.524	351.38
289.755	360.38
289.986	346.38
290.217	363.38
290.448	352.38
290.679	359.38
290.91	357.38
291.141	367.38
291.371	365.38
291.602	358.38
291.833	350.38
292.064	351.38
292.295	359.38
292.526	359.38
292.757	342.38
292.987	346.38
293.218	354.38
293.449	358.38
293.68	359.38
293.91	340.38
294.141	342.38
294.372	364.38
294.603	357.38
294.833	377.38
295.064	375.38
295.295	356.38
295.525	357.38
295.756	353.38
295.987	360.38
296.217	382.38
296.448	383.38
296.679	368.38
296.909	383.38
297.14	354.38
297.37	367.38
297.601	377.38
297.831	388.38
298.062	368.38
298.292	371.38
298.523	372.38
298.753	388.38
298.984	384.38
299.214	395.38
299.445	375.38
299.675	388.38
299.905	374.38
300.136	361.38
300.366	395.38
300.597	395.38
300.827	387.38
301.057	376.38
301.288	414.38
301.518	407.38
301.748	390.38
301.979	391.38
302.209	405.38
302.439	411.38
302.669	391.38
302.9	392.38
303.13	398.38
303.36	411.38
303.59	396.38
303.82	399.38
304.051	399.38
304.281	412.38
304.511	397.38
304.741	383.38
304.971	392.38
305.201	404.38
305.431	411.38
305.661	399.38
305.891	392.38
306.121	389.38
306.352	393.38
306.582	402.38
306.812	401.38
307.042	413.38
307.272	384.38
307.502	390.38
307.731	414.38
307.961	412.38
308.191	396.38
308.421	416.38
308.651	383.38
308.881	396.38
309.111	412.38
309.341	400.38
309.571	411.38
309.8	420.38
310.03	422.38
310.26	424.38
310.49	406.38
310.72	412.38
310.949	430.38
311.179	409.38
311.409	416.38
311.639	429.38
311.868	412.38
312.098	422.38
312.328	431.38
312.557	420.38
312.787	446.38
313.017	421.38
313.246	448.38
313.476	429.38
313.706	431.38
313.935	422.38
314.165	429.38
314.394	464.38
314.624	442.38
314.853	447.38
315.083	448.38
315.312	448.38
315.542	424.38
315.771	439.38
316.001	431.38
316.23	436.38
316.46	444.38
316.689	436.38
316.919	446.38
317.148	418.38
317.377	448.38
317.607	439.38
317.836	441.38
318.065	430.38
318.295	429.38
318.524	432.38
318.753	419.38
318.983	455.38
319.212	427.38
319.441	429.38
319.67	438.38
319.9	436.38
320.129	424.38
320.358	427.38
320.587	452.38
320.816	439.38
321.046	453.38
321.275	431.38
321.504	455.38
321.733	445.38
321.962	451.38
322.191	460.38
322.42	460.38
322.649	459.38
322.878	461.38
323.108	457.38
323.337	476.38
323.566	477.38
323.795	503.38
324.024	532.38
324.253	613.38
324.482	750.38
324.71	999.38
324.939	1445.38
325.168	1291.38
325.397	723.38
325.626	591.38
325.855	510.38
326.084	539.38
326.313	514.38
326.542	521.38
326.77	550.38
326.999	588.38
327.228	737.38
327.457	959.38
327.686	1155.38
327.914	831.38
328.143	633.38
328.372	571.38
328.6	530.38
328.829	536.38
329.058	558.38
329.287	555.38
329.515	530.38
329.744	537.38
329.972	533.38
330.201	523.38
330.43	581.38
330.658	591.38
330.887	585.38
331.115	592.38
331.344	561.38
331.572	535.38
331.801	536.38
332.03	516.38
332.258	520.38
332.486	523.38
332.715	563.38
332.943	565.38
333.172	585.38
333.4	577.38
333.629	592.38
333.857	613.38
334.085	592.38
334.314	616.38
334.542	623.38
334.771	651.38
334.999	633.38
335.227	587.38
335.455	570.38
335.684	590.38
335.912	579.38
336.14	548.38
336.369	547.38
336.597	549.38
336.825	552.38
337.053	549.38
337.281	523.38
337.51	548.38
337.738	537.38
337.966	546.38
338.194	516.38
338.422	521.38
338.65	533.38
338.878	533.38
339.106	540.38
339.334	511.38
339.562	518.38
339.79	500.38
340.018	501.38
340.246	491.38
340.474	515.38
340.702	520.38
340.93	512.38
341.158	525.38
341.386	504.38
341.614	513.38
341.842	516.38
342.07	501.38
342.298	479.38
342.526	509.38
342.754	494.38
342.981	487.38
343.209	507.38
343.437	525.38
343.665	539.38
343.893	577.38
344.12	562.38
344.348	586.38
344.576	551.38
344.804	527.38
345.031	527.38
345.259	542.38
345.487	505.38
345.714	484.38
345.942	499.38
346.17	477.38
346.397	498.38
346.625	496.38
346.853	476.38
347.08	485.38
347.308	469.38
347.535	493.38
347.763	478.38
347.99	494.38
348.218	499.38
348.445	505.38
348.673	479.38
348.9	479.38
349.128	490.38
349.355	452.38
349.583	472.38
349.81	484.38
350.037	467.38
350.265	469.38
350.492	465.38
350.72	476.38
350.947	487.38
351.174	506.38
351.402	492.38
351.629	473.38
351.856	462.38
352.083	473.38
352.311	490.38
352.538	493.38
352.765	496.38
352.992	480.38
353.22	470.38
353.447	475.38
353.674	466.38
353.901	446.38
354.128	469.38
354.355	465.38
354.583	485.38
354.81	456.38
355.037	461.38
355.264	462.38
355.491	493.38
355.718	461.38
355.945	475.38
356.172	464.38
356.399	460.38
356.626	476.38
356.853	468.38
357.08	469.38
357.307	463.38
357.534	470.38
357.761	469.38
357.988	484.38
358.215	471.38
358.441	471.38
358.668	458.38
358.895	484.38
359.122	480.38
359.349	469.38
359.576	474.38
359.802	508.38
360.029	514.38
360.256	512.38
360.483	514.38
360.709	480.38
360.936	479.38
361.163	491.38
361.39	491.38
361.616	484.38
361.843	486.38
362.07	484.38
362.296	495.38
362.523	480.38
362.749	505.38
362.976	471.38
363.203	485.38
363.429	466.38
363.656	465.38
363.882	481.38
364.109	460.38
364.335	445.38
364.562	468.38
364.788	482.38
365.015	477.38
365.241	475.38
365.468	478.38
365.694	496.38
365.92	464.38
366.147	468.38
366.373	488.38
366.599	475.38
366.826	484.38
367.052	463.38
367.278	470.38
367.505	478.38
367.731	467.38
367.957	488.38
368.184	494.38
368.41	466.38
368.636	494.38
368.862	486.38
369.089	507.38
369.315	507.38
369.541	507.38
369.767	488.38
369.993	491.38
370.219	462.38
370.445	500.38
370.672	483.38
370.898	472.38
371.124	501.38
371.35	485.38
371.576	490.38
371.802	491.38
372.028	486.38
372.254	505.38
372.48	517.38
372.706	512.38
372.932	519.38
373.158	506.38
373.384	522.38
373.61	482.38
373.835	515.38
374.061	498.38
374.287	507.38
374.513	535.38
374.739	525.38
374.965	539.38
375.191	550.38
375.416	526.38
375.642	506.38
375.868	515.38
376.094	515.38
376.319	531.38
376.545	506.38
376.771	508.38
376.997	501.38
377.222	485.38
377.448	490.38
377.674	511.38
377.899	472.38
378.125	510.38
378.35	484.38
378.576	501.38
378.802	512.38
379.027	506.38
379.253	506.38
379.478	478.38
379.704	498.38
379.929	500.38
380.155	517.38
380.38	476.38
380.606	495.38
380.831	480.38
381.057	499.38
381.282	486.38
381.507	503.38
381.733	513.38
381.958	514.38
382.184	513.38
382.409	517.38
382.634	544.38
382.86	524.38
383.085	529.38
383.31	527.38
383.535	529.38
383.761	518.38
383.986	547.38
384.211	545.38
384.436	565.38
384.662	563.38
384.887	572.38
385.112	563.38
385.337	566.38
385.562	539.38
385.787	554.38
386.013	568.38
386.238	587.38
386.463	558.38
386.688	558.38
386.913	563.38
387.138	590.38
387.363	575.38
387.588	586.38
387.813	580.38
388.038	590.38
388.263	581.38
388.488	561.38
388.713	586.38
388.938	551.38
389.163	580.38
389.387	569.38
389.612	549.38
389.837	572.38
390.062	568.38
390.287	553.38
390.512	569.38
390.736	581.38
390.961	575.38
391.186	600.38
391.411	613.38
391.636	607.38
391.86	612.38
392.085	590.38
392.31	632.38
392.534	646.38
392.759	615.38
392.984	578.38
393.208	602.38
393.433	592.38
393.658	596.38
393.882	595.38
394.107	583.38
394.331	591.38
394.556	585.38
394.78	589.38
395.005	604.38
395.229	591.38
395.454	617.38
395.678	640.38
395.903	655.38
396.127	627.38
396.352	643.38
396.576	625.38
396.801	587.38
397.025	604.38
397.249	628.38
397.474	616.38
397.698	631.38
397.922	645.38
398.147	655.38
398.371	663.38
398.595	663.38
398.82	686.38
399.044	733.38
399.268	764.38
399.492	848.38
399.717	934.38
399.941	920.38
400.165	868.38
400.389	844.38
400.613	794.38
400.837	747.38
401.062	730.38
401.286	673.38
401.51	725.38
401.734	709.38
401.958	694.38
402.182	712.38
402.406	718.38
402.63	709.38
402.854	719.38
403.078	714.38
403.302	733.38
403.526	715.38
403.75	757.38
403.974	750.38
404.198	755.38
404.422	746.38
404.645	755.38
404.869	767.38
405.093	769.38
405.317	808.38
405.541	819.38
405.765	769.38
405.988	777.38
406.212	753.38
406.436	768.38
406.66	807.38
406.883	793.38
407.107	849.38
407.331	885.38
407.555	915.38
407.778	934.38
408.002	863.38
408.226	816.38
408.449	810.38
408.673	776.38
408.896	784.38
409.12	792.38
409.344	804.38
409.567	762.38
409.791	750.38
410.014	723.38
410.238	690.38
410.461	716.38
410.685	731.38
410.908	729.38
411.132	729.38
411.355	783.38
411.578	763.38
411.802	703.38
412.025	699.38
412.249	726.38
412.472	730.38
412.695	752.38
412.919	731.38
413.142	704.38
413.365	676.38
413.589	692.38
413.812	698.38
414.035	663.38
414.258	680.38
414.482	682.38
414.705	689.38
414.928	678.38
415.151	691.38
415.374	687.38
415.597	688.38
415.821	672.38
416.044	692.38
416.267	656.38
416.49	661.38
416.713	667.38
416.936	671.38
417.159	666.38
417.382	654.38
417.605	652.38
417.828	681.38
418.051	702.38
418.274	699.38
418.497	680.38
418.72	697.38
418.943	682.38
419.166	743.38
419.389	757.38
419.611	729.38
419.834	703.38
420.057	725.38
420.28	704.38
420.503	687.38
420.726	667.38
420.948	691.38
421.171	727.38
421.394	730.38
421.617	709.38
421.839	685.38
422.062	707.38
422.285	680.38
422.507	755.38
422.73	797.38
422.953	776.38
423.175	729.38
423.398	723.38
423.621	722.38
423.843	736.38
424.066	746.38
424.288	713.38
424.511	726.38
424.733	757.38
424.956	811.38
425.178	790.38
425.401	792.38
425.623	802.38
425.846	721.38
426.068	687.38
426.291	701.38
426.513	675.38
426.735	681.38
426.958	715.38
427.18	761.38
427.402	859.38
427.625	936.38
427.847	827.38
428.069	750.38
428.292	726.38
428.514	681.38
428.736	652.38
428.958	629.38
429.181	636.38
429.403	637.38
429.625	635.38
429.847	661.38
430.069	685.38
430.292	701.38
430.514	663.38
430.736	665.38
430.958	649.38
431.18	632.38
431.402	623.38
431.624	629.38
431.846	619.38
432.068	633.38
432.29	647.38
432.512	639.38
432.734	634.38
432.956	633.38
433.178	663.38
433.4	632.38
433.622	651.38
433.844	653.38
434.066	599.38
434.287	643.38
434.509	670.38
434.731	661.38
434.953	676.38
435.175	675.38
435.397	709.38
435.618	695.38
435.84	713.38
436.062	731.38
436.284	808.38
436.505	723.38
436.727	655.38
436.949	665.38
437.17	641.38
437.392	623.38
437.614	645.38
437.835	665.38
438.057	728.38
438.278	793.38
438.5	746.38
438.721	841.38
438.943	838.38
439.165	713.38
439.386	661.38
439.608	655.38
439.829	655.38
440.05	676.38
440.272	722.38
440.493	694.38
440.715	654.38
440.936	642.38
441.158	669.38
441.379	667.38
441.6	698.38
441.822	694.38
442.043	731.38
442.264	753.38
442.486	793.38
442.707	731.38
442.928	715.38
443.149	711.38
443.371	709.38
443.592	746.38
443.813	836.38
444.034	851.38
444.255	811.38
444.476	763.38
444.698	763.38
444.919	777.38
445.14	881.38
445.361	806.38
445.582	752.38
445.803	773.38
446.024	795.38
446.245	854.38
446.466	752.38
446.687	691.38
446.908	663.38
447.129	635.38
447.35	624.38
447.571	611.38
447.792	611.38
448.013	616.38
448.234	616.38
448.455	653.38
448.675	753.38
448.896	806.38
449.117	715.38
449.338	684.38
449.559	751.38
449.779	810.38
450	716.38
450.221	652.38
450.442	612.38
450.662	592.38
450.883	605.38
451.104	625.38
451.324	618.38
451.545	591.38
451.766	593.38
451.986	573.38
452.207	579.38
452.428	563.38
452.648	589.38
452.869	576.38
453.089	574.38
453.31	580.38
453.53	563.38
453.751	571.38
453.971	556.38
454.192	585.38
454.412	568.38
454.633	559.38
454.853	547.38
455.073	554.38
455.294	581.38
455.514	628.38
455.734	601.38
455.955	570.38
456.175	521.38
456.395	542.38
456.616	541.38
456.836	536.38
457.056	543.38
457.276	532.38
457.497	517.38
457.717	552.38
457.937	543.38
458.157	582.38
458.377	576.38
458.598	571.38
458.818	627.38
459.038	682.38
459.258	679.38
459.478	655.38
459.698	673.38
459.918	632.38
460.138	662.38
460.358	669.38
460.578	673.38
460.798	701.38
461.018	705.38
461.238	684.38
461.458	688.38
461.678	676.38
461.898	687.38
462.118	702.38
462.338	713.38
462.558	764.38
462.777	772.38
462.997	793.38
463.217	825.38
463.437	848.38
463.657	813.38
463.876	760.38
464.096	759.38
464.316	727.38
464.536	764.38
464.755	749.38
464.975	732.38
465.195	705.38
465.414	755.38
465.634	697.38
465.854	667.38
466.073	641.38
466.293	639.38
466.512	611.38
466.732	609.38
466.951	594.38
467.171	608.38
467.391	615.38
467.61	606.38
467.829	601.38
468.049	602.38
468.268	593.38
468.488	593.38
468.707	574.38
468.927	590.38
469.146	583.38
469.365	580.38
469.585	603.38
469.804	597.38
470.023	638.38
470.243	631.38
470.462	613.38
470.681	624.38
470.901	663.38
471.12	617.38
471.339	629.38
471.558	587.38
471.777	629.38
471.997	587.38
472.216	608.38
472.435	622.38
472.654	598.38
472.873	590.38
473.092	608.38
473.311	590.38
473.53	588.38
473.749	593.38
473.968	612.38
474.187	683.38
474.406	695.38
474.625	634.38
474.844	614.38
475.063	591.38
475.282	579.38
475.501	610.38
475.72	604.38
475.939	613.38
476.158	609.38
476.377	605.38
476.596	601.38
476.814	614.38
477.033	647.38
477.252	627.38
477.471	637.38
477.69	652.38
477.908	663.38
478.127	654.38
478.346	697.38
478.564	697.38
478.783	714.38
479.002	736.38
479.22	725.38
479.439	722.38
479.658	734.38
479.876	703.38
480.095	751.38
480.313	771.38
480.532	766.38
480.751	803.38
480.969	783.38
481.188	792.38
481.406	797.38
481.624	759.38
481.843	714.38
482.061	713.38
482.28	716.38
482.498	707.38
482.717	682.38
482.935	695.38
483.153	698.38
483.372	670.38
483.59	676.38
483.808	722.38
484.027	708.38
484.245	703.38
484.463	723.38
484.681	716.38
484.9	717.38
485.118	704.38
485.336	693.38
485.554	727.38
485.772	715.38
485.99	703.38
486.209	741.38
486.427	711.38
486.645	726.38
486.863	735.38
487.081	758.38
487.299	737.38
487.517	720.38
487.735	727.38
487.953	736.38
488.171	732.38
488.389	738.38
488.607	721.38
488.825	719.38
489.043	726.38
489.261	738.38
489.479	722.38
489.696	751.38
489.914	751.38
490.132	769.38
490.35	766.38
490.568	775.38
490.786	779.38
491.003	763.38
491.221	790.38
491.439	799.38
491.657	799.38
491.874	810.38
492.092	810.38
492.31	781.38
492.527	815.38
492.745	797.38
492.963	831.38
493.18	830.38
493.398	849.38
493.615	825.38
493.833	837.38
494.05	831.38
494.268	848.38
494.485	853.38
494.703	841.38
494.92	870.38
495.138	820.38
495.355	836.38
495.573	840.38
495.79	842.38
496.008	812.38
496.225	879.38
496.442	879.38
496.66	876.38
496.877	866.38
497.094	863.38
497.312	887.38
497.529	901.38
497.746	969.38
497.963	955.38
498.181	976.38
498.398	992.38
498.615	1039.38
498.832	1115.38
499.049	1124.38
499.267	1182.38
499.484	1267.38
499.701	1368.38
499.918	1427.38
500.135	1557.38
500.352	1681.38
500.569	1767.38
500.786	1741.38
501.003	1664.38
501.22	1545.38
501.437	1450.38
501.654	1339.38
501.871	1309.38
