Data from 1963.PennyLincolnUp.Lamp.En5.5.200Scan.071719.P1._HRD10591_14-00-11-064.txt Node
Date: Thu Jul 18 14:00:11 EDT 2019
User: cochatt
Spectrometer: HR+D1059
Trigger mode: 1
Integration Time (sec): 1.000000E-1
Scans to average: 1
Electric dark correction enabled: true
Nonlinearity correction enabled: false
Boxcar width: 0
XAxis mode: Wavelengths
Number of Pixels in Spectrum: 2048
>>>>>Begin Spectral Data<<<<<
223.165	-10.06
223.4	-10.06
223.635	-10.06
223.869	-6.06
224.104	-19.06
224.338	-8.06
224.573	-6.06
224.808	-19.06
225.042	-10.06
225.277	-11.06
225.511	-0.06
225.746	-8.06
225.98	2.94
226.215	11.94
226.449	16.94
226.683	15.94
226.918	27.94
227.152	21.94
227.387	37.94
227.621	36.94
227.856	37.94
228.09	44.94
228.324	49.94
228.559	57.94
228.793	70.94
229.027	97.94
229.262	98.94
229.496	117.94
229.73	125.94
229.964	153.94
230.199	131.94
230.433	123.94
230.667	107.94
230.901	123.94
231.136	112.94
231.37	112.94
231.604	122.94
231.838	125.94
232.072	115.94
232.306	112.94
232.541	146.94
232.775	111.94
233.009	125.94
233.243	122.94
233.477	124.94
233.711	122.94
233.945	114.94
234.179	114.94
234.413	125.94
234.647	127.94
234.881	142.94
235.115	131.94
235.349	130.94
235.583	131.94
235.817	132.94
236.051	99.94
236.285	129.94
236.519	135.94
236.753	139.94
236.987	137.94
237.221	167.94
237.455	207.94
237.689	178.94
237.922	149.94
238.156	143.94
238.39	147.94
238.624	139.94
238.858	158.94
239.091	126.94
239.325	130.94
239.559	132.94
239.793	152.94
240.027	156.94
240.26	156.94
240.494	161.94
240.728	160.94
240.961	158.94
241.195	157.94
241.429	135.94
241.662	150.94
241.896	140.94
242.13	161.94
242.363	157.94
242.597	158.94
242.83	157.94
243.064	149.94
243.298	175.94
243.531	140.94
243.765	165.94
243.998	166.94
244.232	146.94
244.465	162.94
244.699	168.94
244.932	163.94
245.166	174.94
245.399	155.94
245.633	174.94
245.866	151.94
246.099	149.94
246.333	156.94
246.566	175.94
246.8	172.94
247.033	187.94
247.266	183.94
247.5	187.94
247.733	195.94
247.966	177.94
248.2	193.94
248.433	210.94
248.666	186.94
248.899	196.94
249.133	207.94
249.366	223.94
249.599	209.94
249.832	183.94
250.066	204.94
250.299	193.94
250.532	222.94
250.765	222.94
250.998	229.94
251.231	233.94
251.465	235.94
251.698	242.94
251.931	197.94
252.164	216.94
252.397	218.94
252.63	206.94
252.863	230.94
253.096	230.94
253.329	231.94
253.562	227.94
253.795	243.94
254.028	232.94
254.261	239.94
254.494	257.94
254.727	269.94
254.96	275.94
255.193	280.94
255.426	266.94
255.659	265.94
255.892	231.94
256.124	244.94
256.357	218.94
256.59	241.94
256.823	219.94
257.056	230.94
257.289	242.94
257.521	248.94
257.754	229.94
257.987	214.94
258.22	226.94
258.452	214.94
258.685	219.94
258.918	241.94
259.151	243.94
259.383	241.94
259.616	218.94
259.849	249.94
260.081	250.94
260.314	270.94
260.547	278.94
260.779	253.94
261.012	254.94
261.244	253.94
261.477	275.94
261.71	243.94
261.942	266.94
262.175	250.94
262.407	255.94
262.64	250.94
262.872	239.94
263.105	249.94
263.337	253.94
263.57	247.94
263.802	248.94
264.035	228.94
264.267	239.94
264.499	260.94
264.732	249.94
264.964	244.94
265.197	261.94
265.429	248.94
265.661	262.94
265.894	267.94
266.126	250.94
266.358	254.94
266.591	248.94
266.823	276.94
267.055	259.94
267.287	266.94
267.52	257.94
267.752	236.94
267.984	266.94
268.216	270.94
268.448	268.94
268.681	270.94
268.913	305.94
269.145	310.94
269.377	305.94
269.609	305.94
269.841	297.94
270.073	299.94
270.306	330.94
270.538	348.94
270.77	321.94
271.002	318.94
271.234	345.94
271.466	330.94
271.698	346.94
271.93	329.94
272.162	335.94
272.394	350.94
272.626	339.94
272.858	317.94
273.09	313.94
273.322	305.94
273.553	306.94
273.785	301.94
274.017	307.94
274.249	302.94
274.481	315.94
274.713	296.94
274.945	307.94
275.176	321.94
275.408	314.94
275.64	302.94
275.872	298.94
276.104	301.94
276.335	302.94
276.567	338.94
276.799	333.94
277.031	333.94
277.262	335.94
277.494	349.94
277.726	346.94
277.957	334.94
278.189	335.94
278.421	301.94
278.652	311.94
278.884	323.94
279.115	337.94
279.347	311.94
279.579	339.94
279.81	315.94
280.042	306.94
280.273	304.94
280.505	317.94
280.736	310.94
280.968	331.94
281.199	335.94
281.431	334.94
281.662	341.94
281.894	339.94
282.125	329.94
282.356	347.94
282.588	341.94
282.819	351.94
283.051	346.94
283.282	338.94
283.513	345.94
283.745	331.94
283.976	323.94
284.207	333.94
284.439	319.94
284.67	341.94
284.901	345.94
285.132	324.94
285.364	326.94
285.595	350.94
285.826	343.94
286.057	335.94
286.288	355.94
286.52	350.94
286.751	357.94
286.982	348.94
287.213	338.94
287.444	347.94
287.675	364.94
287.906	358.94
288.138	378.94
288.369	357.94
288.6	376.94
288.831	367.94
289.062	353.94
289.293	358.94
289.524	374.94
289.755	362.94
289.986	349.94
290.217	372.94
290.448	364.94
290.679	361.94
290.91	381.94
291.141	349.94
291.371	363.94
291.602	376.94
291.833	360.94
292.064	374.94
292.295	352.94
292.526	365.94
292.757	357.94
292.987	358.94
293.218	359.94
293.449	371.94
293.68	375.94
293.91	372.94
294.141	341.94
294.372	346.94
294.603	365.94
294.833	374.94
295.064	379.94
295.295	377.94
295.525	366.94
295.756	368.94
295.987	371.94
296.217	371.94
296.448	390.94
296.679	379.94
296.909	364.94
297.14	387.94
297.37	369.94
297.601	379.94
297.831	379.94
298.062	369.94
298.292	371.94
298.523	392.94
298.753	409.94
298.984	391.94
299.214	382.94
299.445	395.94
299.675	380.94
299.905	385.94
300.136	397.94
300.366	399.94
300.597	389.94
300.827	417.94
301.057	413.94
301.288	408.94
301.518	427.94
301.748	414.94
301.979	429.94
302.209	406.94
302.439	417.94
302.669	398.94
302.9	415.94
303.13	397.94
303.36	430.94
303.59	407.94
303.82	405.94
304.051	410.94
304.281	412.94
304.511	435.94
304.741	409.94
304.971	395.94
305.201	416.94
305.431	403.94
305.661	406.94
305.891	417.94
306.121	420.94
306.352	407.94
306.582	404.94
306.812	424.94
307.042	415.94
307.272	413.94
307.502	441.94
307.731	422.94
307.961	423.94
308.191	421.94
308.421	392.94
308.651	403.94
308.881	427.94
309.111	420.94
309.341	443.94
309.571	421.94
309.8	436.94
310.03	430.94
310.26	425.94
310.49	429.94
310.72	446.94
310.949	433.94
311.179	473.94
311.409	466.94
311.639	449.94
311.868	451.94
312.098	449.94
312.328	456.94
312.557	469.94
312.787	469.94
313.017	464.94
313.246	449.94
313.476	455.94
313.706	450.94
313.935	473.94
314.165	466.94
314.394	470.94
314.624	471.94
314.853	463.94
315.083	466.94
315.312	467.94
315.542	453.94
315.771	441.94
316.001	449.94
316.23	452.94
316.46	450.94
316.689	461.94
316.919	449.94
317.148	482.94
317.377	467.94
317.607	478.94
317.836	450.94
318.065	455.94
318.295	443.94
318.524	463.94
318.753	454.94
318.983	430.94
319.212	471.94
319.441	471.94
319.67	444.94
319.9	463.94
320.129	445.94
320.358	458.94
320.587	458.94
320.816	466.94
321.046	451.94
321.275	475.94
321.504	481.94
321.733	484.94
321.962	490.94
322.191	490.94
322.42	499.94
322.649	508.94
322.878	509.94
323.108	493.94
323.337	527.94
323.566	512.94
323.795	574.94
324.024	598.94
324.253	655.94
324.482	854.94
324.71	1181.94
324.939	1698.94
325.168	1526.94
325.397	858.94
325.626	656.94
325.855	588.94
326.084	554.94
326.313	538.94
326.542	540.94
326.77	598.94
326.999	631.94
327.228	779.94
327.457	1110.94
327.686	1353.94
327.914	937.94
328.143	726.94
328.372	635.94
328.6	605.94
328.829	579.94
329.058	609.94
329.287	604.94
329.515	574.94
329.744	566.94
329.972	552.94
330.201	550.94
330.43	619.94
330.658	622.94
330.887	633.94
331.115	636.94
331.344	589.94
331.572	562.94
331.801	554.94
332.03	590.94
332.258	561.94
332.486	574.94
332.715	585.94
332.943	597.94
333.172	612.94
333.4	605.94
333.629	638.94
333.857	647.94
334.085	653.94
334.314	648.94
334.542	663.94
334.771	673.94
334.999	649.94
335.227	616.94
335.455	608.94
335.684	583.94
335.912	602.94
336.14	580.94
336.369	568.94
336.597	578.94
336.825	568.94
337.053	567.94
337.281	597.94
337.51	559.94
337.738	592.94
337.966	581.94
338.194	577.94
338.422	561.94
338.65	534.94
338.878	548.94
339.106	550.94
339.334	546.94
339.562	532.94
339.79	535.94
340.018	527.94
340.246	548.94
340.474	518.94
340.702	527.94
340.93	548.94
341.158	548.94
341.386	533.94
341.614	551.94
341.842	527.94
342.07	511.94
342.298	533.94
342.526	531.94
342.754	510.94
342.981	530.94
343.209	525.94
343.437	554.94
343.665	573.94
343.893	559.94
344.12	589.94
344.348	591.94
344.576	564.94
344.804	561.94
345.031	555.94
345.259	541.94
345.487	540.94
345.714	527.94
345.942	526.94
346.17	513.94
346.397	523.94
346.625	531.94
346.853	526.94
347.08	506.94
347.308	513.94
347.535	519.94
347.763	520.94
347.99	523.94
348.218	522.94
348.445	512.94
348.673	515.94
348.9	497.94
349.128	499.94
349.355	491.94
349.583	513.94
349.81	474.94
350.037	494.94
350.265	533.94
350.492	501.94
350.72	493.94
350.947	501.94
351.174	507.94
351.402	497.94
351.629	499.94
351.856	504.94
352.083	523.94
352.311	495.94
352.538	492.94
352.765	513.94
352.992	475.94
353.22	516.94
353.447	506.94
353.674	479.94
353.901	499.94
354.128	489.94
354.355	516.94
354.583	501.94
354.81	480.94
355.037	479.94
355.264	488.94
355.491	477.94
355.718	478.94
355.945	485.94
356.172	486.94
356.399	487.94
356.626	474.94
356.853	505.94
357.08	449.94
357.307	490.94
357.534	506.94
357.761	487.94
357.988	505.94
358.215	493.94
358.441	499.94
358.668	478.94
358.895	494.94
359.122	495.94
359.349	488.94
359.576	523.94
359.802	526.94
360.029	518.94
360.256	543.94
360.483	547.94
360.709	515.94
360.936	525.94
361.163	522.94
361.39	484.94
361.616	483.94
361.843	490.94
362.07	510.94
362.296	518.94
362.523	531.94
362.749	521.94
362.976	493.94
363.203	484.94
363.429	485.94
363.656	493.94
363.882	503.94
364.109	479.94
364.335	513.94
364.562	488.94
364.788	497.94
365.015	497.94
365.241	501.94
365.468	504.94
365.694	488.94
365.92	489.94
366.147	501.94
366.373	502.94
366.599	503.94
366.826	498.94
367.052	502.94
367.278	497.94
367.505	501.94
367.731	497.94
367.957	507.94
368.184	491.94
368.41	515.94
368.636	517.94
368.862	497.94
369.089	511.94
369.315	524.94
369.541	505.94
369.767	503.94
369.993	490.94
370.219	517.94
370.445	511.94
370.672	498.94
370.898	521.94
371.124	508.94
371.35	517.94
371.576	525.94
371.802	514.94
372.028	515.94
372.254	520.94
372.48	526.94
372.706	539.94
372.932	541.94
373.158	528.94
373.384	522.94
373.61	521.94
373.835	520.94
374.061	525.94
374.287	528.94
374.513	551.94
374.739	552.94
374.965	558.94
375.191	534.94
375.416	562.94
375.642	563.94
375.868	530.94
376.094	524.94
376.319	509.94
376.545	534.94
376.771	527.94
376.997	524.94
377.222	521.94
377.448	510.94
377.674	519.94
377.899	511.94
378.125	508.94
378.35	510.94
378.576	515.94
378.802	516.94
379.027	519.94
379.253	516.94
379.478	513.94
379.704	492.94
379.929	516.94
380.155	502.94
380.38	519.94
380.606	519.94
380.831	548.94
381.057	531.94
381.282	546.94
381.507	526.94
381.733	506.94
381.958	539.94
382.184	548.94
382.409	531.94
382.634	543.94
382.86	534.94
383.085	515.94
383.31	556.94
383.535	552.94
383.761	557.94
383.986	568.94
384.211	550.94
384.436	585.94
384.662	587.94
384.887	582.94
385.112	588.94
385.337	593.94
385.562	607.94
385.787	586.94
386.013	607.94
386.238	610.94
386.463	615.94
386.688	585.94
386.913	578.94
387.138	590.94
387.363	598.94
387.588	591.94
387.813	587.94
388.038	581.94
388.263	574.94
388.488	603.94
388.713	585.94
388.938	591.94
389.163	589.94
389.387	604.94
389.612	579.94
389.837	571.94
390.062	582.94
390.287	589.94
390.512	575.94
390.736	589.94
390.961	587.94
391.186	585.94
391.411	621.94
391.636	655.94
391.86	644.94
392.085	667.94
392.31	645.94
392.534	627.94
392.759	643.94
392.984	642.94
393.208	637.94
393.433	639.94
393.658	626.94
393.882	629.94
394.107	618.94
394.331	621.94
394.556	610.94
394.78	637.94
395.005	620.94
395.229	614.94
395.454	643.94
395.678	657.94
395.903	664.94
396.127	681.94
396.352	670.94
396.576	645.94
396.801	618.94
397.025	647.94
397.249	656.94
397.474	649.94
397.698	657.94
397.922	671.94
398.147	681.94
398.371	676.94
398.595	679.94
398.82	710.94
399.044	718.94
399.268	809.94
399.492	882.94
399.717	965.94
399.941	949.94
400.165	947.94
400.389	885.94
400.613	791.94
400.837	757.94
401.062	741.94
401.286	745.94
401.51	732.94
401.734	706.94
401.958	703.94
402.182	753.94
402.406	755.94
402.63	725.94
402.854	742.94
403.078	725.94
403.302	754.94
403.526	741.94
403.75	753.94
403.974	785.94
404.198	783.94
404.422	789.94
404.645	784.94
404.869	791.94
405.093	819.94
405.317	852.94
405.541	850.94
405.765	826.94
405.988	801.94
406.212	801.94
406.436	804.94
406.66	820.94
406.883	807.94
407.107	857.94
407.331	891.94
407.555	959.94
407.778	969.94
408.002	905.94
408.226	870.94
408.449	840.94
408.673	838.94
408.896	848.94
409.12	884.94
409.344	853.94
409.567	750.94
409.791	783.94
410.014	741.94
410.238	767.94
410.461	755.94
410.685	748.94
410.908	769.94
411.132	789.94
411.355	809.94
411.578	784.94
411.802	773.94
412.025	721.94
412.249	769.94
412.472	761.94
412.695	800.94
412.919	789.94
413.142	745.94
413.365	715.94
413.589	720.94
413.812	702.94
414.035	691.94
414.258	723.94
414.482	707.94
414.705	694.94
414.928	698.94
415.151	709.94
415.374	709.94
415.597	715.94
415.821	712.94
416.044	703.94
416.267	700.94
416.49	686.94
416.713	714.94
416.936	704.94
417.159	677.94
417.382	711.94
417.605	708.94
417.828	711.94
418.051	740.94
418.274	712.94
418.497	705.94
418.72	708.94
418.943	718.94
419.166	765.94
419.389	798.94
419.611	774.94
419.834	770.94
420.057	732.94
420.28	728.94
420.503	745.94
420.726	735.94
420.948	727.94
421.171	744.94
421.394	785.94
421.617	744.94
421.839	735.94
422.062	739.94
422.285	717.94
422.507	791.94
422.73	862.94
422.953	841.94
423.175	780.94
423.398	757.94
423.621	739.94
423.843	738.94
424.066	769.94
424.288	751.94
424.511	786.94
424.733	821.94
424.956	875.94
425.178	848.94
425.401	852.94
425.623	872.94
425.846	793.94
426.068	749.94
426.291	725.94
426.513	724.94
426.735	730.94
426.958	776.94
427.18	825.94
427.402	924.94
427.625	1009.94
427.847	873.94
428.069	783.94
428.292	745.94
428.514	700.94
428.736	685.94
428.958	691.94
429.181	663.94
429.403	682.94
429.625	685.94
429.847	701.94
430.069	737.94
430.292	743.94
430.514	677.94
430.736	683.94
430.958	640.94
431.18	642.94
431.402	662.94
431.624	634.94
431.846	679.94
432.068	652.94
432.29	672.94
432.512	669.94
432.734	676.94
432.956	681.94
433.178	672.94
433.4	656.94
433.622	637.94
433.844	662.94
434.066	653.94
434.287	653.94
434.509	678.94
434.731	680.94
434.953	718.94
435.175	731.94
435.397	720.94
435.618	770.94
435.84	740.94
436.062	808.94
436.284	881.94
436.505	779.94
436.727	722.94
436.949	687.94
437.17	670.94
437.392	681.94
437.614	673.94
437.835	705.94
438.057	762.94
438.278	847.94
438.5	845.94
438.721	907.94
438.943	881.94
439.165	759.94
439.386	699.94
439.608	700.94
439.829	689.94
440.05	712.94
440.272	790.94
440.493	750.94
440.715	705.94
440.936	714.94
441.158	705.94
441.379	686.94
441.6	722.94
441.822	743.94
442.043	776.94
442.264	847.94
442.486	843.94
442.707	799.94
442.928	742.94
443.149	760.94
443.371	773.94
443.592	795.94
443.813	889.94
444.034	957.94
444.255	850.94
444.476	790.94
444.698	806.94
444.919	819.94
445.14	887.94
445.361	833.94
445.582	793.94
445.803	833.94
446.024	916.94
446.245	857.94
446.466	825.94
446.687	745.94
446.908	721.94
447.129	676.94
447.35	656.94
447.571	640.94
447.792	635.94
448.013	663.94
448.234	649.94
448.455	687.94
448.675	786.94
448.896	851.94
449.117	773.94
449.338	721.94
449.559	794.94
449.779	888.94
450	783.94
450.221	678.94
450.442	661.94
450.662	640.94
450.883	649.94
451.104	637.94
451.324	622.94
451.545	619.94
451.766	603.94
451.986	595.94
452.207	592.94
452.428	614.94
452.648	606.94
452.869	597.94
453.089	609.94
453.31	645.94
453.53	580.94
453.751	614.94
453.971	576.94
454.192	597.94
454.412	580.94
454.633	600.94
454.853	599.94
455.073	590.94
455.294	594.94
455.514	653.94
455.734	639.94
455.955	594.94
456.175	563.94
456.395	571.94
456.616	569.94
456.836	559.94
457.056	567.94
457.276	551.94
457.497	563.94
457.717	575.94
457.937	562.94
458.157	586.94
458.377	619.94
458.598	590.94
458.818	659.94
459.038	716.94
459.258	735.94
459.478	690.94
459.698	673.94
459.918	680.94
460.138	685.94
460.358	700.94
460.578	715.94
460.798	728.94
461.018	729.94
461.238	727.94
461.458	707.94
461.678	734.94
461.898	742.94
462.118	719.94
462.338	739.94
462.558	772.94
462.777	791.94
462.997	821.94
463.217	875.94
463.437	876.94
463.657	830.94
463.876	796.94
464.096	793.94
464.316	809.94
464.536	838.94
464.755	827.94
464.975	757.94
465.195	774.94
465.414	793.94
465.634	745.94
465.854	720.94
466.073	669.94
466.293	656.94
466.512	649.94
466.732	636.94
466.951	644.94
467.171	607.94
467.391	639.94
467.61	635.94
467.829	621.94
468.049	645.94
468.268	618.94
468.488	622.94
468.707	619.94
468.927	625.94
469.146	622.94
469.365	599.94
469.585	622.94
469.804	634.94
470.023	653.94
470.243	664.94
470.462	643.94
470.681	661.94
470.901	657.94
471.12	640.94
471.339	616.94
471.558	644.94
471.777	627.94
471.997	607.94
472.216	636.94
472.435	651.94
472.654	638.94
472.873	633.94
473.092	629.94
473.311	603.94
473.53	629.94
473.749	628.94
473.968	667.94
474.187	736.94
474.406	746.94
474.625	661.94
474.844	611.94
475.063	631.94
475.282	603.94
475.501	611.94
475.72	639.94
475.939	645.94
476.158	639.94
476.377	646.94
476.596	645.94
476.814	673.94
477.033	655.94
477.252	646.94
477.471	699.94
477.69	679.94
477.908	703.94
478.127	701.94
478.346	715.94
478.564	718.94
478.783	710.94
479.002	777.94
479.22	743.94
479.439	740.94
479.658	772.94
479.876	779.94
480.095	796.94
480.313	805.94
480.532	829.94
480.751	824.94
480.969	817.94
481.188	835.94
481.406	851.94
481.624	783.94
481.843	741.94
482.061	737.94
482.28	719.94
482.498	734.94
482.717	708.94
482.935	705.94
483.153	706.94
483.372	710.94
483.59	724.94
483.808	723.94
484.027	742.94
484.245	711.94
484.463	713.94
484.681	738.94
484.9	769.94
485.118	733.94
485.336	727.94
485.554	739.94
485.772	773.94
485.99	753.94
486.209	765.94
486.427	744.94
486.645	758.94
486.863	762.94
487.081	748.94
487.299	756.94
487.517	772.94
487.735	784.94
487.953	782.94
488.171	766.94
488.389	774.94
488.607	762.94
488.825	776.94
489.043	782.94
489.261	765.94
489.479	803.94
489.696	778.94
489.914	785.94
490.132	802.94
490.35	814.94
490.568	811.94
490.786	817.94
491.003	812.94
491.221	829.94
491.439	848.94
491.657	848.94
491.874	849.94
492.092	858.94
492.31	877.94
492.527	883.94
492.745	885.94
492.963	875.94
493.18	894.94
493.398	871.94
493.615	875.94
493.833	911.94
494.05	903.94
494.268	895.94
494.485	889.94
494.703	903.94
494.92	892.94
495.138	896.94
495.355	886.94
495.573	902.94
495.79	913.94
496.008	931.94
496.225	919.94
496.442	912.94
496.66	923.94
496.877	912.94
497.094	939.94
497.312	952.94
497.529	983.94
497.746	966.94
497.963	993.94
498.181	1081.94
498.398	1061.94
498.615	1073.94
498.832	1139.94
499.049	1177.94
499.267	1240.94
499.484	1293.94
499.701	1406.94
499.918	1487.94
500.135	1662.94
500.352	1789.94
500.569	1777.94
500.786	1838.94
501.003	1797.94
501.22	1645.94
501.437	1527.94
501.654	1403.94
