Data from 1963.PennyLincolnUp.Lamp.En5.5.200Scan.071719.P1._HRD10591_13-58-21-063.txt Node
Date: Thu Jul 18 13:58:21 EDT 2019
User: cochatt
Spectrometer: HR+D1059
Trigger mode: 1
Integration Time (sec): 1.000000E-1
Scans to average: 1
Electric dark correction enabled: true
Nonlinearity correction enabled: false
Boxcar width: 0
XAxis mode: Wavelengths
Number of Pixels in Spectrum: 2048
>>>>>Begin Spectral Data<<<<<
223.165	-12.69
223.4	-12.69
223.635	-12.69
223.869	-10.69
224.104	-14.69
224.338	-21.69
224.573	-11.69
224.808	0.31
225.042	-11.69
225.277	-5.69
225.511	-13.69
225.746	2.31
225.98	0.31
226.215	9.31
226.449	22.31
226.683	13.31
226.918	32.31
227.152	22.31
227.387	34.31
227.621	42.31
227.856	42.31
228.09	45.31
228.324	43.31
228.559	53.31
228.793	53.31
229.027	94.31
229.262	120.31
229.496	118.31
229.73	106.31
229.964	143.31
230.199	107.31
230.433	112.31
230.667	117.31
230.901	110.31
231.136	108.31
231.37	100.31
231.604	100.31
231.838	115.31
232.072	120.31
232.306	124.31
232.541	113.31
232.775	117.31
233.009	118.31
233.243	121.31
233.477	136.31
233.711	128.31
233.945	108.31
234.179	126.31
234.413	126.31
234.647	124.31
234.881	128.31
235.115	113.31
235.349	113.31
235.583	121.31
235.817	119.31
236.051	136.31
236.285	131.31
236.519	127.31
236.753	124.31
236.987	153.31
237.221	165.31
237.455	206.31
237.689	166.31
237.922	139.31
238.156	139.31
238.39	129.31
238.624	137.31
238.858	131.31
239.091	150.31
239.325	131.31
239.559	133.31
239.793	140.31
240.027	141.31
240.26	145.31
240.494	170.31
240.728	142.31
240.961	164.31
241.195	154.31
241.429	142.31
241.662	144.31
241.896	140.31
242.13	143.31
242.363	160.31
242.597	142.31
242.83	132.31
243.064	143.31
243.298	148.31
243.531	153.31
243.765	157.31
243.998	158.31
244.232	153.31
244.465	147.31
244.699	156.31
244.932	161.31
245.166	158.31
245.399	177.31
245.633	152.31
245.866	161.31
246.099	160.31
246.333	170.31
246.566	165.31
246.8	166.31
247.033	185.31
247.266	165.31
247.5	173.31
247.733	192.31
247.966	180.31
248.2	179.31
248.433	195.31
248.666	176.31
248.899	200.31
249.133	187.31
249.366	217.31
249.599	200.31
249.832	197.31
250.066	192.31
250.299	203.31
250.532	208.31
250.765	204.31
250.998	233.31
251.231	232.31
251.465	233.31
251.698	218.31
251.931	222.31
252.164	215.31
252.397	205.31
252.63	218.31
252.863	211.31
253.096	218.31
253.329	220.31
253.562	227.31
253.795	228.31
254.028	227.31
254.261	231.31
254.494	231.31
254.727	233.31
254.96	257.31
255.193	262.31
255.426	260.31
255.659	249.31
255.892	244.31
256.124	248.31
256.357	254.31
256.59	227.31
256.823	248.31
257.056	239.31
257.289	224.31
257.521	218.31
257.754	234.31
257.987	222.31
258.22	230.31
258.452	238.31
258.685	236.31
258.918	229.31
259.151	219.31
259.383	236.31
259.616	217.31
259.849	226.31
260.081	262.31
260.314	254.31
260.547	264.31
260.779	260.31
261.012	256.31
261.244	224.31
261.477	241.31
261.71	231.31
261.942	245.31
262.175	247.31
262.407	240.31
262.64	240.31
262.872	249.31
263.105	229.31
263.337	241.31
263.57	235.31
263.802	249.31
264.035	256.31
264.267	236.31
264.499	240.31
264.732	245.31
264.964	240.31
265.197	254.31
265.429	249.31
265.661	234.31
265.894	233.31
266.126	260.31
266.358	243.31
266.591	244.31
266.823	269.31
267.055	258.31
267.287	251.31
267.52	251.31
267.752	246.31
267.984	274.31
268.216	258.31
268.448	278.31
268.681	260.31
268.913	275.31
269.145	281.31
269.377	293.31
269.609	293.31
269.841	299.31
270.073	277.31
270.306	310.31
270.538	309.31
270.77	329.31
271.002	335.31
271.234	298.31
271.466	304.31
271.698	327.31
271.93	365.31
272.162	322.31
272.394	336.31
272.626	323.31
272.858	330.31
273.09	316.31
273.322	285.31
273.553	306.31
273.785	304.31
274.017	298.31
274.249	285.31
274.481	290.31
274.713	292.31
274.945	313.31
275.176	321.31
275.408	311.31
275.64	299.31
275.872	310.31
276.104	301.31
276.335	314.31
276.567	301.31
276.799	313.31
277.031	342.31
277.262	343.31
277.494	342.31
277.726	333.31
277.957	326.31
278.189	321.31
278.421	316.31
278.652	313.31
278.884	320.31
279.115	321.31
279.347	317.31
279.579	317.31
279.81	322.31
280.042	310.31
280.273	326.31
280.505	315.31
280.736	323.31
280.968	306.31
281.199	310.31
281.431	328.31
281.662	324.31
281.894	337.31
282.125	314.31
282.356	343.31
282.588	349.31
282.819	352.31
283.051	314.31
283.282	332.31
283.513	316.31
283.745	332.31
283.976	351.31
284.207	338.31
284.439	327.31
284.67	346.31
284.901	322.31
285.132	345.31
285.364	341.31
285.595	344.31
285.826	342.31
286.057	349.31
286.288	365.31
286.52	354.31
286.751	353.31
286.982	346.31
287.213	344.31
287.444	357.31
287.675	361.31
287.906	355.31
288.138	377.31
288.369	350.31
288.6	362.31
288.831	346.31
289.062	378.31
289.293	340.31
289.524	352.31
289.755	365.31
289.986	346.31
290.217	344.31
290.448	370.31
290.679	359.31
290.91	359.31
291.141	369.31
291.371	364.31
291.602	349.31
291.833	365.31
292.064	373.31
292.295	367.31
292.526	363.31
292.757	328.31
292.987	361.31
293.218	353.31
293.449	380.31
293.68	380.31
293.91	367.31
294.141	361.31
294.372	357.31
294.603	350.31
294.833	371.31
295.064	372.31
295.295	363.31
295.525	369.31
295.756	388.31
295.987	385.31
296.217	388.31
296.448	398.31
296.679	364.31
296.909	364.31
297.14	390.31
297.37	368.31
297.601	386.31
297.831	388.31
298.062	372.31
298.292	411.31
298.523	377.31
298.753	388.31
298.984	386.31
299.214	393.31
299.445	398.31
299.675	381.31
299.905	382.31
300.136	398.31
300.366	387.31
300.597	386.31
300.827	386.31
301.057	406.31
301.288	394.31
301.518	431.31
301.748	410.31
301.979	405.31
302.209	394.31
302.439	412.31
302.669	421.31
302.9	402.31
303.13	390.31
303.36	408.31
303.59	398.31
303.82	417.31
304.051	419.31
304.281	420.31
304.511	420.31
304.741	410.31
304.971	410.31
305.201	420.31
305.431	409.31
305.661	412.31
305.891	380.31
306.121	396.31
306.352	421.31
306.582	424.31
306.812	396.31
307.042	404.31
307.272	380.31
307.502	410.31
307.731	424.31
307.961	394.31
308.191	413.31
308.421	406.31
308.651	412.31
308.881	420.31
309.111	400.31
309.341	416.31
309.571	413.31
309.8	449.31
310.03	432.31
310.26	431.31
310.49	405.31
310.72	436.31
310.949	432.31
311.179	466.31
311.409	448.31
311.639	448.31
311.868	426.31
312.098	469.31
312.328	444.31
312.557	461.31
312.787	460.31
313.017	459.31
313.246	447.31
313.476	453.31
313.706	466.31
313.935	456.31
314.165	466.31
314.394	483.31
314.624	467.31
314.853	459.31
315.083	457.31
315.312	453.31
315.542	449.31
315.771	452.31
316.001	456.31
316.23	470.31
316.46	424.31
316.689	472.31
316.919	445.31
317.148	456.31
317.377	469.31
317.607	462.31
317.836	449.31
318.065	469.31
318.295	447.31
318.524	457.31
318.753	476.31
318.983	460.31
319.212	443.31
319.441	469.31
319.67	473.31
319.9	464.31
320.129	468.31
320.358	465.31
320.587	460.31
320.816	462.31
321.046	462.31
321.275	490.31
321.504	452.31
321.733	469.31
321.962	478.31
322.191	463.31
322.42	483.31
322.649	496.31
322.878	483.31
323.108	502.31
323.337	497.31
323.566	514.31
323.795	552.31
324.024	566.31
324.253	627.31
324.482	788.31
324.71	1117.31
324.939	1571.31
325.168	1355.31
325.397	776.31
325.626	617.31
325.855	551.31
326.084	531.31
326.313	546.31
326.542	529.31
326.77	565.31
326.999	624.31
327.228	751.31
327.457	1069.31
327.686	1279.31
327.914	900.31
328.143	669.31
328.372	626.31
328.6	580.31
328.829	578.31
329.058	595.31
329.287	599.31
329.515	565.31
329.744	547.31
329.972	566.31
330.201	571.31
330.43	613.31
330.658	581.31
330.887	611.31
331.115	617.31
331.344	570.31
331.572	570.31
331.801	553.31
332.03	555.31
332.258	569.31
332.486	575.31
332.715	581.31
332.943	593.31
333.172	576.31
333.4	615.31
333.629	619.31
333.857	629.31
334.085	633.31
334.314	620.31
334.542	670.31
334.771	678.31
334.999	639.31
335.227	598.31
335.455	583.31
335.684	604.31
335.912	580.31
336.14	565.31
336.369	573.31
336.597	601.31
336.825	588.31
337.053	578.31
337.281	556.31
337.51	552.31
337.738	538.31
337.966	550.31
338.194	560.31
338.422	558.31
338.65	568.31
338.878	554.31
339.106	548.31
339.334	531.31
339.562	524.31
339.79	530.31
340.018	541.31
340.246	509.31
340.474	545.31
340.702	536.31
340.93	517.31
341.158	548.31
341.386	516.31
341.614	522.31
341.842	526.31
342.07	505.31
342.298	529.31
342.526	527.31
342.754	508.31
342.981	533.31
343.209	533.31
343.437	545.31
343.665	589.31
343.893	600.31
344.12	586.31
344.348	607.31
344.576	566.31
344.804	562.31
345.031	539.31
345.259	544.31
345.487	529.31
345.714	539.31
345.942	523.31
346.17	512.31
346.397	512.31
346.625	492.31
346.853	500.31
347.08	506.31
347.308	489.31
347.535	504.31
347.763	521.31
347.99	492.31
348.218	498.31
348.445	516.31
348.673	508.31
348.9	507.31
349.128	525.31
349.355	480.31
349.583	492.31
349.81	508.31
350.037	495.31
350.265	490.31
350.492	496.31
350.72	476.31
350.947	491.31
351.174	502.31
351.402	493.31
351.629	491.31
351.856	509.31
352.083	494.31
352.311	487.31
352.538	501.31
352.765	524.31
352.992	513.31
353.22	478.31
353.447	486.31
353.674	497.31
353.901	480.31
354.128	489.31
354.355	481.31
354.583	490.31
354.81	500.31
355.037	480.31
355.264	498.31
355.491	487.31
355.718	491.31
355.945	508.31
356.172	468.31
356.399	493.31
356.626	471.31
356.853	481.31
357.08	482.31
357.307	479.31
357.534	498.31
357.761	483.31
357.988	520.31
358.215	490.31
358.441	496.31
358.668	476.31
358.895	469.31
359.122	487.31
359.349	505.31
359.576	500.31
359.802	525.31
360.029	538.31
360.256	540.31
360.483	537.31
360.709	496.31
360.936	508.31
361.163	502.31
361.39	503.31
361.616	486.31
361.843	486.31
362.07	509.31
362.296	499.31
362.523	492.31
362.749	519.31
362.976	515.31
363.203	484.31
363.429	488.31
363.656	514.31
363.882	488.31
364.109	484.31
364.335	472.31
364.562	487.31
364.788	482.31
365.015	493.31
365.241	497.31
365.468	496.31
365.694	499.31
365.92	509.31
366.147	496.31
366.373	475.31
366.599	496.31
366.826	490.31
367.052	496.31
367.278	484.31
367.505	501.31
367.731	502.31
367.957	501.31
368.184	486.31
368.41	497.31
368.636	508.31
368.862	498.31
369.089	505.31
369.315	505.31
369.541	486.31
369.767	508.31
369.993	506.31
370.219	506.31
370.445	503.31
370.672	505.31
370.898	535.31
371.124	513.31
371.35	531.31
371.576	494.31
371.802	521.31
372.028	497.31
372.254	517.31
372.48	516.31
372.706	515.31
372.932	521.31
373.158	540.31
373.384	531.31
373.61	510.31
373.835	523.31
374.061	526.31
374.287	510.31
374.513	509.31
374.739	530.31
374.965	549.31
375.191	548.31
375.416	545.31
375.642	534.31
375.868	519.31
376.094	537.31
376.319	539.31
376.545	519.31
376.771	527.31
376.997	528.31
377.222	503.31
377.448	505.31
377.674	540.31
377.899	499.31
378.125	484.31
378.35	533.31
378.576	527.31
378.802	501.31
379.027	515.31
379.253	509.31
379.478	514.31
379.704	512.31
379.929	513.31
380.155	506.31
380.38	520.31
380.606	515.31
380.831	516.31
381.057	514.31
381.282	518.31
381.507	526.31
381.733	516.31
381.958	508.31
382.184	524.31
382.409	536.31
382.634	550.31
382.86	536.31
383.085	536.31
383.31	557.31
383.535	557.31
383.761	542.31
383.986	561.31
384.211	559.31
384.436	581.31
384.662	588.31
384.887	598.31
385.112	569.31
385.337	605.31
385.562	605.31
385.787	586.31
386.013	620.31
386.238	603.31
386.463	598.31
386.688	608.31
386.913	598.31
387.138	602.31
387.363	565.31
387.588	576.31
387.813	609.31
388.038	611.31
388.263	607.31
388.488	598.31
388.713	605.31
388.938	600.31
389.163	586.31
389.387	591.31
389.612	599.31
389.837	580.31
390.062	583.31
390.287	580.31
390.512	581.31
390.736	622.31
390.961	620.31
391.186	596.31
391.411	606.31
391.636	632.31
391.86	635.31
392.085	648.31
392.31	654.31
392.534	630.31
392.759	643.31
392.984	636.31
393.208	630.31
393.433	633.31
393.658	610.31
393.882	610.31
394.107	624.31
394.331	636.31
394.556	614.31
394.78	617.31
395.005	641.31
395.229	629.31
395.454	660.31
395.678	676.31
395.903	637.31
396.127	643.31
396.352	652.31
396.576	634.31
396.801	650.31
397.025	634.31
397.249	645.31
397.474	651.31
397.698	666.31
397.922	675.31
398.147	660.31
398.371	668.31
398.595	694.31
398.82	704.31
399.044	733.31
399.268	789.31
399.492	865.31
399.717	967.31
399.941	969.31
400.165	932.31
400.389	865.31
400.613	781.31
400.837	747.31
401.062	735.31
401.286	733.31
401.51	715.31
401.734	719.31
401.958	707.31
402.182	722.31
402.406	736.31
402.63	727.31
402.854	740.31
403.078	744.31
403.302	742.31
403.526	765.31
403.75	776.31
403.974	773.31
404.198	757.31
404.422	798.31
404.645	780.31
404.869	767.31
405.093	791.31
405.317	816.31
405.541	836.31
405.765	798.31
405.988	772.31
406.212	764.31
406.436	817.31
406.66	814.31
406.883	806.31
407.107	846.31
407.331	884.31
407.555	962.31
407.778	946.31
408.002	871.31
408.226	852.31
408.449	844.31
408.673	825.31
408.896	804.31
409.12	821.31
409.344	807.31
409.567	757.31
409.791	800.31
410.014	767.31
410.238	733.31
410.461	746.31
410.685	757.31
410.908	737.31
411.132	777.31
411.355	804.31
411.578	778.31
411.802	722.31
412.025	753.31
412.249	752.31
412.472	770.31
412.695	789.31
412.919	772.31
413.142	724.31
413.365	736.31
413.589	760.31
413.812	717.31
414.035	718.31
414.258	697.31
414.482	700.31
414.705	716.31
414.928	702.31
415.151	698.31
415.374	692.31
415.597	695.31
415.821	674.31
416.044	673.31
416.267	694.31
416.49	710.31
416.713	654.31
416.936	680.31
417.159	681.31
417.382	697.31
417.605	697.31
417.828	705.31
418.051	731.31
418.274	714.31
418.497	693.31
418.72	720.31
418.943	736.31
419.166	742.31
419.389	791.31
419.611	786.31
419.834	758.31
420.057	752.31
420.28	711.31
420.503	719.31
420.726	727.31
420.948	736.31
421.171	742.31
421.394	767.31
421.617	718.31
421.839	704.31
422.062	716.31
422.285	713.31
422.507	779.31
422.73	836.31
422.953	818.31
423.175	763.31
423.398	744.31
423.621	755.31
423.843	777.31
424.066	771.31
424.288	777.31
424.511	759.31
424.733	801.31
424.956	898.31
425.178	835.31
425.401	851.31
425.623	829.31
425.846	748.31
426.068	706.31
426.291	717.31
426.513	723.31
426.735	730.31
426.958	730.31
427.18	809.31
427.402	899.31
427.625	966.31
427.847	866.31
428.069	762.31
428.292	729.31
428.514	674.31
428.736	689.31
428.958	673.31
429.181	673.31
429.403	638.31
429.625	666.31
429.847	677.31
430.069	745.31
430.292	729.31
430.514	676.31
430.736	650.31
430.958	650.31
431.18	644.31
431.402	624.31
431.624	650.31
431.846	650.31
432.068	629.31
432.29	644.31
432.512	646.31
432.734	659.31
432.956	631.31
433.178	640.31
433.4	660.31
433.622	678.31
433.844	659.31
434.066	644.31
434.287	676.31
434.509	697.31
434.731	669.31
434.953	689.31
435.175	704.31
435.397	726.31
435.618	720.31
435.84	730.31
436.062	806.31
436.284	858.31
436.505	740.31
436.727	701.31
436.949	662.31
437.17	661.31
437.392	662.31
437.614	659.31
437.835	658.31
438.057	740.31
438.278	795.31
438.5	801.31
438.721	912.31
438.943	865.31
439.165	726.31
439.386	674.31
439.608	703.31
439.829	702.31
440.05	706.31
440.272	718.31
440.493	738.31
440.715	690.31
440.936	666.31
441.158	680.31
441.379	685.31
441.6	722.31
441.822	737.31
442.043	776.31
442.264	840.31
442.486	844.31
442.707	748.31
442.928	718.31
443.149	753.31
443.371	761.31
443.592	791.31
443.813	861.31
444.034	877.31
444.255	818.31
444.476	801.31
444.698	800.31
444.919	836.31
445.14	919.31
445.361	845.31
445.582	788.31
445.803	780.31
446.024	870.31
446.245	870.31
446.466	806.31
446.687	727.31
446.908	701.31
447.129	666.31
447.35	640.31
447.571	661.31
447.792	640.31
448.013	642.31
448.234	635.31
448.455	657.31
448.675	748.31
448.896	835.31
449.117	727.31
449.338	731.31
449.559	813.31
449.779	889.31
450	749.31
450.221	661.31
450.442	638.31
450.662	615.31
450.883	636.31
451.104	664.31
451.324	661.31
451.545	602.31
451.766	594.31
451.986	601.31
452.207	593.31
452.428	586.31
452.648	602.31
452.869	585.31
453.089	608.31
453.31	582.31
453.53	595.31
453.751	601.31
453.971	572.31
454.192	596.31
454.412	584.31
454.633	576.31
454.853	575.31
455.073	563.31
455.294	594.31
455.514	642.31
455.734	652.31
455.955	589.31
456.175	544.31
456.395	560.31
456.616	557.31
456.836	565.31
457.056	534.31
457.276	525.31
457.497	575.31
457.717	551.31
457.937	560.31
458.157	582.31
458.377	576.31
458.598	601.31
458.818	648.31
459.038	735.31
459.258	706.31
459.478	681.31
459.698	667.31
459.918	660.31
460.138	690.31
460.358	699.31
460.578	691.31
460.798	700.31
461.018	720.31
461.238	701.31
461.458	712.31
461.678	698.31
461.898	720.31
462.118	735.31
462.338	753.31
462.558	773.31
462.777	791.31
462.997	833.31
463.217	880.31
463.437	883.31
463.657	859.31
463.876	810.31
464.096	797.31
464.316	757.31
464.536	805.31
464.755	809.31
464.975	746.31
465.195	769.31
465.414	810.31
465.634	718.31
465.854	683.31
466.073	648.31
466.293	650.31
466.512	644.31
466.732	630.31
466.951	628.31
467.171	612.31
467.391	624.31
467.61	624.31
467.829	634.31
468.049	619.31
468.268	634.31
468.488	615.31
468.707	624.31
468.927	629.31
469.146	616.31
469.365	601.31
469.585	636.31
469.804	619.31
470.023	632.31
470.243	648.31
470.462	644.31
470.681	661.31
470.901	675.31
471.12	655.31
471.339	654.31
471.558	622.31
471.777	638.31
471.997	610.31
472.216	619.31
472.435	640.31
472.654	645.31
472.873	627.31
473.092	605.31
473.311	602.31
473.53	607.31
473.749	628.31
473.968	626.31
474.187	700.31
474.406	724.31
474.625	637.31
474.844	632.31
475.063	620.31
475.282	619.31
475.501	600.31
475.72	637.31
475.939	616.31
476.158	612.31
476.377	661.31
476.596	638.31
476.814	656.31
477.033	658.31
477.252	708.31
477.471	653.31
477.69	677.31
477.908	672.31
478.127	709.31
478.346	704.31
478.564	706.31
478.783	715.31
479.002	734.31
479.22	742.31
479.439	776.31
479.658	769.31
479.876	755.31
480.095	774.31
480.313	814.31
480.532	816.31
480.751	832.31
480.969	803.31
481.188	835.31
481.406	838.31
481.624	798.31
481.843	763.31
482.061	752.31
482.28	713.31
482.498	732.31
482.717	699.31
482.935	718.31
483.153	708.31
483.372	717.31
483.59	726.31
483.808	711.31
484.027	741.31
484.245	730.31
484.463	744.31
484.681	756.31
484.9	726.31
485.118	745.31
485.336	720.31
485.554	771.31
485.772	777.31
485.99	761.31
486.209	733.31
486.427	757.31
486.645	764.31
486.863	761.31
487.081	792.31
487.299	752.31
487.517	776.31
487.735	775.31
487.953	757.31
488.171	758.31
488.389	770.31
488.607	770.31
488.825	740.31
489.043	788.31
489.261	778.31
489.479	750.31
489.696	781.31
489.914	780.31
490.132	779.31
490.35	775.31
490.568	794.31
490.786	781.31
491.003	834.31
491.221	812.31
491.439	812.31
491.657	845.31
491.874	833.31
492.092	850.31
492.31	855.31
492.527	821.31
492.745	866.31
492.963	861.31
493.18	865.31
493.398	870.31
493.615	868.31
493.833	871.31
494.05	894.31
494.268	868.31
494.485	888.31
494.703	862.31
494.92	861.31
495.138	854.31
495.355	896.31
495.573	910.31
495.79	871.31
496.008	900.31
496.225	909.31
496.442	892.31
496.66	913.31
496.877	897.31
497.094	920.31
497.312	946.31
497.529	934.31
497.746	939.31
497.963	982.31
498.181	997.31
498.398	1015.31
498.615	1069.31
498.832	1131.31
499.049	1207.31
499.267	1204.31
499.484	1305.31
499.701	1413.31
499.918	1483.31
500.135	1617.31
500.352	1784.31
500.569	1842.31
500.786	1816.31
501.003	1761.31
501.22	1641.31
501.437	1504.31
501.654	1387.31
