Data from 1963.PennyLincolnUp.Lamp.En5.5.200Scan.071719.P1._HRD10591_13-59-52-064.txt Node
Date: Thu Jul 18 13:59:52 EDT 2019
User: cochatt
Spectrometer: HR+D1059
Trigger mode: 1
Integration Time (sec): 1.000000E-1
Scans to average: 1
Electric dark correction enabled: true
Nonlinearity correction enabled: false
Boxcar width: 0
XAxis mode: Wavelengths
Number of Pixels in Spectrum: 2048
>>>>>Begin Spectral Data<<<<<
223.165	-3.69
223.4	-3.69
223.635	-3.69
223.869	-10.69
224.104	-11.69
224.338	-4.69
224.573	-15.69
224.808	-2.69
225.042	-13.69
225.277	2.31
225.511	-4.69
225.746	-10.69
225.98	1.31
226.215	14.31
226.449	-1.69
226.683	10.31
226.918	30.31
227.152	21.31
227.387	30.31
227.621	41.31
227.856	34.31
228.09	35.31
228.324	59.31
228.559	57.31
228.793	72.31
229.027	98.31
229.262	105.31
229.496	120.31
229.73	119.31
229.964	147.31
230.199	129.31
230.433	113.31
230.667	115.31
230.901	115.31
231.136	113.31
231.37	126.31
231.604	106.31
231.838	111.31
232.072	123.31
232.306	127.31
232.541	115.31
232.775	124.31
233.009	115.31
233.243	122.31
233.477	127.31
233.711	120.31
233.945	123.31
234.179	121.31
234.413	131.31
234.647	123.31
234.881	126.31
235.115	122.31
235.349	118.31
235.583	116.31
235.817	143.31
236.051	135.31
236.285	122.31
236.519	132.31
236.753	134.31
236.987	146.31
237.221	183.31
237.455	198.31
237.689	172.31
237.922	140.31
238.156	122.31
238.39	141.31
238.624	129.31
238.858	149.31
239.091	149.31
239.325	134.31
239.559	128.31
239.793	141.31
240.027	138.31
240.26	156.31
240.494	179.31
240.728	153.31
240.961	148.31
241.195	149.31
241.429	143.31
241.662	132.31
241.896	150.31
242.13	157.31
242.363	140.31
242.597	145.31
242.83	146.31
243.064	153.31
243.298	147.31
243.531	166.31
243.765	146.31
243.998	152.31
244.232	165.31
244.465	151.31
244.699	173.31
244.932	177.31
245.166	169.31
245.399	157.31
245.633	151.31
245.866	161.31
246.099	165.31
246.333	176.31
246.566	163.31
246.8	158.31
247.033	168.31
247.266	177.31
247.5	178.31
247.733	175.31
247.966	176.31
248.2	190.31
248.433	187.31
248.666	195.31
248.899	191.31
249.133	214.31
249.366	236.31
249.599	198.31
249.832	197.31
250.066	212.31
250.299	190.31
250.532	220.31
250.765	207.31
250.998	219.31
251.231	240.31
251.465	211.31
251.698	213.31
251.931	203.31
252.164	221.31
252.397	231.31
252.63	221.31
252.863	206.31
253.096	221.31
253.329	251.31
253.562	238.31
253.795	219.31
254.028	212.31
254.261	258.31
254.494	235.31
254.727	255.31
254.96	276.31
255.193	271.31
255.426	266.31
255.659	253.31
255.892	254.31
256.124	235.31
256.357	265.31
256.59	243.31
256.823	231.31
257.056	246.31
257.289	233.31
257.521	229.31
257.754	237.31
257.987	236.31
258.22	230.31
258.452	231.31
258.685	232.31
258.918	233.31
259.151	221.31
259.383	220.31
259.616	233.31
259.849	234.31
260.081	247.31
260.314	255.31
260.547	263.31
260.779	245.31
261.012	261.31
261.244	275.31
261.477	247.31
261.71	234.31
261.942	241.31
262.175	255.31
262.407	265.31
262.64	254.31
262.872	243.31
263.105	244.31
263.337	250.31
263.57	245.31
263.802	248.31
264.035	259.31
264.267	247.31
264.499	255.31
264.732	234.31
264.964	230.31
265.197	247.31
265.429	245.31
265.661	260.31
265.894	255.31
266.126	254.31
266.358	259.31
266.591	250.31
266.823	252.31
267.055	272.31
267.287	281.31
267.52	268.31
267.752	271.31
267.984	261.31
268.216	283.31
268.448	267.31
268.681	271.31
268.913	280.31
269.145	301.31
269.377	329.31
269.609	293.31
269.841	301.31
270.073	290.31
270.306	315.31
270.538	341.31
270.77	330.31
271.002	315.31
271.234	327.31
271.466	334.31
271.698	339.31
271.93	345.31
272.162	338.31
272.394	351.31
272.626	342.31
272.858	334.31
273.09	321.31
273.322	309.31
273.553	287.31
273.785	299.31
274.017	304.31
274.249	320.31
274.481	290.31
274.713	313.31
274.945	313.31
275.176	325.31
275.408	293.31
275.64	318.31
275.872	310.31
276.104	312.31
276.335	297.31
276.567	311.31
276.799	327.31
277.031	309.31
277.262	342.31
277.494	365.31
277.726	349.31
277.957	321.31
278.189	317.31
278.421	337.31
278.652	322.31
278.884	329.31
279.115	315.31
279.347	313.31
279.579	324.31
279.81	292.31
280.042	313.31
280.273	320.31
280.505	323.31
280.736	320.31
280.968	318.31
281.199	339.31
281.431	313.31
281.662	341.31
281.894	341.31
282.125	334.31
282.356	331.31
282.588	362.31
282.819	369.31
283.051	339.31
283.282	313.31
283.513	325.31
283.745	331.31
283.976	336.31
284.207	363.31
284.439	355.31
284.67	352.31
284.901	351.31
285.132	359.31
285.364	345.31
285.595	343.31
285.826	333.31
286.057	333.31
286.288	342.31
286.52	330.31
286.751	360.31
286.982	351.31
287.213	345.31
287.444	342.31
287.675	351.31
287.906	348.31
288.138	358.31
288.369	369.31
288.6	349.31
288.831	369.31
289.062	373.31
289.293	345.31
289.524	345.31
289.755	365.31
289.986	359.31
290.217	367.31
290.448	361.31
290.679	334.31
290.91	335.31
291.141	367.31
291.371	353.31
291.602	363.31
291.833	364.31
292.064	370.31
292.295	384.31
292.526	359.31
292.757	373.31
292.987	355.31
293.218	356.31
293.449	361.31
293.68	382.31
293.91	359.31
294.141	373.31
294.372	361.31
294.603	369.31
294.833	355.31
295.064	387.31
295.295	358.31
295.525	341.31
295.756	376.31
295.987	381.31
296.217	399.31
296.448	406.31
296.679	379.31
296.909	377.31
297.14	390.31
297.37	379.31
297.601	392.31
297.831	375.31
298.062	389.31
298.292	379.31
298.523	406.31
298.753	398.31
298.984	388.31
299.214	395.31
299.445	387.31
299.675	406.31
299.905	395.31
300.136	389.31
300.366	404.31
300.597	381.31
300.827	402.31
301.057	420.31
301.288	421.31
301.518	433.31
301.748	414.31
301.979	411.31
302.209	417.31
302.439	404.31
302.669	400.31
302.9	413.31
303.13	416.31
303.36	388.31
303.59	417.31
303.82	413.31
304.051	430.31
304.281	407.31
304.511	410.31
304.741	413.31
304.971	421.31
305.201	392.31
305.431	430.31
305.661	412.31
305.891	397.31
306.121	424.31
306.352	405.31
306.582	402.31
306.812	389.31
307.042	403.31
307.272	414.31
307.502	393.31
307.731	425.31
307.961	406.31
308.191	414.31
308.421	421.31
308.651	425.31
308.881	428.31
309.111	417.31
309.341	433.31
309.571	414.31
309.8	414.31
310.03	454.31
310.26	439.31
310.49	438.31
310.72	449.31
310.949	445.31
311.179	454.31
311.409	470.31
311.639	468.31
311.868	445.31
312.098	440.31
312.328	454.31
312.557	473.31
312.787	481.31
313.017	462.31
313.246	452.31
313.476	442.31
313.706	467.31
313.935	469.31
314.165	460.31
314.394	461.31
314.624	475.31
314.853	466.31
315.083	455.31
315.312	464.31
315.542	457.31
315.771	460.31
316.001	460.31
316.23	453.31
316.46	448.31
316.689	439.31
316.919	466.31
317.148	475.31
317.377	466.31
317.607	444.31
317.836	461.31
318.065	462.31
318.295	445.31
318.524	451.31
318.753	455.31
318.983	452.31
319.212	442.31
319.441	453.31
319.67	481.31
319.9	456.31
320.129	449.31
320.358	475.31
320.587	477.31
320.816	447.31
321.046	469.31
321.275	467.31
321.504	464.31
321.733	452.31
321.962	463.31
322.191	480.31
322.42	514.31
322.649	501.31
322.878	500.31
323.108	499.31
323.337	535.31
323.566	541.31
323.795	583.31
324.024	593.31
324.253	649.31
324.482	827.31
324.71	1199.31
324.939	1753.31
325.168	1544.31
325.397	865.31
325.626	643.31
325.855	581.31
326.084	555.31
326.313	567.31
326.542	553.31
326.77	565.31
326.999	619.31
327.228	819.31
327.457	1143.31
327.686	1380.31
327.914	965.31
328.143	696.31
328.372	641.31
328.6	596.31
328.829	599.31
329.058	597.31
329.287	614.31
329.515	599.31
329.744	569.31
329.972	577.31
330.201	577.31
330.43	597.31
330.658	612.31
330.887	641.31
331.115	620.31
331.344	588.31
331.572	572.31
331.801	568.31
332.03	582.31
332.258	567.31
332.486	550.31
332.715	593.31
332.943	604.31
333.172	612.31
333.4	626.31
333.629	625.31
333.857	645.31
334.085	654.31
334.314	653.31
334.542	660.31
334.771	675.31
334.999	641.31
335.227	608.31
335.455	612.31
335.684	599.31
335.912	582.31
336.14	576.31
336.369	578.31
336.597	581.31
336.825	596.31
337.053	593.31
337.281	554.31
337.51	556.31
337.738	556.31
337.966	547.31
338.194	546.31
338.422	561.31
338.65	563.31
338.878	561.31
339.106	549.31
339.334	541.31
339.562	537.31
339.79	526.31
340.018	515.31
340.246	523.31
340.474	537.31
340.702	535.31
340.93	542.31
341.158	526.31
341.386	508.31
341.614	531.31
341.842	546.31
342.07	509.31
342.298	531.31
342.526	546.31
342.754	508.31
342.981	494.31
343.209	530.31
343.437	545.31
343.665	571.31
343.893	586.31
344.12	572.31
344.348	594.31
344.576	575.31
344.804	553.31
345.031	555.31
345.259	527.31
345.487	527.31
345.714	526.31
345.942	519.31
346.17	510.31
346.397	502.31
346.625	518.31
346.853	511.31
347.08	516.31
347.308	508.31
347.535	500.31
347.763	519.31
347.99	529.31
348.218	522.31
348.445	529.31
348.673	515.31
348.9	527.31
349.128	514.31
349.355	510.31
349.583	522.31
349.81	507.31
350.037	494.31
350.265	487.31
350.492	488.31
350.72	478.31
350.947	500.31
351.174	506.31
351.402	517.31
351.629	508.31
351.856	490.31
352.083	492.31
352.311	513.31
352.538	517.31
352.765	506.31
352.992	507.31
353.22	483.31
353.447	488.31
353.674	486.31
353.901	494.31
354.128	499.31
354.355	499.31
354.583	486.31
354.81	483.31
355.037	493.31
355.264	508.31
355.491	495.31
355.718	494.31
355.945	478.31
356.172	472.31
356.399	517.31
356.626	502.31
356.853	484.31
357.08	491.31
357.307	489.31
357.534	519.31
357.761	487.31
357.988	504.31
358.215	515.31
358.441	485.31
358.668	460.31
358.895	486.31
359.122	485.31
359.349	498.31
359.576	507.31
359.802	504.31
360.029	547.31
360.256	536.31
360.483	535.31
360.709	517.31
360.936	516.31
361.163	504.31
361.39	517.31
361.616	521.31
361.843	512.31
362.07	506.31
362.296	519.31
362.523	515.31
362.749	508.31
362.976	514.31
363.203	495.31
363.429	495.31
363.656	503.31
363.882	498.31
364.109	501.31
364.335	483.31
364.562	478.31
364.788	476.31
365.015	490.31
365.241	488.31
365.468	495.31
365.694	523.31
365.92	520.31
366.147	498.31
366.373	489.31
366.599	490.31
366.826	491.31
367.052	478.31
367.278	488.31
367.505	494.31
367.731	486.31
367.957	486.31
368.184	483.31
368.41	519.31
368.636	520.31
368.862	506.31
369.089	522.31
369.315	488.31
369.541	499.31
369.767	513.31
369.993	499.31
370.219	489.31
370.445	509.31
370.672	533.31
370.898	524.31
371.124	501.31
371.35	511.31
371.576	518.31
371.802	509.31
372.028	525.31
372.254	543.31
372.48	525.31
372.706	526.31
372.932	527.31
373.158	542.31
373.384	529.31
373.61	523.31
373.835	513.31
374.061	519.31
374.287	519.31
374.513	544.31
374.739	537.31
374.965	555.31
375.191	561.31
375.416	555.31
375.642	528.31
375.868	543.31
376.094	517.31
376.319	516.31
376.545	532.31
376.771	516.31
376.997	509.31
377.222	514.31
377.448	533.31
377.674	517.31
377.899	502.31
378.125	518.31
378.35	507.31
378.576	528.31
378.802	532.31
379.027	523.31
379.253	486.31
379.478	511.31
379.704	539.31
379.929	526.31
380.155	510.31
380.38	494.31
380.606	509.31
380.831	525.31
381.057	521.31
381.282	505.31
381.507	501.31
381.733	525.31
381.958	515.31
382.184	522.31
382.409	551.31
382.634	541.31
382.86	528.31
383.085	532.31
383.31	525.31
383.535	551.31
383.761	567.31
383.986	581.31
384.211	547.31
384.436	558.31
384.662	582.31
384.887	599.31
385.112	580.31
385.337	582.31
385.562	558.31
385.787	595.31
386.013	590.31
386.238	579.31
386.463	600.31
386.688	596.31
386.913	592.31
387.138	586.31
387.363	616.31
387.588	601.31
387.813	597.31
388.038	593.31
388.263	595.31
388.488	592.31
388.713	629.31
388.938	618.31
389.163	597.31
389.387	602.31
389.612	571.31
389.837	573.31
390.062	586.31
390.287	588.31
390.512	598.31
390.736	601.31
390.961	604.31
391.186	599.31
391.411	628.31
391.636	619.31
391.86	632.31
392.085	619.31
392.31	623.31
392.534	632.31
392.759	635.31
392.984	604.31
393.208	618.31
393.433	607.31
393.658	609.31
393.882	622.31
394.107	618.31
394.331	630.31
394.556	617.31
394.78	606.31
395.005	617.31
395.229	619.31
395.454	635.31
395.678	663.31
395.903	637.31
396.127	671.31
396.352	661.31
396.576	623.31
396.801	623.31
397.025	629.31
397.249	621.31
397.474	638.31
397.698	668.31
397.922	680.31
398.147	681.31
398.371	682.31
398.595	667.31
398.82	719.31
399.044	738.31
399.268	795.31
399.492	888.31
399.717	937.31
399.941	943.31
400.165	924.31
400.389	910.31
400.613	797.31
400.837	749.31
401.062	750.31
401.286	716.31
401.51	706.31
401.734	692.31
401.958	732.31
402.182	734.31
402.406	715.31
402.63	760.31
402.854	715.31
403.078	749.31
403.302	736.31
403.526	781.31
403.75	789.31
403.974	793.31
404.198	790.31
404.422	786.31
404.645	788.31
404.869	808.31
405.093	813.31
405.317	820.31
405.541	842.31
405.765	807.31
405.988	767.31
406.212	794.31
406.436	791.31
406.66	834.31
406.883	793.31
407.107	851.31
407.331	873.31
407.555	941.31
407.778	950.31
408.002	898.31
408.226	851.31
408.449	849.31
408.673	835.31
408.896	833.31
409.12	848.31
409.344	817.31
409.567	766.31
409.791	759.31
410.014	736.31
410.238	771.31
410.461	783.31
410.685	771.31
410.908	763.31
411.132	777.31
411.355	786.31
411.578	781.31
411.802	707.31
412.025	721.31
412.249	766.31
412.472	775.31
412.695	789.31
412.919	788.31
413.142	725.31
413.365	728.31
413.589	732.31
413.812	711.31
414.035	691.31
414.258	713.31
414.482	697.31
414.705	721.31
414.928	712.31
415.151	699.31
415.374	718.31
415.597	693.31
415.821	685.31
416.044	677.31
416.267	711.31
416.49	654.31
416.713	698.31
416.936	697.31
417.159	705.31
417.382	710.31
417.605	713.31
417.828	697.31
418.051	715.31
418.274	723.31
418.497	713.31
418.72	712.31
418.943	725.31
419.166	731.31
419.389	784.31
419.611	767.31
419.834	753.31
420.057	733.31
420.28	740.31
420.503	742.31
420.726	709.31
420.948	721.31
421.171	753.31
421.394	796.31
421.617	730.31
421.839	744.31
422.062	730.31
422.285	747.31
422.507	797.31
422.73	845.31
422.953	834.31
423.175	778.31
423.398	733.31
423.621	763.31
423.843	754.31
424.066	762.31
424.288	775.31
424.511	777.31
424.733	805.31
424.956	882.31
425.178	847.31
425.401	856.31
425.623	877.31
425.846	783.31
426.068	726.31
426.291	717.31
426.513	715.31
426.735	706.31
426.958	765.31
427.18	793.31
427.402	947.31
427.625	1027.31
427.847	871.31
428.069	781.31
428.292	746.31
428.514	702.31
428.736	673.31
428.958	690.31
429.181	677.31
429.403	687.31
429.625	667.31
429.847	686.31
430.069	748.31
430.292	735.31
430.514	677.31
430.736	669.31
430.958	670.31
431.18	667.31
431.402	653.31
431.624	637.31
431.846	620.31
432.068	639.31
432.29	661.31
432.512	666.31
432.734	666.31
432.956	653.31
433.178	651.31
433.4	664.31
433.622	643.31
433.844	663.31
434.066	666.31
434.287	653.31
434.509	675.31
434.731	696.31
434.953	717.31
435.175	702.31
435.397	745.31
435.618	734.31
435.84	727.31
436.062	806.31
436.284	874.31
436.505	755.31
436.727	705.31
436.949	666.31
437.17	667.31
437.392	671.31
437.614	709.31
437.835	726.31
438.057	744.31
438.278	842.31
438.5	868.31
438.721	931.31
438.943	894.31
439.165	723.31
439.386	709.31
439.608	695.31
439.829	727.31
440.05	719.31
440.272	773.31
440.493	752.31
440.715	719.31
440.936	686.31
441.158	686.31
441.379	693.31
441.6	719.31
441.822	723.31
442.043	764.31
442.264	832.31
442.486	851.31
442.707	751.31
442.928	739.31
443.149	748.31
443.371	769.31
443.592	809.31
443.813	866.31
444.034	915.31
444.255	835.31
444.476	778.31
444.698	781.31
444.919	813.31
445.14	928.31
445.361	827.31
445.582	837.31
445.803	827.31
446.024	889.31
446.245	899.31
446.466	837.31
446.687	719.31
446.908	699.31
447.129	674.31
447.35	665.31
447.571	667.31
447.792	650.31
448.013	655.31
448.234	671.31
448.455	677.31
448.675	789.31
448.896	895.31
449.117	778.31
449.338	733.31
449.559	837.31
449.779	925.31
450	779.31
450.221	677.31
450.442	635.31
450.662	655.31
450.883	651.31
451.104	637.31
451.324	647.31
451.545	609.31
451.766	633.31
451.986	609.31
452.207	584.31
452.428	595.31
452.648	613.31
452.869	583.31
453.089	610.31
453.31	609.31
453.53	589.31
453.751	614.31
453.971	589.31
454.192	611.31
454.412	567.31
454.633	592.31
454.853	566.31
455.073	597.31
455.294	606.31
455.514	676.31
455.734	644.31
455.955	581.31
456.175	581.31
456.395	541.31
456.616	523.31
456.836	561.31
457.056	584.31
457.276	550.31
457.497	581.31
457.717	581.31
457.937	564.31
458.157	595.31
458.377	603.31
458.598	610.31
458.818	657.31
459.038	684.31
459.258	735.31
459.478	699.31
459.698	635.31
459.918	673.31
460.138	679.31
460.358	699.31
460.578	691.31
460.798	711.31
461.018	728.31
461.238	689.31
461.458	691.31
461.678	719.31
461.898	726.31
462.118	717.31
462.338	745.31
462.558	790.31
462.777	767.31
462.997	825.31
463.217	867.31
463.437	865.31
463.657	852.31
463.876	784.31
464.096	799.31
464.316	810.31
464.536	827.31
464.755	756.31
464.975	785.31
465.195	789.31
465.414	826.31
465.634	743.31
465.854	685.31
466.073	659.31
466.293	638.31
466.512	639.31
466.732	627.31
466.951	633.31
467.171	618.31
467.391	641.31
467.61	631.31
467.829	628.31
468.049	645.31
468.268	623.31
468.488	617.31
468.707	599.31
468.927	619.31
469.146	618.31
469.365	607.31
469.585	631.31
469.804	639.31
470.023	662.31
470.243	635.31
470.462	662.31
470.681	671.31
470.901	673.31
471.12	645.31
471.339	649.31
471.558	652.31
471.777	605.31
471.997	629.31
472.216	632.31
472.435	647.31
472.654	655.31
472.873	597.31
473.092	617.31
473.311	617.31
473.53	610.31
473.749	619.31
473.968	644.31
474.187	715.31
474.406	750.31
474.625	662.31
474.844	621.31
475.063	629.31
475.282	601.31
475.501	657.31
475.72	615.31
475.939	613.31
476.158	615.31
476.377	631.31
476.596	622.31
476.814	639.31
477.033	657.31
477.252	671.31
477.471	634.31
477.69	661.31
477.908	685.31
478.127	713.31
478.346	701.31
478.564	718.31
478.783	716.31
479.002	747.31
479.22	739.31
479.439	773.31
479.658	767.31
479.876	775.31
480.095	773.31
480.313	822.31
480.532	801.31
480.751	801.31
480.969	826.31
481.188	842.31
481.406	867.31
481.624	779.31
481.843	779.31
482.061	729.31
482.28	720.31
482.498	716.31
482.717	709.31
482.935	739.31
483.153	723.31
483.372	716.31
483.59	728.31
483.808	745.31
484.027	735.31
484.245	715.31
484.463	731.31
484.681	756.31
484.9	749.31
485.118	765.31
485.336	737.31
485.554	767.31
485.772	753.31
485.99	763.31
486.209	747.31
486.427	750.31
486.645	743.31
486.863	777.31
487.081	787.31
487.299	755.31
487.517	757.31
487.735	787.31
487.953	787.31
488.171	758.31
488.389	760.31
488.607	748.31
488.825	780.31
489.043	778.31
489.261	767.31
489.479	759.31
489.696	758.31
489.914	792.31
490.132	809.31
490.35	790.31
490.568	776.31
490.786	811.31
491.003	825.31
491.221	847.31
491.439	830.31
491.657	830.31
491.874	834.31
492.092	857.31
492.31	873.31
492.527	859.31
492.745	887.31
492.963	901.31
493.18	876.31
493.398	906.31
493.615	899.31
493.833	911.31
494.05	906.31
494.268	904.31
494.485	879.31
494.703	894.31
494.92	893.31
495.138	906.31
495.355	891.31
495.573	900.31
495.79	899.31
496.008	909.31
496.225	886.31
496.442	885.31
496.66	908.31
496.877	931.31
497.094	923.31
497.312	937.31
497.529	957.31
497.746	981.31
497.963	998.31
498.181	1023.31
498.398	1048.31
498.615	1102.31
498.832	1128.31
499.049	1190.31
499.267	1228.31
499.484	1328.31
499.701	1416.31
499.918	1504.31
500.135	1590.31
500.352	1729.31
500.569	1804.31
500.786	1847.31
501.003	1706.31
501.22	1636.31
501.437	1495.31
501.654	1378.31
