Data from 1963.PennyLincolnUp.Lamp.En5.5.200Scan.071719.P1._HRD10591_13-57-39-062.txt Node
Date: Thu Jul 18 13:57:39 EDT 2019
User: cochatt
Spectrometer: HR+D1059
Trigger mode: 1
Integration Time (sec): 1.000000E-1
Scans to average: 1
Electric dark correction enabled: true
Nonlinearity correction enabled: false
Boxcar width: 0
XAxis mode: Wavelengths
Number of Pixels in Spectrum: 2048
>>>>>Begin Spectral Data<<<<<
223.165	-3.5
223.4	-3.5
223.635	-3.5
223.869	-17.5
224.104	-36.5
224.338	-12.5
224.573	-15.5
224.808	-26.5
225.042	-11.5
225.277	2.5
225.511	1.5
225.746	12.5
225.98	9.5
226.215	-1.5
226.449	12.5
226.683	11.5
226.918	36.5
227.152	38.5
227.387	26.5
227.621	46.5
227.856	36.5
228.09	30.5
228.324	47.5
228.559	43.5
228.793	55.5
229.027	83.5
229.262	83.5
229.496	108.5
229.73	114.5
229.964	126.5
230.199	98.5
230.433	102.5
230.667	107.5
230.901	110.5
231.136	112.5
231.37	112.5
231.604	105.5
231.838	120.5
232.072	113.5
232.306	106.5
232.541	113.5
232.775	112.5
233.009	114.5
233.243	106.5
233.477	107.5
233.711	120.5
233.945	121.5
234.179	109.5
234.413	116.5
234.647	120.5
234.881	119.5
235.115	125.5
235.349	109.5
235.583	116.5
235.817	130.5
236.051	123.5
236.285	121.5
236.519	127.5
236.753	114.5
236.987	131.5
237.221	151.5
237.455	179.5
237.689	137.5
237.922	131.5
238.156	140.5
238.39	142.5
238.624	128.5
238.858	122.5
239.091	118.5
239.325	129.5
239.559	132.5
239.793	118.5
240.027	131.5
240.26	147.5
240.494	143.5
240.728	136.5
240.961	150.5
241.195	139.5
241.429	132.5
241.662	129.5
241.896	138.5
242.13	138.5
242.363	144.5
242.597	156.5
242.83	153.5
243.064	130.5
243.298	146.5
243.531	143.5
243.765	144.5
243.998	146.5
244.232	145.5
244.465	146.5
244.699	153.5
244.932	154.5
245.166	154.5
245.399	156.5
245.633	160.5
245.866	147.5
246.099	151.5
246.333	158.5
246.566	152.5
246.8	155.5
247.033	158.5
247.266	163.5
247.5	175.5
247.733	176.5
247.966	192.5
248.2	179.5
248.433	160.5
248.666	169.5
248.899	202.5
249.133	199.5
249.366	194.5
249.599	183.5
249.832	175.5
250.066	171.5
250.299	183.5
250.532	192.5
250.765	188.5
250.998	196.5
251.231	207.5
251.465	194.5
251.698	202.5
251.931	192.5
252.164	180.5
252.397	193.5
252.63	198.5
252.863	212.5
253.096	218.5
253.329	226.5
253.562	196.5
253.795	211.5
254.028	196.5
254.261	210.5
254.494	227.5
254.727	223.5
254.96	242.5
255.193	243.5
255.426	241.5
255.659	225.5
255.892	227.5
256.124	233.5
256.357	219.5
256.59	215.5
256.823	204.5
257.056	211.5
257.289	211.5
257.521	209.5
257.754	227.5
257.987	216.5
258.22	216.5
258.452	218.5
258.685	223.5
258.918	206.5
259.151	222.5
259.383	227.5
259.616	242.5
259.849	230.5
260.081	234.5
260.314	241.5
260.547	234.5
260.779	250.5
261.012	247.5
261.244	229.5
261.477	254.5
261.71	228.5
261.942	233.5
262.175	204.5
262.407	215.5
262.64	227.5
262.872	218.5
263.105	234.5
263.337	232.5
263.57	223.5
263.802	231.5
264.035	225.5
264.267	237.5
264.499	232.5
264.732	234.5
264.964	253.5
265.197	244.5
265.429	232.5
265.661	234.5
265.894	238.5
266.126	240.5
266.358	238.5
266.591	227.5
266.823	249.5
267.055	250.5
267.287	254.5
267.52	219.5
267.752	231.5
267.984	246.5
268.216	245.5
268.448	256.5
268.681	250.5
268.913	252.5
269.145	259.5
269.377	258.5
269.609	253.5
269.841	263.5
270.073	254.5
270.306	282.5
270.538	298.5
270.77	295.5
271.002	286.5
271.234	283.5
271.466	273.5
271.698	308.5
271.93	306.5
272.162	309.5
272.394	292.5
272.626	302.5
272.858	265.5
273.09	271.5
273.322	289.5
273.553	274.5
273.785	263.5
274.017	280.5
274.249	279.5
274.481	282.5
274.713	266.5
274.945	290.5
275.176	274.5
275.408	292.5
275.64	267.5
275.872	277.5
276.104	260.5
276.335	280.5
276.567	291.5
276.799	275.5
277.031	282.5
277.262	322.5
277.494	307.5
277.726	292.5
277.957	298.5
278.189	304.5
278.421	296.5
278.652	308.5
278.884	294.5
279.115	292.5
279.347	304.5
279.579	298.5
279.81	306.5
280.042	288.5
280.273	304.5
280.505	305.5
280.736	293.5
280.968	288.5
281.199	303.5
281.431	296.5
281.662	282.5
281.894	303.5
282.125	324.5
282.356	319.5
282.588	320.5
282.819	331.5
283.051	313.5
283.282	318.5
283.513	318.5
283.745	298.5
283.976	310.5
284.207	336.5
284.439	333.5
284.67	309.5
284.901	325.5
285.132	332.5
285.364	308.5
285.595	316.5
285.826	311.5
286.057	305.5
286.288	312.5
286.52	307.5
286.751	330.5
286.982	359.5
287.213	322.5
287.444	318.5
287.675	314.5
287.906	338.5
288.138	368.5
288.369	345.5
288.6	345.5
288.831	336.5
289.062	348.5
289.293	330.5
289.524	347.5
289.755	343.5
289.986	320.5
290.217	340.5
290.448	345.5
290.679	348.5
290.91	320.5
291.141	320.5
291.371	351.5
291.602	344.5
291.833	336.5
292.064	336.5
292.295	343.5
292.526	330.5
292.757	346.5
292.987	361.5
293.218	336.5
293.449	354.5
293.68	357.5
293.91	341.5
294.141	333.5
294.372	354.5
294.603	330.5
294.833	356.5
295.064	350.5
295.295	356.5
295.525	331.5
295.756	359.5
295.987	338.5
296.217	361.5
296.448	368.5
296.679	356.5
296.909	374.5
297.14	354.5
297.37	356.5
297.601	366.5
297.831	356.5
298.062	358.5
298.292	360.5
298.523	374.5
298.753	379.5
298.984	364.5
299.214	370.5
299.445	357.5
299.675	384.5
299.905	359.5
300.136	379.5
300.366	366.5
300.597	361.5
300.827	394.5
301.057	382.5
301.288	407.5
301.518	375.5
301.748	379.5
301.979	375.5
302.209	399.5
302.439	395.5
302.669	390.5
302.9	372.5
303.13	388.5
303.36	393.5
303.59	380.5
303.82	390.5
304.051	375.5
304.281	383.5
304.511	377.5
304.741	384.5
304.971	384.5
305.201	376.5
305.431	371.5
305.661	384.5
305.891	400.5
306.121	383.5
306.352	400.5
306.582	386.5
306.812	375.5
307.042	392.5
307.272	407.5
307.502	390.5
307.731	377.5
307.961	395.5
308.191	390.5
308.421	378.5
308.651	390.5
308.881	370.5
309.111	392.5
309.341	396.5
309.571	383.5
309.8	405.5
310.03	393.5
310.26	393.5
310.49	414.5
310.72	400.5
310.949	407.5
311.179	425.5
311.409	410.5
311.639	410.5
311.868	417.5
312.098	418.5
312.328	401.5
312.557	417.5
312.787	415.5
313.017	425.5
313.246	434.5
313.476	427.5
313.706	400.5
313.935	438.5
314.165	422.5
314.394	430.5
314.624	425.5
314.853	426.5
315.083	439.5
315.312	430.5
315.542	418.5
315.771	411.5
316.001	425.5
316.23	433.5
316.46	407.5
316.689	416.5
316.919	406.5
317.148	426.5
317.377	423.5
317.607	420.5
317.836	436.5
318.065	433.5
318.295	435.5
318.524	438.5
318.753	410.5
318.983	423.5
319.212	435.5
319.441	423.5
319.67	427.5
319.9	432.5
320.129	447.5
320.358	416.5
320.587	418.5
320.816	422.5
321.046	442.5
321.275	427.5
321.504	422.5
321.733	436.5
321.962	442.5
322.191	435.5
322.42	446.5
322.649	460.5
322.878	459.5
323.108	468.5
323.337	486.5
323.566	464.5
323.795	473.5
324.024	490.5
324.253	552.5
324.482	679.5
324.71	946.5
324.939	1272.5
325.168	1123.5
325.397	679.5
325.626	548.5
325.855	521.5
326.084	486.5
326.313	484.5
326.542	494.5
326.77	500.5
326.999	527.5
327.228	682.5
327.457	881.5
327.686	1046.5
327.914	769.5
328.143	578.5
328.372	544.5
328.6	538.5
328.829	505.5
329.058	528.5
329.287	514.5
329.515	517.5
329.744	516.5
329.972	513.5
330.201	519.5
330.43	542.5
330.658	535.5
330.887	540.5
331.115	551.5
331.344	525.5
331.572	496.5
331.801	515.5
332.03	531.5
332.258	521.5
332.486	535.5
332.715	519.5
332.943	537.5
333.172	547.5
333.4	553.5
333.629	572.5
333.857	596.5
334.085	585.5
334.314	579.5
334.542	620.5
334.771	603.5
334.999	592.5
335.227	547.5
335.455	546.5
335.684	546.5
335.912	550.5
336.14	541.5
336.369	533.5
336.597	537.5
336.825	539.5
337.053	526.5
337.281	514.5
337.51	519.5
337.738	510.5
337.966	516.5
338.194	527.5
338.422	533.5
338.65	496.5
338.878	515.5
339.106	507.5
339.334	508.5
339.562	500.5
339.79	475.5
340.018	498.5
340.246	494.5
340.474	492.5
340.702	484.5
340.93	487.5
341.158	470.5
341.386	487.5
341.614	481.5
341.842	488.5
342.07	466.5
342.298	494.5
342.526	504.5
342.754	489.5
342.981	492.5
343.209	494.5
343.437	509.5
343.665	524.5
343.893	533.5
344.12	555.5
344.348	563.5
344.576	547.5
344.804	502.5
345.031	507.5
345.259	500.5
345.487	515.5
345.714	473.5
345.942	469.5
346.17	473.5
346.397	475.5
346.625	460.5
346.853	471.5
347.08	459.5
347.308	474.5
347.535	486.5
347.763	476.5
347.99	467.5
348.218	472.5
348.445	448.5
348.673	473.5
348.9	449.5
349.128	478.5
349.355	468.5
349.583	468.5
349.81	458.5
350.037	476.5
350.265	463.5
350.492	457.5
350.72	453.5
350.947	470.5
351.174	458.5
351.402	464.5
351.629	491.5
351.856	474.5
352.083	475.5
352.311	461.5
352.538	482.5
352.765	464.5
352.992	475.5
353.22	465.5
353.447	457.5
353.674	453.5
353.901	436.5
354.128	446.5
354.355	451.5
354.583	456.5
354.81	468.5
355.037	453.5
355.264	440.5
355.491	440.5
355.718	438.5
355.945	472.5
356.172	470.5
356.399	459.5
356.626	462.5
356.853	456.5
357.08	446.5
357.307	459.5
357.534	454.5
357.761	455.5
357.988	460.5
358.215	458.5
358.441	452.5
358.668	474.5
358.895	443.5
359.122	453.5
359.349	465.5
359.576	463.5
359.802	462.5
360.029	474.5
360.256	506.5
360.483	489.5
360.709	478.5
360.936	483.5
361.163	454.5
361.39	464.5
361.616	457.5
361.843	477.5
362.07	454.5
362.296	456.5
362.523	466.5
362.749	488.5
362.976	465.5
363.203	467.5
363.429	453.5
363.656	479.5
363.882	454.5
364.109	448.5
364.335	471.5
364.562	432.5
364.788	468.5
365.015	478.5
365.241	475.5
365.468	475.5
365.694	455.5
365.92	449.5
366.147	452.5
366.373	460.5
366.599	470.5
366.826	465.5
367.052	454.5
367.278	444.5
367.505	460.5
367.731	443.5
367.957	441.5
368.184	455.5
368.41	458.5
368.636	484.5
368.862	474.5
369.089	473.5
369.315	489.5
369.541	476.5
369.767	482.5
369.993	477.5
370.219	450.5
370.445	465.5
370.672	478.5
370.898	492.5
371.124	512.5
371.35	497.5
371.576	502.5
371.802	480.5
372.028	488.5
372.254	500.5
372.48	480.5
372.706	511.5
372.932	516.5
373.158	504.5
373.384	505.5
373.61	494.5
373.835	497.5
374.061	495.5
374.287	471.5
374.513	513.5
374.739	508.5
374.965	523.5
375.191	521.5
375.416	519.5
375.642	528.5
375.868	507.5
376.094	503.5
376.319	505.5
376.545	491.5
376.771	458.5
376.997	481.5
377.222	500.5
377.448	483.5
377.674	471.5
377.899	515.5
378.125	485.5
378.35	489.5
378.576	486.5
378.802	476.5
379.027	493.5
379.253	494.5
379.478	477.5
379.704	472.5
379.929	466.5
380.155	484.5
380.38	507.5
380.606	474.5
380.831	465.5
381.057	497.5
381.282	487.5
381.507	488.5
381.733	496.5
381.958	510.5
382.184	521.5
382.409	515.5
382.634	497.5
382.86	510.5
383.085	512.5
383.31	520.5
383.535	491.5
383.761	524.5
383.986	514.5
384.211	540.5
384.436	542.5
384.662	579.5
384.887	549.5
385.112	550.5
385.337	563.5
385.562	544.5
385.787	562.5
386.013	570.5
386.238	570.5
386.463	552.5
386.688	578.5
386.913	550.5
387.138	564.5
387.363	566.5
387.588	542.5
387.813	563.5
388.038	577.5
388.263	568.5
388.488	558.5
388.713	551.5
388.938	548.5
389.163	542.5
389.387	573.5
389.612	538.5
389.837	564.5
390.062	560.5
390.287	540.5
390.512	525.5
390.736	568.5
390.961	569.5
391.186	565.5
391.411	590.5
391.636	607.5
391.86	605.5
392.085	634.5
392.31	602.5
392.534	609.5
392.759	590.5
392.984	588.5
393.208	591.5
393.433	595.5
393.658	615.5
393.882	570.5
394.107	568.5
394.331	587.5
394.556	553.5
394.78	593.5
395.005	566.5
395.229	612.5
395.454	639.5
395.678	616.5
395.903	614.5
396.127	631.5
396.352	615.5
396.576	599.5
396.801	587.5
397.025	582.5
397.249	599.5
397.474	630.5
397.698	632.5
397.922	629.5
398.147	619.5
398.371	640.5
398.595	646.5
398.82	668.5
399.044	714.5
399.268	778.5
399.492	803.5
399.717	866.5
399.941	925.5
400.165	888.5
400.389	818.5
400.613	751.5
400.837	683.5
401.062	689.5
401.286	679.5
401.51	696.5
401.734	666.5
401.958	676.5
402.182	667.5
402.406	659.5
402.63	690.5
402.854	705.5
403.078	710.5
403.302	694.5
403.526	725.5
403.75	744.5
403.974	734.5
404.198	743.5
404.422	747.5
404.645	731.5
404.869	733.5
405.093	748.5
405.317	795.5
405.541	795.5
405.765	744.5
405.988	726.5
406.212	709.5
406.436	760.5
406.66	788.5
406.883	757.5
407.107	818.5
407.331	866.5
407.555	892.5
407.778	898.5
408.002	833.5
408.226	793.5
408.449	767.5
408.673	786.5
408.896	771.5
409.12	766.5
409.344	776.5
409.567	716.5
409.791	731.5
410.014	712.5
410.238	699.5
410.461	739.5
410.685	708.5
410.908	727.5
411.132	723.5
411.355	732.5
411.578	705.5
411.802	724.5
412.025	688.5
412.249	708.5
412.472	734.5
412.695	730.5
412.919	726.5
413.142	684.5
413.365	678.5
413.589	679.5
413.812	643.5
414.035	667.5
414.258	676.5
414.482	678.5
414.705	703.5
414.928	663.5
415.151	657.5
415.374	675.5
415.597	619.5
415.821	661.5
416.044	655.5
416.267	649.5
416.49	647.5
416.713	668.5
416.936	670.5
417.159	666.5
417.382	648.5
417.605	634.5
417.828	653.5
418.051	642.5
418.274	671.5
418.497	643.5
418.72	676.5
418.943	651.5
419.166	707.5
419.389	756.5
419.611	739.5
419.834	678.5
420.057	712.5
420.28	700.5
420.503	671.5
420.726	663.5
420.948	663.5
421.171	699.5
421.394	715.5
421.617	684.5
421.839	673.5
422.062	700.5
422.285	680.5
422.507	718.5
422.73	752.5
422.953	735.5
423.175	712.5
423.398	728.5
423.621	697.5
423.843	731.5
424.066	728.5
424.288	743.5
424.511	719.5
424.733	748.5
424.956	802.5
425.178	778.5
425.401	793.5
425.623	784.5
425.846	696.5
426.068	678.5
426.291	694.5
426.513	672.5
426.735	668.5
426.958	674.5
427.18	733.5
427.402	825.5
427.625	868.5
427.847	752.5
428.069	743.5
428.292	679.5
428.514	647.5
428.736	633.5
428.958	624.5
429.181	605.5
429.403	610.5
429.625	625.5
429.847	650.5
430.069	670.5
430.292	653.5
430.514	632.5
430.736	610.5
430.958	630.5
431.18	591.5
431.402	615.5
431.624	599.5
431.846	606.5
432.068	602.5
432.29	648.5
432.512	616.5
432.734	622.5
432.956	626.5
433.178	620.5
433.4	627.5
433.622	619.5
433.844	602.5
434.066	610.5
434.287	623.5
434.509	615.5
434.731	662.5
434.953	699.5
435.175	664.5
435.397	666.5
435.618	681.5
435.84	678.5
436.062	724.5
436.284	770.5
436.505	676.5
436.727	627.5
436.949	639.5
437.17	639.5
437.392	619.5
437.614	626.5
437.835	632.5
438.057	686.5
438.278	738.5
438.5	757.5
438.721	820.5
438.943	782.5
439.165	678.5
439.386	680.5
439.608	658.5
439.829	650.5
440.05	648.5
440.272	710.5
440.493	650.5
440.715	648.5
440.936	633.5
441.158	641.5
441.379	630.5
441.6	636.5
441.822	713.5
442.043	704.5
442.264	731.5
442.486	778.5
442.707	719.5
442.928	675.5
443.149	681.5
443.371	710.5
443.592	721.5
443.813	778.5
444.034	844.5
444.255	760.5
444.476	724.5
444.698	752.5
444.919	747.5
445.14	890.5
445.361	785.5
445.582	719.5
445.803	724.5
446.024	786.5
446.245	787.5
446.466	724.5
446.687	655.5
446.908	628.5
447.129	633.5
447.35	606.5
447.571	628.5
447.792	593.5
448.013	597.5
448.234	601.5
448.455	625.5
448.675	707.5
448.896	788.5
449.117	667.5
449.338	651.5
449.559	738.5
449.779	799.5
450	662.5
450.221	637.5
450.442	624.5
450.662	598.5
450.883	568.5
451.104	611.5
451.324	600.5
451.545	577.5
451.766	534.5
451.986	545.5
452.207	537.5
452.428	553.5
452.648	559.5
452.869	535.5
453.089	563.5
453.31	586.5
453.53	550.5
453.751	561.5
453.971	545.5
454.192	567.5
454.412	517.5
454.633	534.5
454.853	565.5
455.073	535.5
455.294	555.5
455.514	601.5
455.734	559.5
455.955	544.5
456.175	538.5
456.395	526.5
456.616	517.5
456.836	510.5
457.056	516.5
457.276	512.5
457.497	544.5
457.717	522.5
457.937	557.5
458.157	532.5
458.377	533.5
458.598	557.5
458.818	601.5
459.038	632.5
459.258	686.5
459.478	624.5
459.698	606.5
459.918	619.5
460.138	664.5
460.358	657.5
460.578	650.5
460.798	651.5
461.018	678.5
461.238	668.5
461.458	674.5
461.678	664.5
461.898	702.5
462.118	679.5
462.338	715.5
462.558	736.5
462.777	758.5
462.997	816.5
463.217	855.5
463.437	841.5
463.657	766.5
463.876	752.5
464.096	737.5
464.316	762.5
464.536	770.5
464.755	754.5
464.975	735.5
465.195	722.5
465.414	715.5
465.634	656.5
465.854	604.5
466.073	624.5
466.293	628.5
466.512	589.5
466.732	599.5
466.951	605.5
467.171	598.5
467.391	607.5
467.61	604.5
467.829	576.5
468.049	583.5
468.268	566.5
468.488	595.5
468.707	575.5
468.927	565.5
469.146	586.5
469.365	583.5
469.585	593.5
469.804	601.5
470.023	628.5
470.243	596.5
470.462	615.5
470.681	617.5
470.901	587.5
471.12	610.5
471.339	588.5
471.558	588.5
471.777	578.5
471.997	588.5
472.216	561.5
472.435	598.5
472.654	604.5
472.873	587.5
473.092	560.5
473.311	594.5
473.53	594.5
473.749	584.5
473.968	624.5
474.187	642.5
474.406	672.5
474.625	603.5
474.844	594.5
475.063	579.5
475.282	574.5
475.501	587.5
475.72	586.5
475.939	579.5
476.158	579.5
476.377	596.5
476.596	580.5
476.814	600.5
477.033	599.5
477.252	638.5
477.471	628.5
477.69	636.5
477.908	651.5
478.127	681.5
478.346	651.5
478.564	694.5
478.783	678.5
479.002	699.5
479.22	683.5
479.439	732.5
479.658	695.5
479.876	726.5
480.095	732.5
480.313	763.5
480.532	774.5
480.751	754.5
480.969	715.5
481.188	739.5
481.406	794.5
481.624	747.5
481.843	702.5
482.061	672.5
482.28	705.5
482.498	679.5
482.717	671.5
482.935	675.5
483.153	678.5
483.372	653.5
483.59	651.5
483.808	659.5
484.027	684.5
484.245	674.5
484.463	694.5
484.681	698.5
484.9	670.5
485.118	687.5
485.336	695.5
485.554	683.5
485.772	712.5
485.99	698.5
486.209	708.5
486.427	700.5
486.645	724.5
486.863	734.5
487.081	727.5
487.299	712.5
487.517	728.5
487.735	744.5
487.953	732.5
488.171	734.5
488.389	713.5
488.607	700.5
488.825	739.5
489.043	719.5
489.261	706.5
489.479	724.5
489.696	738.5
489.914	721.5
490.132	752.5
490.35	723.5
490.568	753.5
490.786	768.5
491.003	729.5
491.221	780.5
491.439	767.5
491.657	748.5
491.874	778.5
492.092	796.5
492.31	779.5
492.527	799.5
492.745	786.5
492.963	788.5
493.18	806.5
493.398	799.5
493.615	824.5
493.833	817.5
494.05	781.5
494.268	821.5
494.485	826.5
494.703	788.5
494.92	814.5
495.138	795.5
495.355	811.5
495.573	821.5
495.79	809.5
496.008	829.5
496.225	840.5
496.442	834.5
496.66	834.5
496.877	827.5
497.094	844.5
497.312	872.5
497.529	897.5
497.746	886.5
497.963	898.5
498.181	946.5
498.398	993.5
498.615	1017.5
498.832	1080.5
499.049	1104.5
499.267	1165.5
499.484	1232.5
499.701	1296.5
499.918	1383.5
500.135	1545.5
500.352	1651.5
500.569	1705.5
500.786	1703.5
501.003	1628.5
501.22	1573.5
501.437	1427.5
501.654	1320.5
501.871	1216.5
502.088	1195.5
502.305	1099.5
502.522	1030.5
502.739	1026.5
502.956	990.5
503.172	962.5
503.389	922.5
503.606	895.5
503.823	923.5
504.04	907.5
504.256	897.5
504.473	886.5
504.69	910.5
504.907	942.5
505.123	854.5
505.34	830.5
505.557	800.5
505.773	799.5
505.99	808.5
506.207	759.5
506.423	774.5
506.64	780.5
506.856	756.5
507.073	754.5
507.289	772.5
507.506	757.5
507.722	738.5
507.939	730.5
508.155	725.5
508.372	711.5
508.588	715.5
508.805	727.5
509.021	706.5
509.238	704.5
509.454	702.5
509.67	706.5
509.887	704.5
510.103	698.5
510.319	706.5
510.536	727.5
510.752	974.5
510.968	882.5
511.184	692.5
511.401	690.5
511.617	691.5
511.833	670.5
512.049	658.5
512.265	676.5
512.481	660.5
512.698	680.5
512.914	652.5
513.13	681.5
513.346	688.5
513.562	656.5
513.778	695.5
513.994	694.5
514.21	670.5
514.426	663.5
514.642	695.5
514.858	722.5
515.074	724.5
515.29	786.5
515.506	980.5
515.721	909.5
515.937	758.5
516.153	731.5
516.369	725.5
516.585	739.5
516.801	743.5
517.016	804.5
517.232	808.5
517.448	799.5
517.664	848.5
517.879	838.5
518.095	830.5
518.311	827.5
518.527	819.5
518.742	786.5
518.958	760.5
519.173	745.5
519.389	730.5
519.605	723.5
