Data from 1963.PennyLincolnUp.Lamp.En5.5.200Scan.071719.P1._HRD10591_13-58-53-063.txt Node
Date: Thu Jul 18 13:58:53 EDT 2019
User: cochatt
Spectrometer: HR+D1059
Trigger mode: 1
Integration Time (sec): 1.000000E-1
Scans to average: 1
Electric dark correction enabled: true
Nonlinearity correction enabled: false
Boxcar width: 0
XAxis mode: Wavelengths
Number of Pixels in Spectrum: 2048
>>>>>Begin Spectral Data<<<<<
223.165	-11.94
223.4	-11.94
223.635	-11.94
223.869	-9.94
224.104	-6.94
224.338	-17.94
224.573	-2.94
224.808	-11.94
225.042	-21.94
225.277	-11.94
225.511	-17.94
225.746	4.06
225.98	10.06
226.215	13.06
226.449	22.06
226.683	12.06
226.918	22.06
227.152	30.06
227.387	24.06
227.621	40.06
227.856	36.06
228.09	38.06
228.324	50.06
228.559	58.06
228.793	68.06
229.027	83.06
229.262	107.06
229.496	110.06
229.73	108.06
229.964	137.06
230.199	124.06
230.433	108.06
230.667	109.06
230.901	110.06
231.136	102.06
231.37	110.06
231.604	117.06
231.838	112.06
232.072	104.06
232.306	116.06
232.541	124.06
232.775	141.06
233.009	122.06
233.243	129.06
233.477	115.06
233.711	112.06
233.945	119.06
234.179	126.06
234.413	130.06
234.647	116.06
234.881	120.06
235.115	121.06
235.349	132.06
235.583	123.06
235.817	108.06
236.051	118.06
236.285	138.06
236.519	124.06
236.753	125.06
236.987	145.06
237.221	161.06
237.455	203.06
237.689	173.06
237.922	137.06
238.156	142.06
238.39	145.06
238.624	134.06
238.858	128.06
239.091	136.06
239.325	135.06
239.559	143.06
239.793	139.06
240.027	139.06
240.26	144.06
240.494	154.06
240.728	153.06
240.961	150.06
241.195	168.06
241.429	146.06
241.662	147.06
241.896	148.06
242.13	151.06
242.363	136.06
242.597	143.06
242.83	134.06
243.064	137.06
243.298	142.06
243.531	157.06
243.765	162.06
243.998	147.06
244.232	156.06
244.465	160.06
244.699	178.06
244.932	148.06
245.166	153.06
245.399	159.06
245.633	153.06
245.866	158.06
246.099	152.06
246.333	167.06
246.566	174.06
246.8	169.06
247.033	171.06
247.266	163.06
247.5	166.06
247.733	180.06
247.966	191.06
248.2	173.06
248.433	186.06
248.666	190.06
248.899	197.06
249.133	206.06
249.366	207.06
249.599	212.06
249.832	204.06
250.066	200.06
250.299	194.06
250.532	212.06
250.765	214.06
250.998	216.06
251.231	240.06
251.465	235.06
251.698	200.06
251.931	220.06
252.164	210.06
252.397	210.06
252.63	217.06
252.863	225.06
253.096	232.06
253.329	244.06
253.562	246.06
253.795	223.06
254.028	213.06
254.261	219.06
254.494	239.06
254.727	248.06
254.96	277.06
255.193	257.06
255.426	244.06
255.659	226.06
255.892	231.06
256.124	257.06
256.357	237.06
256.59	236.06
256.823	227.06
257.056	233.06
257.289	219.06
257.521	226.06
257.754	227.06
257.987	234.06
258.22	227.06
258.452	240.06
258.685	242.06
258.918	216.06
259.151	240.06
259.383	219.06
259.616	253.06
259.849	245.06
260.081	246.06
260.314	266.06
260.547	263.06
260.779	250.06
261.012	252.06
261.244	249.06
261.477	244.06
261.71	224.06
261.942	253.06
262.175	250.06
262.407	238.06
262.64	250.06
262.872	228.06
263.105	248.06
263.337	237.06
263.57	256.06
263.802	251.06
264.035	234.06
264.267	251.06
264.499	261.06
264.732	244.06
264.964	249.06
265.197	254.06
265.429	247.06
265.661	257.06
265.894	242.06
266.126	235.06
266.358	243.06
266.591	228.06
266.823	249.06
267.055	248.06
267.287	264.06
267.52	265.06
267.752	266.06
267.984	261.06
268.216	245.06
268.448	249.06
268.681	248.06
268.913	278.06
269.145	293.06
269.377	309.06
269.609	305.06
269.841	282.06
270.073	294.06
270.306	306.06
270.538	319.06
270.77	324.06
271.002	322.06
271.234	317.06
271.466	334.06
271.698	341.06
271.93	334.06
272.162	313.06
272.394	338.06
272.626	322.06
272.858	307.06
273.09	310.06
273.322	312.06
273.553	300.06
273.785	305.06
274.017	274.06
274.249	297.06
274.481	312.06
274.713	299.06
274.945	290.06
275.176	324.06
275.408	278.06
275.64	310.06
275.872	306.06
276.104	293.06
276.335	295.06
276.567	301.06
276.799	308.06
277.031	330.06
277.262	341.06
277.494	332.06
277.726	322.06
277.957	321.06
278.189	313.06
278.421	317.06
278.652	313.06
278.884	318.06
279.115	300.06
279.347	323.06
279.579	301.06
279.81	313.06
280.042	312.06
280.273	302.06
280.505	331.06
280.736	310.06
280.968	317.06
281.199	316.06
281.431	305.06
281.662	314.06
281.894	321.06
282.125	299.06
282.356	337.06
282.588	333.06
282.819	365.06
283.051	336.06
283.282	333.06
283.513	340.06
283.745	334.06
283.976	329.06
284.207	333.06
284.439	338.06
284.67	328.06
284.901	345.06
285.132	364.06
285.364	348.06
285.595	340.06
285.826	354.06
286.057	316.06
286.288	345.06
286.52	342.06
286.751	333.06
286.982	345.06
287.213	342.06
287.444	360.06
287.675	355.06
287.906	358.06
288.138	371.06
288.369	355.06
288.6	357.06
288.831	359.06
289.062	362.06
289.293	338.06
289.524	353.06
289.755	362.06
289.986	346.06
290.217	338.06
290.448	354.06
290.679	361.06
290.91	353.06
291.141	345.06
291.371	349.06
291.602	350.06
291.833	336.06
292.064	368.06
292.295	372.06
292.526	348.06
292.757	342.06
292.987	355.06
293.218	368.06
293.449	350.06
293.68	356.06
293.91	348.06
294.141	347.06
294.372	365.06
294.603	372.06
294.833	340.06
295.064	360.06
295.295	365.06
295.525	358.06
295.756	364.06
295.987	356.06
296.217	388.06
296.448	396.06
296.679	356.06
296.909	354.06
297.14	371.06
297.37	363.06
297.601	384.06
297.831	374.06
298.062	372.06
298.292	386.06
298.523	380.06
298.753	369.06
298.984	382.06
299.214	388.06
299.445	396.06
299.675	383.06
299.905	389.06
300.136	409.06
300.366	382.06
300.597	389.06
300.827	398.06
301.057	406.06
301.288	402.06
301.518	394.06
301.748	424.06
301.979	414.06
302.209	409.06
302.439	425.06
302.669	426.06
302.9	399.06
303.13	413.06
303.36	394.06
303.59	410.06
303.82	408.06
304.051	409.06
304.281	410.06
304.511	412.06
304.741	407.06
304.971	411.06
305.201	406.06
305.431	388.06
305.661	398.06
305.891	402.06
306.121	379.06
306.352	414.06
306.582	404.06
306.812	406.06
307.042	430.06
307.272	417.06
307.502	413.06
307.731	402.06
307.961	407.06
308.191	402.06
308.421	396.06
308.651	418.06
308.881	410.06
309.111	409.06
309.341	418.06
309.571	432.06
309.8	416.06
310.03	415.06
310.26	421.06
310.49	436.06
310.72	438.06
310.949	451.06
311.179	438.06
311.409	446.06
311.639	439.06
311.868	440.06
312.098	449.06
312.328	442.06
312.557	455.06
312.787	459.06
313.017	459.06
313.246	461.06
313.476	452.06
313.706	466.06
313.935	463.06
314.165	459.06
314.394	462.06
314.624	478.06
314.853	446.06
315.083	463.06
315.312	444.06
315.542	457.06
315.771	443.06
316.001	434.06
316.23	461.06
316.46	429.06
316.689	446.06
316.919	441.06
317.148	471.06
317.377	462.06
317.607	451.06
317.836	458.06
318.065	460.06
318.295	455.06
318.524	451.06
318.753	450.06
318.983	462.06
319.212	450.06
319.441	467.06
319.67	458.06
319.9	441.06
320.129	448.06
320.358	438.06
320.587	454.06
320.816	463.06
321.046	461.06
321.275	458.06
321.504	464.06
321.733	482.06
321.962	467.06
322.191	482.06
322.42	482.06
322.649	493.06
322.878	493.06
323.108	478.06
323.337	505.06
323.566	485.06
323.795	533.06
324.024	548.06
324.253	609.06
324.482	796.06
324.71	1141.06
324.939	1612.06
325.168	1449.06
325.397	808.06
325.626	591.06
325.855	557.06
326.084	534.06
326.313	525.06
326.542	512.06
326.77	567.06
326.999	621.06
327.228	752.06
327.457	1076.06
327.686	1304.06
327.914	910.06
328.143	652.06
328.372	612.06
328.6	596.06
328.829	583.06
329.058	595.06
329.287	573.06
329.515	558.06
329.744	551.06
329.972	546.06
330.201	544.06
330.43	596.06
330.658	611.06
330.887	616.06
331.115	616.06
331.344	580.06
331.572	556.06
331.801	553.06
332.03	575.06
332.258	585.06
332.486	562.06
332.715	595.06
332.943	554.06
333.172	607.06
333.4	609.06
333.629	617.06
333.857	631.06
334.085	629.06
334.314	636.06
334.542	667.06
334.771	646.06
334.999	612.06
335.227	604.06
335.455	609.06
335.684	594.06
335.912	581.06
336.14	581.06
336.369	562.06
336.597	599.06
336.825	588.06
337.053	581.06
337.281	582.06
337.51	538.06
337.738	546.06
337.966	534.06
338.194	552.06
338.422	546.06
338.65	547.06
338.878	512.06
339.106	543.06
339.334	555.06
339.562	514.06
339.79	520.06
340.018	516.06
340.246	518.06
340.474	524.06
340.702	522.06
340.93	501.06
341.158	515.06
341.386	514.06
341.614	527.06
341.842	512.06
342.07	514.06
342.298	515.06
342.526	507.06
342.754	514.06
342.981	523.06
343.209	516.06
343.437	530.06
343.665	529.06
343.893	580.06
344.12	587.06
344.348	604.06
344.576	580.06
344.804	544.06
345.031	532.06
345.259	525.06
345.487	537.06
345.714	509.06
345.942	520.06
346.17	519.06
346.397	526.06
346.625	506.06
346.853	505.06
347.08	494.06
347.308	496.06
347.535	523.06
347.763	493.06
347.99	502.06
348.218	484.06
348.445	491.06
348.673	493.06
348.9	488.06
349.128	511.06
349.355	492.06
349.583	483.06
349.81	490.06
350.037	485.06
350.265	471.06
350.492	472.06
350.72	485.06
350.947	475.06
351.174	515.06
351.402	482.06
351.629	488.06
351.856	530.06
352.083	505.06
352.311	510.06
352.538	486.06
352.765	493.06
352.992	493.06
353.22	483.06
353.447	509.06
353.674	486.06
353.901	494.06
354.128	476.06
354.355	489.06
354.583	491.06
354.81	502.06
355.037	497.06
355.264	462.06
355.491	496.06
355.718	492.06
355.945	490.06
356.172	489.06
356.399	464.06
356.626	499.06
356.853	489.06
357.08	484.06
357.307	475.06
357.534	472.06
357.761	508.06
357.988	486.06
358.215	485.06
358.441	496.06
358.668	482.06
358.895	467.06
359.122	480.06
359.349	481.06
359.576	486.06
359.802	508.06
360.029	530.06
360.256	536.06
360.483	510.06
360.709	504.06
360.936	499.06
361.163	502.06
361.39	502.06
361.616	496.06
361.843	492.06
362.07	487.06
362.296	502.06
362.523	488.06
362.749	496.06
362.976	497.06
363.203	471.06
363.429	483.06
363.656	496.06
363.882	486.06
364.109	473.06
364.335	485.06
364.562	485.06
364.788	486.06
365.015	517.06
365.241	481.06
365.468	497.06
365.694	505.06
365.92	474.06
366.147	485.06
366.373	489.06
366.599	473.06
366.826	471.06
367.052	485.06
367.278	477.06
367.505	486.06
367.731	499.06
367.957	485.06
368.184	481.06
368.41	509.06
368.636	500.06
368.862	508.06
369.089	496.06
369.315	501.06
369.541	492.06
369.767	514.06
369.993	491.06
370.219	514.06
370.445	504.06
370.672	530.06
370.898	508.06
371.124	513.06
371.35	508.06
371.576	542.06
371.802	515.06
372.028	518.06
372.254	504.06
372.48	530.06
372.706	527.06
372.932	506.06
373.158	536.06
373.384	525.06
373.61	519.06
373.835	533.06
374.061	503.06
374.287	527.06
374.513	509.06
374.739	540.06
374.965	534.06
375.191	570.06
375.416	557.06
375.642	541.06
375.868	536.06
376.094	527.06
376.319	510.06
376.545	523.06
376.771	524.06
376.997	513.06
377.222	495.06
377.448	500.06
377.674	501.06
377.899	498.06
378.125	491.06
378.35	482.06
378.576	497.06
378.802	489.06
379.027	514.06
379.253	523.06
379.478	511.06
379.704	489.06
379.929	517.06
380.155	513.06
380.38	524.06
380.606	491.06
380.831	497.06
381.057	520.06
381.282	500.06
381.507	513.06
381.733	520.06
381.958	507.06
382.184	523.06
382.409	524.06
382.634	519.06
382.86	513.06
383.085	537.06
383.31	538.06
383.535	561.06
383.761	548.06
383.986	545.06
384.211	576.06
384.436	569.06
384.662	573.06
384.887	554.06
385.112	572.06
385.337	573.06
385.562	579.06
385.787	566.06
386.013	599.06
386.238	588.06
386.463	591.06
386.688	582.06
386.913	582.06
387.138	574.06
387.363	576.06
387.588	574.06
387.813	592.06
388.038	593.06
388.263	595.06
388.488	603.06
388.713	587.06
388.938	598.06
389.163	582.06
389.387	587.06
389.612	575.06
389.837	570.06
390.062	577.06
390.287	577.06
390.512	586.06
390.736	604.06
390.961	614.06
391.186	620.06
391.411	622.06
391.636	636.06
391.86	621.06
392.085	638.06
392.31	640.06
392.534	628.06
392.759	624.06
392.984	614.06
393.208	624.06
393.433	594.06
393.658	594.06
393.882	597.06
394.107	607.06
394.331	589.06
394.556	616.06
394.78	629.06
395.005	608.06
395.229	603.06
395.454	634.06
395.678	642.06
395.903	640.06
396.127	662.06
396.352	642.06
396.576	635.06
396.801	612.06
397.025	626.06
397.249	632.06
397.474	621.06
397.698	634.06
397.922	665.06
398.147	681.06
398.371	699.06
398.595	674.06
398.82	694.06
399.044	727.06
399.268	778.06
399.492	861.06
399.717	933.06
399.941	953.06
400.165	913.06
400.389	871.06
400.613	788.06
400.837	758.06
401.062	747.06
401.286	714.06
401.51	707.06
401.734	692.06
401.958	715.06
402.182	700.06
402.406	725.06
402.63	737.06
402.854	717.06
403.078	734.06
403.302	745.06
403.526	758.06
403.75	776.06
403.974	780.06
404.198	779.06
404.422	760.06
404.645	776.06
404.869	766.06
405.093	779.06
405.317	808.06
405.541	851.06
405.765	800.06
405.988	780.06
406.212	774.06
406.436	792.06
406.66	825.06
406.883	810.06
407.107	852.06
407.331	881.06
407.555	939.06
407.778	941.06
408.002	879.06
408.226	829.06
408.449	852.06
408.673	800.06
408.896	822.06
409.12	850.06
409.344	845.06
409.567	782.06
409.791	769.06
410.014	736.06
410.238	727.06
410.461	739.06
410.685	748.06
410.908	754.06
411.132	768.06
411.355	788.06
411.578	784.06
411.802	754.06
412.025	738.06
412.249	740.06
412.472	759.06
412.695	778.06
412.919	756.06
413.142	704.06
413.365	701.06
413.589	720.06
413.812	699.06
414.035	692.06
414.258	720.06
414.482	722.06
414.705	701.06
414.928	703.06
415.151	692.06
415.374	694.06
415.597	691.06
415.821	695.06
416.044	706.06
416.267	716.06
416.49	688.06
416.713	684.06
416.936	700.06
417.159	701.06
417.382	666.06
417.605	677.06
417.828	704.06
418.051	704.06
418.274	690.06
418.497	704.06
418.72	700.06
418.943	694.06
419.166	750.06
419.389	764.06
419.611	774.06
419.834	751.06
420.057	738.06
420.28	728.06
420.503	727.06
420.726	709.06
420.948	729.06
421.171	733.06
421.394	765.06
421.617	735.06
421.839	720.06
422.062	727.06
422.285	709.06
422.507	765.06
422.73	806.06
422.953	801.06
423.175	763.06
423.398	734.06
423.621	729.06
423.843	761.06
424.066	758.06
424.288	756.06
424.511	774.06
424.733	810.06
424.956	861.06
425.178	829.06
425.401	822.06
425.623	837.06
425.846	786.06
426.068	731.06
426.291	690.06
426.513	699.06
426.735	714.06
426.958	722.06
427.18	791.06
427.402	930.06
427.625	978.06
427.847	884.06
428.069	774.06
428.292	730.06
428.514	664.06
428.736	672.06
428.958	661.06
429.181	663.06
429.403	647.06
429.625	661.06
429.847	694.06
430.069	720.06
430.292	745.06
430.514	660.06
430.736	648.06
430.958	678.06
431.18	657.06
431.402	636.06
431.624	645.06
431.846	641.06
432.068	641.06
432.29	668.06
432.512	645.06
432.734	647.06
432.956	646.06
433.178	649.06
433.4	640.06
433.622	629.06
433.844	641.06
434.066	665.06
434.287	650.06
434.509	700.06
434.731	690.06
434.953	701.06
435.175	705.06
435.397	710.06
435.618	714.06
435.84	736.06
436.062	795.06
436.284	842.06
436.505	734.06
436.727	694.06
436.949	682.06
437.17	679.06
437.392	668.06
437.614	668.06
437.835	680.06
438.057	765.06
438.278	849.06
438.5	796.06
438.721	896.06
438.943	858.06
439.165	722.06
439.386	681.06
439.608	705.06
439.829	710.06
440.05	726.06
440.272	723.06
440.493	709.06
440.715	667.06
440.936	679.06
441.158	697.06
441.379	649.06
441.6	710.06
441.822	700.06
442.043	746.06
442.264	804.06
442.486	862.06
442.707	753.06
442.928	714.06
443.149	729.06
443.371	759.06
443.592	767.06
443.813	868.06
444.034	892.06
444.255	811.06
444.476	786.06
444.698	805.06
444.919	802.06
445.14	886.06
445.361	848.06
445.582	794.06
445.803	786.06
446.024	845.06
446.245	854.06
446.466	776.06
446.687	712.06
446.908	705.06
447.129	646.06
447.35	640.06
447.571	647.06
447.792	639.06
448.013	622.06
448.234	630.06
448.455	684.06
448.675	775.06
448.896	857.06
449.117	768.06
449.338	725.06
449.559	802.06
449.779	896.06
450	755.06
450.221	660.06
450.442	648.06
450.662	633.06
450.883	635.06
451.104	624.06
451.324	618.06
451.545	628.06
451.766	592.06
451.986	578.06
452.207	601.06
452.428	595.06
452.648	578.06
452.869	603.06
453.089	604.06
453.31	599.06
453.53	594.06
453.751	608.06
453.971	604.06
454.192	609.06
454.412	564.06
454.633	577.06
454.853	589.06
455.073	584.06
455.294	589.06
455.514	655.06
455.734	625.06
455.955	602.06
456.175	578.06
456.395	542.06
456.616	555.06
456.836	552.06
457.056	562.06
457.276	544.06
457.497	571.06
457.717	576.06
457.937	562.06
458.157	571.06
458.377	572.06
458.598	587.06
458.818	631.06
459.038	701.06
459.258	726.06
459.478	686.06
459.698	663.06
459.918	646.06
460.138	689.06
460.358	705.06
460.578	709.06
460.798	716.06
461.018	725.06
461.238	743.06
461.458	714.06
461.678	704.06
461.898	714.06
462.118	686.06
462.338	707.06
462.558	749.06
462.777	742.06
462.997	821.06
463.217	866.06
463.437	861.06
463.657	803.06
463.876	771.06
464.096	796.06
464.316	773.06
464.536	814.06
464.755	785.06
464.975	761.06
465.195	766.06
465.414	806.06
465.634	715.06
465.854	690.06
466.073	660.06
466.293	642.06
466.512	625.06
466.732	629.06
466.951	626.06
467.171	609.06
467.391	629.06
467.61	626.06
467.829	628.06
468.049	617.06
468.268	619.06
468.488	599.06
468.707	586.06
468.927	588.06
469.146	609.06
469.365	604.06
469.585	601.06
469.804	637.06
470.023	647.06
470.243	613.06
470.462	617.06
470.681	634.06
470.901	656.06
471.12	648.06
471.339	635.06
471.558	618.06
471.777	615.06
471.997	600.06
472.216	603.06
472.435	654.06
472.654	628.06
472.873	619.06
473.092	606.06
473.311	617.06
473.53	612.06
473.749	609.06
473.968	617.06
474.187	723.06
474.406	726.06
474.625	648.06
474.844	628.06
475.063	601.06
475.282	591.06
475.501	598.06
475.72	618.06
475.939	605.06
476.158	631.06
476.377	605.06
476.596	650.06
476.814	636.06
477.033	613.06
477.252	651.06
477.471	662.06
477.69	681.06
477.908	701.06
478.127	714.06
478.346	706.06
478.564	685.06
478.783	717.06
479.002	734.06
479.22	744.06
479.439	727.06
479.658	758.06
479.876	766.06
480.095	757.06
480.313	844.06
480.532	839.06
480.751	835.06
480.969	795.06
481.188	810.06
481.406	824.06
481.624	776.06
481.843	739.06
482.061	743.06
482.28	714.06
482.498	722.06
482.717	705.06
482.935	712.06
483.153	704.06
483.372	722.06
483.59	727.06
483.808	722.06
484.027	711.06
484.245	724.06
484.463	740.06
484.681	717.06
484.9	743.06
485.118	729.06
485.336	724.06
485.554	729.06
485.772	722.06
485.99	708.06
486.209	740.06
486.427	754.06
486.645	736.06
486.863	770.06
487.081	761.06
487.299	769.06
487.517	747.06
487.735	750.06
487.953	731.06
488.171	768.06
488.389	766.06
488.607	736.06
488.825	768.06
489.043	737.06
489.261	759.06
489.479	794.06
489.696	764.06
489.914	752.06
490.132	757.06
490.35	775.06
490.568	800.06
490.786	804.06
491.003	790.06
491.221	800.06
491.439	822.06
491.657	810.06
491.874	814.06
492.092	826.06
492.31	848.06
492.527	855.06
492.745	869.06
492.963	877.06
493.18	859.06
493.398	885.06
493.615	866.06
493.833	883.06
494.05	868.06
494.268	899.06
494.485	888.06
494.703	900.06
494.92	880.06
495.138	867.06
495.355	892.06
495.573	896.06
495.79	904.06
496.008	884.06
496.225	900.06
496.442	873.06
496.66	934.06
496.877	895.06
497.094	914.06
497.312	892.06
497.529	944.06
497.746	940.06
497.963	961.06
498.181	1013.06
498.398	1014.06
498.615	1072.06
498.832	1090.06
499.049	1157.06
499.267	1228.06
499.484	1319.06
499.701	1376.06
499.918	1485.06
500.135	1586.06
500.352	1749.06
500.569	1846.06
500.786	1828.06
501.003	1745.06
501.22	1616.06
501.437	1504.06
501.654	1381.06
