Data from 1963.PennyLincolnUp.Lamp.En5.5.200Scan.071719.P1._HRD10591_13-58-06-063.txt Node
Date: Thu Jul 18 13:58:06 EDT 2019
User: cochatt
Spectrometer: HR+D1059
Trigger mode: 1
Integration Time (sec): 1.000000E-1
Scans to average: 1
Electric dark correction enabled: true
Nonlinearity correction enabled: false
Boxcar width: 0
XAxis mode: Wavelengths
Number of Pixels in Spectrum: 2048
>>>>>Begin Spectral Data<<<<<
223.165	-14.62
223.4	-14.62
223.635	-14.62
223.869	-20.62
224.104	-20.62
224.338	0.38
224.573	-10.62
224.808	-13.62
225.042	-2.62
225.277	-10.62
225.511	-7.62
225.746	-5.62
225.98	3.38
226.215	15.38
226.449	8.38
226.683	24.38
226.918	27.38
227.152	27.38
227.387	32.38
227.621	37.38
227.856	45.38
228.09	52.38
228.324	38.38
228.559	52.38
228.793	65.38
229.027	97.38
229.262	112.38
229.496	125.38
229.73	127.38
229.964	132.38
230.199	104.38
230.433	101.38
230.667	115.38
230.901	107.38
231.136	98.38
231.37	115.38
231.604	128.38
231.838	117.38
232.072	120.38
232.306	109.38
232.541	111.38
232.775	108.38
233.009	115.38
233.243	121.38
233.477	124.38
233.711	132.38
233.945	121.38
234.179	136.38
234.413	114.38
234.647	112.38
234.881	128.38
235.115	119.38
235.349	133.38
235.583	131.38
235.817	130.38
236.051	132.38
236.285	128.38
236.519	122.38
236.753	132.38
236.987	128.38
237.221	159.38
237.455	187.38
237.689	174.38
237.922	134.38
238.156	137.38
238.39	141.38
238.624	142.38
238.858	132.38
239.091	133.38
239.325	137.38
239.559	129.38
239.793	145.38
240.027	144.38
240.26	149.38
240.494	162.38
240.728	132.38
240.961	153.38
241.195	146.38
241.429	145.38
241.662	135.38
241.896	151.38
242.13	160.38
242.363	165.38
242.597	152.38
242.83	139.38
243.064	169.38
243.298	142.38
243.531	141.38
243.765	143.38
243.998	167.38
244.232	157.38
244.465	148.38
244.699	158.38
244.932	160.38
245.166	164.38
245.399	157.38
245.633	164.38
245.866	164.38
246.099	166.38
246.333	179.38
246.566	164.38
246.8	169.38
247.033	164.38
247.266	171.38
247.5	187.38
247.733	178.38
247.966	164.38
248.2	184.38
248.433	192.38
248.666	182.38
248.899	192.38
249.133	197.38
249.366	218.38
249.599	192.38
249.832	182.38
250.066	180.38
250.299	196.38
250.532	196.38
250.765	202.38
250.998	222.38
251.231	231.38
251.465	237.38
251.698	211.38
251.931	209.38
252.164	219.38
252.397	222.38
252.63	225.38
252.863	193.38
253.096	210.38
253.329	219.38
253.562	237.38
253.795	220.38
254.028	226.38
254.261	220.38
254.494	233.38
254.727	250.38
254.96	275.38
255.193	262.38
255.426	260.38
255.659	243.38
255.892	241.38
256.124	248.38
256.357	261.38
256.59	229.38
256.823	235.38
257.056	229.38
257.289	208.38
257.521	229.38
257.754	209.38
257.987	222.38
258.22	228.38
258.452	225.38
258.685	230.38
258.918	241.38
259.151	235.38
259.383	230.38
259.616	240.38
259.849	244.38
260.081	235.38
260.314	256.38
260.547	246.38
260.779	265.38
261.012	226.38
261.244	238.38
261.477	236.38
261.71	240.38
261.942	244.38
262.175	218.38
262.407	249.38
262.64	234.38
262.872	242.38
263.105	236.38
263.337	224.38
263.57	229.38
263.802	229.38
264.035	218.38
264.267	236.38
264.499	231.38
264.732	238.38
264.964	247.38
265.197	246.38
265.429	238.38
265.661	227.38
265.894	252.38
266.126	242.38
266.358	236.38
266.591	233.38
266.823	254.38
267.055	236.38
267.287	249.38
267.52	250.38
267.752	268.38
267.984	261.38
268.216	268.38
268.448	255.38
268.681	267.38
268.913	267.38
269.145	273.38
269.377	290.38
269.609	291.38
269.841	294.38
270.073	290.38
270.306	309.38
270.538	320.38
270.77	313.38
271.002	312.38
271.234	301.38
271.466	299.38
271.698	310.38
271.93	320.38
272.162	329.38
272.394	335.38
272.626	318.38
272.858	303.38
273.09	303.38
273.322	316.38
273.553	291.38
273.785	281.38
274.017	292.38
274.249	276.38
274.481	292.38
274.713	269.38
274.945	284.38
275.176	315.38
275.408	296.38
275.64	290.38
275.872	304.38
276.104	292.38
276.335	284.38
276.567	293.38
276.799	310.38
277.031	319.38
277.262	345.38
277.494	316.38
277.726	322.38
277.957	321.38
278.189	325.38
278.421	296.38
278.652	295.38
278.884	312.38
279.115	296.38
279.347	305.38
279.579	312.38
279.81	309.38
280.042	317.38
280.273	325.38
280.505	316.38
280.736	320.38
280.968	295.38
281.199	310.38
281.431	320.38
281.662	324.38
281.894	343.38
282.125	322.38
282.356	316.38
282.588	344.38
282.819	345.38
283.051	343.38
283.282	325.38
283.513	341.38
283.745	319.38
283.976	339.38
284.207	338.38
284.439	325.38
284.67	343.38
284.901	340.38
285.132	340.38
285.364	335.38
285.595	341.38
285.826	346.38
286.057	328.38
286.288	330.38
286.52	335.38
286.751	352.38
286.982	337.38
287.213	340.38
287.444	342.38
287.675	328.38
287.906	362.38
288.138	356.38
288.369	345.38
288.6	357.38
288.831	351.38
289.062	339.38
289.293	363.38
289.524	346.38
289.755	361.38
289.986	371.38
290.217	341.38
290.448	357.38
290.679	348.38
290.91	342.38
291.141	361.38
291.371	352.38
291.602	376.38
291.833	337.38
292.064	357.38
292.295	361.38
292.526	353.38
292.757	377.38
292.987	359.38
293.218	344.38
293.449	345.38
293.68	361.38
293.91	359.38
294.141	358.38
294.372	349.38
294.603	362.38
294.833	345.38
295.064	347.38
295.295	380.38
295.525	342.38
295.756	355.38
295.987	359.38
296.217	380.38
296.448	380.38
296.679	385.38
296.909	375.38
297.14	390.38
297.37	377.38
297.601	379.38
297.831	369.38
298.062	390.38
298.292	390.38
298.523	409.38
298.753	399.38
298.984	384.38
299.214	379.38
299.445	390.38
299.675	399.38
299.905	395.38
300.136	382.38
300.366	369.38
300.597	378.38
300.827	405.38
301.057	409.38
301.288	416.38
301.518	414.38
301.748	389.38
301.979	402.38
302.209	427.38
302.439	421.38
302.669	417.38
302.9	412.38
303.13	404.38
303.36	422.38
303.59	419.38
303.82	404.38
304.051	413.38
304.281	401.38
304.511	404.38
304.741	408.38
304.971	410.38
305.201	409.38
305.431	409.38
305.661	397.38
305.891	383.38
306.121	417.38
306.352	404.38
306.582	394.38
306.812	388.38
307.042	420.38
307.272	386.38
307.502	403.38
307.731	388.38
307.961	378.38
308.191	413.38
308.421	411.38
308.651	403.38
308.881	401.38
309.111	402.38
309.341	398.38
309.571	422.38
309.8	426.38
310.03	412.38
310.26	436.38
310.49	421.38
310.72	432.38
310.949	450.38
311.179	436.38
311.409	416.38
311.639	452.38
311.868	425.38
312.098	448.38
312.328	444.38
312.557	454.38
312.787	465.38
313.017	460.38
313.246	461.38
313.476	454.38
313.706	447.38
313.935	439.38
314.165	448.38
314.394	472.38
314.624	458.38
314.853	440.38
315.083	460.38
315.312	442.38
315.542	432.38
315.771	450.38
316.001	438.38
316.23	454.38
316.46	447.38
316.689	423.38
316.919	445.38
317.148	454.38
317.377	452.38
317.607	461.38
317.836	450.38
318.065	454.38
318.295	459.38
318.524	455.38
318.753	454.38
318.983	443.38
319.212	418.38
319.441	462.38
319.67	464.38
319.9	472.38
320.129	469.38
320.358	438.38
320.587	444.38
320.816	454.38
321.046	445.38
321.275	430.38
321.504	477.38
321.733	467.38
321.962	452.38
322.191	465.38
322.42	456.38
322.649	483.38
322.878	469.38
323.108	473.38
323.337	488.38
323.566	508.38
323.795	525.38
324.024	527.38
324.253	616.38
324.482	780.38
324.71	1083.38
324.939	1542.38
325.168	1342.38
325.397	774.38
325.626	589.38
325.855	539.38
326.084	538.38
326.313	518.38
326.542	535.38
326.77	546.38
326.999	594.38
327.228	736.38
327.457	1025.38
327.686	1256.38
327.914	855.38
328.143	646.38
328.372	584.38
328.6	562.38
328.829	562.38
329.058	588.38
329.287	566.38
329.515	568.38
329.744	542.38
329.972	558.38
330.201	578.38
330.43	587.38
330.658	621.38
330.887	628.38
331.115	593.38
331.344	548.38
331.572	560.38
331.801	551.38
332.03	560.38
332.258	556.38
332.486	551.38
332.715	557.38
332.943	577.38
333.172	583.38
333.4	620.38
333.629	628.38
333.857	624.38
334.085	624.38
334.314	639.38
334.542	654.38
334.771	667.38
334.999	635.38
335.227	606.38
335.455	581.38
335.684	584.38
335.912	579.38
336.14	586.38
336.369	576.38
336.597	568.38
336.825	567.38
337.053	550.38
337.281	553.38
337.51	547.38
337.738	550.38
337.966	551.38
338.194	570.38
338.422	546.38
338.65	542.38
338.878	528.38
339.106	521.38
339.334	528.38
339.562	532.38
339.79	534.38
340.018	533.38
340.246	505.38
340.474	523.38
340.702	520.38
340.93	515.38
341.158	532.38
341.386	513.38
341.614	512.38
341.842	502.38
342.07	508.38
342.298	533.38
342.526	495.38
342.754	507.38
342.981	503.38
343.209	522.38
343.437	544.38
343.665	562.38
343.893	595.38
344.12	548.38
344.348	584.38
344.576	575.38
344.804	552.38
345.031	515.38
345.259	518.38
345.487	513.38
345.714	517.38
345.942	506.38
346.17	506.38
346.397	507.38
346.625	484.38
346.853	492.38
347.08	487.38
347.308	499.38
347.535	512.38
347.763	518.38
347.99	500.38
348.218	516.38
348.445	504.38
348.673	491.38
348.9	516.38
349.128	505.38
349.355	482.38
349.583	485.38
349.81	485.38
350.037	491.38
350.265	476.38
350.492	492.38
350.72	487.38
350.947	494.38
351.174	506.38
351.402	491.38
351.629	501.38
351.856	483.38
352.083	486.38
352.311	484.38
352.538	515.38
352.765	506.38
352.992	481.38
353.22	484.38
353.447	484.38
353.674	484.38
353.901	472.38
354.128	485.38
354.355	465.38
354.583	473.38
354.81	502.38
355.037	483.38
355.264	491.38
355.491	478.38
355.718	479.38
355.945	474.38
356.172	482.38
356.399	480.38
356.626	472.38
356.853	488.38
357.08	467.38
357.307	476.38
357.534	469.38
357.761	462.38
357.988	493.38
358.215	505.38
358.441	489.38
358.668	473.38
358.895	476.38
359.122	472.38
359.349	502.38
359.576	472.38
359.802	512.38
360.029	525.38
360.256	525.38
360.483	502.38
360.709	476.38
360.936	498.38
361.163	512.38
361.39	501.38
361.616	487.38
361.843	503.38
362.07	473.38
362.296	510.38
362.523	498.38
362.749	502.38
362.976	494.38
363.203	484.38
363.429	493.38
363.656	476.38
363.882	481.38
364.109	499.38
364.335	475.38
364.562	491.38
364.788	474.38
365.015	495.38
365.241	486.38
365.468	504.38
365.694	488.38
365.92	504.38
366.147	489.38
366.373	491.38
366.599	466.38
366.826	480.38
367.052	474.38
367.278	500.38
367.505	498.38
367.731	496.38
367.957	495.38
368.184	495.38
368.41	490.38
368.636	484.38
368.862	485.38
369.089	487.38
369.315	486.38
369.541	486.38
369.767	498.38
369.993	509.38
370.219	500.38
370.445	514.38
370.672	493.38
370.898	522.38
371.124	500.38
371.35	525.38
371.576	492.38
371.802	516.38
372.028	502.38
372.254	507.38
372.48	492.38
372.706	524.38
372.932	530.38
373.158	514.38
373.384	547.38
373.61	516.38
373.835	519.38
374.061	516.38
374.287	508.38
374.513	527.38
374.739	541.38
374.965	552.38
375.191	556.38
375.416	538.38
375.642	563.38
375.868	512.38
376.094	505.38
376.319	503.38
376.545	524.38
376.771	507.38
376.997	505.38
377.222	534.38
377.448	518.38
377.674	499.38
377.899	516.38
378.125	503.38
378.35	505.38
378.576	498.38
378.802	502.38
379.027	524.38
379.253	481.38
379.478	510.38
379.704	488.38
379.929	509.38
380.155	528.38
380.38	512.38
380.606	514.38
380.831	533.38
381.057	523.38
381.282	494.38
381.507	514.38
381.733	514.38
381.958	513.38
382.184	509.38
382.409	508.38
382.634	537.38
382.86	520.38
383.085	514.38
383.31	540.38
383.535	517.38
383.761	538.38
383.986	560.38
384.211	554.38
384.436	543.38
384.662	569.38
384.887	564.38
385.112	581.38
385.337	598.38
385.562	593.38
385.787	584.38
386.013	597.38
386.238	619.38
386.463	601.38
386.688	588.38
386.913	588.38
387.138	594.38
387.363	596.38
387.588	585.38
387.813	598.38
388.038	568.38
388.263	584.38
388.488	586.38
388.713	593.38
388.938	581.38
389.163	582.38
389.387	595.38
389.612	575.38
389.837	583.38
390.062	600.38
390.287	579.38
390.512	559.38
390.736	585.38
390.961	584.38
391.186	600.38
391.411	607.38
391.636	626.38
391.86	628.38
392.085	636.38
392.31	627.38
392.534	638.38
392.759	635.38
392.984	606.38
393.208	621.38
393.433	586.38
393.658	614.38
393.882	631.38
394.107	588.38
394.331	621.38
394.556	591.38
394.78	616.38
395.005	618.38
395.229	602.38
395.454	619.38
395.678	652.38
395.903	632.38
396.127	627.38
396.352	663.38
396.576	626.38
396.801	612.38
397.025	632.38
397.249	624.38
397.474	634.38
397.698	660.38
397.922	647.38
398.147	656.38
398.371	662.38
398.595	672.38
398.82	702.38
399.044	712.38
399.268	766.38
399.492	844.38
399.717	907.38
399.941	922.38
400.165	906.38
400.389	862.38
400.613	804.38
400.837	746.38
401.062	712.38
401.286	729.38
401.51	703.38
401.734	696.38
401.958	713.38
402.182	731.38
402.406	712.38
402.63	720.38
402.854	740.38
403.078	731.38
403.302	754.38
403.526	770.38
403.75	768.38
403.974	775.38
404.198	777.38
404.422	790.38
404.645	774.38
404.869	789.38
405.093	803.38
405.317	842.38
405.541	860.38
405.765	800.38
405.988	774.38
406.212	780.38
406.436	781.38
406.66	820.38
406.883	790.38
407.107	823.38
407.331	888.38
407.555	942.38
407.778	930.38
408.002	871.38
408.226	844.38
408.449	832.38
408.673	838.38
408.896	838.38
409.12	831.38
409.344	801.38
409.567	780.38
409.791	766.38
410.014	724.38
410.238	730.38
410.461	758.38
410.685	750.38
410.908	757.38
411.132	767.38
411.355	790.38
411.578	759.38
411.802	732.38
412.025	726.38
412.249	750.38
412.472	765.38
412.695	786.38
412.919	752.38
413.142	753.38
413.365	714.38
413.589	716.38
413.812	717.38
414.035	705.38
414.258	692.38
414.482	675.38
414.705	706.38
414.928	706.38
415.151	709.38
415.374	699.38
415.597	714.38
415.821	701.38
416.044	690.38
416.267	668.38
416.49	700.38
416.713	672.38
416.936	668.38
417.159	688.38
417.382	676.38
417.605	689.38
417.828	694.38
418.051	737.38
418.274	714.38
418.497	698.38
418.72	701.38
418.943	709.38
419.166	708.38
419.389	770.38
419.611	744.38
419.834	720.38
420.057	729.38
420.28	696.38
420.503	700.38
420.726	724.38
420.948	721.38
421.171	709.38
421.394	746.38
421.617	713.38
421.839	701.38
422.062	709.38
422.285	689.38
422.507	755.38
422.73	810.38
422.953	802.38
423.175	741.38
423.398	743.38
423.621	727.38
423.843	769.38
424.066	774.38
424.288	759.38
424.511	775.38
424.733	793.38
424.956	846.38
425.178	816.38
425.401	817.38
425.623	824.38
425.846	742.38
426.068	737.38
426.291	726.38
426.513	714.38
426.735	707.38
426.958	720.38
427.18	786.38
427.402	906.38
427.625	921.38
427.847	838.38
428.069	772.38
428.292	726.38
428.514	681.38
428.736	664.38
428.958	662.38
429.181	647.38
429.403	662.38
429.625	642.38
429.847	677.38
430.069	729.38
430.292	719.38
430.514	660.38
430.736	675.38
430.958	633.38
431.18	632.38
431.402	622.38
431.624	619.38
431.846	647.38
432.068	650.38
432.29	654.38
432.512	633.38
432.734	641.38
432.956	619.38
433.178	636.38
433.4	655.38
433.622	652.38
433.844	651.38
434.066	645.38
434.287	668.38
434.509	638.38
434.731	685.38
434.953	674.38
435.175	743.38
435.397	734.38
435.618	739.38
435.84	730.38
436.062	805.38
436.284	814.38
436.505	739.38
436.727	685.38
436.949	648.38
437.17	636.38
437.392	646.38
437.614	676.38
437.835	693.38
438.057	752.38
438.278	780.38
438.5	785.38
438.721	873.38
438.943	856.38
439.165	720.38
439.386	699.38
439.608	714.38
439.829	701.38
440.05	700.38
440.272	736.38
440.493	704.38
440.715	704.38
440.936	691.38
441.158	681.38
441.379	667.38
441.6	699.38
441.822	721.38
442.043	739.38
442.264	764.38
442.486	819.38
442.707	747.38
442.928	716.38
443.149	741.38
443.371	755.38
443.592	791.38
443.813	846.38
444.034	916.38
444.255	788.38
444.476	762.38
444.698	788.38
444.919	812.38
445.14	908.38
445.361	837.38
445.582	762.38
445.803	773.38
446.024	873.38
446.245	866.38
446.466	778.38
446.687	721.38
446.908	680.38
447.129	669.38
447.35	631.38
447.571	636.38
447.792	638.38
448.013	628.38
448.234	653.38
448.455	667.38
448.675	749.38
448.896	850.38
449.117	719.38
449.338	732.38
449.559	786.38
449.779	867.38
450	743.38
450.221	664.38
450.442	621.38
450.662	599.38
450.883	621.38
451.104	622.38
451.324	612.38
451.545	630.38
451.766	613.38
451.986	591.38
452.207	605.38
452.428	584.38
452.648	573.38
452.869	600.38
453.089	586.38
453.31	598.38
453.53	568.38
453.751	580.38
453.971	592.38
454.192	579.38
454.412	574.38
454.633	579.38
454.853	572.38
455.073	593.38
455.294	592.38
455.514	620.38
455.734	625.38
455.955	574.38
456.175	551.38
456.395	568.38
456.616	550.38
456.836	563.38
457.056	549.38
457.276	519.38
457.497	549.38
457.717	539.38
457.937	577.38
458.157	584.38
458.377	588.38
458.598	591.38
458.818	648.38
459.038	699.38
459.258	721.38
459.478	675.38
459.698	659.38
459.918	661.38
460.138	705.38
460.358	703.38
460.578	714.38
460.798	728.38
461.018	742.38
461.238	682.38
461.458	689.38
461.678	710.38
461.898	716.38
462.118	709.38
462.338	747.38
462.558	750.38
462.777	783.38
462.997	792.38
463.217	841.38
463.437	869.38
463.657	805.38
463.876	772.38
464.096	795.38
464.316	789.38
464.536	806.38
464.755	756.38
464.975	752.38
465.195	756.38
465.414	743.38
465.634	698.38
465.854	681.38
466.073	645.38
466.293	647.38
466.512	636.38
466.732	642.38
466.951	600.38
467.171	622.38
467.391	586.38
467.61	615.38
467.829	622.38
468.049	618.38
468.268	618.38
468.488	581.38
468.707	600.38
468.927	584.38
469.146	587.38
469.365	590.38
469.585	611.38
469.804	608.38
470.023	630.38
470.243	642.38
470.462	635.38
470.681	659.38
470.901	660.38
471.12	646.38
471.339	610.38
471.558	604.38
471.777	639.38
471.997	604.38
472.216	608.38
472.435	637.38
472.654	633.38
472.873	605.38
473.092	591.38
473.311	609.38
473.53	607.38
473.749	594.38
473.968	629.38
474.187	694.38
474.406	708.38
474.625	654.38
474.844	599.38
475.063	632.38
475.282	608.38
475.501	611.38
475.72	612.38
475.939	622.38
476.158	624.38
476.377	624.38
476.596	621.38
476.814	657.38
477.033	658.38
477.252	625.38
477.471	645.38
477.69	661.38
477.908	693.38
478.127	691.38
478.346	720.38
478.564	716.38
478.783	700.38
479.002	737.38
479.22	729.38
479.439	736.38
479.658	787.38
479.876	773.38
480.095	765.38
480.313	780.38
480.532	805.38
480.751	782.38
480.969	800.38
481.188	804.38
481.406	820.38
481.624	765.38
481.843	733.38
482.061	742.38
482.28	698.38
482.498	688.38
482.717	717.38
482.935	677.38
483.153	699.38
483.372	678.38
483.59	720.38
483.808	709.38
484.027	700.38
484.245	690.38
484.463	705.38
484.681	716.38
484.9	722.38
485.118	731.38
485.336	726.38
485.554	729.38
485.772	734.38
485.99	719.38
486.209	735.38
486.427	742.38
486.645	753.38
486.863	752.38
487.081	757.38
487.299	746.38
487.517	772.38
487.735	766.38
487.953	781.38
488.171	754.38
488.389	738.38
488.607	760.38
488.825	738.38
489.043	725.38
489.261	736.38
489.479	781.38
489.696	761.38
489.914	744.38
490.132	767.38
490.35	792.38
490.568	795.38
490.786	807.38
491.003	793.38
491.221	822.38
491.439	841.38
491.657	802.38
491.874	819.38
492.092	826.38
492.31	865.38
492.527	881.38
492.745	857.38
492.963	842.38
493.18	851.38
493.398	864.38
493.615	852.38
493.833	859.38
494.05	856.38
494.268	858.38
494.485	878.38
494.703	880.38
494.92	878.38
495.138	874.38
495.355	899.38
495.573	862.38
495.79	876.38
496.008	884.38
496.225	864.38
496.442	880.38
496.66	916.38
496.877	931.38
497.094	921.38
497.312	922.38
497.529	925.38
497.746	973.38
497.963	996.38
498.181	1032.38
498.398	1036.38
498.615	1062.38
498.832	1105.38
499.049	1175.38
499.267	1209.38
499.484	1282.38
499.701	1355.38
499.918	1453.38
500.135	1600.38
500.352	1723.38
500.569	1811.38
500.786	1832.38
501.003	1792.38
501.22	1594.38
501.437	1484.38
501.654	1415.38
