Data from 1963.PennyLincolnUp.Lamp.En5.5.200Scan.071719.P1._HRD10591_13-58-31-064.txt Node
Date: Thu Jul 18 13:58:31 EDT 2019
User: cochatt
Spectrometer: HR+D1059
Trigger mode: 1
Integration Time (sec): 1.000000E-1
Scans to average: 1
Electric dark correction enabled: true
Nonlinearity correction enabled: false
Boxcar width: 0
XAxis mode: Wavelengths
Number of Pixels in Spectrum: 2048
>>>>>Begin Spectral Data<<<<<
223.165	-3.69
223.4	-3.69
223.635	-3.69
223.869	-10.69
224.104	-26.69
224.338	-12.69
224.573	4.31
224.808	-11.69
225.042	1.31
225.277	-31.69
225.511	-2.69
225.746	1.31
225.98	7.31
226.215	5.31
226.449	7.31
226.683	7.31
226.918	32.31
227.152	33.31
227.387	35.31
227.621	26.31
227.856	44.31
228.09	49.31
228.324	49.31
228.559	62.31
228.793	73.31
229.027	105.31
229.262	101.31
229.496	93.31
229.73	135.31
229.964	142.31
230.199	128.31
230.433	113.31
230.667	122.31
230.901	110.31
231.136	110.31
231.37	106.31
231.604	121.31
231.838	117.31
232.072	118.31
232.306	129.31
232.541	110.31
232.775	105.31
233.009	114.31
233.243	134.31
233.477	117.31
233.711	118.31
233.945	129.31
234.179	116.31
234.413	133.31
234.647	117.31
234.881	118.31
235.115	125.31
235.349	125.31
235.583	126.31
235.817	126.31
236.051	119.31
236.285	131.31
236.519	109.31
236.753	120.31
236.987	134.31
237.221	162.31
237.455	190.31
237.689	169.31
237.922	145.31
238.156	123.31
238.39	138.31
238.624	134.31
238.858	129.31
239.091	121.31
239.325	143.31
239.559	137.31
239.793	142.31
240.027	138.31
240.26	143.31
240.494	146.31
240.728	169.31
240.961	151.31
241.195	161.31
241.429	130.31
241.662	147.31
241.896	142.31
242.13	157.31
242.363	139.31
242.597	148.31
242.83	164.31
243.064	150.31
243.298	132.31
243.531	139.31
243.765	149.31
243.998	154.31
244.232	172.31
244.465	147.31
244.699	155.31
244.932	148.31
245.166	163.31
245.399	149.31
245.633	153.31
245.866	160.31
246.099	165.31
246.333	159.31
246.566	164.31
246.8	166.31
247.033	184.31
247.266	177.31
247.5	163.31
247.733	177.31
247.966	178.31
248.2	185.31
248.433	181.31
248.666	188.31
248.899	186.31
249.133	193.31
249.366	211.31
249.599	203.31
249.832	189.31
250.066	200.31
250.299	204.31
250.532	206.31
250.765	215.31
250.998	222.31
251.231	243.31
251.465	210.31
251.698	211.31
251.931	215.31
252.164	202.31
252.397	217.31
252.63	216.31
252.863	204.31
253.096	210.31
253.329	226.31
253.562	236.31
253.795	216.31
254.028	211.31
254.261	207.31
254.494	233.31
254.727	252.31
254.96	263.31
255.193	269.31
255.426	241.31
255.659	256.31
255.892	242.31
256.124	248.31
256.357	235.31
256.59	244.31
256.823	219.31
257.056	226.31
257.289	223.31
257.521	200.31
257.754	203.31
257.987	220.31
258.22	233.31
258.452	224.31
258.685	229.31
258.918	228.31
259.151	223.31
259.383	240.31
259.616	243.31
259.849	248.31
260.081	254.31
260.314	254.31
260.547	246.31
260.779	251.31
261.012	252.31
261.244	247.31
261.477	221.31
261.71	228.31
261.942	229.31
262.175	241.31
262.407	234.31
262.64	228.31
262.872	230.31
263.105	232.31
263.337	243.31
263.57	235.31
263.802	264.31
264.035	252.31
264.267	222.31
264.499	234.31
264.732	249.31
264.964	246.31
265.197	237.31
265.429	233.31
265.661	228.31
265.894	254.31
266.126	241.31
266.358	235.31
266.591	257.31
266.823	257.31
267.055	246.31
267.287	260.31
267.52	250.31
267.752	267.31
267.984	261.31
268.216	264.31
268.448	258.31
268.681	270.31
268.913	277.31
269.145	271.31
269.377	289.31
269.609	291.31
269.841	298.31
270.073	281.31
270.306	299.31
270.538	331.31
270.77	320.31
271.002	302.31
271.234	299.31
271.466	313.31
271.698	327.31
271.93	330.31
272.162	314.31
272.394	332.31
272.626	313.31
272.858	315.31
273.09	287.31
273.322	303.31
273.553	265.31
273.785	283.31
274.017	293.31
274.249	293.31
274.481	286.31
274.713	285.31
274.945	305.31
275.176	301.31
275.408	281.31
275.64	314.31
275.872	285.31
276.104	305.31
276.335	311.31
276.567	293.31
276.799	319.31
277.031	331.31
277.262	357.31
277.494	325.31
277.726	319.31
277.957	320.31
278.189	315.31
278.421	292.31
278.652	292.31
278.884	296.31
279.115	325.31
279.347	299.31
279.579	302.31
279.81	319.31
280.042	306.31
280.273	323.31
280.505	302.31
280.736	308.31
280.968	306.31
281.199	321.31
281.431	309.31
281.662	325.31
281.894	329.31
282.125	318.31
282.356	334.31
282.588	355.31
282.819	338.31
283.051	334.31
283.282	321.31
283.513	322.31
283.745	321.31
283.976	316.31
284.207	334.31
284.439	330.31
284.67	314.31
284.901	333.31
285.132	334.31
285.364	328.31
285.595	328.31
285.826	327.31
286.057	337.31
286.288	335.31
286.52	340.31
286.751	343.31
286.982	358.31
287.213	341.31
287.444	347.31
287.675	333.31
287.906	340.31
288.138	349.31
288.369	365.31
288.6	369.31
288.831	347.31
289.062	353.31
289.293	333.31
289.524	339.31
289.755	351.31
289.986	346.31
290.217	355.31
290.448	350.31
290.679	363.31
290.91	354.31
291.141	351.31
291.371	365.31
291.602	348.31
291.833	333.31
292.064	343.31
292.295	334.31
292.526	357.31
292.757	361.31
292.987	353.31
293.218	363.31
293.449	350.31
293.68	365.31
293.91	352.31
294.141	353.31
294.372	364.31
294.603	372.31
294.833	357.31
295.064	372.31
295.295	369.31
295.525	346.31
295.756	367.31
295.987	366.31
296.217	382.31
296.448	397.31
296.679	377.31
296.909	363.31
297.14	357.31
297.37	385.31
297.601	370.31
297.831	389.31
298.062	373.31
298.292	379.31
298.523	391.31
298.753	392.31
298.984	374.31
299.214	400.31
299.445	378.31
299.675	380.31
299.905	381.31
300.136	372.31
300.366	367.31
300.597	403.31
300.827	398.31
301.057	395.31
301.288	437.31
301.518	407.31
301.748	390.31
301.979	409.31
302.209	400.31
302.439	417.31
302.669	393.31
302.9	395.31
303.13	396.31
303.36	413.31
303.59	417.31
303.82	406.31
304.051	430.31
304.281	406.31
304.511	420.31
304.741	396.31
304.971	412.31
305.201	400.31
305.431	408.31
305.661	387.31
305.891	393.31
306.121	396.31
306.352	396.31
306.582	401.31
306.812	401.31
307.042	415.31
307.272	404.31
307.502	435.31
307.731	420.31
307.961	417.31
308.191	417.31
308.421	412.31
308.651	430.31
308.881	411.31
309.111	413.31
309.341	387.31
309.571	409.31
309.8	403.31
310.03	416.31
310.26	417.31
310.49	423.31
310.72	424.31
310.949	437.31
311.179	423.31
311.409	420.31
311.639	443.31
311.868	437.31
312.098	422.31
312.328	428.31
312.557	439.31
312.787	447.31
313.017	442.31
313.246	437.31
313.476	438.31
313.706	440.31
313.935	471.31
314.165	452.31
314.394	470.31
314.624	441.31
314.853	434.31
315.083	436.31
315.312	458.31
315.542	466.31
315.771	433.31
316.001	441.31
316.23	436.31
316.46	447.31
316.689	467.31
316.919	454.31
317.148	460.31
317.377	456.31
317.607	462.31
317.836	443.31
318.065	463.31
318.295	453.31
318.524	454.31
318.753	421.31
318.983	446.31
319.212	439.31
319.441	446.31
319.67	449.31
319.9	448.31
320.129	446.31
320.358	442.31
320.587	456.31
320.816	468.31
321.046	461.31
321.275	457.31
321.504	454.31
321.733	474.31
321.962	468.31
322.191	468.31
322.42	466.31
322.649	470.31
322.878	473.31
323.108	484.31
323.337	495.31
323.566	503.31
323.795	504.31
324.024	545.31
324.253	595.31
324.482	785.31
324.71	1088.31
324.939	1540.31
325.168	1362.31
325.397	772.31
325.626	595.31
325.855	557.31
326.084	538.31
326.313	534.31
326.542	534.31
326.77	551.31
326.999	580.31
327.228	738.31
327.457	1039.31
327.686	1253.31
327.914	872.31
328.143	640.31
328.372	619.31
328.6	571.31
328.829	550.31
329.058	589.31
329.287	567.31
329.515	563.31
329.744	558.31
329.972	556.31
330.201	555.31
330.43	585.31
330.658	583.31
330.887	591.31
331.115	600.31
331.344	562.31
331.572	542.31
331.801	587.31
332.03	574.31
332.258	549.31
332.486	567.31
332.715	585.31
332.943	587.31
333.172	594.31
333.4	623.31
333.629	623.31
333.857	630.31
334.085	663.31
334.314	629.31
334.542	645.31
334.771	655.31
334.999	624.31
335.227	611.31
335.455	587.31
335.684	571.31
335.912	572.31
336.14	565.31
336.369	572.31
336.597	582.31
336.825	568.31
337.053	564.31
337.281	556.31
337.51	552.31
337.738	550.31
337.966	527.31
338.194	521.31
338.422	531.31
338.65	538.31
338.878	513.31
339.106	534.31
339.334	535.31
339.562	523.31
339.79	535.31
340.018	529.31
340.246	498.31
340.474	527.31
340.702	495.31
340.93	516.31
341.158	501.31
341.386	521.31
341.614	507.31
341.842	539.31
342.07	496.31
342.298	513.31
342.526	518.31
342.754	494.31
342.981	502.31
343.209	508.31
343.437	525.31
343.665	550.31
343.893	577.31
344.12	589.31
344.348	563.31
344.576	542.31
344.804	569.31
345.031	565.31
345.259	542.31
345.487	547.31
345.714	527.31
345.942	500.31
346.17	490.31
346.397	518.31
346.625	463.31
346.853	496.31
347.08	497.31
347.308	479.31
347.535	491.31
347.763	517.31
347.99	508.31
348.218	489.31
348.445	489.31
348.673	507.31
348.9	488.31
349.128	481.31
349.355	477.31
349.583	497.31
349.81	473.31
350.037	474.31
350.265	498.31
350.492	494.31
350.72	487.31
350.947	490.31
351.174	498.31
351.402	503.31
351.629	486.31
351.856	474.31
352.083	501.31
352.311	520.31
352.538	477.31
352.765	490.31
352.992	463.31
353.22	482.31
353.447	485.31
353.674	481.31
353.901	487.31
354.128	473.31
354.355	494.31
354.583	481.31
354.81	478.31
355.037	472.31
355.264	468.31
355.491	489.31
355.718	494.31
355.945	499.31
356.172	483.31
356.399	474.31
356.626	486.31
356.853	480.31
357.08	482.31
357.307	470.31
357.534	463.31
357.761	457.31
357.988	467.31
358.215	498.31
358.441	482.31
358.668	482.31
358.895	501.31
359.122	484.31
359.349	486.31
359.576	472.31
359.802	505.31
360.029	513.31
360.256	539.31
360.483	511.31
360.709	509.31
360.936	499.31
361.163	521.31
361.39	498.31
361.616	487.31
361.843	490.31
362.07	490.31
362.296	475.31
362.523	483.31
362.749	480.31
362.976	482.31
363.203	467.31
363.429	497.31
363.656	478.31
363.882	479.31
364.109	468.31
364.335	484.31
364.562	482.31
364.788	501.31
365.015	503.31
365.241	493.31
365.468	477.31
365.694	497.31
365.92	476.31
366.147	481.31
366.373	487.31
366.599	494.31
366.826	472.31
367.052	467.31
367.278	486.31
367.505	481.31
367.731	483.31
367.957	478.31
368.184	469.31
368.41	483.31
368.636	500.31
368.862	494.31
369.089	497.31
369.315	491.31
369.541	491.31
369.767	507.31
369.993	505.31
370.219	494.31
370.445	510.31
370.672	509.31
370.898	469.31
371.124	508.31
371.35	517.31
371.576	513.31
371.802	498.31
372.028	502.31
372.254	494.31
372.48	520.31
372.706	530.31
372.932	526.31
373.158	539.31
373.384	528.31
373.61	518.31
373.835	485.31
374.061	542.31
374.287	525.31
374.513	542.31
374.739	542.31
374.965	534.31
375.191	553.31
375.416	537.31
375.642	526.31
375.868	526.31
376.094	498.31
376.319	522.31
376.545	505.31
376.771	523.31
376.997	521.31
377.222	498.31
377.448	503.31
377.674	498.31
377.899	495.31
378.125	519.31
378.35	503.31
378.576	514.31
378.802	500.31
379.027	497.31
379.253	501.31
379.478	514.31
379.704	531.31
379.929	505.31
380.155	503.31
380.38	508.31
380.606	500.31
380.831	511.31
381.057	519.31
381.282	513.31
381.507	522.31
381.733	511.31
381.958	511.31
382.184	523.31
382.409	512.31
382.634	545.31
382.86	527.31
383.085	536.31
383.31	531.31
383.535	558.31
383.761	516.31
383.986	526.31
384.211	562.31
384.436	581.31
384.662	583.31
384.887	563.31
385.112	565.31
385.337	587.31
385.562	580.31
385.787	598.31
386.013	591.31
386.238	589.31
386.463	598.31
386.688	586.31
386.913	577.31
387.138	587.31
387.363	582.31
387.588	566.31
387.813	585.31
388.038	561.31
388.263	588.31
388.488	584.31
388.713	572.31
388.938	560.31
389.163	581.31
389.387	597.31
389.612	565.31
389.837	577.31
390.062	583.31
390.287	595.31
390.512	585.31
390.736	576.31
390.961	603.31
391.186	598.31
391.411	572.31
391.636	611.31
391.86	627.31
392.085	637.31
392.31	627.31
392.534	610.31
392.759	626.31
392.984	595.31
393.208	629.31
393.433	584.31
393.658	593.31
393.882	605.31
394.107	626.31
394.331	619.31
394.556	610.31
394.78	604.31
395.005	599.31
395.229	603.31
395.454	605.31
395.678	627.31
395.903	635.31
396.127	648.31
396.352	654.31
396.576	625.31
396.801	603.31
397.025	616.31
397.249	643.31
397.474	622.31
397.698	650.31
397.922	669.31
398.147	690.31
398.371	687.31
398.595	670.31
398.82	710.31
399.044	720.31
399.268	777.31
399.492	852.31
399.717	902.31
399.941	939.31
400.165	906.31
400.389	857.31
400.613	788.31
400.837	741.31
401.062	732.31
401.286	708.31
401.51	711.31
401.734	717.31
401.958	683.31
402.182	708.31
402.406	726.31
402.63	719.31
402.854	711.31
403.078	736.31
403.302	732.31
403.526	764.31
403.75	750.31
403.974	727.31
404.198	746.31
404.422	793.31
404.645	753.31
404.869	742.31
405.093	793.31
405.317	837.31
405.541	826.31
405.765	785.31
405.988	800.31
406.212	781.31
406.436	799.31
406.66	818.31
406.883	787.31
407.107	811.31
407.331	884.31
407.555	933.31
407.778	920.31
408.002	859.31
408.226	805.31
408.449	830.31
408.673	790.31
408.896	808.31
409.12	839.31
409.344	813.31
409.567	757.31
409.791	745.31
410.014	741.31
410.238	715.31
410.461	732.31
410.685	742.31
410.908	755.31
411.132	771.31
411.355	797.31
411.578	777.31
411.802	719.31
412.025	724.31
412.249	736.31
412.472	770.31
412.695	775.31
412.919	756.31
413.142	739.31
413.365	716.31
413.589	699.31
413.812	703.31
414.035	706.31
414.258	700.31
414.482	682.31
414.705	701.31
414.928	692.31
415.151	689.31
415.374	695.31
415.597	678.31
415.821	683.31
416.044	690.31
416.267	675.31
416.49	709.31
416.713	683.31
416.936	666.31
417.159	684.31
417.382	678.31
417.605	678.31
417.828	676.31
418.051	703.31
418.274	710.31
418.497	695.31
418.72	709.31
418.943	673.31
419.166	735.31
419.389	769.31
419.611	762.31
419.834	736.31
420.057	725.31
420.28	705.31
420.503	691.31
420.726	703.31
420.948	709.31
421.171	760.31
421.394	752.31
421.617	703.31
421.839	711.31
422.062	695.31
422.285	709.31
422.507	774.31
422.73	813.31
422.953	803.31
423.175	735.31
423.398	751.31
423.621	743.31
423.843	750.31
424.066	752.31
424.288	770.31
424.511	744.31
424.733	784.31
424.956	862.31
425.178	794.31
425.401	829.31
425.623	828.31
425.846	749.31
426.068	710.31
426.291	704.31
426.513	695.31
426.735	721.31
426.958	737.31
427.18	799.31
427.402	870.31
427.625	926.31
427.847	841.31
428.069	784.31
428.292	728.31
428.514	684.31
428.736	675.31
428.958	673.31
429.181	665.31
429.403	642.31
429.625	633.31
429.847	649.31
430.069	727.31
430.292	706.31
430.514	659.31
430.736	652.31
430.958	639.31
431.18	656.31
431.402	628.31
431.624	643.31
431.846	616.31
432.068	614.31
432.29	631.31
432.512	632.31
432.734	635.31
432.956	627.31
433.178	657.31
433.4	646.31
433.622	655.31
433.844	640.31
434.066	622.31
434.287	654.31
434.509	674.31
434.731	676.31
434.953	696.31
435.175	729.31
435.397	706.31
435.618	714.31
435.84	735.31
436.062	801.31
436.284	871.31
436.505	736.31
436.727	684.31
436.949	667.31
437.17	659.31
437.392	655.31
437.614	664.31
437.835	658.31
438.057	739.31
438.278	804.31
438.5	817.31
438.721	890.31
438.943	809.31
439.165	727.31
439.386	675.31
439.608	678.31
439.829	664.31
440.05	693.31
440.272	708.31
440.493	694.31
440.715	679.31
440.936	679.31
441.158	708.31
441.379	701.31
441.6	708.31
441.822	715.31
442.043	734.31
442.264	782.31
442.486	791.31
442.707	729.31
442.928	723.31
443.149	740.31
443.371	760.31
443.592	775.31
443.813	856.31
444.034	902.31
444.255	812.31
444.476	762.31
444.698	781.31
444.919	767.31
445.14	929.31
445.361	819.31
445.582	783.31
445.803	793.31
446.024	870.31
446.245	833.31
446.466	793.31
446.687	717.31
446.908	723.31
447.129	655.31
447.35	602.31
447.571	627.31
447.792	641.31
448.013	619.31
448.234	652.31
448.455	659.31
448.675	765.31
448.896	850.31
449.117	745.31
449.338	695.31
449.559	792.31
449.779	868.31
450	742.31
450.221	646.31
450.442	632.31
450.662	633.31
450.883	618.31
451.104	633.31
451.324	621.31
451.545	613.31
451.766	590.31
451.986	592.31
452.207	603.31
452.428	576.31
452.648	579.31
452.869	597.31
453.089	586.31
453.31	621.31
453.53	584.31
453.751	580.31
453.971	573.31
454.192	603.31
454.412	577.31
454.633	569.31
454.853	566.31
455.073	565.31
455.294	571.31
455.514	630.31
455.734	633.31
455.955	578.31
456.175	552.31
456.395	542.31
456.616	548.31
456.836	535.31
457.056	573.31
457.276	545.31
457.497	572.31
457.717	553.31
457.937	560.31
458.157	580.31
458.377	585.31
458.598	621.31
458.818	635.31
459.038	705.31
459.258	716.31
459.478	675.31
459.698	660.31
459.918	667.31
460.138	679.31
460.358	696.31
460.578	701.31
460.798	703.31
461.018	717.31
461.238	741.31
461.458	689.31
461.678	715.31
461.898	729.31
462.118	717.31
462.338	720.31
462.558	765.31
462.777	763.31
462.997	826.31
463.217	858.31
463.437	882.31
463.657	850.31
463.876	825.31
464.096	783.31
464.316	777.31
464.536	795.31
464.755	805.31
464.975	782.31
465.195	764.31
465.414	796.31
465.634	709.31
465.854	673.31
466.073	652.31
466.293	647.31
466.512	638.31
466.732	603.31
466.951	617.31
467.171	631.31
467.391	643.31
467.61	635.31
467.829	608.31
468.049	629.31
468.268	619.31
468.488	627.31
468.707	615.31
468.927	633.31
469.146	600.31
469.365	594.31
469.585	595.31
469.804	637.31
470.023	648.31
470.243	618.31
470.462	638.31
470.681	663.31
470.901	673.31
471.12	630.31
471.339	617.31
471.558	622.31
471.777	619.31
471.997	623.31
472.216	631.31
472.435	643.31
472.654	648.31
472.873	600.31
473.092	602.31
473.311	600.31
473.53	605.31
473.749	579.31
473.968	635.31
474.187	705.31
474.406	731.31
474.625	673.31
474.844	632.31
475.063	601.31
475.282	619.31
475.501	597.31
475.72	617.31
475.939	635.31
476.158	637.31
476.377	621.31
476.596	638.31
476.814	646.31
477.033	640.31
477.252	619.31
477.471	656.31
477.69	666.31
477.908	662.31
478.127	694.31
478.346	693.31
478.564	716.31
478.783	703.31
479.002	718.31
479.22	739.31
479.439	753.31
479.658	767.31
479.876	756.31
480.095	727.31
480.313	787.31
480.532	813.31
480.751	794.31
480.969	789.31
481.188	825.31
481.406	838.31
481.624	745.31
481.843	762.31
482.061	712.31
482.28	678.31
482.498	689.31
482.717	691.31
482.935	726.31
483.153	727.31
483.372	710.31
483.59	705.31
483.808	718.31
484.027	705.31
484.245	719.31
484.463	715.31
484.681	714.31
484.9	733.31
485.118	734.31
485.336	744.31
485.554	735.31
485.772	738.31
485.99	738.31
486.209	743.31
486.427	734.31
486.645	730.31
486.863	757.31
487.081	726.31
487.299	738.31
487.517	755.31
487.735	746.31
487.953	759.31
488.171	753.31
488.389	744.31
488.607	743.31
488.825	747.31
489.043	727.31
489.261	739.31
489.479	769.31
489.696	746.31
489.914	775.31
490.132	767.31
490.35	780.31
490.568	771.31
490.786	773.31
491.003	795.31
491.221	792.31
491.439	797.31
491.657	806.31
491.874	812.31
492.092	836.31
492.31	828.31
492.527	827.31
492.745	826.31
492.963	839.31
493.18	841.31
493.398	860.31
493.615	866.31
493.833	874.31
494.05	837.31
494.268	859.31
494.485	850.31
494.703	857.31
494.92	860.31
495.138	861.31
495.355	915.31
495.573	865.31
495.79	868.31
496.008	891.31
496.225	855.31
496.442	841.31
496.66	902.31
496.877	909.31
497.094	939.31
497.312	915.31
497.529	925.31
497.746	945.31
497.963	957.31
498.181	995.31
498.398	1060.31
498.615	1076.31
498.832	1101.31
499.049	1155.31
499.267	1232.31
499.484	1285.31
499.701	1363.31
499.918	1479.31
500.135	1603.31
500.352	1718.31
500.569	1831.31
500.786	1779.31
501.003	1700.31
501.22	1610.31
501.437	1467.31
501.654	1343.31
501.871	1324.31
