Data from 1963.PennyLincolnUp.Lamp.En5.5.200Scan.071719.P1._HRD10591_13-57-21-062.txt Node
Date: Thu Jul 18 13:57:21 EDT 2019
User: cochatt
Spectrometer: HR+D1059
Trigger mode: 1
Integration Time (sec): 1.000000E-1
Scans to average: 1
Electric dark correction enabled: true
Nonlinearity correction enabled: false
Boxcar width: 0
XAxis mode: Wavelengths
Number of Pixels in Spectrum: 2048
>>>>>Begin Spectral Data<<<<<
223.165	-24.44
223.4	-24.44
223.635	-24.44
223.869	-19.44
224.104	-21.44
224.338	-17.44
224.573	-11.44
224.808	-9.44
225.042	2.56
225.277	5.56
225.511	-6.44
225.746	-4.44
225.98	6.56
226.215	4.56
226.449	12.56
226.683	22.56
226.918	26.56
227.152	33.56
227.387	33.56
227.621	31.56
227.856	46.56
228.09	42.56
228.324	30.56
228.559	49.56
228.793	64.56
229.027	91.56
229.262	97.56
229.496	89.56
229.73	104.56
229.964	134.56
230.199	91.56
230.433	109.56
230.667	107.56
230.901	103.56
231.136	121.56
231.37	120.56
231.604	106.56
231.838	122.56
232.072	110.56
232.306	126.56
232.541	119.56
232.775	121.56
233.009	122.56
233.243	111.56
233.477	111.56
233.711	117.56
233.945	113.56
234.179	122.56
234.413	115.56
234.647	118.56
234.881	107.56
235.115	111.56
235.349	104.56
235.583	124.56
235.817	119.56
236.051	124.56
236.285	131.56
236.519	124.56
236.753	114.56
236.987	125.56
237.221	156.56
237.455	176.56
237.689	166.56
237.922	148.56
238.156	120.56
238.39	119.56
238.624	134.56
238.858	126.56
239.091	134.56
239.325	126.56
239.559	129.56
239.793	133.56
240.027	123.56
240.26	138.56
240.494	153.56
240.728	140.56
240.961	141.56
241.195	151.56
241.429	149.56
241.662	136.56
241.896	135.56
242.13	136.56
242.363	134.56
242.597	151.56
242.83	135.56
243.064	143.56
243.298	143.56
243.531	147.56
243.765	153.56
243.998	161.56
244.232	159.56
244.465	136.56
244.699	141.56
244.932	156.56
245.166	146.56
245.399	167.56
245.633	153.56
245.866	155.56
246.099	152.56
246.333	169.56
246.566	156.56
246.8	150.56
247.033	163.56
247.266	186.56
247.5	145.56
247.733	178.56
247.966	166.56
248.2	166.56
248.433	174.56
248.666	184.56
248.899	160.56
249.133	195.56
249.366	196.56
249.599	180.56
249.832	183.56
250.066	180.56
250.299	184.56
250.532	192.56
250.765	219.56
250.998	198.56
251.231	204.56
251.465	191.56
251.698	193.56
251.931	199.56
252.164	203.56
252.397	184.56
252.63	210.56
252.863	186.56
253.096	202.56
253.329	229.56
253.562	214.56
253.795	214.56
254.028	218.56
254.261	209.56
254.494	210.56
254.727	221.56
254.96	247.56
255.193	218.56
255.426	219.56
255.659	209.56
255.892	236.56
256.124	216.56
256.357	232.56
256.59	217.56
256.823	231.56
257.056	219.56
257.289	214.56
257.521	201.56
257.754	205.56
257.987	202.56
258.22	204.56
258.452	206.56
258.685	205.56
258.918	223.56
259.151	228.56
259.383	217.56
259.616	219.56
259.849	218.56
260.081	214.56
260.314	240.56
260.547	216.56
260.779	211.56
261.012	231.56
261.244	240.56
261.477	231.56
261.71	235.56
261.942	227.56
262.175	226.56
262.407	225.56
262.64	229.56
262.872	219.56
263.105	221.56
263.337	232.56
263.57	223.56
263.802	204.56
264.035	240.56
264.267	245.56
264.499	216.56
264.732	232.56
264.964	223.56
265.197	241.56
265.429	252.56
265.661	233.56
265.894	234.56
266.126	250.56
266.358	223.56
266.591	258.56
266.823	227.56
267.055	236.56
267.287	247.56
267.52	240.56
267.752	246.56
267.984	248.56
268.216	255.56
268.448	243.56
268.681	256.56
268.913	251.56
269.145	258.56
269.377	266.56
269.609	281.56
269.841	268.56
270.073	275.56
270.306	289.56
270.538	284.56
270.77	298.56
271.002	281.56
271.234	288.56
271.466	278.56
271.698	286.56
271.93	314.56
272.162	299.56
272.394	304.56
272.626	295.56
272.858	278.56
273.09	284.56
273.322	288.56
273.553	269.56
273.785	278.56
274.017	275.56
274.249	272.56
274.481	291.56
274.713	275.56
274.945	295.56
275.176	291.56
275.408	306.56
275.64	272.56
275.872	294.56
276.104	294.56
276.335	268.56
276.567	296.56
276.799	290.56
277.031	311.56
277.262	306.56
277.494	326.56
277.726	312.56
277.957	310.56
278.189	305.56
278.421	282.56
278.652	303.56
278.884	312.56
279.115	296.56
279.347	303.56
279.579	304.56
279.81	310.56
280.042	299.56
280.273	289.56
280.505	300.56
280.736	303.56
280.968	286.56
281.199	291.56
281.431	306.56
281.662	283.56
281.894	311.56
282.125	302.56
282.356	308.56
282.588	311.56
282.819	324.56
283.051	313.56
283.282	313.56
283.513	312.56
283.745	320.56
283.976	303.56
284.207	330.56
284.439	314.56
284.67	343.56
284.901	321.56
285.132	309.56
285.364	322.56
285.595	341.56
285.826	308.56
286.057	325.56
286.288	324.56
286.52	331.56
286.751	326.56
286.982	319.56
287.213	317.56
287.444	341.56
287.675	330.56
287.906	352.56
288.138	341.56
288.369	334.56
288.6	347.56
288.831	325.56
289.062	347.56
289.293	331.56
289.524	338.56
289.755	346.56
289.986	318.56
290.217	341.56
290.448	344.56
290.679	341.56
290.91	346.56
291.141	342.56
291.371	342.56
291.602	351.56
291.833	339.56
292.064	337.56
292.295	336.56
292.526	338.56
292.757	345.56
292.987	338.56
293.218	329.56
293.449	349.56
293.68	347.56
293.91	346.56
294.141	339.56
294.372	357.56
294.603	356.56
294.833	357.56
295.064	355.56
295.295	345.56
295.525	350.56
295.756	360.56
295.987	338.56
296.217	358.56
296.448	366.56
296.679	345.56
296.909	374.56
297.14	358.56
297.37	362.56
297.601	379.56
297.831	347.56
298.062	363.56
298.292	369.56
298.523	379.56
298.753	385.56
298.984	377.56
299.214	378.56
299.445	369.56
299.675	366.56
299.905	378.56
300.136	376.56
300.366	362.56
300.597	376.56
300.827	368.56
301.057	387.56
301.288	386.56
301.518	399.56
301.748	379.56
301.979	379.56
302.209	392.56
302.439	400.56
302.669	396.56
302.9	412.56
303.13	386.56
303.36	388.56
303.59	391.56
303.82	389.56
304.051	398.56
304.281	393.56
304.511	385.56
304.741	393.56
304.971	377.56
305.201	424.56
305.431	378.56
305.661	390.56
305.891	399.56
306.121	390.56
306.352	379.56
306.582	392.56
306.812	386.56
307.042	371.56
307.272	383.56
307.502	394.56
307.731	384.56
307.961	396.56
308.191	378.56
308.421	385.56
308.651	384.56
308.881	392.56
309.111	393.56
309.341	370.56
309.571	401.56
309.8	387.56
310.03	385.56
310.26	407.56
310.49	409.56
310.72	402.56
310.949	414.56
311.179	410.56
311.409	418.56
311.639	403.56
311.868	412.56
312.098	417.56
312.328	411.56
312.557	439.56
312.787	428.56
313.017	412.56
313.246	415.56
313.476	427.56
313.706	426.56
313.935	437.56
314.165	441.56
314.394	428.56
314.624	435.56
314.853	393.56
315.083	438.56
315.312	414.56
315.542	435.56
315.771	423.56
316.001	440.56
316.23	447.56
316.46	416.56
316.689	430.56
316.919	401.56
317.148	429.56
317.377	410.56
317.607	417.56
317.836	438.56
318.065	442.56
318.295	436.56
318.524	424.56
318.753	403.56
318.983	424.56
319.212	427.56
319.441	412.56
319.67	432.56
319.9	450.56
320.129	438.56
320.358	427.56
320.587	429.56
320.816	411.56
321.046	453.56
321.275	438.56
321.504	426.56
321.733	410.56
321.962	422.56
322.191	444.56
322.42	464.56
322.649	450.56
322.878	440.56
323.108	438.56
323.337	464.56
323.566	454.56
323.795	471.56
324.024	496.56
324.253	530.56
324.482	642.56
324.71	876.56
324.939	1184.56
325.168	1059.56
325.397	633.56
325.626	518.56
325.855	503.56
326.084	480.56
326.313	497.56
326.542	482.56
326.77	502.56
326.999	552.56
327.228	634.56
327.457	822.56
327.686	980.56
327.914	704.56
328.143	578.56
328.372	514.56
328.6	502.56
328.829	497.56
329.058	523.56
329.287	505.56
329.515	504.56
329.744	503.56
329.972	495.56
330.201	508.56
330.43	529.56
330.658	524.56
330.887	532.56
331.115	565.56
331.344	507.56
331.572	504.56
331.801	515.56
332.03	543.56
332.258	530.56
332.486	515.56
332.715	518.56
332.943	519.56
333.172	552.56
333.4	566.56
333.629	568.56
333.857	573.56
334.085	583.56
334.314	567.56
334.542	603.56
334.771	604.56
334.999	552.56
335.227	546.56
335.455	545.56
335.684	555.56
335.912	530.56
336.14	536.56
336.369	549.56
336.597	545.56
336.825	536.56
337.053	528.56
337.281	516.56
337.51	524.56
337.738	503.56
337.966	502.56
338.194	522.56
338.422	499.56
338.65	521.56
338.878	519.56
339.106	509.56
339.334	510.56
339.562	507.56
339.79	491.56
340.018	519.56
340.246	479.56
340.474	468.56
340.702	483.56
340.93	472.56
341.158	494.56
341.386	483.56
341.614	506.56
341.842	482.56
342.07	476.56
342.298	494.56
342.526	465.56
342.754	479.56
342.981	481.56
343.209	498.56
343.437	511.56
343.665	522.56
343.893	552.56
344.12	551.56
344.348	544.56
344.576	524.56
344.804	499.56
345.031	510.56
345.259	494.56
345.487	488.56
345.714	525.56
345.942	476.56
346.17	486.56
346.397	470.56
346.625	454.56
346.853	467.56
347.08	459.56
347.308	460.56
347.535	469.56
347.763	475.56
347.99	463.56
348.218	463.56
348.445	467.56
348.673	466.56
348.9	460.56
349.128	471.56
349.355	456.56
349.583	478.56
349.81	470.56
350.037	455.56
350.265	474.56
350.492	460.56
350.72	457.56
350.947	465.56
351.174	470.56
351.402	456.56
351.629	501.56
351.856	470.56
352.083	466.56
352.311	462.56
352.538	469.56
352.765	470.56
352.992	460.56
353.22	472.56
353.447	464.56
353.674	439.56
353.901	470.56
354.128	462.56
354.355	464.56
354.583	464.56
354.81	438.56
355.037	434.56
355.264	466.56
355.491	459.56
355.718	456.56
355.945	454.56
356.172	483.56
356.399	476.56
356.626	474.56
356.853	451.56
357.08	444.56
357.307	438.56
357.534	454.56
357.761	460.56
357.988	467.56
358.215	472.56
358.441	473.56
358.668	471.56
358.895	462.56
359.122	473.56
359.349	464.56
359.576	466.56
359.802	469.56
360.029	499.56
360.256	465.56
360.483	463.56
360.709	476.56
360.936	467.56
361.163	460.56
361.39	464.56
361.616	470.56
361.843	468.56
362.07	454.56
362.296	484.56
362.523	455.56
362.749	456.56
362.976	463.56
363.203	483.56
363.429	463.56
363.656	442.56
363.882	464.56
364.109	456.56
364.335	454.56
364.562	456.56
364.788	473.56
365.015	463.56
365.241	461.56
365.468	462.56
365.694	454.56
365.92	455.56
366.147	454.56
366.373	445.56
366.599	451.56
366.826	458.56
367.052	448.56
367.278	461.56
367.505	458.56
367.731	471.56
367.957	455.56
368.184	454.56
368.41	464.56
368.636	439.56
368.862	474.56
369.089	447.56
369.315	492.56
369.541	479.56
369.767	484.56
369.993	442.56
370.219	463.56
370.445	448.56
370.672	489.56
370.898	491.56
371.124	487.56
371.35	504.56
371.576	484.56
371.802	476.56
372.028	497.56
372.254	506.56
372.48	484.56
372.706	489.56
372.932	519.56
373.158	504.56
373.384	487.56
373.61	469.56
373.835	489.56
374.061	490.56
374.287	486.56
374.513	484.56
374.739	510.56
374.965	528.56
375.191	518.56
375.416	513.56
375.642	511.56
375.868	481.56
376.094	484.56
376.319	489.56
376.545	460.56
376.771	479.56
376.997	490.56
377.222	489.56
377.448	488.56
377.674	499.56
377.899	487.56
378.125	518.56
378.35	485.56
378.576	475.56
378.802	470.56
379.027	512.56
379.253	492.56
379.478	470.56
379.704	466.56
379.929	467.56
380.155	489.56
380.38	471.56
380.606	489.56
380.831	487.56
381.057	474.56
381.282	482.56
381.507	503.56
381.733	480.56
381.958	502.56
382.184	501.56
382.409	508.56
382.634	513.56
382.86	520.56
383.085	504.56
383.31	525.56
383.535	504.56
383.761	525.56
383.986	530.56
384.211	565.56
384.436	558.56
384.662	533.56
384.887	560.56
385.112	564.56
385.337	566.56
385.562	566.56
385.787	550.56
386.013	575.56
386.238	587.56
386.463	572.56
386.688	572.56
386.913	587.56
387.138	572.56
387.363	576.56
387.588	569.56
387.813	555.56
388.038	566.56
388.263	586.56
388.488	562.56
388.713	581.56
388.938	559.56
389.163	553.56
389.387	539.56
389.612	546.56
389.837	556.56
390.062	555.56
390.287	560.56
390.512	560.56
390.736	567.56
390.961	578.56
391.186	550.56
391.411	581.56
391.636	587.56
391.86	597.56
392.085	606.56
392.31	606.56
392.534	586.56
392.759	597.56
392.984	594.56
393.208	601.56
393.433	610.56
393.658	632.56
393.882	574.56
394.107	605.56
394.331	581.56
394.556	587.56
394.78	603.56
395.005	585.56
395.229	611.56
395.454	628.56
395.678	625.56
395.903	631.56
396.127	609.56
396.352	622.56
396.576	597.56
396.801	573.56
397.025	603.56
397.249	610.56
397.474	619.56
397.698	628.56
397.922	648.56
398.147	642.56
398.371	630.56
398.595	635.56
398.82	665.56
399.044	703.56
399.268	750.56
399.492	835.56
399.717	869.56
399.941	912.56
400.165	855.56
400.389	796.56
400.613	755.56
400.837	706.56
401.062	695.56
401.286	668.56
401.51	661.56
401.734	668.56
401.958	691.56
402.182	670.56
402.406	690.56
402.63	696.56
402.854	699.56
403.078	706.56
403.302	709.56
403.526	712.56
403.75	731.56
403.974	734.56
404.198	720.56
404.422	754.56
404.645	729.56
404.869	730.56
405.093	753.56
405.317	767.56
405.541	792.56
405.765	761.56
405.988	712.56
406.212	735.56
406.436	768.56
406.66	778.56
406.883	765.56
407.107	798.56
407.331	825.56
407.555	862.56
407.778	868.56
408.002	841.56
408.226	789.56
408.449	777.56
408.673	763.56
408.896	769.56
409.12	794.56
409.344	768.56
409.567	734.56
409.791	731.56
410.014	709.56
410.238	708.56
410.461	715.56
410.685	699.56
410.908	699.56
411.132	720.56
411.355	743.56
411.578	701.56
411.802	715.56
412.025	698.56
412.249	726.56
412.472	717.56
412.695	711.56
412.919	712.56
413.142	669.56
413.365	658.56
413.589	671.56
413.812	663.56
414.035	681.56
414.258	660.56
414.482	674.56
414.705	657.56
414.928	693.56
415.151	648.56
415.374	692.56
415.597	667.56
415.821	653.56
416.044	617.56
416.267	658.56
416.49	644.56
416.713	633.56
416.936	651.56
417.159	670.56
417.382	636.56
417.605	650.56
417.828	664.56
418.051	685.56
418.274	694.56
418.497	649.56
418.72	665.56
418.943	646.56
419.166	693.56
419.389	728.56
419.611	740.56
419.834	702.56
420.057	689.56
420.28	678.56
420.503	678.56
420.726	671.56
420.948	670.56
421.171	694.56
421.394	706.56
421.617	675.56
421.839	658.56
422.062	678.56
422.285	683.56
422.507	724.56
422.73	724.56
422.953	714.56
423.175	699.56
423.398	693.56
423.621	693.56
423.843	725.56
424.066	709.56
424.288	716.56
424.511	725.56
424.733	738.56
424.956	799.56
425.178	750.56
425.401	732.56
425.623	785.56
425.846	696.56
426.068	669.56
426.291	662.56
426.513	670.56
426.735	686.56
426.958	684.56
427.18	744.56
427.402	814.56
427.625	856.56
427.847	758.56
428.069	710.56
428.292	664.56
428.514	620.56
428.736	644.56
428.958	615.56
429.181	618.56
429.403	615.56
429.625	613.56
429.847	627.56
430.069	676.56
430.292	672.56
430.514	618.56
430.736	630.56
430.958	606.56
431.18	612.56
431.402	598.56
431.624	603.56
431.846	602.56
432.068	600.56
432.29	609.56
432.512	619.56
432.734	627.56
432.956	613.56
433.178	606.56
433.4	597.56
433.622	616.56
433.844	609.56
434.066	607.56
434.287	619.56
434.509	647.56
434.731	650.56
434.953	656.56
435.175	663.56
435.397	667.56
435.618	653.56
435.84	699.56
436.062	737.56
436.284	786.56
436.505	666.56
436.727	642.56
436.949	622.56
437.17	639.56
437.392	615.56
437.614	645.56
437.835	627.56
438.057	676.56
438.278	723.56
438.5	755.56
438.721	826.56
438.943	771.56
439.165	676.56
439.386	634.56
439.608	647.56
439.829	602.56
440.05	632.56
440.272	666.56
440.493	664.56
440.715	630.56
440.936	647.56
441.158	624.56
441.379	656.56
441.6	658.56
441.822	672.56
442.043	683.56
442.264	754.56
442.486	766.56
442.707	700.56
442.928	684.56
443.149	677.56
443.371	682.56
443.592	709.56
443.813	754.56
444.034	827.56
444.255	745.56
444.476	751.56
444.698	740.56
444.919	754.56
445.14	864.56
445.361	784.56
445.582	739.56
445.803	725.56
446.024	774.56
446.245	774.56
446.466	729.56
446.687	669.56
446.908	636.56
447.129	609.56
447.35	633.56
447.571	614.56
447.792	603.56
448.013	597.56
448.234	595.56
448.455	638.56
448.675	681.56
448.896	758.56
449.117	679.56
449.338	646.56
449.559	720.56
449.779	780.56
450	679.56
450.221	607.56
450.442	598.56
450.662	587.56
450.883	585.56
451.104	582.56
451.324	570.56
451.545	571.56
451.766	543.56
451.986	557.56
452.207	558.56
452.428	554.56
452.648	554.56
452.869	534.56
453.089	558.56
453.31	555.56
453.53	545.56
453.751	530.56
453.971	532.56
454.192	528.56
454.412	561.56
454.633	547.56
454.853	553.56
455.073	544.56
455.294	560.56
455.514	566.56
455.734	581.56
455.955	551.56
456.175	518.56
456.395	511.56
456.616	500.56
456.836	518.56
457.056	548.56
457.276	538.56
457.497	525.56
457.717	537.56
457.937	506.56
458.157	538.56
458.377	552.56
458.598	577.56
458.818	580.56
459.038	632.56
459.258	656.56
459.478	617.56
459.698	638.56
459.918	633.56
460.138	644.56
460.358	666.56
460.578	681.56
460.798	682.56
461.018	691.56
461.238	687.56
461.458	694.56
461.678	655.56
461.898	678.56
462.118	666.56
462.338	725.56
462.558	735.56
462.777	742.56
462.997	766.56
463.217	828.56
463.437	836.56
463.657	783.56
463.876	734.56
464.096	752.56
464.316	754.56
464.536	761.56
464.755	745.56
464.975	741.56
465.195	691.56
465.414	711.56
465.634	652.56
465.854	670.56
466.073	644.56
466.293	617.56
466.512	618.56
466.732	604.56
466.951	569.56
467.171	588.56
467.391	594.56
467.61	579.56
467.829	578.56
468.049	601.56
468.268	564.56
468.488	556.56
468.707	569.56
468.927	550.56
469.146	567.56
469.365	593.56
469.585	596.56
469.804	593.56
470.023	587.56
470.243	601.56
470.462	603.56
470.681	597.56
470.901	597.56
471.12	611.56
471.339	623.56
471.558	568.56
471.777	574.56
471.997	576.56
472.216	576.56
472.435	592.56
472.654	589.56
472.873	551.56
473.092	575.56
473.311	583.56
473.53	559.56
473.749	594.56
473.968	592.56
474.187	608.56
474.406	652.56
474.625	594.56
474.844	578.56
475.063	587.56
475.282	572.56
475.501	565.56
475.72	612.56
475.939	591.56
476.158	602.56
476.377	579.56
476.596	598.56
476.814	622.56
477.033	592.56
477.252	597.56
477.471	631.56
477.69	639.56
477.908	646.56
478.127	658.56
478.346	650.56
478.564	670.56
478.783	677.56
479.002	698.56
479.22	715.56
479.439	711.56
479.658	730.56
479.876	696.56
480.095	724.56
480.313	743.56
480.532	779.56
480.751	743.56
480.969	731.56
481.188	748.56
481.406	755.56
481.624	713.56
481.843	707.56
482.061	713.56
482.28	704.56
482.498	660.56
482.717	650.56
482.935	679.56
483.153	672.56
483.372	678.56
483.59	664.56
483.808	682.56
484.027	686.56
484.245	667.56
484.463	679.56
484.681	678.56
484.9	708.56
485.118	704.56
485.336	670.56
485.554	695.56
485.772	679.56
485.99	719.56
486.209	715.56
486.427	713.56
486.645	690.56
486.863	721.56
487.081	712.56
487.299	715.56
487.517	702.56
487.735	708.56
487.953	709.56
488.171	711.56
488.389	700.56
488.607	708.56
488.825	733.56
489.043	718.56
489.261	708.56
489.479	715.56
489.696	722.56
489.914	718.56
490.132	750.56
490.35	704.56
490.568	735.56
490.786	744.56
491.003	763.56
491.221	764.56
491.439	768.56
491.657	754.56
491.874	779.56
492.092	772.56
492.31	802.56
492.527	788.56
492.745	793.56
492.963	797.56
493.18	793.56
493.398	800.56
493.615	793.56
493.833	809.56
494.05	807.56
494.268	800.56
494.485	795.56
494.703	805.56
494.92	808.56
495.138	833.56
495.355	786.56
495.573	822.56
495.79	826.56
496.008	833.56
496.225	826.56
496.442	849.56
496.66	843.56
496.877	854.56
497.094	881.56
497.312	881.56
497.529	864.56
497.746	886.56
497.963	916.56
498.181	958.56
498.398	976.56
498.615	1023.56
498.832	1034.56
499.049	1101.56
499.267	1158.56
499.484	1223.56
499.701	1328.56
499.918	1438.56
500.135	1556.56
500.352	1675.56
500.569	1718.56
500.786	1740.56
501.003	1656.56
501.22	1542.56
501.437	1425.56
501.654	1292.56
501.871	1247.56
