Data from 1963.PennyLincolnUp.Lamp.En5.5.200Scan.071719.P1._HRD10591_13-57-44-063.txt Node
Date: Thu Jul 18 13:57:44 EDT 2019
User: cochatt
Spectrometer: HR+D1059
Trigger mode: 1
Integration Time (sec): 1.000000E-1
Scans to average: 1
Electric dark correction enabled: true
Nonlinearity correction enabled: false
Boxcar width: 0
XAxis mode: Wavelengths
Number of Pixels in Spectrum: 2048
>>>>>Begin Spectral Data<<<<<
223.165	-11.19
223.4	-11.19
223.635	-11.19
223.869	-16.19
224.104	-30.19
224.338	-22.19
224.573	-2.19
224.808	-14.19
225.042	-4.19
225.277	-9.19
225.511	-1.19
225.746	9.81
225.98	14.81
226.215	6.81
226.449	18.81
226.683	22.81
226.918	28.81
227.152	8.81
227.387	26.81
227.621	33.81
227.856	32.81
228.09	32.81
228.324	58.81
228.559	70.81
228.793	50.81
229.027	104.81
229.262	92.81
229.496	111.81
229.73	117.81
229.964	129.81
230.199	120.81
230.433	113.81
230.667	114.81
230.901	115.81
231.136	111.81
231.37	98.81
231.604	108.81
231.838	119.81
232.072	103.81
232.306	120.81
232.541	102.81
232.775	87.81
233.009	112.81
233.243	114.81
233.477	127.81
233.711	122.81
233.945	106.81
234.179	122.81
234.413	106.81
234.647	113.81
234.881	129.81
235.115	128.81
235.349	112.81
235.583	115.81
235.817	112.81
236.051	118.81
236.285	124.81
236.519	118.81
236.753	120.81
236.987	119.81
237.221	149.81
237.455	176.81
237.689	153.81
237.922	136.81
238.156	120.81
238.39	124.81
238.624	133.81
238.858	117.81
239.091	128.81
239.325	127.81
239.559	121.81
239.793	131.81
240.027	127.81
240.26	132.81
240.494	132.81
240.728	144.81
240.961	157.81
241.195	134.81
241.429	147.81
241.662	130.81
241.896	144.81
242.13	124.81
242.363	135.81
242.597	134.81
242.83	142.81
243.064	155.81
243.298	138.81
243.531	143.81
243.765	156.81
243.998	148.81
244.232	134.81
244.465	145.81
244.699	152.81
244.932	157.81
245.166	151.81
245.399	166.81
245.633	159.81
245.866	147.81
246.099	140.81
246.333	152.81
246.566	155.81
246.8	144.81
247.033	172.81
247.266	153.81
247.5	161.81
247.733	162.81
247.966	169.81
248.2	164.81
248.433	176.81
248.666	172.81
248.899	183.81
249.133	179.81
249.366	192.81
249.599	182.81
249.832	183.81
250.066	187.81
250.299	185.81
250.532	185.81
250.765	210.81
250.998	211.81
251.231	204.81
251.465	201.81
251.698	210.81
251.931	212.81
252.164	197.81
252.397	187.81
252.63	197.81
252.863	193.81
253.096	212.81
253.329	221.81
253.562	223.81
253.795	218.81
254.028	196.81
254.261	206.81
254.494	207.81
254.727	208.81
254.96	243.81
255.193	245.81
255.426	232.81
255.659	230.81
255.892	237.81
256.124	228.81
256.357	218.81
256.59	232.81
256.823	227.81
257.056	208.81
257.289	197.81
257.521	217.81
257.754	203.81
257.987	204.81
258.22	212.81
258.452	209.81
258.685	215.81
258.918	207.81
259.151	233.81
259.383	214.81
259.616	225.81
259.849	233.81
260.081	232.81
260.314	234.81
260.547	235.81
260.779	237.81
261.012	230.81
261.244	226.81
261.477	211.81
261.71	224.81
261.942	225.81
262.175	242.81
262.407	220.81
262.64	217.81
262.872	240.81
263.105	228.81
263.337	241.81
263.57	215.81
263.802	209.81
264.035	241.81
264.267	232.81
264.499	219.81
264.732	239.81
264.964	233.81
265.197	245.81
265.429	229.81
265.661	225.81
265.894	221.81
266.126	224.81
266.358	234.81
266.591	231.81
266.823	239.81
267.055	240.81
267.287	247.81
267.52	231.81
267.752	243.81
267.984	255.81
268.216	247.81
268.448	254.81
268.681	255.81
268.913	253.81
269.145	265.81
269.377	263.81
269.609	288.81
269.841	260.81
270.073	250.81
270.306	282.81
270.538	295.81
270.77	280.81
271.002	302.81
271.234	278.81
271.466	284.81
271.698	310.81
271.93	296.81
272.162	299.81
272.394	306.81
272.626	277.81
272.858	288.81
273.09	280.81
273.322	274.81
273.553	272.81
273.785	276.81
274.017	275.81
274.249	284.81
274.481	271.81
274.713	290.81
274.945	285.81
275.176	280.81
275.408	287.81
275.64	279.81
275.872	278.81
276.104	268.81
276.335	281.81
276.567	286.81
276.799	288.81
277.031	311.81
277.262	314.81
277.494	329.81
277.726	309.81
277.957	297.81
278.189	295.81
278.421	271.81
278.652	286.81
278.884	295.81
279.115	304.81
279.347	270.81
279.579	301.81
279.81	295.81
280.042	301.81
280.273	286.81
280.505	306.81
280.736	300.81
280.968	305.81
281.199	313.81
281.431	313.81
281.662	300.81
281.894	287.81
282.125	304.81
282.356	300.81
282.588	318.81
282.819	341.81
283.051	318.81
283.282	298.81
283.513	314.81
283.745	317.81
283.976	304.81
284.207	322.81
284.439	307.81
284.67	319.81
284.901	315.81
285.132	301.81
285.364	317.81
285.595	312.81
285.826	322.81
286.057	305.81
286.288	311.81
286.52	314.81
286.751	311.81
286.982	329.81
287.213	326.81
287.444	327.81
287.675	322.81
287.906	329.81
288.138	358.81
288.369	320.81
288.6	346.81
288.831	342.81
289.062	323.81
289.293	306.81
289.524	348.81
289.755	333.81
289.986	331.81
290.217	322.81
290.448	339.81
290.679	347.81
290.91	330.81
291.141	325.81
291.371	338.81
291.602	326.81
291.833	322.81
292.064	341.81
292.295	357.81
292.526	356.81
292.757	339.81
292.987	334.81
293.218	340.81
293.449	330.81
293.68	331.81
293.91	338.81
294.141	324.81
294.372	357.81
294.603	337.81
294.833	344.81
295.064	359.81
295.295	335.81
295.525	343.81
295.756	347.81
295.987	349.81
296.217	352.81
296.448	381.81
296.679	365.81
296.909	331.81
297.14	371.81
297.37	360.81
297.601	372.81
297.831	372.81
298.062	362.81
298.292	372.81
298.523	363.81
298.753	360.81
298.984	370.81
299.214	366.81
299.445	374.81
299.675	364.81
299.905	398.81
300.136	349.81
300.366	357.81
300.597	384.81
300.827	383.81
301.057	389.81
301.288	395.81
301.518	392.81
301.748	384.81
301.979	401.81
302.209	409.81
302.439	385.81
302.669	381.81
302.9	370.81
303.13	380.81
303.36	400.81
303.59	386.81
303.82	397.81
304.051	386.81
304.281	391.81
304.511	395.81
304.741	383.81
304.971	398.81
305.201	384.81
305.431	386.81
305.661	405.81
305.891	399.81
306.121	392.81
306.352	401.81
306.582	370.81
306.812	390.81
307.042	396.81
307.272	388.81
307.502	376.81
307.731	382.81
307.961	397.81
308.191	388.81
308.421	397.81
308.651	408.81
308.881	375.81
309.111	391.81
309.341	389.81
309.571	401.81
309.8	401.81
310.03	417.81
310.26	390.81
310.49	408.81
310.72	399.81
310.949	406.81
311.179	418.81
311.409	418.81
311.639	425.81
311.868	412.81
312.098	397.81
312.328	430.81
312.557	437.81
312.787	410.81
313.017	446.81
313.246	411.81
313.476	421.81
313.706	431.81
313.935	436.81
314.165	445.81
314.394	442.81
314.624	436.81
314.853	425.81
315.083	421.81
315.312	419.81
315.542	434.81
315.771	427.81
316.001	402.81
316.23	414.81
316.46	401.81
316.689	413.81
316.919	424.81
317.148	436.81
317.377	418.81
317.607	412.81
317.836	415.81
318.065	424.81
318.295	419.81
318.524	422.81
318.753	424.81
318.983	400.81
319.212	427.81
319.441	448.81
319.67	432.81
319.9	442.81
320.129	433.81
320.358	432.81
320.587	439.81
320.816	449.81
321.046	447.81
321.275	443.81
321.504	432.81
321.733	445.81
321.962	444.81
322.191	433.81
322.42	433.81
322.649	455.81
322.878	478.81
323.108	439.81
323.337	468.81
323.566	473.81
323.795	469.81
324.024	491.81
324.253	560.81
324.482	687.81
324.71	944.81
324.939	1337.81
325.168	1184.81
325.397	715.81
325.626	546.81
325.855	488.81
326.084	514.81
326.313	496.81
326.542	491.81
326.77	505.81
326.999	558.81
327.228	698.81
327.457	863.81
327.686	1052.81
327.914	770.81
328.143	592.81
328.372	568.81
328.6	535.81
328.829	509.81
329.058	517.81
329.287	523.81
329.515	509.81
329.744	497.81
329.972	505.81
330.201	526.81
330.43	525.81
330.658	544.81
330.887	564.81
331.115	563.81
331.344	541.81
331.572	512.81
331.801	489.81
332.03	523.81
332.258	516.81
332.486	534.81
332.715	535.81
332.943	556.81
333.172	565.81
333.4	561.81
333.629	590.81
333.857	589.81
334.085	573.81
334.314	610.81
334.542	600.81
334.771	584.81
334.999	581.81
335.227	594.81
335.455	590.81
335.684	548.81
335.912	541.81
336.14	529.81
336.369	506.81
336.597	537.81
336.825	532.81
337.053	535.81
337.281	509.81
337.51	536.81
337.738	539.81
337.966	528.81
338.194	526.81
338.422	523.81
338.65	485.81
338.878	512.81
339.106	504.81
339.334	493.81
339.562	507.81
339.79	473.81
340.018	483.81
340.246	496.81
340.474	509.81
340.702	498.81
340.93	503.81
341.158	512.81
341.386	464.81
341.614	506.81
341.842	487.81
342.07	488.81
342.298	476.81
342.526	514.81
342.754	496.81
342.981	483.81
343.209	503.81
343.437	506.81
343.665	502.81
343.893	544.81
344.12	553.81
344.348	544.81
344.576	526.81
344.804	508.81
345.031	533.81
345.259	485.81
345.487	502.81
345.714	503.81
345.942	489.81
346.17	466.81
346.397	453.81
346.625	464.81
346.853	455.81
347.08	448.81
347.308	470.81
347.535	471.81
347.763	467.81
347.99	483.81
348.218	467.81
348.445	495.81
348.673	472.81
348.9	461.81
349.128	468.81
349.355	466.81
349.583	464.81
349.81	484.81
350.037	455.81
350.265	460.81
350.492	458.81
350.72	463.81
350.947	448.81
351.174	468.81
351.402	465.81
351.629	460.81
351.856	481.81
352.083	472.81
352.311	480.81
352.538	453.81
352.765	478.81
352.992	465.81
353.22	458.81
353.447	469.81
353.674	457.81
353.901	466.81
354.128	479.81
354.355	460.81
354.583	457.81
354.81	445.81
355.037	444.81
355.264	459.81
355.491	452.81
355.718	442.81
355.945	445.81
356.172	470.81
356.399	457.81
356.626	444.81
356.853	471.81
357.08	460.81
357.307	440.81
357.534	450.81
357.761	453.81
357.988	441.81
358.215	459.81
358.441	440.81
358.668	454.81
358.895	469.81
359.122	457.81
359.349	465.81
359.576	457.81
359.802	480.81
360.029	478.81
360.256	484.81
360.483	480.81
360.709	479.81
360.936	497.81
361.163	474.81
361.39	473.81
361.616	458.81
361.843	468.81
362.07	472.81
362.296	479.81
362.523	476.81
362.749	488.81
362.976	457.81
363.203	469.81
363.429	478.81
363.656	458.81
363.882	468.81
364.109	455.81
364.335	440.81
364.562	465.81
364.788	437.81
365.015	474.81
365.241	478.81
365.468	461.81
365.694	449.81
365.92	454.81
366.147	471.81
366.373	470.81
366.599	464.81
366.826	469.81
367.052	477.81
367.278	481.81
367.505	474.81
367.731	477.81
367.957	472.81
368.184	468.81
368.41	473.81
368.636	488.81
368.862	482.81
369.089	480.81
369.315	464.81
369.541	473.81
369.767	468.81
369.993	489.81
370.219	487.81
370.445	463.81
370.672	478.81
370.898	478.81
371.124	506.81
371.35	494.81
371.576	485.81
371.802	478.81
372.028	471.81
372.254	497.81
372.48	521.81
372.706	486.81
372.932	499.81
373.158	482.81
373.384	497.81
373.61	514.81
373.835	490.81
374.061	479.81
374.287	492.81
374.513	497.81
374.739	506.81
374.965	525.81
375.191	540.81
375.416	552.81
375.642	517.81
375.868	495.81
376.094	518.81
376.319	497.81
376.545	478.81
376.771	500.81
376.997	493.81
377.222	500.81
377.448	499.81
377.674	485.81
377.899	492.81
378.125	453.81
378.35	500.81
378.576	470.81
378.802	479.81
379.027	480.81
379.253	464.81
379.478	469.81
379.704	476.81
379.929	490.81
380.155	495.81
380.38	513.81
380.606	486.81
380.831	484.81
381.057	484.81
381.282	485.81
381.507	506.81
381.733	497.81
381.958	496.81
382.184	521.81
382.409	522.81
382.634	500.81
382.86	532.81
383.085	502.81
383.31	514.81
383.535	506.81
383.761	540.81
383.986	541.81
384.211	529.81
384.436	541.81
384.662	520.81
384.887	528.81
385.112	550.81
385.337	530.81
385.562	563.81
385.787	577.81
386.013	590.81
386.238	580.81
386.463	558.81
386.688	578.81
386.913	541.81
387.138	576.81
387.363	586.81
387.588	577.81
387.813	555.81
388.038	561.81
388.263	540.81
388.488	574.81
388.713	544.81
388.938	560.81
389.163	552.81
389.387	556.81
389.612	573.81
389.837	554.81
390.062	552.81
390.287	575.81
390.512	555.81
390.736	581.81
390.961	564.81
391.186	568.81
391.411	600.81
391.636	616.81
391.86	602.81
392.085	614.81
392.31	585.81
392.534	601.81
392.759	605.81
392.984	574.81
393.208	595.81
393.433	590.81
393.658	602.81
393.882	582.81
394.107	588.81
394.331	592.81
394.556	570.81
394.78	574.81
395.005	586.81
395.229	594.81
395.454	606.81
395.678	613.81
395.903	628.81
396.127	616.81
396.352	620.81
396.576	598.81
396.801	607.81
397.025	581.81
397.249	609.81
397.474	594.81
397.698	606.81
397.922	608.81
398.147	622.81
398.371	644.81
398.595	642.81
398.82	628.81
399.044	680.81
399.268	743.81
399.492	801.81
399.717	894.81
399.941	896.81
400.165	876.81
400.389	839.81
400.613	746.81
400.837	729.81
401.062	693.81
401.286	667.81
401.51	704.81
401.734	668.81
401.958	684.81
402.182	686.81
402.406	677.81
402.63	701.81
402.854	706.81
403.078	704.81
403.302	745.81
403.526	716.81
403.75	744.81
403.974	716.81
404.198	716.81
404.422	741.81
404.645	738.81
404.869	726.81
405.093	755.81
405.317	768.81
405.541	797.81
405.765	773.81
405.988	749.81
406.212	732.81
406.436	744.81
406.66	786.81
406.883	776.81
407.107	790.81
407.331	838.81
407.555	879.81
407.778	886.81
408.002	839.81
408.226	803.81
408.449	793.81
408.673	732.81
408.896	791.81
409.12	799.81
409.344	800.81
409.567	716.81
409.791	739.81
410.014	699.81
410.238	707.81
410.461	710.81
410.685	696.81
410.908	726.81
411.132	713.81
411.355	744.81
411.578	704.81
411.802	702.81
412.025	685.81
412.249	694.81
412.472	712.81
412.695	731.81
412.919	718.81
413.142	708.81
413.365	681.81
413.589	697.81
413.812	671.81
414.035	688.81
414.258	661.81
414.482	650.81
414.705	675.81
414.928	673.81
415.151	650.81
415.374	657.81
415.597	644.81
415.821	630.81
416.044	649.81
416.267	679.81
416.49	638.81
416.713	650.81
416.936	664.81
417.159	643.81
417.382	624.81
417.605	672.81
417.828	661.81
418.051	664.81
418.274	642.81
418.497	678.81
418.72	662.81
418.943	644.81
419.166	704.81
419.389	755.81
419.611	719.81
419.834	716.81
420.057	705.81
420.28	679.81
420.503	676.81
420.726	663.81
420.948	689.81
421.171	696.81
421.394	730.81
421.617	671.81
421.839	673.81
422.062	680.81
422.285	674.81
422.507	703.81
422.73	766.81
422.953	754.81
423.175	716.81
423.398	688.81
423.621	696.81
423.843	725.81
424.066	713.81
424.288	709.81
424.511	693.81
424.733	766.81
424.956	821.81
425.178	762.81
425.401	757.81
425.623	770.81
425.846	704.81
426.068	695.81
426.291	663.81
426.513	676.81
426.735	669.81
426.958	692.81
427.18	750.81
427.402	810.81
427.625	873.81
427.847	799.81
428.069	718.81
428.292	684.81
428.514	650.81
428.736	618.81
428.958	641.81
429.181	624.81
429.403	588.81
429.625	626.81
429.847	617.81
430.069	686.81
430.292	688.81
430.514	630.81
430.736	614.81
430.958	611.81
431.18	640.81
431.402	603.81
431.624	631.81
431.846	613.81
432.068	600.81
432.29	613.81
432.512	621.81
432.734	614.81
432.956	644.81
433.178	630.81
433.4	637.81
433.622	594.81
433.844	602.81
434.066	632.81
434.287	621.81
434.509	638.81
434.731	639.81
434.953	688.81
435.175	673.81
435.397	689.81
435.618	667.81
435.84	700.81
436.062	736.81
436.284	778.81
436.505	658.81
436.727	648.81
436.949	633.81
437.17	611.81
437.392	634.81
437.614	612.81
437.835	629.81
438.057	704.81
438.278	735.81
438.5	748.81
438.721	828.81
438.943	782.81
439.165	659.81
439.386	632.81
439.608	641.81
439.829	651.81
440.05	656.81
440.272	692.81
440.493	666.81
440.715	609.81
440.936	644.81
441.158	636.81
441.379	623.81
441.6	694.81
441.822	676.81
442.043	719.81
442.264	779.81
442.486	757.81
442.707	709.81
442.928	682.81
443.149	698.81
443.371	688.81
443.592	749.81
443.813	776.81
444.034	822.81
444.255	769.81
444.476	736.81
444.698	745.81
444.919	771.81
445.14	864.81
445.361	783.81
445.582	739.81
445.803	746.81
446.024	784.81
446.245	804.81
446.466	730.81
446.687	688.81
446.908	644.81
447.129	617.81
447.35	616.81
447.571	609.81
447.792	586.81
448.013	611.81
448.234	585.81
448.455	642.81
448.675	693.81
448.896	799.81
449.117	674.81
449.338	663.81
449.559	732.81
449.779	809.81
450	702.81
450.221	612.81
450.442	575.81
450.662	577.81
450.883	580.81
451.104	600.81
451.324	599.81
451.545	571.81
451.766	551.81
451.986	567.81
452.207	560.81
452.428	564.81
452.648	575.81
452.869	576.81
453.089	561.81
453.31	551.81
453.53	562.81
453.751	569.81
453.971	580.81
454.192	558.81
454.412	546.81
454.633	550.81
454.853	536.81
455.073	550.81
455.294	557.81
455.514	617.81
455.734	596.81
455.955	545.81
456.175	533.81
456.395	511.81
456.616	497.81
456.836	516.81
457.056	536.81
457.276	544.81
457.497	520.81
457.717	521.81
457.937	535.81
458.157	559.81
458.377	549.81
458.598	582.81
458.818	621.81
459.038	653.81
459.258	664.81
459.478	636.81
459.698	604.81
459.918	631.81
460.138	638.81
460.358	647.81
460.578	654.81
460.798	673.81
461.018	699.81
461.238	681.81
461.458	691.81
461.678	667.81
461.898	670.81
462.118	703.81
462.338	691.81
462.558	722.81
462.777	755.81
462.997	818.81
463.217	827.81
463.437	849.81
463.657	785.81
463.876	759.81
464.096	724.81
464.316	740.81
464.536	773.81
464.755	733.81
464.975	725.81
465.195	705.81
465.414	724.81
465.634	670.81
465.854	639.81
466.073	603.81
466.293	617.81
466.512	604.81
466.732	605.81
466.951	568.81
467.171	586.81
467.391	575.81
467.61	600.81
467.829	582.81
468.049	593.81
468.268	569.81
468.488	582.81
468.707	563.81
468.927	575.81
469.146	569.81
469.365	573.81
469.585	567.81
469.804	594.81
470.023	605.81
470.243	613.81
470.462	618.81
470.681	585.81
470.901	623.81
471.12	591.81
471.339	604.81
471.558	574.81
471.777	611.81
471.997	580.81
472.216	592.81
472.435	624.81
472.654	582.81
472.873	570.81
473.092	572.81
473.311	568.81
473.53	578.81
473.749	579.81
473.968	595.81
474.187	647.81
474.406	672.81
474.625	596.81
474.844	584.81
475.063	552.81
475.282	593.81
475.501	576.81
475.72	588.81
475.939	593.81
476.158	581.81
476.377	580.81
476.596	578.81
476.814	589.81
477.033	608.81
477.252	604.81
477.471	625.81
477.69	633.81
477.908	639.81
478.127	649.81
478.346	656.81
478.564	656.81
478.783	655.81
479.002	698.81
479.22	702.81
479.439	703.81
479.658	714.81
479.876	702.81
480.095	699.81
480.313	744.81
480.532	786.81
480.751	754.81
480.969	762.81
481.188	768.81
481.406	778.81
481.624	698.81
481.843	704.81
482.061	709.81
482.28	670.81
482.498	693.81
482.717	676.81
482.935	674.81
483.153	669.81
483.372	684.81
483.59	670.81
483.808	675.81
484.027	686.81
484.245	675.81
484.463	676.81
484.681	689.81
484.9	686.81
485.118	675.81
485.336	705.81
485.554	693.81
485.772	696.81
485.99	709.81
486.209	701.81
486.427	710.81
486.645	703.81
486.863	719.81
487.081	724.81
487.299	724.81
487.517	721.81
487.735	715.81
487.953	702.81
488.171	698.81
488.389	724.81
488.607	710.81
488.825	713.81
489.043	722.81
489.261	729.81
489.479	729.81
489.696	746.81
489.914	742.81
490.132	752.81
490.35	743.81
490.568	748.81
490.786	768.81
491.003	738.81
491.221	758.81
491.439	789.81
491.657	794.81
491.874	776.81
492.092	766.81
492.31	801.81
492.527	791.81
492.745	793.81
492.963	793.81
493.18	794.81
493.398	817.81
493.615	823.81
493.833	841.81
494.05	810.81
494.268	825.81
494.485	837.81
494.703	811.81
494.92	839.81
495.138	812.81
495.355	818.81
495.573	789.81
495.79	809.81
496.008	818.81
496.225	830.81
496.442	828.81
496.66	841.81
496.877	838.81
497.094	849.81
497.312	843.81
497.529	890.81
497.746	876.81
497.963	905.81
498.181	938.81
498.398	978.81
498.615	1005.81
498.832	1072.81
499.049	1123.81
499.267	1142.81
499.484	1212.81
499.701	1325.81
499.918	1394.81
500.135	1538.81
500.352	1639.81
500.569	1724.81
500.786	1724.81
501.003	1655.81
501.22	1539.81
501.437	1410.81
501.654	1313.81
501.871	1241.81
