Data from 1963.PennyLincolnUp.Lamp.En5.5.200Scan.071719.P1._HRD10591_13-59-58-064.txt Node
Date: Thu Jul 18 13:59:58 EDT 2019
User: cochatt
Spectrometer: HR+D1059
Trigger mode: 1
Integration Time (sec): 1.000000E-1
Scans to average: 1
Electric dark correction enabled: true
Nonlinearity correction enabled: false
Boxcar width: 0
XAxis mode: Wavelengths
Number of Pixels in Spectrum: 2048
>>>>>Begin Spectral Data<<<<<
223.165	-0.94
223.4	-0.94
223.635	-0.94
223.869	-8.94
224.104	-6.94
224.338	-9.94
224.573	-14.94
224.808	-21.94
225.042	-24.94
225.277	-20.94
225.511	12.06
225.746	-3.94
225.98	4.06
226.215	4.06
226.449	9.06
226.683	22.06
226.918	22.06
227.152	40.06
227.387	33.06
227.621	40.06
227.856	31.06
228.09	42.06
228.324	45.06
228.559	51.06
228.793	69.06
229.027	96.06
229.262	97.06
229.496	118.06
229.73	127.06
229.964	154.06
230.199	132.06
230.433	123.06
230.667	111.06
230.901	105.06
231.136	123.06
231.37	105.06
231.604	122.06
231.838	123.06
232.072	131.06
232.306	117.06
232.541	118.06
232.775	120.06
233.009	105.06
233.243	102.06
233.477	128.06
233.711	133.06
233.945	124.06
234.179	121.06
234.413	136.06
234.647	123.06
234.881	118.06
235.115	134.06
235.349	128.06
235.583	109.06
235.817	120.06
236.051	125.06
236.285	111.06
236.519	125.06
236.753	141.06
236.987	138.06
237.221	184.06
237.455	226.06
237.689	177.06
237.922	145.06
238.156	138.06
238.39	143.06
238.624	123.06
238.858	119.06
239.091	137.06
239.325	139.06
239.559	138.06
239.793	144.06
240.027	129.06
240.26	162.06
240.494	177.06
240.728	149.06
240.961	149.06
241.195	153.06
241.429	147.06
241.662	153.06
241.896	148.06
242.13	146.06
242.363	141.06
242.597	156.06
242.83	166.06
243.064	164.06
243.298	151.06
243.531	157.06
243.765	155.06
243.998	165.06
244.232	161.06
244.465	168.06
244.699	157.06
244.932	171.06
245.166	158.06
245.399	175.06
245.633	171.06
245.866	170.06
246.099	155.06
246.333	163.06
246.566	165.06
246.8	159.06
247.033	182.06
247.266	179.06
247.5	189.06
247.733	202.06
247.966	199.06
248.2	191.06
248.433	206.06
248.666	194.06
248.899	214.06
249.133	226.06
249.366	223.06
249.599	209.06
249.832	210.06
250.066	202.06
250.299	201.06
250.532	207.06
250.765	232.06
250.998	225.06
251.231	236.06
251.465	219.06
251.698	220.06
251.931	234.06
252.164	232.06
252.397	209.06
252.63	213.06
252.863	221.06
253.096	239.06
253.329	248.06
253.562	259.06
253.795	246.06
254.028	257.06
254.261	252.06
254.494	238.06
254.727	265.06
254.96	291.06
255.193	284.06
255.426	245.06
255.659	246.06
255.892	249.06
256.124	244.06
256.357	259.06
256.59	232.06
256.823	231.06
257.056	232.06
257.289	226.06
257.521	257.06
257.754	246.06
257.987	258.06
258.22	240.06
258.452	232.06
258.685	227.06
258.918	243.06
259.151	249.06
259.383	264.06
259.616	250.06
259.849	246.06
260.081	265.06
260.314	285.06
260.547	293.06
260.779	279.06
261.012	263.06
261.244	257.06
261.477	268.06
261.71	239.06
261.942	253.06
262.175	265.06
262.407	259.06
262.64	255.06
262.872	247.06
263.105	252.06
263.337	260.06
263.57	253.06
263.802	235.06
264.035	261.06
264.267	238.06
264.499	244.06
264.732	243.06
264.964	255.06
265.197	255.06
265.429	270.06
265.661	259.06
265.894	245.06
266.126	236.06
266.358	248.06
266.591	271.06
266.823	259.06
267.055	279.06
267.287	275.06
267.52	256.06
267.752	258.06
267.984	276.06
268.216	282.06
268.448	274.06
268.681	273.06
268.913	294.06
269.145	304.06
269.377	291.06
269.609	323.06
269.841	307.06
270.073	300.06
270.306	308.06
270.538	340.06
270.77	335.06
271.002	331.06
271.234	319.06
271.466	320.06
271.698	336.06
271.93	328.06
272.162	348.06
272.394	372.06
272.626	317.06
272.858	311.06
273.09	331.06
273.322	330.06
273.553	325.06
273.785	299.06
274.017	305.06
274.249	301.06
274.481	303.06
274.713	312.06
274.945	320.06
275.176	298.06
275.408	309.06
275.64	326.06
275.872	301.06
276.104	308.06
276.335	303.06
276.567	326.06
276.799	328.06
277.031	348.06
277.262	338.06
277.494	349.06
277.726	337.06
277.957	334.06
278.189	310.06
278.421	342.06
278.652	327.06
278.884	331.06
279.115	329.06
279.347	328.06
279.579	333.06
279.81	322.06
280.042	317.06
280.273	319.06
280.505	315.06
280.736	330.06
280.968	326.06
281.199	318.06
281.431	334.06
281.662	317.06
281.894	320.06
282.125	341.06
282.356	323.06
282.588	351.06
282.819	384.06
283.051	368.06
283.282	325.06
283.513	336.06
283.745	351.06
283.976	337.06
284.207	365.06
284.439	363.06
284.67	349.06
284.901	335.06
285.132	352.06
285.364	356.06
285.595	373.06
285.826	347.06
286.057	355.06
286.288	341.06
286.52	326.06
286.751	341.06
286.982	346.06
287.213	352.06
287.444	351.06
287.675	353.06
287.906	348.06
288.138	378.06
288.369	377.06
288.6	386.06
288.831	382.06
289.062	361.06
289.293	348.06
289.524	360.06
289.755	363.06
289.986	369.06
290.217	359.06
290.448	377.06
290.679	388.06
290.91	379.06
291.141	357.06
291.371	357.06
291.602	354.06
291.833	348.06
292.064	375.06
292.295	370.06
292.526	378.06
292.757	381.06
292.987	361.06
293.218	362.06
293.449	373.06
293.68	369.06
293.91	378.06
294.141	374.06
294.372	393.06
294.603	384.06
294.833	375.06
295.064	370.06
295.295	381.06
295.525	386.06
295.756	361.06
295.987	377.06
296.217	387.06
296.448	408.06
296.679	401.06
296.909	389.06
297.14	383.06
297.37	384.06
297.601	380.06
297.831	381.06
298.062	394.06
298.292	418.06
298.523	387.06
298.753	398.06
298.984	402.06
299.214	411.06
299.445	386.06
299.675	384.06
299.905	411.06
300.136	405.06
300.366	410.06
300.597	398.06
300.827	410.06
301.057	412.06
301.288	440.06
301.518	431.06
301.748	435.06
301.979	415.06
302.209	410.06
302.439	407.06
302.669	400.06
302.9	407.06
303.13	426.06
303.36	424.06
303.59	429.06
303.82	418.06
304.051	426.06
304.281	428.06
304.511	404.06
304.741	410.06
304.971	424.06
305.201	403.06
305.431	427.06
305.661	421.06
305.891	424.06
306.121	433.06
306.352	411.06
306.582	411.06
306.812	436.06
307.042	422.06
307.272	415.06
307.502	416.06
307.731	407.06
307.961	413.06
308.191	412.06
308.421	428.06
308.651	432.06
308.881	413.06
309.111	411.06
309.341	421.06
309.571	423.06
309.8	434.06
310.03	453.06
310.26	450.06
310.49	461.06
310.72	465.06
310.949	476.06
311.179	445.06
311.409	445.06
311.639	442.06
311.868	472.06
312.098	463.06
312.328	469.06
312.557	491.06
312.787	488.06
313.017	458.06
313.246	493.06
313.476	465.06
313.706	485.06
313.935	489.06
314.165	496.06
314.394	496.06
314.624	485.06
314.853	466.06
315.083	460.06
315.312	461.06
315.542	481.06
315.771	465.06
316.001	459.06
316.23	447.06
316.46	464.06
316.689	462.06
316.919	443.06
317.148	462.06
317.377	474.06
317.607	496.06
317.836	465.06
318.065	465.06
318.295	471.06
318.524	446.06
318.753	464.06
318.983	451.06
319.212	469.06
319.441	470.06
319.67	481.06
319.9	482.06
320.129	474.06
320.358	463.06
320.587	468.06
320.816	485.06
321.046	471.06
321.275	471.06
321.504	517.06
321.733	513.06
321.962	502.06
322.191	519.06
322.42	496.06
322.649	511.06
322.878	514.06
323.108	521.06
323.337	538.06
323.566	565.06
323.795	569.06
324.024	612.06
324.253	695.06
324.482	884.06
324.71	1283.06
324.939	1824.06
325.168	1604.06
325.397	849.06
325.626	653.06
325.855	609.06
326.084	593.06
326.313	545.06
326.542	545.06
326.77	615.06
326.999	645.06
327.228	845.06
327.457	1201.06
327.686	1441.06
327.914	998.06
328.143	733.06
328.372	672.06
328.6	641.06
328.829	614.06
329.058	627.06
329.287	639.06
329.515	593.06
329.744	604.06
329.972	572.06
330.201	586.06
330.43	649.06
330.658	631.06
330.887	673.06
331.115	662.06
331.344	608.06
331.572	596.06
331.801	595.06
332.03	572.06
332.258	597.06
332.486	603.06
332.715	581.06
332.943	597.06
333.172	620.06
333.4	650.06
333.629	634.06
333.857	628.06
334.085	648.06
334.314	657.06
334.542	689.06
334.771	699.06
334.999	634.06
335.227	629.06
335.455	628.06
335.684	612.06
335.912	598.06
336.14	572.06
336.369	584.06
336.597	568.06
336.825	582.06
337.053	586.06
337.281	589.06
337.51	561.06
337.738	560.06
337.966	573.06
338.194	547.06
338.422	575.06
338.65	574.06
338.878	555.06
339.106	564.06
339.334	559.06
339.562	527.06
339.79	525.06
340.018	525.06
340.246	548.06
340.474	539.06
340.702	541.06
340.93	545.06
341.158	535.06
341.386	543.06
341.614	557.06
341.842	505.06
342.07	540.06
342.298	544.06
342.526	543.06
342.754	520.06
342.981	552.06
343.209	545.06
343.437	545.06
343.665	581.06
343.893	583.06
344.12	631.06
344.348	583.06
344.576	583.06
344.804	588.06
345.031	557.06
345.259	555.06
345.487	570.06
345.714	547.06
345.942	533.06
346.17	544.06
346.397	532.06
346.625	525.06
346.853	537.06
347.08	509.06
347.308	536.06
347.535	505.06
347.763	547.06
347.99	517.06
348.218	521.06
348.445	536.06
348.673	509.06
348.9	530.06
349.128	536.06
349.355	523.06
349.583	523.06
349.81	503.06
350.037	504.06
350.265	503.06
350.492	511.06
350.72	499.06
350.947	513.06
351.174	515.06
351.402	540.06
351.629	532.06
351.856	513.06
352.083	531.06
352.311	492.06
352.538	525.06
352.765	527.06
352.992	519.06
353.22	485.06
353.447	509.06
353.674	522.06
353.901	501.06
354.128	480.06
354.355	479.06
354.583	484.06
354.81	500.06
355.037	496.06
355.264	512.06
355.491	505.06
355.718	490.06
355.945	490.06
356.172	502.06
356.399	511.06
356.626	502.06
356.853	511.06
357.08	489.06
357.307	480.06
357.534	482.06
357.761	496.06
357.988	500.06
358.215	506.06
358.441	497.06
358.668	493.06
358.895	490.06
359.122	516.06
359.349	526.06
359.576	539.06
359.802	523.06
360.029	554.06
360.256	565.06
360.483	535.06
360.709	542.06
360.936	534.06
361.163	523.06
361.39	534.06
361.616	533.06
361.843	513.06
362.07	509.06
362.296	528.06
362.523	507.06
362.749	518.06
362.976	531.06
363.203	490.06
363.429	493.06
363.656	511.06
363.882	501.06
364.109	500.06
364.335	487.06
364.562	505.06
364.788	508.06
365.015	505.06
365.241	516.06
365.468	499.06
365.694	532.06
365.92	510.06
366.147	501.06
366.373	479.06
366.599	497.06
366.826	495.06
367.052	491.06
367.278	522.06
367.505	503.06
367.731	515.06
367.957	485.06
368.184	501.06
368.41	510.06
368.636	524.06
368.862	532.06
369.089	532.06
369.315	503.06
369.541	525.06
369.767	538.06
369.993	518.06
370.219	530.06
370.445	529.06
370.672	523.06
370.898	517.06
371.124	524.06
371.35	518.06
371.576	533.06
371.802	529.06
372.028	509.06
372.254	517.06
372.48	532.06
372.706	543.06
372.932	536.06
373.158	509.06
373.384	541.06
373.61	532.06
373.835	524.06
374.061	528.06
374.287	557.06
374.513	525.06
374.739	540.06
374.965	581.06
375.191	575.06
375.416	569.06
375.642	527.06
375.868	561.06
376.094	547.06
376.319	523.06
376.545	525.06
376.771	538.06
376.997	535.06
377.222	500.06
377.448	528.06
377.674	540.06
377.899	532.06
378.125	509.06
378.35	513.06
378.576	533.06
378.802	524.06
379.027	516.06
379.253	530.06
379.478	509.06
379.704	525.06
379.929	532.06
380.155	514.06
380.38	503.06
380.606	526.06
380.831	528.06
381.057	514.06
381.282	518.06
381.507	532.06
381.733	528.06
381.958	534.06
382.184	532.06
382.409	515.06
382.634	553.06
382.86	548.06
383.085	560.06
383.31	560.06
383.535	560.06
383.761	576.06
383.986	579.06
384.211	580.06
384.436	590.06
384.662	575.06
384.887	613.06
385.112	585.06
385.337	586.06
385.562	625.06
385.787	591.06
386.013	604.06
386.238	621.06
386.463	629.06
386.688	637.06
386.913	607.06
387.138	604.06
387.363	615.06
387.588	590.06
387.813	602.06
388.038	613.06
388.263	589.06
388.488	598.06
388.713	601.06
388.938	586.06
389.163	588.06
389.387	612.06
389.612	597.06
389.837	586.06
390.062	561.06
390.287	604.06
390.512	586.06
390.736	598.06
390.961	624.06
391.186	628.06
391.411	652.06
391.636	643.06
391.86	674.06
392.085	643.06
392.31	649.06
392.534	660.06
392.759	643.06
392.984	637.06
393.208	622.06
393.433	631.06
393.658	623.06
393.882	612.06
394.107	624.06
394.331	619.06
394.556	653.06
394.78	643.06
395.005	615.06
395.229	631.06
395.454	640.06
395.678	670.06
395.903	658.06
396.127	690.06
396.352	691.06
396.576	666.06
396.801	629.06
397.025	641.06
397.249	655.06
397.474	647.06
397.698	695.06
397.922	669.06
398.147	689.06
398.371	675.06
398.595	693.06
398.82	731.06
399.044	711.06
399.268	787.06
399.492	862.06
399.717	950.06
399.941	987.06
400.165	951.06
400.389	890.06
400.613	842.06
400.837	745.06
401.062	741.06
401.286	741.06
401.51	719.06
401.734	707.06
401.958	735.06
402.182	746.06
402.406	753.06
402.63	795.06
402.854	800.06
403.078	782.06
403.302	787.06
403.526	799.06
403.75	796.06
403.974	806.06
404.198	804.06
404.422	831.06
404.645	811.06
404.869	787.06
405.093	835.06
405.317	888.06
405.541	873.06
405.765	873.06
405.988	822.06
406.212	841.06
406.436	806.06
406.66	851.06
406.883	831.06
407.107	867.06
407.331	892.06
407.555	962.06
407.778	977.06
408.002	905.06
408.226	851.06
408.449	872.06
408.673	837.06
408.896	852.06
409.12	883.06
409.344	823.06
409.567	802.06
409.791	799.06
410.014	763.06
410.238	762.06
410.461	724.06
410.685	766.06
410.908	779.06
411.132	788.06
411.355	820.06
411.578	795.06
411.802	758.06
412.025	757.06
412.249	765.06
412.472	784.06
412.695	804.06
412.919	787.06
413.142	743.06
413.365	742.06
413.589	725.06
413.812	741.06
414.035	713.06
414.258	747.06
414.482	726.06
414.705	707.06
414.928	723.06
415.151	713.06
415.374	720.06
415.597	723.06
415.821	691.06
416.044	712.06
416.267	722.06
416.49	713.06
416.713	706.06
416.936	712.06
417.159	681.06
417.382	718.06
417.605	696.06
417.828	726.06
418.051	748.06
418.274	727.06
418.497	713.06
418.72	718.06
418.943	736.06
419.166	784.06
419.389	829.06
419.611	779.06
419.834	752.06
420.057	765.06
420.28	756.06
420.503	743.06
420.726	719.06
420.948	738.06
421.171	791.06
421.394	791.06
421.617	736.06
421.839	721.06
422.062	731.06
422.285	757.06
422.507	773.06
422.73	862.06
422.953	829.06
423.175	798.06
423.398	787.06
423.621	804.06
423.843	794.06
424.066	789.06
424.288	795.06
424.511	791.06
424.733	837.06
424.956	893.06
425.178	879.06
425.401	871.06
425.623	887.06
425.846	815.06
426.068	754.06
426.291	705.06
426.513	732.06
426.735	731.06
426.958	782.06
427.18	824.06
427.402	957.06
427.625	1028.06
427.847	883.06
428.069	800.06
428.292	756.06
428.514	746.06
428.736	674.06
428.958	721.06
429.181	673.06
429.403	678.06
429.625	675.06
429.847	704.06
430.069	754.06
430.292	775.06
430.514	683.06
430.736	679.06
430.958	687.06
431.18	670.06
431.402	657.06
431.624	644.06
431.846	633.06
432.068	674.06
432.29	671.06
432.512	652.06
432.734	671.06
432.956	671.06
433.178	675.06
433.4	680.06
433.622	682.06
433.844	686.06
434.066	663.06
434.287	695.06
434.509	703.06
434.731	717.06
434.953	712.06
435.175	722.06
435.397	755.06
435.618	735.06
435.84	767.06
436.062	845.06
436.284	877.06
436.505	749.06
436.727	744.06
436.949	690.06
437.17	684.06
437.392	697.06
437.614	708.06
437.835	715.06
438.057	787.06
438.278	857.06
438.5	875.06
438.721	906.06
438.943	909.06
439.165	795.06
439.386	724.06
439.608	720.06
439.829	737.06
440.05	706.06
440.272	792.06
440.493	738.06
440.715	720.06
440.936	699.06
441.158	694.06
441.379	719.06
441.6	722.06
441.822	774.06
442.043	780.06
442.264	861.06
442.486	844.06
442.707	793.06
442.928	745.06
443.149	779.06
443.371	800.06
443.592	810.06
443.813	875.06
444.034	945.06
444.255	864.06
444.476	831.06
444.698	823.06
444.919	816.06
445.14	902.06
445.361	852.06
445.582	824.06
445.803	858.06
446.024	932.06
446.245	885.06
446.466	808.06
446.687	767.06
446.908	745.06
447.129	690.06
447.35	703.06
447.571	668.06
447.792	677.06
448.013	668.06
448.234	644.06
448.455	716.06
448.675	819.06
448.896	904.06
449.117	819.06
449.338	742.06
449.559	843.06
449.779	954.06
450	776.06
450.221	713.06
450.442	660.06
450.662	637.06
450.883	630.06
451.104	667.06
451.324	647.06
451.545	630.06
451.766	626.06
451.986	577.06
452.207	633.06
452.428	597.06
452.648	625.06
452.869	606.06
453.089	607.06
453.31	664.06
453.53	611.06
453.751	616.06
453.971	611.06
454.192	620.06
454.412	602.06
454.633	589.06
454.853	595.06
455.073	595.06
455.294	635.06
455.514	640.06
455.734	647.06
455.955	581.06
456.175	578.06
456.395	563.06
456.616	575.06
456.836	592.06
457.056	568.06
457.276	549.06
457.497	588.06
457.717	587.06
457.937	585.06
458.157	614.06
458.377	599.06
458.598	636.06
458.818	677.06
459.038	724.06
459.258	773.06
459.478	689.06
459.698	681.06
459.918	660.06
460.138	704.06
460.358	702.06
460.578	735.06
460.798	724.06
461.018	744.06
461.238	723.06
461.458	730.06
461.678	693.06
461.898	749.06
462.118	741.06
462.338	763.06
462.558	771.06
462.777	823.06
462.997	849.06
463.217	865.06
463.437	872.06
463.657	844.06
463.876	821.06
464.096	847.06
464.316	829.06
464.536	863.06
464.755	829.06
464.975	788.06
465.195	800.06
465.414	828.06
465.634	737.06
465.854	719.06
466.073	695.06
466.293	669.06
466.512	660.06
466.732	649.06
466.951	641.06
467.171	648.06
467.391	629.06
467.61	672.06
467.829	649.06
468.049	634.06
468.268	657.06
468.488	628.06
468.707	604.06
468.927	615.06
469.146	600.06
469.365	613.06
469.585	614.06
469.804	649.06
470.023	656.06
470.243	633.06
470.462	679.06
470.681	681.06
470.901	678.06
471.12	655.06
471.339	634.06
471.558	646.06
471.777	626.06
471.997	642.06
472.216	632.06
472.435	681.06
472.654	651.06
472.873	640.06
473.092	635.06
473.311	634.06
473.53	625.06
473.749	610.06
473.968	649.06
474.187	735.06
474.406	779.06
474.625	681.06
474.844	648.06
475.063	636.06
475.282	640.06
475.501	627.06
475.72	636.06
475.939	641.06
476.158	658.06
476.377	644.06
476.596	650.06
476.814	674.06
477.033	673.06
477.252	673.06
477.471	716.06
477.69	700.06
477.908	703.06
478.127	682.06
478.346	707.06
478.564	722.06
478.783	735.06
479.002	741.06
479.22	767.06
479.439	762.06
479.658	781.06
479.876	800.06
480.095	808.06
480.313	816.06
480.532	858.06
480.751	839.06
480.969	788.06
481.188	838.06
481.406	870.06
481.624	799.06
481.843	773.06
482.061	757.06
482.28	730.06
482.498	739.06
482.717	744.06
482.935	749.06
483.153	728.06
483.372	746.06
483.59	726.06
483.808	744.06
484.027	744.06
484.245	739.06
484.463	736.06
484.681	753.06
484.9	773.06
485.118	753.06
485.336	762.06
485.554	776.06
485.772	800.06
485.99	793.06
486.209	771.06
486.427	785.06
486.645	779.06
486.863	805.06
487.081	803.06
487.299	805.06
487.517	828.06
487.735	785.06
487.953	776.06
488.171	777.06
488.389	797.06
488.607	761.06
488.825	789.06
489.043	807.06
489.261	801.06
489.479	808.06
489.696	780.06
489.914	785.06
490.132	794.06
490.35	815.06
490.568	808.06
490.786	821.06
491.003	823.06
491.221	858.06
491.439	856.06
491.657	860.06
491.874	867.06
492.092	888.06
492.31	898.06
492.527	879.06
492.745	904.06
492.963	891.06
493.18	895.06
493.398	893.06
493.615	905.06
493.833	911.06
494.05	877.06
494.268	909.06
494.485	911.06
494.703	930.06
494.92	929.06
495.138	924.06
495.355	915.06
495.573	905.06
495.79	899.06
496.008	909.06
496.225	931.06
496.442	929.06
496.66	916.06
496.877	922.06
497.094	938.06
497.312	951.06
497.529	993.06
497.746	997.06
497.963	1017.06
498.181	1055.06
498.398	1066.06
498.615	1129.06
498.832	1157.06
499.049	1209.06
499.267	1250.06
499.484	1317.06
499.701	1449.06
499.918	1529.06
500.135	1641.06
500.352	1813.06
500.569	1835.06
500.786	1868.06
501.003	1807.06
501.22	1671.06
501.437	1523.06
501.654	1423.06
