Data from 1963.PennyLincolnUp.Lamp.En5.5.200Scan.071719.P1._HRD10591_13-57-54-062.txt Node
Date: Thu Jul 18 13:57:54 EDT 2019
User: cochatt
Spectrometer: HR+D1059
Trigger mode: 1
Integration Time (sec): 1.000000E-1
Scans to average: 1
Electric dark correction enabled: true
Nonlinearity correction enabled: false
Boxcar width: 0
XAxis mode: Wavelengths
Number of Pixels in Spectrum: 2048
>>>>>Begin Spectral Data<<<<<
223.165	-1.62
223.4	-1.62
223.635	-1.62
223.869	-27.62
224.104	-10.62
224.338	-18.62
224.573	-25.62
224.808	-5.62
225.042	-20.62
225.277	-4.62
225.511	-0.62
225.746	6.38
225.98	13.38
226.215	11.38
226.449	11.38
226.683	13.38
226.918	33.38
227.152	26.38
227.387	31.38
227.621	17.38
227.856	51.38
228.09	55.38
228.324	56.38
228.559	53.38
228.793	65.38
229.027	104.38
229.262	111.38
229.496	95.38
229.73	119.38
229.964	134.38
230.199	122.38
230.433	108.38
230.667	115.38
230.901	126.38
231.136	111.38
231.37	117.38
231.604	109.38
231.838	123.38
232.072	120.38
232.306	112.38
232.541	120.38
232.775	119.38
233.009	116.38
233.243	104.38
233.477	110.38
233.711	105.38
233.945	120.38
234.179	116.38
234.413	121.38
234.647	127.38
234.881	115.38
235.115	137.38
235.349	137.38
235.583	111.38
235.817	121.38
236.051	118.38
236.285	131.38
236.519	124.38
236.753	122.38
236.987	123.38
237.221	152.38
237.455	189.38
237.689	169.38
237.922	133.38
238.156	120.38
238.39	129.38
238.624	125.38
238.858	140.38
239.091	150.38
239.325	135.38
239.559	125.38
239.793	137.38
240.027	149.38
240.26	151.38
240.494	142.38
240.728	144.38
240.961	153.38
241.195	155.38
241.429	151.38
241.662	154.38
241.896	143.38
242.13	134.38
242.363	152.38
242.597	141.38
242.83	144.38
243.064	144.38
243.298	145.38
243.531	160.38
243.765	176.38
243.998	165.38
244.232	155.38
244.465	159.38
244.699	163.38
244.932	139.38
245.166	167.38
245.399	176.38
245.633	155.38
245.866	156.38
246.099	159.38
246.333	157.38
246.566	171.38
246.8	169.38
247.033	165.38
247.266	174.38
247.5	159.38
247.733	179.38
247.966	185.38
248.2	175.38
248.433	183.38
248.666	189.38
248.899	166.38
249.133	204.38
249.366	199.38
249.599	212.38
249.832	191.38
250.066	186.38
250.299	204.38
250.532	191.38
250.765	191.38
250.998	219.38
251.231	211.38
251.465	209.38
251.698	207.38
251.931	214.38
252.164	182.38
252.397	198.38
252.63	203.38
252.863	207.38
253.096	220.38
253.329	234.38
253.562	216.38
253.795	215.38
254.028	222.38
254.261	204.38
254.494	235.38
254.727	241.38
254.96	259.38
255.193	263.38
255.426	239.38
255.659	218.38
255.892	237.38
256.124	220.38
256.357	236.38
256.59	227.38
256.823	206.38
257.056	222.38
257.289	208.38
257.521	210.38
257.754	207.38
257.987	216.38
258.22	215.38
258.452	208.38
258.685	224.38
258.918	220.38
259.151	215.38
259.383	230.38
259.616	233.38
259.849	228.38
260.081	233.38
260.314	230.38
260.547	266.38
260.779	253.38
261.012	235.38
261.244	224.38
261.477	238.38
261.71	234.38
261.942	239.38
262.175	222.38
262.407	244.38
262.64	241.38
262.872	240.38
263.105	237.38
263.337	234.38
263.57	253.38
263.802	223.38
264.035	220.38
264.267	231.38
264.499	240.38
264.732	239.38
264.964	233.38
265.197	249.38
265.429	234.38
265.661	254.38
265.894	244.38
266.126	235.38
266.358	234.38
266.591	228.38
266.823	251.38
267.055	242.38
267.287	251.38
267.52	251.38
267.752	252.38
267.984	256.38
268.216	261.38
268.448	250.38
268.681	263.38
268.913	272.38
269.145	269.38
269.377	264.38
269.609	270.38
269.841	279.38
270.073	292.38
270.306	289.38
270.538	317.38
270.77	297.38
271.002	302.38
271.234	302.38
271.466	293.38
271.698	307.38
271.93	305.38
272.162	316.38
272.394	307.38
272.626	311.38
272.858	301.38
273.09	290.38
273.322	272.38
273.553	295.38
273.785	285.38
274.017	288.38
274.249	293.38
274.481	289.38
274.713	281.38
274.945	287.38
275.176	280.38
275.408	282.38
275.64	277.38
275.872	283.38
276.104	293.38
276.335	310.38
276.567	295.38
276.799	312.38
277.031	301.38
277.262	323.38
277.494	327.38
277.726	310.38
277.957	312.38
278.189	299.38
278.421	320.38
278.652	301.38
278.884	301.38
279.115	304.38
279.347	305.38
279.579	300.38
279.81	300.38
280.042	311.38
280.273	318.38
280.505	301.38
280.736	304.38
280.968	314.38
281.199	318.38
281.431	310.38
281.662	316.38
281.894	313.38
282.125	290.38
282.356	319.38
282.588	339.38
282.819	347.38
283.051	327.38
283.282	324.38
283.513	302.38
283.745	310.38
283.976	302.38
284.207	332.38
284.439	306.38
284.67	343.38
284.901	324.38
285.132	321.38
285.364	321.38
285.595	330.38
285.826	318.38
286.057	336.38
286.288	331.38
286.52	339.38
286.751	331.38
286.982	320.38
287.213	332.38
287.444	331.38
287.675	353.38
287.906	357.38
288.138	337.38
288.369	355.38
288.6	347.38
288.831	346.38
289.062	340.38
289.293	343.38
289.524	357.38
289.755	336.38
289.986	351.38
290.217	322.38
290.448	344.38
290.679	367.38
290.91	348.38
291.141	328.38
291.371	338.38
291.602	340.38
291.833	345.38
292.064	352.38
292.295	339.38
292.526	353.38
292.757	356.38
292.987	335.38
293.218	353.38
293.449	347.38
293.68	351.38
293.91	359.38
294.141	343.38
294.372	346.38
294.603	350.38
294.833	332.38
295.064	351.38
295.295	355.38
295.525	359.38
295.756	372.38
295.987	381.38
296.217	385.38
296.448	373.38
296.679	354.38
296.909	349.38
297.14	369.38
297.37	358.38
297.601	362.38
297.831	363.38
298.062	348.38
298.292	375.38
298.523	374.38
298.753	396.38
298.984	391.38
299.214	372.38
299.445	368.38
299.675	374.38
299.905	379.38
300.136	378.38
300.366	375.38
300.597	378.38
300.827	392.38
301.057	393.38
301.288	409.38
301.518	425.38
301.748	388.38
301.979	377.38
302.209	401.38
302.439	417.38
302.669	419.38
302.9	387.38
303.13	392.38
303.36	414.38
303.59	394.38
303.82	405.38
304.051	420.38
304.281	413.38
304.511	401.38
304.741	378.38
304.971	397.38
305.201	396.38
305.431	393.38
305.661	398.38
305.891	383.38
306.121	395.38
306.352	391.38
306.582	392.38
306.812	395.38
307.042	422.38
307.272	392.38
307.502	380.38
307.731	377.38
307.961	399.38
308.191	401.38
308.421	383.38
308.651	407.38
308.881	421.38
309.111	402.38
309.341	388.38
309.571	407.38
309.8	408.38
310.03	410.38
310.26	439.38
310.49	411.38
310.72	431.38
310.949	422.38
311.179	442.38
311.409	433.38
311.639	414.38
311.868	426.38
312.098	425.38
312.328	409.38
312.557	455.38
312.787	449.38
313.017	430.38
313.246	413.38
313.476	427.38
313.706	415.38
313.935	447.38
314.165	451.38
314.394	433.38
314.624	449.38
314.853	466.38
315.083	429.38
315.312	441.38
315.542	453.38
315.771	433.38
316.001	443.38
316.23	414.38
316.46	453.38
316.689	423.38
316.919	441.38
317.148	462.38
317.377	447.38
317.607	430.38
317.836	441.38
318.065	418.38
318.295	439.38
318.524	422.38
318.753	440.38
318.983	443.38
319.212	426.38
319.441	443.38
319.67	437.38
319.9	430.38
320.129	453.38
320.358	449.38
320.587	451.38
320.816	429.38
321.046	453.38
321.275	448.38
321.504	440.38
321.733	446.38
321.962	444.38
322.191	458.38
322.42	456.38
322.649	457.38
322.878	493.38
323.108	451.38
323.337	481.38
323.566	492.38
323.795	508.38
324.024	519.38
324.253	599.38
324.482	729.38
324.71	990.38
324.939	1388.38
325.168	1215.38
325.397	721.38
325.626	558.38
325.855	501.38
326.084	499.38
326.313	503.38
326.542	511.38
326.77	553.38
326.999	574.38
327.228	711.38
327.457	960.38
327.686	1112.38
327.914	819.38
328.143	601.38
328.372	551.38
328.6	562.38
328.829	540.38
329.058	532.38
329.287	538.38
329.515	537.38
329.744	518.38
329.972	531.38
330.201	553.38
330.43	571.38
330.658	539.38
330.887	563.38
331.115	573.38
331.344	550.38
331.572	553.38
331.801	518.38
332.03	539.38
332.258	533.38
332.486	553.38
332.715	564.38
332.943	559.38
333.172	573.38
333.4	593.38
333.629	596.38
333.857	601.38
334.085	612.38
334.314	613.38
334.542	630.38
334.771	650.38
334.999	605.38
335.227	579.38
335.455	579.38
335.684	573.38
335.912	570.38
336.14	544.38
336.369	560.38
336.597	554.38
336.825	525.38
337.053	544.38
337.281	574.38
337.51	511.38
337.738	520.38
337.966	515.38
338.194	530.38
338.422	517.38
338.65	506.38
338.878	525.38
339.106	540.38
339.334	524.38
339.562	501.38
339.79	519.38
340.018	504.38
340.246	496.38
340.474	496.38
340.702	503.38
340.93	505.38
341.158	515.38
341.386	512.38
341.614	511.38
341.842	507.38
342.07	507.38
342.298	480.38
342.526	506.38
342.754	504.38
342.981	502.38
343.209	488.38
343.437	517.38
343.665	551.38
343.893	559.38
344.12	583.38
344.348	565.38
344.576	566.38
344.804	559.38
345.031	531.38
345.259	520.38
345.487	522.38
345.714	494.38
345.942	495.38
346.17	489.38
346.397	511.38
346.625	521.38
346.853	483.38
347.08	490.38
347.308	485.38
347.535	474.38
347.763	496.38
347.99	488.38
348.218	505.38
348.445	460.38
348.673	491.38
348.9	475.38
349.128	486.38
349.355	477.38
349.583	475.38
349.81	486.38
350.037	473.38
350.265	489.38
350.492	479.38
350.72	492.38
350.947	464.38
351.174	481.38
351.402	483.38
351.629	480.38
351.856	474.38
352.083	478.38
352.311	477.38
352.538	477.38
352.765	475.38
352.992	476.38
353.22	492.38
353.447	480.38
353.674	460.38
353.901	477.38
354.128	484.38
354.355	437.38
354.583	459.38
354.81	461.38
355.037	463.38
355.264	471.38
355.491	481.38
355.718	476.38
355.945	490.38
356.172	459.38
356.399	489.38
356.626	465.38
356.853	464.38
357.08	457.38
357.307	475.38
357.534	475.38
357.761	474.38
357.988	484.38
358.215	461.38
358.441	474.38
358.668	465.38
358.895	479.38
359.122	479.38
359.349	483.38
359.576	480.38
359.802	463.38
360.029	477.38
360.256	504.38
360.483	491.38
360.709	498.38
360.936	480.38
361.163	478.38
361.39	476.38
361.616	488.38
361.843	491.38
362.07	489.38
362.296	491.38
362.523	491.38
362.749	505.38
362.976	487.38
363.203	459.38
363.429	471.38
363.656	468.38
363.882	494.38
364.109	488.38
364.335	478.38
364.562	471.38
364.788	476.38
365.015	481.38
365.241	471.38
365.468	462.38
365.694	480.38
365.92	481.38
366.147	460.38
366.373	465.38
366.599	470.38
366.826	474.38
367.052	485.38
367.278	491.38
367.505	472.38
367.731	456.38
367.957	479.38
368.184	482.38
368.41	477.38
368.636	491.38
368.862	476.38
369.089	512.38
369.315	482.38
369.541	470.38
369.767	496.38
369.993	484.38
370.219	475.38
370.445	498.38
370.672	494.38
370.898	508.38
371.124	491.38
371.35	484.38
371.576	508.38
371.802	491.38
372.028	509.38
372.254	496.38
372.48	515.38
372.706	511.38
372.932	512.38
373.158	506.38
373.384	514.38
373.61	489.38
373.835	497.38
374.061	501.38
374.287	518.38
374.513	502.38
374.739	522.38
374.965	547.38
375.191	533.38
375.416	534.38
375.642	539.38
375.868	503.38
376.094	529.38
376.319	515.38
376.545	482.38
376.771	491.38
376.997	492.38
377.222	491.38
377.448	510.38
377.674	494.38
377.899	499.38
378.125	504.38
378.35	485.38
378.576	492.38
378.802	496.38
379.027	487.38
379.253	496.38
379.478	499.38
379.704	517.38
379.929	519.38
380.155	487.38
380.38	508.38
380.606	496.38
380.831	491.38
381.057	494.38
381.282	499.38
381.507	511.38
381.733	503.38
381.958	516.38
382.184	484.38
382.409	504.38
382.634	507.38
382.86	525.38
383.085	535.38
383.31	537.38
383.535	544.38
383.761	544.38
383.986	554.38
384.211	558.38
384.436	554.38
384.662	580.38
384.887	571.38
385.112	563.38
385.337	581.38
385.562	581.38
385.787	583.38
386.013	574.38
386.238	585.38
386.463	556.38
386.688	583.38
386.913	575.38
387.138	563.38
387.363	591.38
387.588	559.38
387.813	580.38
388.038	560.38
388.263	569.38
388.488	583.38
388.713	556.38
388.938	583.38
389.163	599.38
389.387	579.38
389.612	563.38
389.837	576.38
390.062	558.38
390.287	590.38
390.512	567.38
390.736	584.38
390.961	601.38
391.186	599.38
391.411	595.38
391.636	577.38
391.86	621.38
392.085	601.38
392.31	611.38
392.534	589.38
392.759	587.38
392.984	583.38
393.208	606.38
393.433	609.38
393.658	611.38
393.882	589.38
394.107	581.38
394.331	600.38
394.556	615.38
394.78	585.38
395.005	591.38
395.229	584.38
395.454	615.38
395.678	605.38
395.903	657.38
396.127	626.38
396.352	638.38
396.576	624.38
396.801	595.38
397.025	622.38
397.249	604.38
397.474	638.38
397.698	628.38
397.922	654.38
398.147	644.38
398.371	662.38
398.595	663.38
398.82	679.38
399.044	701.38
399.268	748.38
399.492	868.38
399.717	921.38
399.941	925.38
400.165	921.38
400.389	841.38
400.613	777.38
400.837	733.38
401.062	695.38
401.286	681.38
401.51	703.38
401.734	689.38
401.958	685.38
402.182	697.38
402.406	696.38
402.63	697.38
402.854	730.38
403.078	744.38
403.302	731.38
403.526	719.38
403.75	767.38
403.974	791.38
404.198	772.38
404.422	768.38
404.645	761.38
404.869	785.38
405.093	751.38
405.317	797.38
405.541	829.38
405.765	779.38
405.988	775.38
406.212	764.38
406.436	779.38
406.66	797.38
406.883	783.38
407.107	824.38
407.331	858.38
407.555	897.38
407.778	895.38
408.002	838.38
408.226	793.38
408.449	779.38
408.673	805.38
408.896	785.38
409.12	812.38
409.344	758.38
409.567	755.38
409.791	735.38
410.014	735.38
410.238	745.38
410.461	735.38
410.685	721.38
410.908	732.38
411.132	732.38
411.355	762.38
411.578	737.38
411.802	707.38
412.025	699.38
412.249	724.38
412.472	724.38
412.695	763.38
412.919	750.38
413.142	715.38
413.365	703.38
413.589	688.38
413.812	695.38
414.035	671.38
414.258	665.38
414.482	663.38
414.705	703.38
414.928	673.38
415.151	696.38
415.374	701.38
415.597	680.38
415.821	668.38
416.044	675.38
416.267	665.38
416.49	661.38
416.713	640.38
416.936	658.38
417.159	679.38
417.382	688.38
417.605	677.38
417.828	670.38
418.051	695.38
418.274	679.38
418.497	651.38
418.72	691.38
418.943	692.38
419.166	697.38
419.389	732.38
419.611	729.38
419.834	724.38
420.057	727.38
420.28	712.38
420.503	682.38
420.726	675.38
420.948	686.38
421.171	696.38
421.394	745.38
421.617	702.38
421.839	695.38
422.062	703.38
422.285	713.38
422.507	744.38
422.73	783.38
422.953	767.38
423.175	727.38
423.398	707.38
423.621	711.38
423.843	730.38
424.066	733.38
424.288	733.38
424.511	732.38
424.733	765.38
424.956	827.38
425.178	795.38
425.401	771.38
425.623	797.38
425.846	730.38
426.068	691.38
426.291	685.38
426.513	699.38
426.735	697.38
426.958	709.38
427.18	737.38
427.402	861.38
427.625	895.38
427.847	808.38
428.069	731.38
428.292	675.38
428.514	655.38
428.736	644.38
428.958	645.38
429.181	644.38
429.403	615.38
429.625	665.38
429.847	649.38
430.069	683.38
430.292	668.38
430.514	632.38
430.736	647.38
430.958	647.38
431.18	641.38
431.402	619.38
431.624	608.38
431.846	623.38
432.068	623.38
432.29	647.38
432.512	619.38
432.734	614.38
432.956	633.38
433.178	629.38
433.4	609.38
433.622	613.38
433.844	641.38
434.066	630.38
434.287	655.38
434.509	631.38
434.731	678.38
434.953	669.38
435.175	704.38
435.397	687.38
435.618	676.38
435.84	705.38
436.062	758.38
436.284	792.38
436.505	695.38
436.727	665.38
436.949	637.38
437.17	653.38
437.392	637.38
437.614	641.38
437.835	628.38
438.057	664.38
438.278	784.38
438.5	773.38
438.721	820.38
438.943	814.38
439.165	688.38
439.386	683.38
439.608	685.38
439.829	678.38
440.05	671.38
440.272	688.38
440.493	669.38
440.715	664.38
440.936	660.38
441.158	648.38
441.379	664.38
441.6	676.38
441.822	731.38
442.043	752.38
442.264	758.38
442.486	800.38
442.707	735.38
442.928	703.38
443.149	708.38
443.371	697.38
443.592	732.38
443.813	776.38
444.034	870.38
444.255	775.38
444.476	783.38
444.698	753.38
444.919	753.38
445.14	894.38
445.361	785.38
445.582	741.38
445.803	719.38
446.024	801.38
446.245	833.38
446.466	741.38
446.687	691.38
446.908	655.38
447.129	628.38
447.35	637.38
447.571	636.38
447.792	632.38
448.013	601.38
448.234	610.38
448.455	659.38
448.675	713.38
448.896	813.38
449.117	721.38
449.338	688.38
449.559	756.38
449.779	844.38
450	707.38
450.221	637.38
450.442	608.38
450.662	579.38
450.883	597.38
451.104	615.38
451.324	607.38
451.545	602.38
451.766	585.38
451.986	582.38
452.207	553.38
452.428	581.38
452.648	559.38
452.869	550.38
453.089	558.38
453.31	575.38
453.53	566.38
453.751	553.38
453.971	559.38
454.192	553.38
454.412	563.38
454.633	548.38
454.853	572.38
455.073	550.38
455.294	572.38
455.514	608.38
455.734	603.38
455.955	548.38
456.175	549.38
456.395	533.38
456.616	539.38
456.836	547.38
457.056	540.38
457.276	519.38
457.497	521.38
457.717	537.38
457.937	556.38
458.157	571.38
458.377	548.38
458.598	564.38
458.818	610.38
459.038	649.38
459.258	714.38
459.478	653.38
459.698	644.38
459.918	639.38
460.138	659.38
460.358	679.38
460.578	718.38
460.798	726.38
461.018	709.38
461.238	701.38
461.458	693.38
461.678	650.38
461.898	701.38
462.118	697.38
462.338	706.38
462.558	741.38
462.777	730.38
462.997	803.38
463.217	847.38
463.437	864.38
463.657	813.38
463.876	786.38
464.096	747.38
464.316	771.38
464.536	784.38
464.755	760.38
464.975	739.38
465.195	719.38
465.414	750.38
465.634	695.38
465.854	663.38
466.073	639.38
466.293	624.38
466.512	616.38
466.732	604.38
466.951	631.38
467.171	590.38
467.391	604.38
467.61	609.38
467.829	595.38
468.049	608.38
468.268	592.38
468.488	587.38
468.707	589.38
468.927	598.38
469.146	589.38
469.365	591.38
469.585	605.38
469.804	595.38
470.023	609.38
470.243	624.38
470.462	610.38
470.681	619.38
470.901	630.38
471.12	637.38
471.339	622.38
471.558	594.38
471.777	603.38
471.997	603.38
472.216	589.38
472.435	599.38
472.654	606.38
472.873	590.38
473.092	606.38
473.311	582.38
473.53	583.38
473.749	596.38
473.968	619.38
474.187	693.38
474.406	667.38
474.625	633.38
474.844	609.38
475.063	607.38
475.282	583.38
475.501	617.38
475.72	604.38
475.939	580.38
476.158	593.38
476.377	610.38
476.596	599.38
476.814	610.38
477.033	624.38
477.252	620.38
477.471	629.38
477.69	654.38
477.908	673.38
478.127	680.38
478.346	692.38
478.564	684.38
478.783	699.38
479.002	714.38
479.22	730.38
479.439	729.38
479.658	704.38
479.876	721.38
480.095	727.38
480.313	781.38
480.532	793.38
480.751	771.38
480.969	743.38
481.188	773.38
481.406	819.38
481.624	733.38
481.843	729.38
482.061	705.38
482.28	686.38
482.498	684.38
482.717	681.38
482.935	687.38
483.153	652.38
483.372	678.38
483.59	685.38
483.808	699.38
484.027	683.38
484.245	715.38
484.463	682.38
484.681	711.38
484.9	695.38
485.118	688.38
485.336	727.38
485.554	720.38
485.772	708.38
485.99	712.38
486.209	707.38
486.427	747.38
486.645	734.38
486.863	725.38
487.081	773.38
487.299	726.38
487.517	722.38
487.735	712.38
487.953	728.38
488.171	722.38
488.389	731.38
488.607	752.38
488.825	720.38
489.043	721.38
489.261	736.38
489.479	713.38
489.696	755.38
489.914	738.38
490.132	734.38
490.35	771.38
490.568	763.38
490.786	777.38
491.003	773.38
491.221	775.38
491.439	780.38
491.657	819.38
491.874	795.38
492.092	809.38
492.31	822.38
492.527	785.38
492.745	813.38
492.963	824.38
493.18	816.38
493.398	853.38
493.615	841.38
493.833	811.38
494.05	839.38
494.268	829.38
494.485	831.38
494.703	825.38
494.92	850.38
495.138	839.38
495.355	836.38
495.573	862.38
495.79	821.38
496.008	855.38
496.225	827.38
496.442	865.38
496.66	860.38
496.877	852.38
497.094	877.38
497.312	881.38
497.529	871.38
497.746	901.38
497.963	959.38
498.181	980.38
498.398	952.38
498.615	1008.38
498.832	1085.38
499.049	1127.38
499.267	1167.38
499.484	1276.38
499.701	1307.38
499.918	1448.38
500.135	1559.38
500.352	1672.38
500.569	1764.38
500.786	1747.38
501.003	1699.38
501.22	1562.38
501.437	1440.38
501.654	1328.38
501.871	1272.38
