Data from 1963.PennyLincolnUp.Lamp.En5.5.200Scan.071719.P1._HRD10591_13-58-26-064.txt Node
Date: Thu Jul 18 13:58:26 EDT 2019
User: cochatt
Spectrometer: HR+D1059
Trigger mode: 1
Integration Time (sec): 1.000000E-1
Scans to average: 1
Electric dark correction enabled: true
Nonlinearity correction enabled: false
Boxcar width: 0
XAxis mode: Wavelengths
Number of Pixels in Spectrum: 2048
>>>>>Begin Spectral Data<<<<<
223.165	-23.38
223.4	-23.38
223.635	-23.38
223.869	-13.38
224.104	-8.38
224.338	-12.38
224.573	-19.38
224.808	4.62
225.042	-12.38
225.277	-9.38
225.511	4.62
225.746	-1.38
225.98	-6.38
226.215	5.62
226.449	19.62
226.683	11.62
226.918	31.62
227.152	28.62
227.387	29.62
227.621	45.62
227.856	46.62
228.09	38.62
228.324	42.62
228.559	53.62
228.793	66.62
229.027	95.62
229.262	98.62
229.496	97.62
229.73	141.62
229.964	133.62
230.199	139.62
230.433	116.62
230.667	100.62
230.901	108.62
231.136	101.62
231.37	102.62
231.604	104.62
231.838	122.62
232.072	118.62
232.306	119.62
232.541	112.62
232.775	115.62
233.009	125.62
233.243	118.62
233.477	121.62
233.711	119.62
233.945	105.62
234.179	111.62
234.413	117.62
234.647	115.62
234.881	119.62
235.115	133.62
235.349	112.62
235.583	123.62
235.817	125.62
236.051	132.62
236.285	135.62
236.519	131.62
236.753	128.62
236.987	133.62
237.221	151.62
237.455	198.62
237.689	164.62
237.922	127.62
238.156	141.62
238.39	123.62
238.624	129.62
238.858	142.62
239.091	128.62
239.325	129.62
239.559	116.62
239.793	131.62
240.027	126.62
240.26	154.62
240.494	152.62
240.728	151.62
240.961	163.62
241.195	133.62
241.429	134.62
241.662	133.62
241.896	150.62
242.13	145.62
242.363	157.62
242.597	154.62
242.83	137.62
243.064	159.62
243.298	140.62
243.531	153.62
243.765	147.62
243.998	150.62
244.232	157.62
244.465	175.62
244.699	159.62
244.932	162.62
245.166	164.62
245.399	164.62
245.633	166.62
245.866	162.62
246.099	157.62
246.333	179.62
246.566	155.62
246.8	171.62
247.033	176.62
247.266	166.62
247.5	163.62
247.733	173.62
247.966	183.62
248.2	184.62
248.433	191.62
248.666	170.62
248.899	179.62
249.133	202.62
249.366	206.62
249.599	224.62
249.832	187.62
250.066	189.62
250.299	193.62
250.532	208.62
250.765	211.62
250.998	209.62
251.231	228.62
251.465	211.62
251.698	204.62
251.931	220.62
252.164	198.62
252.397	204.62
252.63	212.62
252.863	225.62
253.096	226.62
253.329	243.62
253.562	222.62
253.795	237.62
254.028	218.62
254.261	243.62
254.494	216.62
254.727	240.62
254.96	259.62
255.193	251.62
255.426	240.62
255.659	243.62
255.892	229.62
256.124	233.62
256.357	244.62
256.59	247.62
256.823	224.62
257.056	221.62
257.289	224.62
257.521	227.62
257.754	221.62
257.987	216.62
258.22	231.62
258.452	216.62
258.685	216.62
258.918	202.62
259.151	219.62
259.383	221.62
259.616	237.62
259.849	216.62
260.081	261.62
260.314	259.62
260.547	255.62
260.779	250.62
261.012	255.62
261.244	229.62
261.477	252.62
261.71	245.62
261.942	243.62
262.175	242.62
262.407	244.62
262.64	235.62
262.872	240.62
263.105	236.62
263.337	250.62
263.57	230.62
263.802	255.62
264.035	232.62
264.267	251.62
264.499	234.62
264.732	226.62
264.964	230.62
265.197	228.62
265.429	263.62
265.661	234.62
265.894	249.62
266.126	241.62
266.358	239.62
266.591	258.62
266.823	251.62
267.055	261.62
267.287	247.62
267.52	230.62
267.752	280.62
267.984	262.62
268.216	240.62
268.448	267.62
268.681	265.62
268.913	267.62
269.145	275.62
269.377	290.62
269.609	280.62
269.841	284.62
270.073	298.62
270.306	296.62
270.538	325.62
270.77	303.62
271.002	306.62
271.234	274.62
271.466	305.62
271.698	331.62
271.93	316.62
272.162	336.62
272.394	327.62
272.626	327.62
272.858	303.62
273.09	309.62
273.322	306.62
273.553	268.62
273.785	290.62
274.017	280.62
274.249	281.62
274.481	297.62
274.713	300.62
274.945	304.62
275.176	273.62
275.408	291.62
275.64	289.62
275.872	282.62
276.104	286.62
276.335	297.62
276.567	299.62
276.799	323.62
277.031	330.62
277.262	329.62
277.494	337.62
277.726	328.62
277.957	315.62
278.189	323.62
278.421	307.62
278.652	304.62
278.884	296.62
279.115	300.62
279.347	296.62
279.579	312.62
279.81	289.62
280.042	303.62
280.273	303.62
280.505	324.62
280.736	321.62
280.968	290.62
281.199	319.62
281.431	313.62
281.662	303.62
281.894	336.62
282.125	321.62
282.356	325.62
282.588	337.62
282.819	340.62
283.051	325.62
283.282	311.62
283.513	318.62
283.745	327.62
283.976	333.62
284.207	334.62
284.439	327.62
284.67	311.62
284.901	328.62
285.132	324.62
285.364	329.62
285.595	307.62
285.826	307.62
286.057	335.62
286.288	344.62
286.52	339.62
286.751	312.62
286.982	338.62
287.213	368.62
287.444	339.62
287.675	353.62
287.906	350.62
288.138	368.62
288.369	340.62
288.6	358.62
288.831	353.62
289.062	355.62
289.293	326.62
289.524	342.62
289.755	348.62
289.986	345.62
290.217	348.62
290.448	340.62
290.679	339.62
290.91	356.62
291.141	355.62
291.371	355.62
291.602	362.62
291.833	340.62
292.064	371.62
292.295	356.62
292.526	341.62
292.757	342.62
292.987	339.62
293.218	363.62
293.449	333.62
293.68	350.62
293.91	351.62
294.141	350.62
294.372	327.62
294.603	356.62
294.833	362.62
295.064	370.62
295.295	364.62
295.525	337.62
295.756	357.62
295.987	362.62
296.217	387.62
296.448	378.62
296.679	361.62
296.909	375.62
297.14	375.62
297.37	383.62
297.601	376.62
297.831	372.62
298.062	351.62
298.292	375.62
298.523	370.62
298.753	351.62
298.984	366.62
299.214	367.62
299.445	368.62
299.675	386.62
299.905	391.62
300.136	375.62
300.366	393.62
300.597	373.62
300.827	382.62
301.057	402.62
301.288	405.62
301.518	396.62
301.748	412.62
301.979	404.62
302.209	408.62
302.439	391.62
302.669	394.62
302.9	413.62
303.13	403.62
303.36	418.62
303.59	404.62
303.82	416.62
304.051	403.62
304.281	409.62
304.511	390.62
304.741	403.62
304.971	385.62
305.201	396.62
305.431	402.62
305.661	416.62
305.891	391.62
306.121	418.62
306.352	400.62
306.582	403.62
306.812	383.62
307.042	386.62
307.272	379.62
307.502	407.62
307.731	403.62
307.961	404.62
308.191	402.62
308.421	407.62
308.651	409.62
308.881	392.62
309.111	409.62
309.341	398.62
309.571	408.62
309.8	403.62
310.03	416.62
310.26	433.62
310.49	415.62
310.72	415.62
310.949	455.62
311.179	435.62
311.409	425.62
311.639	454.62
311.868	428.62
312.098	441.62
312.328	435.62
312.557	440.62
312.787	465.62
313.017	442.62
313.246	425.62
313.476	438.62
313.706	437.62
313.935	446.62
314.165	470.62
314.394	456.62
314.624	457.62
314.853	464.62
315.083	464.62
315.312	424.62
315.542	419.62
315.771	429.62
316.001	444.62
316.23	424.62
316.46	445.62
316.689	428.62
316.919	459.62
317.148	440.62
317.377	440.62
317.607	445.62
317.836	441.62
318.065	427.62
318.295	426.62
318.524	436.62
318.753	425.62
318.983	417.62
319.212	438.62
319.441	465.62
319.67	451.62
319.9	439.62
320.129	444.62
320.358	441.62
320.587	433.62
320.816	441.62
321.046	474.62
321.275	443.62
321.504	440.62
321.733	464.62
321.962	444.62
322.191	476.62
322.42	478.62
322.649	479.62
322.878	467.62
323.108	497.62
323.337	474.62
323.566	495.62
323.795	529.62
324.024	517.62
324.253	607.62
324.482	763.62
324.71	1090.62
324.939	1560.62
325.168	1363.62
325.397	771.62
325.626	587.62
325.855	541.62
326.084	516.62
326.313	522.62
326.542	530.62
326.77	555.62
326.999	562.62
327.228	737.62
327.457	1023.62
327.686	1239.62
327.914	874.62
328.143	632.62
328.372	582.62
328.6	585.62
328.829	546.62
329.058	537.62
329.287	592.62
329.515	553.62
329.744	529.62
329.972	547.62
330.201	550.62
330.43	570.62
330.658	604.62
330.887	596.62
331.115	578.62
331.344	554.62
331.572	541.62
331.801	538.62
332.03	552.62
332.258	525.62
332.486	557.62
332.715	552.62
332.943	566.62
333.172	584.62
333.4	583.62
333.629	613.62
333.857	612.62
334.085	626.62
334.314	639.62
334.542	626.62
334.771	660.62
334.999	612.62
335.227	605.62
335.455	573.62
335.684	583.62
335.912	594.62
336.14	560.62
336.369	576.62
336.597	563.62
336.825	574.62
337.053	569.62
337.281	546.62
337.51	523.62
337.738	531.62
337.966	549.62
338.194	530.62
338.422	519.62
338.65	540.62
338.878	519.62
339.106	539.62
339.334	537.62
339.562	527.62
339.79	510.62
340.018	520.62
340.246	521.62
340.474	507.62
340.702	498.62
340.93	505.62
341.158	504.62
341.386	503.62
341.614	517.62
341.842	528.62
342.07	499.62
342.298	514.62
342.526	520.62
342.754	497.62
342.981	509.62
343.209	525.62
343.437	546.62
343.665	541.62
343.893	558.62
344.12	584.62
344.348	579.62
344.576	551.62
344.804	533.62
345.031	543.62
345.259	527.62
345.487	533.62
345.714	504.62
345.942	503.62
346.17	507.62
346.397	475.62
346.625	488.62
346.853	486.62
347.08	496.62
347.308	499.62
347.535	476.62
347.763	502.62
347.99	482.62
348.218	498.62
348.445	497.62
348.673	501.62
348.9	492.62
349.128	489.62
349.355	461.62
349.583	474.62
349.81	483.62
350.037	480.62
350.265	482.62
350.492	466.62
350.72	459.62
350.947	471.62
351.174	492.62
351.402	507.62
351.629	514.62
351.856	486.62
352.083	497.62
352.311	489.62
352.538	478.62
352.765	521.62
352.992	483.62
353.22	480.62
353.447	475.62
353.674	484.62
353.901	473.62
354.128	476.62
354.355	471.62
354.583	449.62
354.81	464.62
355.037	464.62
355.264	460.62
355.491	462.62
355.718	467.62
355.945	449.62
356.172	473.62
356.399	484.62
356.626	471.62
356.853	486.62
357.08	478.62
357.307	467.62
357.534	469.62
357.761	474.62
357.988	466.62
358.215	477.62
358.441	459.62
358.668	480.62
358.895	487.62
359.122	471.62
359.349	486.62
359.576	489.62
359.802	500.62
360.029	509.62
360.256	534.62
360.483	513.62
360.709	493.62
360.936	484.62
361.163	485.62
361.39	484.62
361.616	480.62
361.843	480.62
362.07	501.62
362.296	486.62
362.523	509.62
362.749	496.62
362.976	473.62
363.203	487.62
363.429	480.62
363.656	480.62
363.882	466.62
364.109	455.62
364.335	454.62
364.562	473.62
364.788	455.62
365.015	480.62
365.241	492.62
365.468	470.62
365.694	454.62
365.92	495.62
366.147	466.62
366.373	474.62
366.599	489.62
366.826	474.62
367.052	481.62
367.278	473.62
367.505	472.62
367.731	480.62
367.957	478.62
368.184	465.62
368.41	488.62
368.636	486.62
368.862	485.62
369.089	512.62
369.315	491.62
369.541	513.62
369.767	493.62
369.993	485.62
370.219	495.62
370.445	489.62
370.672	490.62
370.898	495.62
371.124	517.62
371.35	470.62
371.576	503.62
371.802	498.62
372.028	519.62
372.254	492.62
372.48	512.62
372.706	495.62
372.932	517.62
373.158	514.62
373.384	510.62
373.61	515.62
373.835	491.62
374.061	508.62
374.287	522.62
374.513	499.62
374.739	538.62
374.965	524.62
375.191	554.62
375.416	524.62
375.642	515.62
375.868	509.62
376.094	533.62
376.319	514.62
376.545	489.62
376.771	492.62
376.997	495.62
377.222	517.62
377.448	517.62
377.674	490.62
377.899	527.62
378.125	512.62
378.35	497.62
378.576	499.62
378.802	500.62
379.027	492.62
379.253	485.62
379.478	489.62
379.704	520.62
379.929	480.62
380.155	507.62
380.38	517.62
380.606	488.62
380.831	501.62
381.057	504.62
381.282	495.62
381.507	533.62
381.733	512.62
381.958	500.62
382.184	506.62
382.409	528.62
382.634	515.62
382.86	519.62
383.085	531.62
383.31	537.62
383.535	543.62
383.761	532.62
383.986	539.62
384.211	546.62
384.436	569.62
384.662	549.62
384.887	545.62
385.112	561.62
385.337	581.62
385.562	575.62
385.787	563.62
386.013	598.62
386.238	577.62
386.463	602.62
386.688	595.62
386.913	599.62
387.138	601.62
387.363	602.62
387.588	564.62
387.813	574.62
388.038	573.62
388.263	569.62
388.488	581.62
388.713	575.62
388.938	560.62
389.163	568.62
389.387	585.62
389.612	561.62
389.837	571.62
390.062	563.62
390.287	564.62
390.512	545.62
390.736	581.62
390.961	573.62
391.186	622.62
391.411	595.62
391.636	602.62
391.86	613.62
392.085	638.62
392.31	636.62
392.534	608.62
392.759	617.62
392.984	635.62
393.208	599.62
393.433	597.62
393.658	616.62
393.882	585.62
394.107	595.62
394.331	578.62
394.556	586.62
394.78	624.62
395.005	611.62
395.229	586.62
395.454	611.62
395.678	632.62
395.903	652.62
396.127	652.62
396.352	612.62
396.576	626.62
396.801	626.62
397.025	620.62
397.249	623.62
397.474	659.62
397.698	604.62
397.922	658.62
398.147	668.62
398.371	647.62
398.595	668.62
398.82	673.62
399.044	732.62
399.268	770.62
399.492	845.62
399.717	920.62
399.941	928.62
400.165	909.62
400.389	853.62
400.613	787.62
400.837	736.62
401.062	707.62
401.286	696.62
401.51	693.62
401.734	695.62
401.958	693.62
402.182	701.62
402.406	721.62
402.63	728.62
402.854	712.62
403.078	733.62
403.302	752.62
403.526	743.62
403.75	735.62
403.974	775.62
404.198	755.62
404.422	755.62
404.645	770.62
404.869	779.62
405.093	793.62
405.317	808.62
405.541	821.62
405.765	754.62
405.988	736.62
406.212	775.62
406.436	765.62
406.66	791.62
406.883	785.62
407.107	831.62
407.331	865.62
407.555	931.62
407.778	897.62
408.002	884.62
408.226	795.62
408.449	787.62
408.673	752.62
408.896	796.62
409.12	820.62
409.344	791.62
409.567	748.62
409.791	755.62
410.014	722.62
410.238	743.62
410.461	730.62
410.685	729.62
410.908	738.62
411.132	753.62
411.355	781.62
411.578	752.62
411.802	709.62
412.025	733.62
412.249	732.62
412.472	737.62
412.695	758.62
412.919	747.62
413.142	711.62
413.365	708.62
413.589	692.62
413.812	705.62
414.035	699.62
414.258	705.62
414.482	706.62
414.705	711.62
414.928	673.62
415.151	698.62
415.374	675.62
415.597	678.62
415.821	687.62
416.044	667.62
416.267	673.62
416.49	676.62
416.713	669.62
416.936	683.62
417.159	665.62
417.382	672.62
417.605	673.62
417.828	676.62
418.051	681.62
418.274	710.62
418.497	684.62
418.72	700.62
418.943	693.62
419.166	692.62
419.389	777.62
419.611	744.62
419.834	735.62
420.057	726.62
420.28	710.62
420.503	689.62
420.726	695.62
420.948	721.62
421.171	707.62
421.394	731.62
421.617	717.62
421.839	675.62
422.062	684.62
422.285	700.62
422.507	743.62
422.73	812.62
422.953	781.62
423.175	733.62
423.398	731.62
423.621	715.62
423.843	745.62
424.066	756.62
424.288	762.62
424.511	744.62
424.733	777.62
424.956	839.62
425.178	809.62
425.401	808.62
425.623	820.62
425.846	741.62
426.068	724.62
426.291	712.62
426.513	681.62
426.735	692.62
426.958	737.62
427.18	789.62
427.402	879.62
427.625	911.62
427.847	832.62
428.069	752.62
428.292	711.62
428.514	649.62
428.736	657.62
428.958	650.62
429.181	636.62
429.403	638.62
429.625	667.62
429.847	652.62
430.069	704.62
430.292	719.62
430.514	649.62
430.736	644.62
430.958	651.62
431.18	630.62
431.402	618.62
431.624	638.62
431.846	627.62
432.068	647.62
432.29	640.62
432.512	640.62
432.734	611.62
432.956	628.62
433.178	639.62
433.4	649.62
433.622	651.62
433.844	651.62
434.066	654.62
434.287	617.62
434.509	649.62
434.731	663.62
434.953	693.62
435.175	660.62
435.397	726.62
435.618	701.62
435.84	725.62
436.062	768.62
436.284	803.62
436.505	723.62
436.727	671.62
436.949	651.62
437.17	634.62
437.392	649.62
437.614	652.62
437.835	649.62
438.057	745.62
438.278	787.62
438.5	802.62
438.721	851.62
438.943	871.62
439.165	698.62
439.386	694.62
439.608	680.62
439.829	681.62
440.05	669.62
440.272	731.62
440.493	691.62
440.715	687.62
440.936	668.62
441.158	663.62
441.379	665.62
441.6	711.62
441.822	707.62
442.043	763.62
442.264	813.62
442.486	815.62
442.707	765.62
442.928	728.62
443.149	732.62
443.371	755.62
443.592	781.62
443.813	808.62
444.034	868.62
444.255	803.62
444.476	757.62
444.698	776.62
444.919	795.62
445.14	874.62
445.361	810.62
445.582	776.62
445.803	807.62
446.024	831.62
446.245	833.62
446.466	777.62
446.687	725.62
446.908	687.62
447.129	637.62
447.35	631.62
447.571	628.62
447.792	608.62
448.013	629.62
448.234	649.62
448.455	674.62
448.675	749.62
448.896	856.62
449.117	727.62
449.338	721.62
449.559	781.62
449.779	868.62
450	740.62
450.221	636.62
450.442	631.62
450.662	635.62
450.883	609.62
451.104	626.62
451.324	623.62
451.545	576.62
451.766	579.62
451.986	580.62
452.207	596.62
452.428	589.62
452.648	608.62
452.869	584.62
453.089	582.62
453.31	586.62
453.53	593.62
453.751	585.62
453.971	568.62
454.192	585.62
454.412	563.62
454.633	557.62
454.853	570.62
455.073	563.62
455.294	603.62
455.514	634.62
455.734	621.62
455.955	553.62
456.175	568.62
456.395	546.62
456.616	561.62
456.836	539.62
457.056	541.62
457.276	521.62
457.497	550.62
457.717	569.62
457.937	562.62
458.157	588.62
458.377	563.62
458.598	592.62
458.818	627.62
459.038	672.62
459.258	717.62
459.478	677.62
459.698	640.62
459.918	661.62
460.138	666.62
460.358	720.62
460.578	714.62
460.798	687.62
461.018	729.62
461.238	691.62
461.458	698.62
461.678	699.62
461.898	706.62
462.118	703.62
462.338	777.62
462.558	755.62
462.777	766.62
462.997	815.62
463.217	837.62
463.437	828.62
463.657	819.62
463.876	735.62
464.096	777.62
464.316	777.62
464.536	784.62
464.755	766.62
464.975	742.62
465.195	781.62
465.414	747.62
465.634	701.62
465.854	697.62
466.073	646.62
466.293	636.62
466.512	635.62
466.732	611.62
466.951	615.62
467.171	604.62
467.391	625.62
467.61	631.62
467.829	626.62
468.049	646.62
468.268	631.62
468.488	607.62
468.707	595.62
468.927	593.62
469.146	572.62
469.365	602.62
469.585	587.62
469.804	627.62
470.023	631.62
470.243	623.62
470.462	646.62
470.681	638.62
470.901	644.62
471.12	631.62
471.339	644.62
471.558	595.62
471.777	601.62
471.997	596.62
472.216	606.62
472.435	636.62
472.654	619.62
472.873	583.62
473.092	609.62
473.311	590.62
473.53	600.62
473.749	592.62
473.968	628.62
474.187	691.62
474.406	709.62
474.625	613.62
474.844	608.62
475.063	618.62
475.282	607.62
475.501	599.62
475.72	613.62
475.939	610.62
476.158	588.62
476.377	633.62
476.596	621.62
476.814	641.62
477.033	657.62
477.252	636.62
477.471	630.62
477.69	660.62
477.908	675.62
478.127	671.62
478.346	685.62
478.564	700.62
478.783	716.62
479.002	739.62
479.22	739.62
479.439	743.62
479.658	749.62
479.876	733.62
480.095	752.62
480.313	804.62
480.532	824.62
480.751	809.62
480.969	793.62
481.188	811.62
481.406	829.62
481.624	765.62
481.843	739.62
482.061	721.62
482.28	700.62
482.498	716.62
482.717	703.62
482.935	699.62
483.153	703.62
483.372	705.62
483.59	688.62
483.808	706.62
484.027	703.62
484.245	714.62
484.463	721.62
484.681	705.62
484.9	709.62
485.118	719.62
485.336	733.62
485.554	716.62
485.772	730.62
485.99	732.62
486.209	739.62
486.427	724.62
486.645	751.62
486.863	742.62
487.081	735.62
487.299	759.62
487.517	748.62
487.735	748.62
487.953	727.62
488.171	736.62
488.389	724.62
488.607	731.62
488.825	737.62
489.043	723.62
489.261	771.62
489.479	757.62
489.696	758.62
489.914	792.62
490.132	779.62
490.35	794.62
490.568	782.62
490.786	783.62
491.003	784.62
491.221	824.62
491.439	798.62
491.657	800.62
491.874	826.62
492.092	815.62
492.31	820.62
492.527	798.62
492.745	813.62
492.963	835.62
493.18	835.62
493.398	856.62
493.615	848.62
493.833	856.62
494.05	860.62
494.268	868.62
494.485	845.62
494.703	872.62
494.92	869.62
495.138	867.62
495.355	845.62
495.573	847.62
495.79	867.62
496.008	874.62
496.225	873.62
496.442	881.62
496.66	860.62
496.877	863.62
497.094	913.62
497.312	887.62
497.529	898.62
497.746	924.62
497.963	947.62
498.181	942.62
498.398	1038.62
498.615	1081.62
498.832	1094.62
499.049	1182.62
499.267	1172.62
499.484	1292.62
499.701	1349.62
499.918	1465.62
500.135	1601.62
500.352	1698.62
500.569	1745.62
500.786	1784.62
501.003	1707.62
501.22	1572.62
501.437	1467.62
501.654	1355.62
