Data from 1963.PennyLincolnUp.Lamp.En5.5.200Scan.071719.P1._HRD10591_14-00-23-064.txt Node
Date: Thu Jul 18 14:00:23 EDT 2019
User: cochatt
Spectrometer: HR+D1059
Trigger mode: 1
Integration Time (sec): 1.000000E-1
Scans to average: 1
Electric dark correction enabled: true
Nonlinearity correction enabled: false
Boxcar width: 0
XAxis mode: Wavelengths
Number of Pixels in Spectrum: 2048
>>>>>Begin Spectral Data<<<<<
223.165	-13.94
223.4	-13.94
223.635	-13.94
223.869	-9.94
224.104	-25.94
224.338	-4.94
224.573	-24.94
224.808	2.06
225.042	-3.94
225.277	-1.94
225.511	-0.94
225.746	1.06
225.98	2.06
226.215	3.06
226.449	15.06
226.683	20.06
226.918	18.06
227.152	25.06
227.387	31.06
227.621	36.06
227.856	45.06
228.09	41.06
228.324	55.06
228.559	58.06
228.793	69.06
229.027	107.06
229.262	109.06
229.496	117.06
229.73	121.06
229.964	141.06
230.199	125.06
230.433	119.06
230.667	114.06
230.901	125.06
231.136	103.06
231.37	107.06
231.604	114.06
231.838	111.06
232.072	128.06
232.306	118.06
232.541	101.06
232.775	120.06
233.009	110.06
233.243	125.06
233.477	122.06
233.711	129.06
233.945	120.06
234.179	126.06
234.413	128.06
234.647	109.06
234.881	119.06
235.115	122.06
235.349	126.06
235.583	132.06
235.817	137.06
236.051	137.06
236.285	129.06
236.519	131.06
236.753	141.06
236.987	146.06
237.221	169.06
237.455	218.06
237.689	166.06
237.922	146.06
238.156	143.06
238.39	129.06
238.624	132.06
238.858	156.06
239.091	140.06
239.325	135.06
239.559	126.06
239.793	139.06
240.027	142.06
240.26	148.06
240.494	170.06
240.728	152.06
240.961	156.06
241.195	137.06
241.429	155.06
241.662	152.06
241.896	150.06
242.13	150.06
242.363	146.06
242.597	150.06
242.83	172.06
243.064	145.06
243.298	140.06
243.531	139.06
243.765	161.06
243.998	180.06
244.232	163.06
244.465	162.06
244.699	164.06
244.932	169.06
245.166	170.06
245.399	158.06
245.633	174.06
245.866	166.06
246.099	170.06
246.333	177.06
246.566	165.06
246.8	169.06
247.033	178.06
247.266	164.06
247.5	178.06
247.733	172.06
247.966	158.06
248.2	199.06
248.433	190.06
248.666	198.06
248.899	208.06
249.133	216.06
249.366	218.06
249.599	205.06
249.832	188.06
250.066	189.06
250.299	198.06
250.532	210.06
250.765	241.06
250.998	237.06
251.231	240.06
251.465	223.06
251.698	216.06
251.931	217.06
252.164	210.06
252.397	220.06
252.63	205.06
252.863	207.06
253.096	237.06
253.329	222.06
253.562	257.06
253.795	231.06
254.028	214.06
254.261	226.06
254.494	241.06
254.727	255.06
254.96	295.06
255.193	284.06
255.426	243.06
255.659	242.06
255.892	234.06
256.124	255.06
256.357	248.06
256.59	248.06
256.823	237.06
257.056	222.06
257.289	236.06
257.521	234.06
257.754	227.06
257.987	228.06
258.22	241.06
258.452	234.06
258.685	234.06
258.918	243.06
259.151	226.06
259.383	233.06
259.616	237.06
259.849	259.06
260.081	261.06
260.314	262.06
260.547	277.06
260.779	259.06
261.012	267.06
261.244	273.06
261.477	260.06
261.71	244.06
261.942	256.06
262.175	251.06
262.407	244.06
262.64	248.06
262.872	254.06
263.105	236.06
263.337	234.06
263.57	228.06
263.802	231.06
264.035	223.06
264.267	238.06
264.499	240.06
264.732	236.06
264.964	263.06
265.197	266.06
265.429	252.06
265.661	245.06
265.894	262.06
266.126	253.06
266.358	257.06
266.591	249.06
266.823	277.06
267.055	282.06
267.287	274.06
267.52	254.06
267.752	271.06
267.984	260.06
268.216	272.06
268.448	258.06
268.681	271.06
268.913	267.06
269.145	296.06
269.377	300.06
269.609	307.06
269.841	291.06
270.073	300.06
270.306	322.06
270.538	342.06
270.77	328.06
271.002	338.06
271.234	316.06
271.466	339.06
271.698	333.06
271.93	352.06
272.162	322.06
272.394	337.06
272.626	330.06
272.858	325.06
273.09	325.06
273.322	318.06
273.553	301.06
273.785	307.06
274.017	295.06
274.249	317.06
274.481	304.06
274.713	310.06
274.945	310.06
275.176	316.06
275.408	312.06
275.64	286.06
275.872	308.06
276.104	325.06
276.335	301.06
276.567	306.06
276.799	329.06
277.031	334.06
277.262	352.06
277.494	355.06
277.726	320.06
277.957	316.06
278.189	325.06
278.421	314.06
278.652	311.06
278.884	320.06
279.115	310.06
279.347	329.06
279.579	305.06
279.81	329.06
280.042	320.06
280.273	309.06
280.505	332.06
280.736	319.06
280.968	322.06
281.199	323.06
281.431	328.06
281.662	329.06
281.894	335.06
282.125	323.06
282.356	363.06
282.588	360.06
282.819	379.06
283.051	334.06
283.282	317.06
283.513	325.06
283.745	347.06
283.976	324.06
284.207	341.06
284.439	332.06
284.67	340.06
284.901	323.06
285.132	338.06
285.364	320.06
285.595	344.06
285.826	328.06
286.057	344.06
286.288	348.06
286.52	329.06
286.751	348.06
286.982	341.06
287.213	355.06
287.444	336.06
287.675	354.06
287.906	361.06
288.138	371.06
288.369	377.06
288.6	376.06
288.831	360.06
289.062	372.06
289.293	360.06
289.524	346.06
289.755	368.06
289.986	350.06
290.217	374.06
290.448	363.06
290.679	372.06
290.91	354.06
291.141	337.06
291.371	360.06
291.602	347.06
291.833	373.06
292.064	362.06
292.295	372.06
292.526	363.06
292.757	371.06
292.987	359.06
293.218	384.06
293.449	360.06
293.68	354.06
293.91	355.06
294.141	356.06
294.372	357.06
294.603	368.06
294.833	365.06
295.064	370.06
295.295	374.06
295.525	380.06
295.756	361.06
295.987	386.06
296.217	404.06
296.448	398.06
296.679	379.06
296.909	363.06
297.14	373.06
297.37	374.06
297.601	364.06
297.831	395.06
298.062	385.06
298.292	384.06
298.523	400.06
298.753	385.06
298.984	382.06
299.214	399.06
299.445	403.06
299.675	418.06
299.905	399.06
300.136	388.06
300.366	390.06
300.597	386.06
300.827	417.06
301.057	421.06
301.288	423.06
301.518	425.06
301.748	421.06
301.979	424.06
302.209	418.06
302.439	434.06
302.669	426.06
302.9	419.06
303.13	398.06
303.36	408.06
303.59	411.06
303.82	428.06
304.051	436.06
304.281	417.06
304.511	402.06
304.741	430.06
304.971	417.06
305.201	411.06
305.431	415.06
305.661	427.06
305.891	413.06
306.121	412.06
306.352	445.06
306.582	424.06
306.812	408.06
307.042	401.06
307.272	429.06
307.502	441.06
307.731	441.06
307.961	426.06
308.191	404.06
308.421	406.06
308.651	411.06
308.881	422.06
309.111	435.06
309.341	429.06
309.571	434.06
309.8	427.06
310.03	432.06
310.26	437.06
310.49	451.06
310.72	451.06
310.949	435.06
311.179	453.06
311.409	444.06
311.639	450.06
311.868	431.06
312.098	470.06
312.328	478.06
312.557	470.06
312.787	471.06
313.017	468.06
313.246	478.06
313.476	454.06
313.706	477.06
313.935	479.06
314.165	486.06
314.394	489.06
314.624	467.06
314.853	470.06
315.083	461.06
315.312	458.06
315.542	463.06
315.771	454.06
316.001	483.06
316.23	463.06
316.46	470.06
316.689	466.06
316.919	464.06
317.148	458.06
317.377	447.06
317.607	461.06
317.836	473.06
318.065	456.06
318.295	460.06
318.524	474.06
318.753	465.06
318.983	473.06
319.212	470.06
319.441	485.06
319.67	452.06
319.9	458.06
320.129	448.06
320.358	456.06
320.587	454.06
320.816	470.06
321.046	465.06
321.275	465.06
321.504	495.06
321.733	463.06
321.962	492.06
322.191	480.06
322.42	494.06
322.649	486.06
322.878	514.06
323.108	497.06
323.337	521.06
323.566	554.06
323.795	569.06
324.024	594.06
324.253	655.06
324.482	881.06
324.71	1236.06
324.939	1739.06
325.168	1521.06
325.397	857.06
325.626	627.06
325.855	543.06
326.084	534.06
326.313	533.06
326.542	540.06
326.77	601.06
326.999	640.06
327.228	827.06
327.457	1138.06
327.686	1400.06
327.914	961.06
328.143	692.06
328.372	625.06
328.6	621.06
328.829	585.06
329.058	605.06
329.287	629.06
329.515	594.06
329.744	559.06
329.972	585.06
330.201	579.06
330.43	605.06
330.658	613.06
330.887	640.06
331.115	648.06
331.344	593.06
331.572	558.06
331.801	570.06
332.03	582.06
332.258	561.06
332.486	601.06
332.715	584.06
332.943	585.06
333.172	636.06
333.4	628.06
333.629	658.06
333.857	650.06
334.085	637.06
334.314	646.06
334.542	655.06
334.771	677.06
334.999	660.06
335.227	632.06
335.455	631.06
335.684	604.06
335.912	604.06
336.14	584.06
336.369	589.06
336.597	571.06
336.825	567.06
337.053	587.06
337.281	576.06
337.51	579.06
337.738	568.06
337.966	560.06
338.194	556.06
338.422	574.06
338.65	556.06
338.878	554.06
339.106	551.06
339.334	557.06
339.562	545.06
339.79	565.06
340.018	530.06
340.246	523.06
340.474	546.06
340.702	537.06
340.93	534.06
341.158	548.06
341.386	524.06
341.614	530.06
341.842	524.06
342.07	530.06
342.298	521.06
342.526	517.06
342.754	540.06
342.981	516.06
343.209	522.06
343.437	550.06
343.665	568.06
343.893	575.06
344.12	608.06
344.348	591.06
344.576	581.06
344.804	568.06
345.031	572.06
345.259	533.06
345.487	564.06
345.714	540.06
345.942	543.06
346.17	536.06
346.397	493.06
346.625	502.06
346.853	503.06
347.08	512.06
347.308	524.06
347.535	515.06
347.763	519.06
347.99	524.06
348.218	521.06
348.445	531.06
348.673	528.06
348.9	520.06
349.128	504.06
349.355	504.06
349.583	525.06
349.81	503.06
350.037	512.06
350.265	516.06
350.492	500.06
350.72	493.06
350.947	502.06
351.174	498.06
351.402	520.06
351.629	517.06
351.856	525.06
352.083	513.06
352.311	514.06
352.538	539.06
352.765	522.06
352.992	505.06
353.22	501.06
353.447	493.06
353.674	524.06
353.901	487.06
354.128	485.06
354.355	494.06
354.583	504.06
354.81	483.06
355.037	521.06
355.264	502.06
355.491	465.06
355.718	473.06
355.945	490.06
356.172	477.06
356.399	490.06
356.626	509.06
356.853	497.06
357.08	469.06
357.307	491.06
357.534	490.06
357.761	474.06
357.988	499.06
358.215	493.06
358.441	492.06
358.668	493.06
358.895	505.06
359.122	491.06
359.349	502.06
359.576	538.06
359.802	522.06
360.029	549.06
360.256	570.06
360.483	532.06
360.709	512.06
360.936	527.06
361.163	529.06
361.39	522.06
361.616	530.06
361.843	520.06
362.07	509.06
362.296	506.06
362.523	499.06
362.749	512.06
362.976	512.06
363.203	521.06
363.429	484.06
363.656	492.06
363.882	498.06
364.109	501.06
364.335	521.06
364.562	502.06
364.788	504.06
365.015	511.06
365.241	479.06
365.468	518.06
365.694	504.06
365.92	482.06
366.147	516.06
366.373	497.06
366.599	489.06
366.826	517.06
367.052	490.06
367.278	496.06
367.505	481.06
367.731	509.06
367.957	493.06
368.184	515.06
368.41	494.06
368.636	514.06
368.862	499.06
369.089	520.06
369.315	512.06
369.541	506.06
369.767	508.06
369.993	502.06
370.219	484.06
370.445	512.06
370.672	515.06
370.898	509.06
371.124	515.06
371.35	506.06
371.576	532.06
371.802	520.06
372.028	507.06
372.254	534.06
372.48	516.06
372.706	515.06
372.932	527.06
373.158	537.06
373.384	514.06
373.61	524.06
373.835	502.06
374.061	532.06
374.287	524.06
374.513	537.06
374.739	545.06
374.965	548.06
375.191	543.06
375.416	557.06
375.642	534.06
375.868	531.06
376.094	519.06
376.319	522.06
376.545	506.06
376.771	530.06
376.997	512.06
377.222	535.06
377.448	520.06
377.674	518.06
377.899	513.06
378.125	538.06
378.35	536.06
378.576	501.06
378.802	536.06
379.027	530.06
379.253	507.06
379.478	502.06
379.704	509.06
379.929	512.06
380.155	516.06
380.38	542.06
380.606	529.06
380.831	540.06
381.057	525.06
381.282	526.06
381.507	522.06
381.733	545.06
381.958	550.06
382.184	537.06
382.409	534.06
382.634	534.06
382.86	548.06
383.085	538.06
383.31	536.06
383.535	555.06
383.761	564.06
383.986	538.06
384.211	564.06
384.436	591.06
384.662	580.06
384.887	594.06
385.112	599.06
385.337	601.06
385.562	606.06
385.787	600.06
386.013	604.06
386.238	605.06
386.463	601.06
386.688	632.06
386.913	611.06
387.138	606.06
387.363	582.06
387.588	586.06
387.813	593.06
388.038	605.06
388.263	605.06
388.488	596.06
388.713	612.06
388.938	593.06
389.163	601.06
389.387	593.06
389.612	571.06
389.837	588.06
390.062	579.06
390.287	579.06
390.512	601.06
390.736	609.06
390.961	595.06
391.186	593.06
391.411	620.06
391.636	642.06
391.86	632.06
392.085	666.06
392.31	652.06
392.534	640.06
392.759	640.06
392.984	629.06
393.208	635.06
393.433	616.06
393.658	632.06
393.882	637.06
394.107	627.06
394.331	636.06
394.556	601.06
394.78	591.06
395.005	614.06
395.229	631.06
395.454	656.06
395.678	660.06
395.903	646.06
396.127	682.06
396.352	664.06
396.576	645.06
396.801	627.06
397.025	647.06
397.249	665.06
397.474	656.06
397.698	668.06
397.922	657.06
398.147	682.06
398.371	686.06
398.595	669.06
398.82	705.06
399.044	742.06
399.268	801.06
399.492	895.06
399.717	961.06
399.941	1001.06
400.165	924.06
400.389	878.06
400.613	824.06
400.837	774.06
401.062	748.06
401.286	722.06
401.51	731.06
401.734	714.06
401.958	716.06
402.182	749.06
402.406	760.06
402.63	734.06
402.854	740.06
403.078	755.06
403.302	763.06
403.526	765.06
403.75	782.06
403.974	781.06
404.198	790.06
404.422	797.06
404.645	801.06
404.869	794.06
405.093	828.06
405.317	842.06
405.541	852.06
405.765	826.06
405.988	789.06
406.212	795.06
406.436	801.06
406.66	830.06
406.883	816.06
407.107	861.06
407.331	928.06
407.555	944.06
407.778	956.06
408.002	904.06
408.226	870.06
408.449	856.06
408.673	862.06
408.896	855.06
409.12	884.06
409.344	812.06
409.567	779.06
409.791	771.06
410.014	771.06
410.238	754.06
410.461	747.06
410.685	766.06
410.908	780.06
411.132	786.06
411.355	805.06
411.578	794.06
411.802	769.06
412.025	754.06
412.249	768.06
412.472	787.06
412.695	796.06
412.919	794.06
413.142	742.06
413.365	718.06
413.589	756.06
413.812	700.06
414.035	709.06
414.258	750.06
414.482	723.06
414.705	720.06
414.928	717.06
415.151	729.06
415.374	728.06
415.597	708.06
415.821	700.06
416.044	703.06
416.267	698.06
416.49	690.06
416.713	712.06
416.936	696.06
417.159	697.06
417.382	677.06
417.605	701.06
417.828	719.06
418.051	738.06
418.274	712.06
418.497	702.06
418.72	732.06
418.943	693.06
419.166	737.06
419.389	783.06
419.611	770.06
419.834	740.06
420.057	750.06
420.28	744.06
420.503	736.06
420.726	701.06
420.948	730.06
421.171	775.06
421.394	778.06
421.617	735.06
421.839	712.06
422.062	730.06
422.285	713.06
422.507	792.06
422.73	857.06
422.953	848.06
423.175	773.06
423.398	781.06
423.621	749.06
423.843	789.06
424.066	800.06
424.288	786.06
424.511	752.06
424.733	797.06
424.956	865.06
425.178	864.06
425.401	855.06
425.623	881.06
425.846	780.06
426.068	746.06
426.291	746.06
426.513	715.06
426.735	749.06
426.958	759.06
427.18	818.06
427.402	914.06
427.625	981.06
427.847	875.06
428.069	804.06
428.292	752.06
428.514	718.06
428.736	710.06
428.958	661.06
429.181	669.06
429.403	647.06
429.625	672.06
429.847	718.06
430.069	753.06
430.292	745.06
430.514	692.06
430.736	666.06
430.958	661.06
431.18	642.06
431.402	652.06
431.624	670.06
431.846	685.06
432.068	665.06
432.29	664.06
432.512	654.06
432.734	695.06
432.956	659.06
433.178	664.06
433.4	667.06
433.622	646.06
433.844	653.06
434.066	690.06
434.287	672.06
434.509	669.06
434.731	727.06
434.953	704.06
435.175	746.06
435.397	773.06
435.618	743.06
435.84	762.06
436.062	818.06
436.284	864.06
436.505	781.06
436.727	718.06
436.949	699.06
437.17	685.06
437.392	664.06
437.614	685.06
437.835	719.06
438.057	741.06
438.278	851.06
438.5	859.06
438.721	893.06
438.943	880.06
439.165	764.06
439.386	689.06
439.608	708.06
439.829	713.06
440.05	736.06
440.272	783.06
440.493	715.06
440.715	694.06
440.936	678.06
441.158	703.06
441.379	707.06
441.6	742.06
441.822	741.06
442.043	785.06
442.264	824.06
442.486	864.06
442.707	773.06
442.928	728.06
443.149	756.06
443.371	759.06
443.592	812.06
443.813	876.06
444.034	938.06
444.255	830.06
444.476	784.06
444.698	786.06
444.919	833.06
445.14	892.06
445.361	836.06
445.582	790.06
445.803	824.06
446.024	870.06
446.245	881.06
446.466	798.06
446.687	745.06
446.908	713.06
447.129	698.06
447.35	681.06
447.571	653.06
447.792	642.06
448.013	680.06
448.234	684.06
448.455	699.06
448.675	794.06
448.896	917.06
449.117	786.06
449.338	738.06
449.559	861.06
449.779	922.06
450	794.06
450.221	696.06
450.442	671.06
450.662	636.06
450.883	625.06
451.104	657.06
451.324	636.06
451.545	638.06
451.766	630.06
451.986	588.06
452.207	592.06
452.428	580.06
452.648	608.06
452.869	616.06
453.089	615.06
453.31	621.06
453.53	597.06
453.751	586.06
453.971	609.06
454.192	607.06
454.412	594.06
454.633	576.06
454.853	596.06
455.073	585.06
455.294	613.06
455.514	650.06
455.734	659.06
455.955	584.06
456.175	573.06
456.395	554.06
456.616	575.06
456.836	578.06
457.056	562.06
457.276	560.06
457.497	593.06
457.717	586.06
457.937	602.06
458.157	602.06
458.377	593.06
458.598	605.06
458.818	666.06
459.038	741.06
459.258	756.06
459.478	694.06
459.698	692.06
459.918	693.06
460.138	676.06
460.358	719.06
460.578	707.06
460.798	710.06
461.018	729.06
461.238	752.06
461.458	717.06
461.678	706.06
461.898	722.06
462.118	737.06
462.338	733.06
462.558	774.06
462.777	801.06
462.997	849.06
463.217	887.06
463.437	870.06
463.657	839.06
463.876	783.06
464.096	828.06
464.316	796.06
464.536	811.06
464.755	778.06
464.975	774.06
465.195	800.06
465.414	817.06
465.634	718.06
465.854	701.06
466.073	685.06
466.293	648.06
466.512	635.06
466.732	649.06
466.951	657.06
467.171	609.06
467.391	623.06
467.61	646.06
467.829	640.06
468.049	636.06
468.268	640.06
468.488	617.06
468.707	630.06
468.927	626.06
469.146	612.06
469.365	622.06
469.585	624.06
469.804	620.06
470.023	640.06
470.243	615.06
470.462	676.06
470.681	663.06
470.901	651.06
471.12	662.06
471.339	647.06
471.558	633.06
471.777	631.06
471.997	633.06
472.216	647.06
472.435	642.06
472.654	666.06
472.873	612.06
473.092	618.06
473.311	608.06
473.53	606.06
473.749	620.06
473.968	636.06
474.187	744.06
474.406	773.06
474.625	690.06
474.844	644.06
475.063	611.06
475.282	619.06
475.501	643.06
475.72	637.06
475.939	636.06
476.158	667.06
476.377	640.06
476.596	631.06
476.814	677.06
477.033	689.06
477.252	682.06
477.471	670.06
477.69	675.06
477.908	723.06
478.127	704.06
478.346	733.06
478.564	731.06
478.783	724.06
479.002	758.06
479.22	777.06
479.439	770.06
479.658	755.06
479.876	792.06
480.095	794.06
480.313	828.06
480.532	836.06
480.751	815.06
480.969	821.06
481.188	852.06
481.406	869.06
481.624	804.06
481.843	748.06
482.061	753.06
482.28	760.06
482.498	727.06
482.717	710.06
482.935	700.06
483.153	722.06
483.372	724.06
483.59	729.06
483.808	724.06
484.027	716.06
484.245	755.06
484.463	730.06
484.681	752.06
484.9	757.06
485.118	729.06
485.336	747.06
485.554	764.06
485.772	774.06
485.99	773.06
486.209	760.06
486.427	770.06
486.645	776.06
486.863	779.06
487.081	792.06
487.299	788.06
487.517	757.06
487.735	787.06
487.953	796.06
488.171	774.06
488.389	795.06
488.607	763.06
488.825	774.06
489.043	785.06
489.261	793.06
489.479	763.06
489.696	787.06
489.914	793.06
490.132	794.06
490.35	817.06
490.568	808.06
490.786	814.06
491.003	798.06
491.221	853.06
491.439	848.06
491.657	842.06
491.874	871.06
492.092	861.06
492.31	859.06
492.527	858.06
492.745	893.06
492.963	877.06
493.18	907.06
493.398	902.06
493.615	908.06
493.833	928.06
494.05	908.06
494.268	919.06
494.485	891.06
494.703	901.06
494.92	903.06
495.138	913.06
495.355	898.06
495.573	915.06
495.79	924.06
496.008	903.06
496.225	906.06
496.442	924.06
496.66	946.06
496.877	944.06
497.094	934.06
497.312	950.06
497.529	949.06
497.746	971.06
497.963	979.06
498.181	1016.06
498.398	1024.06
498.615	1111.06
498.832	1155.06
499.049	1207.06
499.267	1247.06
499.484	1323.06
499.701	1433.06
499.918	1497.06
500.135	1636.06
500.352	1766.06
500.569	1806.06
500.786	1859.06
501.003	1778.06
501.22	1659.06
501.437	1539.06
501.654	1452.06
