Data from 1963.PennyLincolnUp.Lamp.En5.5.200Scan.071719.P1._HRD10591_13-58-59-063.txt Node
Date: Thu Jul 18 13:58:59 EDT 2019
User: cochatt
Spectrometer: HR+D1059
Trigger mode: 1
Integration Time (sec): 1.000000E-1
Scans to average: 1
Electric dark correction enabled: true
Nonlinearity correction enabled: false
Boxcar width: 0
XAxis mode: Wavelengths
Number of Pixels in Spectrum: 2048
>>>>>Begin Spectral Data<<<<<
223.165	-16.62
223.4	-16.62
223.635	-16.62
223.869	-24.62
224.104	-22.62
224.338	-11.62
224.573	-5.62
224.808	-16.62
225.042	-6.62
225.277	-8.62
225.511	-2.62
225.746	11.38
225.98	4.38
226.215	5.38
226.449	6.38
226.683	23.38
226.918	24.38
227.152	40.38
227.387	24.38
227.621	37.38
227.856	34.38
228.09	54.38
228.324	40.38
228.559	56.38
228.793	70.38
229.027	78.38
229.262	105.38
229.496	101.38
229.73	125.38
229.964	139.38
230.199	144.38
230.433	119.38
230.667	104.38
230.901	114.38
231.136	103.38
231.37	104.38
231.604	113.38
231.838	115.38
232.072	113.38
232.306	123.38
232.541	109.38
232.775	117.38
233.009	121.38
233.243	126.38
233.477	119.38
233.711	136.38
233.945	121.38
234.179	114.38
234.413	125.38
234.647	143.38
234.881	117.38
235.115	119.38
235.349	133.38
235.583	123.38
235.817	123.38
236.051	139.38
236.285	134.38
236.519	132.38
236.753	140.38
236.987	139.38
237.221	172.38
237.455	216.38
237.689	179.38
237.922	137.38
238.156	135.38
238.39	132.38
238.624	136.38
238.858	131.38
239.091	147.38
239.325	150.38
239.559	123.38
239.793	137.38
240.027	141.38
240.26	134.38
240.494	151.38
240.728	146.38
240.961	159.38
241.195	161.38
241.429	163.38
241.662	145.38
241.896	146.38
242.13	149.38
242.363	152.38
242.597	140.38
242.83	157.38
243.064	145.38
243.298	146.38
243.531	167.38
243.765	149.38
243.998	143.38
244.232	160.38
244.465	147.38
244.699	164.38
244.932	163.38
245.166	160.38
245.399	164.38
245.633	174.38
245.866	164.38
246.099	163.38
246.333	174.38
246.566	175.38
246.8	171.38
247.033	172.38
247.266	177.38
247.5	182.38
247.733	186.38
247.966	172.38
248.2	173.38
248.433	176.38
248.666	186.38
248.899	194.38
249.133	215.38
249.366	224.38
249.599	200.38
249.832	193.38
250.066	189.38
250.299	210.38
250.532	207.38
250.765	228.38
250.998	235.38
251.231	225.38
251.465	221.38
251.698	219.38
251.931	209.38
252.164	209.38
252.397	209.38
252.63	195.38
252.863	217.38
253.096	244.38
253.329	251.38
253.562	245.38
253.795	247.38
254.028	226.38
254.261	216.38
254.494	234.38
254.727	251.38
254.96	279.38
255.193	271.38
255.426	256.38
255.659	244.38
255.892	266.38
256.124	248.38
256.357	248.38
256.59	228.38
256.823	245.38
257.056	232.38
257.289	221.38
257.521	236.38
257.754	230.38
257.987	224.38
258.22	237.38
258.452	226.38
258.685	226.38
258.918	229.38
259.151	235.38
259.383	240.38
259.616	243.38
259.849	244.38
260.081	249.38
260.314	267.38
260.547	281.38
260.779	249.38
261.012	246.38
261.244	244.38
261.477	230.38
261.71	258.38
261.942	261.38
262.175	248.38
262.407	256.38
262.64	244.38
262.872	237.38
263.105	241.38
263.337	247.38
263.57	247.38
263.802	231.38
264.035	248.38
264.267	241.38
264.499	240.38
264.732	244.38
264.964	245.38
265.197	237.38
265.429	234.38
265.661	245.38
265.894	246.38
266.126	268.38
266.358	251.38
266.591	257.38
266.823	251.38
267.055	247.38
267.287	252.38
267.52	265.38
267.752	257.38
267.984	258.38
268.216	268.38
268.448	277.38
268.681	262.38
268.913	276.38
269.145	295.38
269.377	299.38
269.609	297.38
269.841	273.38
270.073	285.38
270.306	327.38
270.538	330.38
270.77	338.38
271.002	316.38
271.234	327.38
271.466	340.38
271.698	324.38
271.93	322.38
272.162	343.38
272.394	331.38
272.626	337.38
272.858	301.38
273.09	301.38
273.322	310.38
273.553	294.38
273.785	289.38
274.017	311.38
274.249	319.38
274.481	284.38
274.713	293.38
274.945	283.38
275.176	303.38
275.408	315.38
275.64	314.38
275.872	298.38
276.104	290.38
276.335	285.38
276.567	309.38
276.799	322.38
277.031	331.38
277.262	357.38
277.494	366.38
277.726	341.38
277.957	329.38
278.189	333.38
278.421	296.38
278.652	337.38
278.884	323.38
279.115	307.38
279.347	318.38
279.579	317.38
279.81	321.38
280.042	320.38
280.273	319.38
280.505	300.38
280.736	337.38
280.968	313.38
281.199	327.38
281.431	324.38
281.662	320.38
281.894	316.38
282.125	322.38
282.356	340.38
282.588	350.38
282.819	363.38
283.051	343.38
283.282	339.38
283.513	333.38
283.745	341.38
283.976	347.38
284.207	347.38
284.439	347.38
284.67	336.38
284.901	333.38
285.132	330.38
285.364	334.38
285.595	347.38
285.826	333.38
286.057	339.38
286.288	339.38
286.52	359.38
286.751	346.38
286.982	355.38
287.213	353.38
287.444	365.38
287.675	372.38
287.906	364.38
288.138	367.38
288.369	368.38
288.6	350.38
288.831	342.38
289.062	376.38
289.293	379.38
289.524	374.38
289.755	358.38
289.986	363.38
290.217	346.38
290.448	354.38
290.679	346.38
290.91	369.38
291.141	348.38
291.371	353.38
291.602	363.38
291.833	377.38
292.064	359.38
292.295	357.38
292.526	368.38
292.757	365.38
292.987	371.38
293.218	365.38
293.449	373.38
293.68	367.38
293.91	347.38
294.141	377.38
294.372	354.38
294.603	371.38
294.833	384.38
295.064	359.38
295.295	370.38
295.525	361.38
295.756	350.38
295.987	391.38
296.217	397.38
296.448	399.38
296.679	394.38
296.909	368.38
297.14	388.38
297.37	347.38
297.601	395.38
297.831	388.38
298.062	408.38
298.292	372.38
298.523	393.38
298.753	389.38
298.984	397.38
299.214	393.38
299.445	377.38
299.675	393.38
299.905	387.38
300.136	407.38
300.366	384.38
300.597	385.38
300.827	419.38
301.057	403.38
301.288	421.38
301.518	428.38
301.748	417.38
301.979	413.38
302.209	406.38
302.439	381.38
302.669	397.38
302.9	426.38
303.13	406.38
303.36	415.38
303.59	427.38
303.82	421.38
304.051	423.38
304.281	423.38
304.511	392.38
304.741	390.38
304.971	404.38
305.201	411.38
305.431	408.38
305.661	403.38
305.891	399.38
306.121	400.38
306.352	416.38
306.582	436.38
306.812	399.38
307.042	426.38
307.272	405.38
307.502	407.38
307.731	428.38
307.961	414.38
308.191	415.38
308.421	420.38
308.651	419.38
308.881	408.38
309.111	403.38
309.341	418.38
309.571	436.38
309.8	442.38
310.03	451.38
310.26	446.38
310.49	450.38
310.72	447.38
310.949	456.38
311.179	469.38
311.409	440.38
311.639	429.38
311.868	441.38
312.098	439.38
312.328	442.38
312.557	473.38
312.787	474.38
313.017	446.38
313.246	463.38
313.476	452.38
313.706	445.38
313.935	463.38
314.165	452.38
314.394	463.38
314.624	447.38
314.853	452.38
315.083	467.38
315.312	457.38
315.542	458.38
315.771	453.38
316.001	447.38
316.23	457.38
316.46	445.38
316.689	458.38
316.919	475.38
317.148	459.38
317.377	452.38
317.607	487.38
317.836	464.38
318.065	442.38
318.295	469.38
318.524	456.38
318.753	460.38
318.983	465.38
319.212	450.38
319.441	455.38
319.67	462.38
319.9	475.38
320.129	442.38
320.358	438.38
320.587	457.38
320.816	464.38
321.046	460.38
321.275	488.38
321.504	478.38
321.733	464.38
321.962	473.38
322.191	476.38
322.42	484.38
322.649	484.38
322.878	510.38
323.108	485.38
323.337	521.38
323.566	535.38
323.795	527.38
324.024	577.38
324.253	638.38
324.482	823.38
324.71	1168.38
324.939	1679.38
325.168	1488.38
325.397	825.38
325.626	628.38
325.855	581.38
326.084	572.38
326.313	553.38
326.542	563.38
326.77	571.38
326.999	625.38
327.228	809.38
327.457	1099.38
327.686	1314.38
327.914	941.38
328.143	685.38
328.372	633.38
328.6	620.38
328.829	571.38
329.058	583.38
329.287	602.38
329.515	583.38
329.744	560.38
329.972	563.38
330.201	592.38
330.43	591.38
330.658	608.38
330.887	610.38
331.115	592.38
331.344	582.38
331.572	550.38
331.801	563.38
332.03	552.38
332.258	563.38
332.486	565.38
332.715	556.38
332.943	593.38
333.172	608.38
333.4	595.38
333.629	615.38
333.857	641.38
334.085	668.38
334.314	650.38
334.542	681.38
334.771	684.38
334.999	650.38
335.227	623.38
335.455	594.38
335.684	595.38
335.912	578.38
336.14	573.38
336.369	575.38
336.597	589.38
336.825	588.38
337.053	578.38
337.281	569.38
337.51	549.38
337.738	569.38
337.966	540.38
338.194	549.38
338.422	559.38
338.65	536.38
338.878	547.38
339.106	557.38
339.334	546.38
339.562	529.38
339.79	547.38
340.018	531.38
340.246	511.38
340.474	520.38
340.702	529.38
340.93	538.38
341.158	504.38
341.386	523.38
341.614	533.38
341.842	513.38
342.07	543.38
342.298	533.38
342.526	537.38
342.754	503.38
342.981	521.38
343.209	530.38
343.437	549.38
343.665	567.38
343.893	586.38
344.12	615.38
344.348	603.38
344.576	569.38
344.804	576.38
345.031	561.38
345.259	536.38
345.487	511.38
345.714	545.38
345.942	532.38
346.17	512.38
346.397	524.38
346.625	516.38
346.853	505.38
347.08	505.38
347.308	519.38
347.535	517.38
347.763	539.38
347.99	538.38
348.218	517.38
348.445	500.38
348.673	518.38
348.9	499.38
349.128	504.38
349.355	494.38
349.583	499.38
349.81	500.38
350.037	507.38
350.265	517.38
350.492	502.38
350.72	504.38
350.947	517.38
351.174	526.38
351.402	500.38
351.629	519.38
351.856	497.38
352.083	502.38
352.311	514.38
352.538	512.38
352.765	497.38
352.992	511.38
353.22	492.38
353.447	484.38
353.674	508.38
353.901	473.38
354.128	478.38
354.355	511.38
354.583	515.38
354.81	502.38
355.037	496.38
355.264	477.38
355.491	482.38
355.718	483.38
355.945	464.38
356.172	496.38
356.399	493.38
356.626	466.38
356.853	476.38
357.08	506.38
357.307	492.38
357.534	485.38
357.761	513.38
357.988	482.38
358.215	474.38
358.441	490.38
358.668	495.38
358.895	497.38
359.122	494.38
359.349	495.38
359.576	530.38
359.802	500.38
360.029	547.38
360.256	532.38
360.483	523.38
360.709	497.38
360.936	502.38
361.163	490.38
361.39	521.38
361.616	501.38
361.843	487.38
362.07	525.38
362.296	518.38
362.523	488.38
362.749	503.38
362.976	487.38
363.203	489.38
363.429	477.38
363.656	519.38
363.882	501.38
364.109	511.38
364.335	478.38
364.562	488.38
364.788	466.38
365.015	495.38
365.241	497.38
365.468	508.38
365.694	501.38
365.92	479.38
366.147	463.38
366.373	499.38
366.599	515.38
366.826	503.38
367.052	482.38
367.278	495.38
367.505	517.38
367.731	486.38
367.957	475.38
368.184	499.38
368.41	510.38
368.636	511.38
368.862	517.38
369.089	523.38
369.315	504.38
369.541	500.38
369.767	526.38
369.993	495.38
370.219	516.38
370.445	498.38
370.672	503.38
370.898	528.38
371.124	529.38
371.35	493.38
371.576	521.38
371.802	513.38
372.028	520.38
372.254	523.38
372.48	522.38
372.706	521.38
372.932	520.38
373.158	551.38
373.384	537.38
373.61	532.38
373.835	528.38
374.061	519.38
374.287	529.38
374.513	536.38
374.739	529.38
374.965	550.38
375.191	557.38
375.416	554.38
375.642	547.38
375.868	550.38
376.094	539.38
376.319	530.38
376.545	520.38
376.771	511.38
376.997	530.38
377.222	512.38
377.448	522.38
377.674	502.38
377.899	515.38
378.125	501.38
378.35	508.38
378.576	512.38
378.802	508.38
379.027	519.38
379.253	523.38
379.478	500.38
379.704	495.38
379.929	521.38
380.155	515.38
380.38	501.38
380.606	511.38
380.831	509.38
381.057	531.38
381.282	531.38
381.507	529.38
381.733	536.38
381.958	524.38
382.184	528.38
382.409	537.38
382.634	544.38
382.86	547.38
383.085	553.38
383.31	550.38
383.535	540.38
383.761	562.38
383.986	567.38
384.211	564.38
384.436	572.38
384.662	582.38
384.887	588.38
385.112	604.38
385.337	614.38
385.562	596.38
385.787	587.38
386.013	616.38
386.238	619.38
386.463	615.38
386.688	625.38
386.913	597.38
387.138	601.38
387.363	597.38
387.588	589.38
387.813	588.38
388.038	551.38
388.263	599.38
388.488	591.38
388.713	597.38
388.938	601.38
389.163	588.38
389.387	588.38
389.612	579.38
389.837	593.38
390.062	591.38
390.287	582.38
390.512	589.38
390.736	583.38
390.961	608.38
391.186	596.38
391.411	616.38
391.636	618.38
391.86	653.38
392.085	639.38
392.31	649.38
392.534	630.38
392.759	643.38
392.984	631.38
393.208	641.38
393.433	625.38
393.658	619.38
393.882	611.38
394.107	624.38
394.331	617.38
394.556	593.38
394.78	633.38
395.005	613.38
395.229	625.38
395.454	645.38
395.678	660.38
395.903	640.38
396.127	699.38
396.352	669.38
396.576	626.38
396.801	627.38
397.025	614.38
397.249	621.38
397.474	658.38
397.698	647.38
397.922	681.38
398.147	676.38
398.371	662.38
398.595	714.38
398.82	687.38
399.044	719.38
399.268	810.38
399.492	856.38
399.717	949.38
399.941	975.38
400.165	933.38
400.389	895.38
400.613	812.38
400.837	780.38
401.062	736.38
401.286	727.38
401.51	716.38
401.734	700.38
401.958	730.38
402.182	716.38
402.406	749.38
402.63	759.38
402.854	760.38
403.078	737.38
403.302	775.38
403.526	761.38
403.75	777.38
403.974	800.38
404.198	786.38
404.422	795.38
404.645	789.38
404.869	797.38
405.093	801.38
405.317	858.38
405.541	856.38
405.765	839.38
405.988	793.38
406.212	799.38
406.436	815.38
406.66	832.38
406.883	812.38
407.107	864.38
407.331	872.38
407.555	947.38
407.778	955.38
408.002	896.38
408.226	839.38
408.449	829.38
408.673	813.38
408.896	842.38
409.12	869.38
409.344	863.38
409.567	770.38
409.791	782.38
410.014	735.38
410.238	761.38
410.461	783.38
410.685	741.38
410.908	779.38
411.132	786.38
411.355	808.38
411.578	787.38
411.802	756.38
412.025	741.38
412.249	756.38
412.472	787.38
412.695	805.38
412.919	769.38
413.142	746.38
413.365	713.38
413.589	766.38
413.812	715.38
414.035	677.38
414.258	715.38
414.482	726.38
414.705	732.38
414.928	717.38
415.151	712.38
415.374	717.38
415.597	701.38
415.821	684.38
416.044	699.38
416.267	698.38
416.49	714.38
416.713	679.38
416.936	692.38
417.159	713.38
417.382	678.38
417.605	688.38
417.828	714.38
418.051	729.38
418.274	714.38
418.497	690.38
418.72	724.38
418.943	718.38
419.166	740.38
419.389	782.38
419.611	785.38
419.834	752.38
420.057	749.38
420.28	725.38
420.503	740.38
420.726	707.38
420.948	727.38
421.171	773.38
421.394	769.38
421.617	717.38
421.839	738.38
422.062	725.38
422.285	737.38
422.507	801.38
422.73	850.38
422.953	815.38
423.175	779.38
423.398	772.38
423.621	747.38
423.843	782.38
424.066	748.38
424.288	781.38
424.511	770.38
424.733	817.38
424.956	861.38
425.178	841.38
425.401	832.38
425.623	861.38
425.846	761.38
426.068	749.38
426.291	735.38
426.513	731.38
426.735	729.38
426.958	757.38
427.18	813.38
427.402	946.38
427.625	1019.38
427.847	850.38
428.069	797.38
428.292	733.38
428.514	682.38
428.736	710.38
428.958	672.38
429.181	682.38
429.403	662.38
429.625	663.38
429.847	688.38
430.069	751.38
430.292	738.38
430.514	676.38
430.736	668.38
430.958	654.38
431.18	618.38
431.402	645.38
431.624	653.38
431.846	657.38
432.068	669.38
432.29	635.38
432.512	658.38
432.734	679.38
432.956	665.38
433.178	672.38
433.4	673.38
433.622	673.38
433.844	662.38
434.066	676.38
434.287	656.38
434.509	681.38
434.731	706.38
434.953	714.38
435.175	742.38
435.397	754.38
435.618	739.38
435.84	751.38
436.062	803.38
436.284	855.38
436.505	727.38
436.727	708.38
436.949	707.38
437.17	672.38
437.392	673.38
437.614	687.38
437.835	698.38
438.057	770.38
438.278	828.38
438.5	817.38
438.721	876.38
438.943	867.38
439.165	745.38
439.386	685.38
439.608	717.38
439.829	683.38
440.05	722.38
440.272	771.38
440.493	734.38
440.715	694.38
440.936	679.38
441.158	688.38
441.379	701.38
441.6	730.38
441.822	771.38
442.043	783.38
442.264	835.38
442.486	859.38
442.707	773.38
442.928	740.38
443.149	759.38
443.371	781.38
443.592	815.38
443.813	865.38
444.034	915.38
444.255	839.38
444.476	784.38
444.698	822.38
444.919	843.38
445.14	925.38
445.361	874.38
445.582	797.38
445.803	831.38
446.024	865.38
446.245	872.38
446.466	820.38
446.687	731.38
446.908	705.38
447.129	672.38
447.35	658.38
447.571	644.38
447.792	646.38
448.013	645.38
448.234	636.38
448.455	693.38
448.675	769.38
448.896	874.38
449.117	776.38
449.338	740.38
449.559	831.38
449.779	929.38
450	785.38
450.221	679.38
450.442	636.38
450.662	647.38
450.883	631.38
451.104	614.38
451.324	628.38
451.545	626.38
451.766	617.38
451.986	611.38
452.207	592.38
452.428	599.38
452.648	591.38
452.869	608.38
453.089	603.38
453.31	593.38
453.53	586.38
453.751	597.38
453.971	603.38
454.192	598.38
454.412	577.38
454.633	569.38
454.853	595.38
455.073	604.38
455.294	603.38
455.514	662.38
455.734	648.38
455.955	577.38
456.175	589.38
456.395	540.38
456.616	559.38
456.836	561.38
457.056	562.38
457.276	553.38
457.497	558.38
457.717	563.38
457.937	562.38
458.157	581.38
458.377	600.38
458.598	625.38
458.818	681.38
459.038	723.38
459.258	738.38
459.478	702.38
459.698	644.38
459.918	676.38
460.138	688.38
460.358	706.38
460.578	707.38
460.798	714.38
461.018	712.38
461.238	727.38
461.458	710.38
461.678	722.38
461.898	718.38
462.118	732.38
462.338	726.38
462.558	744.38
462.777	812.38
462.997	858.38
463.217	872.38
463.437	872.38
463.657	815.38
463.876	812.38
464.096	789.38
464.316	798.38
464.536	792.38
464.755	753.38
464.975	773.38
465.195	789.38
465.414	808.38
465.634	707.38
465.854	703.38
466.073	679.38
466.293	629.38
466.512	611.38
466.732	609.38
466.951	627.38
467.171	601.38
467.391	618.38
467.61	645.38
467.829	643.38
468.049	637.38
468.268	625.38
468.488	618.38
468.707	612.38
468.927	609.38
469.146	618.38
469.365	619.38
469.585	602.38
469.804	630.38
470.023	652.38
470.243	635.38
470.462	638.38
470.681	649.38
470.901	679.38
471.12	641.38
471.339	626.38
471.558	636.38
471.777	619.38
471.997	623.38
472.216	634.38
472.435	662.38
472.654	615.38
472.873	626.38
473.092	627.38
473.311	612.38
473.53	595.38
473.749	639.38
473.968	651.38
474.187	742.38
474.406	763.38
474.625	660.38
474.844	625.38
475.063	619.38
475.282	608.38
475.501	614.38
475.72	625.38
475.939	614.38
476.158	648.38
476.377	660.38
476.596	644.38
476.814	647.38
477.033	653.38
477.252	668.38
477.471	643.38
477.69	684.38
477.908	689.38
478.127	696.38
478.346	722.38
478.564	712.38
478.783	730.38
479.002	729.38
479.22	743.38
479.439	737.38
479.658	761.38
479.876	755.38
480.095	785.38
480.313	797.38
480.532	846.38
480.751	818.38
480.969	802.38
481.188	845.38
481.406	855.38
481.624	779.38
481.843	730.38
482.061	756.38
482.28	736.38
482.498	718.38
482.717	736.38
482.935	712.38
483.153	724.38
483.372	706.38
483.59	716.38
483.808	713.38
484.027	732.38
484.245	739.38
484.463	753.38
484.681	729.38
484.9	767.38
485.118	755.38
485.336	755.38
485.554	763.38
485.772	768.38
485.99	745.38
486.209	777.38
486.427	764.38
486.645	742.38
486.863	786.38
487.081	767.38
487.299	764.38
487.517	747.38
487.735	779.38
487.953	759.38
488.171	763.38
488.389	773.38
488.607	769.38
488.825	761.38
489.043	764.38
489.261	778.38
489.479	780.38
489.696	773.38
489.914	806.38
490.132	792.38
490.35	812.38
490.568	787.38
490.786	804.38
491.003	840.38
491.221	851.38
491.439	846.38
491.657	827.38
491.874	867.38
492.092	857.38
492.31	864.38
492.527	849.38
492.745	871.38
492.963	883.38
493.18	862.38
493.398	888.38
493.615	874.38
493.833	883.38
494.05	889.38
494.268	891.38
494.485	885.38
494.703	893.38
494.92	895.38
495.138	875.38
495.355	896.38
495.573	923.38
495.79	874.38
496.008	899.38
496.225	905.38
496.442	902.38
496.66	943.38
496.877	945.38
497.094	957.38
497.312	954.38
497.529	934.38
497.746	951.38
497.963	984.38
498.181	1035.38
498.398	1063.38
498.615	1072.38
498.832	1129.38
499.049	1194.38
499.267	1232.38
499.484	1348.38
499.701	1421.38
499.918	1485.38
500.135	1632.38
500.352	1763.38
500.569	1801.38
500.786	1843.38
501.003	1767.38
501.22	1648.38
501.437	1523.38
501.654	1421.38
