Data from 1963.PennyLincolnUp.Lamp.En5.5.200Scan.071719.P1._HRD10591_14-00-10-064.txt Node
Date: Thu Jul 18 14:00:10 EDT 2019
User: cochatt
Spectrometer: HR+D1059
Trigger mode: 1
Integration Time (sec): 1.000000E-1
Scans to average: 1
Electric dark correction enabled: true
Nonlinearity correction enabled: false
Boxcar width: 0
XAxis mode: Wavelengths
Number of Pixels in Spectrum: 2048
>>>>>Begin Spectral Data<<<<<
223.165	-13.38
223.4	-13.38
223.635	-13.38
223.869	-24.38
224.104	-15.38
224.338	-7.38
224.573	-18.38
224.808	-15.38
225.042	3.62
225.277	6.62
225.511	-7.38
225.746	7.62
225.98	4.62
226.215	0.62
226.449	19.62
226.683	17.62
226.918	14.62
227.152	26.62
227.387	38.62
227.621	52.62
227.856	48.62
228.09	41.62
228.324	65.62
228.559	56.62
228.793	73.62
229.027	107.62
229.262	107.62
229.496	120.62
229.73	140.62
229.964	140.62
230.199	123.62
230.433	116.62
230.667	118.62
230.901	130.62
231.136	115.62
231.37	125.62
231.604	116.62
231.838	118.62
232.072	126.62
232.306	123.62
232.541	118.62
232.775	128.62
233.009	117.62
233.243	118.62
233.477	103.62
233.711	121.62
233.945	117.62
234.179	116.62
234.413	132.62
234.647	119.62
234.881	120.62
235.115	137.62
235.349	123.62
235.583	137.62
235.817	136.62
236.051	155.62
236.285	129.62
236.519	125.62
236.753	138.62
236.987	153.62
237.221	172.62
237.455	224.62
237.689	173.62
237.922	169.62
238.156	144.62
238.39	138.62
238.624	130.62
238.858	125.62
239.091	124.62
239.325	134.62
239.559	145.62
239.793	129.62
240.027	154.62
240.26	163.62
240.494	155.62
240.728	166.62
240.961	158.62
241.195	164.62
241.429	153.62
241.662	151.62
241.896	158.62
242.13	171.62
242.363	158.62
242.597	159.62
242.83	153.62
243.064	159.62
243.298	163.62
243.531	160.62
243.765	152.62
243.998	154.62
244.232	153.62
244.465	160.62
244.699	166.62
244.932	166.62
245.166	171.62
245.399	159.62
245.633	182.62
245.866	164.62
246.099	158.62
246.333	162.62
246.566	173.62
246.8	171.62
247.033	175.62
247.266	167.62
247.5	188.62
247.733	202.62
247.966	187.62
248.2	190.62
248.433	186.62
248.666	196.62
248.899	209.62
249.133	209.62
249.366	220.62
249.599	207.62
249.832	198.62
250.066	215.62
250.299	208.62
250.532	212.62
250.765	226.62
250.998	246.62
251.231	253.62
251.465	242.62
251.698	208.62
251.931	218.62
252.164	223.62
252.397	237.62
252.63	216.62
252.863	215.62
253.096	240.62
253.329	254.62
253.562	258.62
253.795	236.62
254.028	245.62
254.261	228.62
254.494	237.62
254.727	283.62
254.96	286.62
255.193	280.62
255.426	264.62
255.659	250.62
255.892	266.62
256.124	247.62
256.357	253.62
256.59	219.62
256.823	227.62
257.056	244.62
257.289	235.62
257.521	231.62
257.754	211.62
257.987	226.62
258.22	228.62
258.452	239.62
258.685	243.62
258.918	244.62
259.151	239.62
259.383	242.62
259.616	238.62
259.849	258.62
260.081	274.62
260.314	280.62
260.547	287.62
260.779	286.62
261.012	251.62
261.244	248.62
261.477	263.62
261.71	253.62
261.942	252.62
262.175	263.62
262.407	266.62
262.64	256.62
262.872	242.62
263.105	244.62
263.337	250.62
263.57	253.62
263.802	253.62
264.035	256.62
264.267	237.62
264.499	232.62
264.732	262.62
264.964	247.62
265.197	252.62
265.429	252.62
265.661	248.62
265.894	271.62
266.126	265.62
266.358	244.62
266.591	274.62
266.823	276.62
267.055	241.62
267.287	278.62
267.52	264.62
267.752	263.62
267.984	258.62
268.216	286.62
268.448	271.62
268.681	267.62
268.913	308.62
269.145	282.62
269.377	317.62
269.609	303.62
269.841	297.62
270.073	326.62
270.306	318.62
270.538	349.62
270.77	351.62
271.002	330.62
271.234	325.62
271.466	318.62
271.698	326.62
271.93	341.62
272.162	346.62
272.394	344.62
272.626	326.62
272.858	325.62
273.09	314.62
273.322	307.62
273.553	296.62
273.785	298.62
274.017	306.62
274.249	303.62
274.481	314.62
274.713	306.62
274.945	322.62
275.176	318.62
275.408	308.62
275.64	319.62
275.872	311.62
276.104	319.62
276.335	318.62
276.567	334.62
276.799	324.62
277.031	364.62
277.262	354.62
277.494	351.62
277.726	341.62
277.957	319.62
278.189	310.62
278.421	329.62
278.652	320.62
278.884	324.62
279.115	331.62
279.347	315.62
279.579	311.62
279.81	330.62
280.042	342.62
280.273	349.62
280.505	322.62
280.736	331.62
280.968	326.62
281.199	323.62
281.431	324.62
281.662	324.62
281.894	319.62
282.125	350.62
282.356	354.62
282.588	350.62
282.819	343.62
283.051	334.62
283.282	336.62
283.513	342.62
283.745	347.62
283.976	322.62
284.207	346.62
284.439	347.62
284.67	355.62
284.901	343.62
285.132	362.62
285.364	358.62
285.595	353.62
285.826	352.62
286.057	356.62
286.288	332.62
286.52	346.62
286.751	354.62
286.982	342.62
287.213	356.62
287.444	342.62
287.675	379.62
287.906	370.62
288.138	366.62
288.369	399.62
288.6	383.62
288.831	372.62
289.062	358.62
289.293	357.62
289.524	374.62
289.755	365.62
289.986	364.62
290.217	363.62
290.448	366.62
290.679	370.62
290.91	372.62
291.141	368.62
291.371	365.62
291.602	384.62
291.833	376.62
292.064	374.62
292.295	386.62
292.526	370.62
292.757	385.62
292.987	383.62
293.218	371.62
293.449	366.62
293.68	364.62
293.91	382.62
294.141	356.62
294.372	352.62
294.603	375.62
294.833	397.62
295.064	382.62
295.295	382.62
295.525	382.62
295.756	383.62
295.987	390.62
296.217	384.62
296.448	399.62
296.679	381.62
296.909	355.62
297.14	386.62
297.37	395.62
297.601	384.62
297.831	404.62
298.062	384.62
298.292	400.62
298.523	392.62
298.753	410.62
298.984	383.62
299.214	392.62
299.445	396.62
299.675	394.62
299.905	402.62
300.136	407.62
300.366	426.62
300.597	429.62
300.827	421.62
301.057	416.62
301.288	437.62
301.518	434.62
301.748	431.62
301.979	427.62
302.209	439.62
302.439	421.62
302.669	443.62
302.9	423.62
303.13	441.62
303.36	420.62
303.59	430.62
303.82	452.62
304.051	443.62
304.281	427.62
304.511	427.62
304.741	448.62
304.971	421.62
305.201	429.62
305.431	412.62
305.661	431.62
305.891	425.62
306.121	430.62
306.352	418.62
306.582	438.62
306.812	416.62
307.042	420.62
307.272	419.62
307.502	408.62
307.731	439.62
307.961	441.62
308.191	412.62
308.421	446.62
308.651	422.62
308.881	436.62
309.111	420.62
309.341	428.62
309.571	434.62
309.8	442.62
310.03	438.62
310.26	439.62
310.49	458.62
310.72	463.62
310.949	470.62
311.179	498.62
311.409	475.62
311.639	462.62
311.868	454.62
312.098	472.62
312.328	489.62
312.557	463.62
312.787	479.62
313.017	469.62
313.246	469.62
313.476	467.62
313.706	456.62
313.935	465.62
314.165	471.62
314.394	471.62
314.624	500.62
314.853	466.62
315.083	487.62
315.312	487.62
315.542	477.62
315.771	470.62
316.001	458.62
316.23	490.62
316.46	477.62
316.689	478.62
316.919	452.62
317.148	478.62
317.377	487.62
317.607	472.62
317.836	464.62
318.065	455.62
318.295	445.62
318.524	462.62
318.753	478.62
318.983	492.62
319.212	474.62
319.441	462.62
319.67	471.62
319.9	512.62
320.129	467.62
320.358	472.62
320.587	468.62
320.816	462.62
321.046	485.62
321.275	489.62
321.504	479.62
321.733	485.62
321.962	492.62
322.191	488.62
322.42	504.62
322.649	522.62
322.878	516.62
323.108	534.62
323.337	545.62
323.566	556.62
323.795	592.62
324.024	617.62
324.253	688.62
324.482	896.62
324.71	1296.62
324.939	1856.62
325.168	1655.62
325.397	912.62
325.626	694.62
325.855	603.62
326.084	569.62
326.313	562.62
326.542	567.62
326.77	616.62
326.999	676.62
327.228	846.62
327.457	1179.62
327.686	1476.62
327.914	992.62
328.143	731.62
328.372	672.62
328.6	652.62
328.829	589.62
329.058	617.62
329.287	640.62
329.515	614.62
329.744	580.62
329.972	579.62
330.201	608.62
330.43	627.62
330.658	632.62
330.887	657.62
331.115	687.62
331.344	607.62
331.572	584.62
331.801	606.62
332.03	606.62
332.258	597.62
332.486	597.62
332.715	587.62
332.943	598.62
333.172	602.62
333.4	633.62
333.629	633.62
333.857	669.62
334.085	680.62
334.314	662.62
334.542	674.62
334.771	702.62
334.999	654.62
335.227	637.62
335.455	620.62
335.684	624.62
335.912	596.62
336.14	591.62
336.369	568.62
336.597	611.62
336.825	606.62
337.053	584.62
337.281	576.62
337.51	563.62
337.738	565.62
337.966	558.62
338.194	566.62
338.422	566.62
338.65	581.62
338.878	563.62
339.106	568.62
339.334	590.62
339.562	549.62
339.79	529.62
340.018	542.62
340.246	536.62
340.474	528.62
340.702	564.62
340.93	545.62
341.158	559.62
341.386	544.62
341.614	539.62
341.842	569.62
342.07	519.62
342.298	534.62
342.526	543.62
342.754	573.62
342.981	526.62
343.209	558.62
343.437	578.62
343.665	551.62
343.893	623.62
344.12	622.62
344.348	611.62
344.576	590.62
344.804	586.62
345.031	563.62
345.259	569.62
345.487	572.62
345.714	552.62
345.942	554.62
346.17	527.62
346.397	511.62
346.625	506.62
346.853	523.62
347.08	509.62
347.308	519.62
347.535	508.62
347.763	536.62
347.99	540.62
348.218	534.62
348.445	539.62
348.673	537.62
348.9	530.62
349.128	516.62
349.355	494.62
349.583	517.62
349.81	503.62
350.037	509.62
350.265	521.62
350.492	507.62
350.72	517.62
350.947	524.62
351.174	491.62
351.402	519.62
351.629	505.62
351.856	539.62
352.083	532.62
352.311	538.62
352.538	530.62
352.765	522.62
352.992	528.62
353.22	512.62
353.447	500.62
353.674	507.62
353.901	516.62
354.128	502.62
354.355	508.62
354.583	469.62
354.81	504.62
355.037	512.62
355.264	515.62
355.491	483.62
355.718	500.62
355.945	484.62
356.172	506.62
356.399	500.62
356.626	495.62
356.853	501.62
357.08	492.62
357.307	498.62
357.534	479.62
357.761	498.62
357.988	512.62
358.215	510.62
358.441	492.62
358.668	504.62
358.895	520.62
359.122	529.62
359.349	499.62
359.576	531.62
359.802	527.62
360.029	565.62
360.256	557.62
360.483	546.62
360.709	519.62
360.936	534.62
361.163	520.62
361.39	521.62
361.616	533.62
361.843	527.62
362.07	519.62
362.296	527.62
362.523	528.62
362.749	524.62
362.976	510.62
363.203	521.62
363.429	515.62
363.656	508.62
363.882	524.62
364.109	521.62
364.335	503.62
364.562	489.62
364.788	527.62
365.015	488.62
365.241	518.62
365.468	515.62
365.694	512.62
365.92	528.62
366.147	512.62
366.373	527.62
366.599	489.62
366.826	498.62
367.052	522.62
367.278	531.62
367.505	514.62
367.731	540.62
367.957	499.62
368.184	519.62
368.41	537.62
368.636	534.62
368.862	518.62
369.089	520.62
369.315	501.62
369.541	507.62
369.767	520.62
369.993	522.62
370.219	520.62
370.445	522.62
370.672	528.62
370.898	508.62
371.124	523.62
371.35	528.62
371.576	537.62
371.802	540.62
372.028	534.62
372.254	536.62
372.48	531.62
372.706	553.62
372.932	567.62
373.158	545.62
373.384	535.62
373.61	501.62
373.835	529.62
374.061	518.62
374.287	539.62
374.513	541.62
374.739	548.62
374.965	562.62
375.191	566.62
375.416	538.62
375.642	534.62
375.868	541.62
376.094	535.62
376.319	508.62
376.545	502.62
376.771	528.62
376.997	538.62
377.222	555.62
377.448	532.62
377.674	510.62
377.899	495.62
378.125	518.62
378.35	541.62
378.576	517.62
378.802	510.62
379.027	531.62
379.253	536.62
379.478	518.62
379.704	504.62
379.929	529.62
380.155	533.62
380.38	532.62
380.606	535.62
380.831	510.62
381.057	530.62
381.282	532.62
381.507	542.62
381.733	543.62
381.958	532.62
382.184	551.62
382.409	551.62
382.634	543.62
382.86	546.62
383.085	534.62
383.31	555.62
383.535	559.62
383.761	575.62
383.986	587.62
384.211	576.62
384.436	606.62
384.662	606.62
384.887	603.62
385.112	594.62
385.337	582.62
385.562	605.62
385.787	602.62
386.013	648.62
386.238	621.62
386.463	607.62
386.688	615.62
386.913	595.62
387.138	582.62
387.363	618.62
387.588	617.62
387.813	603.62
388.038	604.62
388.263	609.62
388.488	638.62
388.713	596.62
388.938	623.62
389.163	599.62
389.387	625.62
389.612	555.62
389.837	608.62
390.062	584.62
390.287	594.62
390.512	610.62
390.736	591.62
390.961	614.62
391.186	616.62
391.411	599.62
391.636	635.62
391.86	652.62
392.085	666.62
392.31	667.62
392.534	654.62
392.759	657.62
392.984	648.62
393.208	620.62
393.433	633.62
393.658	639.62
393.882	636.62
394.107	625.62
394.331	628.62
394.556	626.62
394.78	644.62
395.005	649.62
395.229	619.62
395.454	634.62
395.678	654.62
395.903	639.62
396.127	662.62
396.352	667.62
396.576	636.62
396.801	648.62
397.025	650.62
397.249	666.62
397.474	664.62
397.698	662.62
397.922	656.62
398.147	692.62
398.371	699.62
398.595	698.62
398.82	706.62
399.044	758.62
399.268	826.62
399.492	874.62
399.717	962.62
399.941	983.62
400.165	964.62
400.389	908.62
400.613	820.62
400.837	758.62
401.062	764.62
401.286	758.62
401.51	714.62
401.734	745.62
401.958	716.62
402.182	732.62
402.406	750.62
402.63	768.62
402.854	780.62
403.078	760.62
403.302	781.62
403.526	818.62
403.75	792.62
403.974	790.62
404.198	812.62
404.422	795.62
404.645	788.62
404.869	807.62
405.093	833.62
405.317	866.62
405.541	902.62
405.765	839.62
405.988	788.62
406.212	802.62
406.436	842.62
406.66	852.62
406.883	840.62
407.107	864.62
407.331	916.62
407.555	983.62
407.778	978.62
408.002	912.62
408.226	860.62
408.449	844.62
408.673	855.62
408.896	843.62
409.12	882.62
409.344	864.62
409.567	801.62
409.791	786.62
410.014	766.62
410.238	792.62
410.461	731.62
410.685	772.62
410.908	769.62
411.132	779.62
411.355	823.62
411.578	792.62
411.802	744.62
412.025	760.62
412.249	767.62
412.472	773.62
412.695	812.62
412.919	794.62
413.142	758.62
413.365	746.62
413.589	774.62
413.812	722.62
414.035	750.62
414.258	720.62
414.482	704.62
414.705	716.62
414.928	702.62
415.151	738.62
415.374	722.62
415.597	706.62
415.821	700.62
416.044	700.62
416.267	705.62
416.49	726.62
416.713	699.62
416.936	710.62
417.159	714.62
417.382	714.62
417.605	731.62
417.828	734.62
418.051	746.62
418.274	746.62
418.497	746.62
418.72	721.62
418.943	747.62
419.166	750.62
419.389	789.62
419.611	789.62
419.834	767.62
420.057	768.62
420.28	768.62
420.503	757.62
420.726	714.62
420.948	713.62
421.171	798.62
421.394	796.62
421.617	769.62
421.839	726.62
422.062	749.62
422.285	724.62
422.507	818.62
422.73	858.62
422.953	833.62
423.175	786.62
423.398	783.62
423.621	774.62
423.843	790.62
424.066	773.62
424.288	805.62
424.511	800.62
424.733	833.62
424.956	906.62
425.178	872.62
425.401	865.62
425.623	884.62
425.846	780.62
426.068	747.62
426.291	751.62
426.513	742.62
426.735	744.62
426.958	791.62
427.18	841.62
427.402	949.62
427.625	1021.62
427.847	910.62
428.069	820.62
428.292	782.62
428.514	721.62
428.736	709.62
428.958	667.62
429.181	705.62
429.403	676.62
429.625	699.62
429.847	706.62
430.069	755.62
430.292	762.62
430.514	697.62
430.736	692.62
430.958	676.62
431.18	670.62
431.402	683.62
431.624	643.62
431.846	666.62
432.068	668.62
432.29	665.62
432.512	669.62
432.734	663.62
432.956	672.62
433.178	666.62
433.4	686.62
433.622	664.62
433.844	690.62
434.066	664.62
434.287	665.62
434.509	717.62
434.731	705.62
434.953	724.62
435.175	729.62
435.397	756.62
435.618	735.62
435.84	780.62
436.062	854.62
436.284	899.62
436.505	772.62
436.727	738.62
436.949	693.62
437.17	674.62
437.392	719.62
437.614	699.62
437.835	721.62
438.057	785.62
438.278	884.62
438.5	877.62
438.721	958.62
438.943	896.62
439.165	775.62
439.386	741.62
439.608	731.62
439.829	731.62
440.05	755.62
440.272	767.62
440.493	756.62
440.715	698.62
440.936	700.62
441.158	702.62
441.379	708.62
441.6	721.62
441.822	772.62
442.043	794.62
442.264	849.62
442.486	886.62
442.707	801.62
442.928	770.62
443.149	748.62
443.371	791.62
443.592	820.62
443.813	920.62
444.034	972.62
444.255	858.62
444.476	822.62
444.698	830.62
444.919	848.62
445.14	900.62
445.361	845.62
445.582	807.62
445.803	835.62
446.024	903.62
446.245	889.62
446.466	842.62
446.687	775.62
446.908	716.62
447.129	707.62
447.35	695.62
447.571	682.62
447.792	666.62
448.013	678.62
448.234	683.62
448.455	697.62
448.675	788.62
448.896	906.62
449.117	766.62
449.338	756.62
449.559	861.62
449.779	939.62
450	790.62
450.221	708.62
450.442	676.62
450.662	653.62
450.883	664.62
451.104	670.62
451.324	661.62
451.545	645.62
451.766	634.62
451.986	582.62
452.207	618.62
452.428	628.62
452.648	603.62
452.869	624.62
453.089	632.62
453.31	618.62
453.53	606.62
453.751	624.62
453.971	615.62
454.192	623.62
454.412	603.62
454.633	610.62
454.853	616.62
455.073	587.62
455.294	636.62
455.514	679.62
455.734	646.62
455.955	597.62
456.175	593.62
456.395	593.62
456.616	585.62
456.836	567.62
457.056	581.62
457.276	577.62
457.497	580.62
457.717	581.62
457.937	604.62
458.157	584.62
458.377	590.62
458.598	630.62
458.818	668.62
459.038	742.62
459.258	750.62
459.478	696.62
459.698	670.62
459.918	694.62
460.138	730.62
460.358	720.62
460.578	710.62
460.798	745.62
461.018	747.62
461.238	720.62
461.458	705.62
461.678	718.62
461.898	735.62
462.118	740.62
462.338	784.62
462.558	789.62
462.777	827.62
462.997	850.62
463.217	902.62
463.437	899.62
463.657	834.62
463.876	792.62
464.096	815.62
464.316	826.62
464.536	808.62
464.755	810.62
464.975	790.62
465.195	801.62
465.414	820.62
465.634	761.62
465.854	714.62
466.073	702.62
466.293	694.62
466.512	671.62
466.732	650.62
466.951	644.62
467.171	646.62
467.391	642.62
467.61	656.62
467.829	662.62
468.049	680.62
468.268	641.62
468.488	636.62
468.707	620.62
468.927	622.62
469.146	622.62
469.365	639.62
469.585	599.62
469.804	660.62
470.023	678.62
470.243	668.62
470.462	669.62
470.681	679.62
470.901	695.62
471.12	670.62
471.339	654.62
471.558	657.62
471.777	655.62
471.997	654.62
472.216	652.62
472.435	676.62
472.654	674.62
472.873	643.62
473.092	630.62
473.311	617.62
473.53	628.62
473.749	628.62
473.968	684.62
474.187	732.62
474.406	750.62
474.625	666.62
474.844	646.62
475.063	638.62
475.282	635.62
475.501	642.62
475.72	617.62
475.939	635.62
476.158	655.62
476.377	662.62
476.596	638.62
476.814	665.62
477.033	670.62
477.252	682.62
477.471	675.62
477.69	674.62
477.908	698.62
478.127	701.62
478.346	717.62
478.564	736.62
478.783	757.62
479.002	769.62
479.22	750.62
479.439	794.62
479.658	782.62
479.876	773.62
480.095	794.62
480.313	842.62
480.532	842.62
480.751	827.62
480.969	822.62
481.188	851.62
481.406	879.62
481.624	808.62
481.843	764.62
482.061	751.62
482.28	767.62
482.498	742.62
482.717	725.62
482.935	751.62
483.153	729.62
483.372	724.62
483.59	726.62
483.808	738.62
484.027	759.62
484.245	732.62
484.463	739.62
484.681	751.62
484.9	759.62
485.118	749.62
485.336	784.62
485.554	778.62
485.772	795.62
485.99	784.62
486.209	784.62
486.427	743.62
486.645	804.62
486.863	823.62
487.081	785.62
487.299	788.62
487.517	763.62
487.735	776.62
487.953	811.62
488.171	792.62
488.389	782.62
488.607	789.62
488.825	816.62
489.043	787.62
489.261	799.62
489.479	792.62
489.696	785.62
489.914	786.62
490.132	806.62
490.35	826.62
490.568	821.62
490.786	837.62
491.003	830.62
491.221	823.62
491.439	862.62
491.657	866.62
491.874	879.62
492.092	889.62
492.31	890.62
492.527	891.62
492.745	900.62
492.963	891.62
493.18	888.62
493.398	932.62
493.615	906.62
493.833	910.62
494.05	916.62
494.268	916.62
494.485	922.62
494.703	927.62
494.92	924.62
495.138	922.62
495.355	922.62
495.573	918.62
495.79	948.62
496.008	909.62
496.225	916.62
496.442	948.62
496.66	937.62
496.877	954.62
497.094	931.62
497.312	963.62
497.529	1015.62
497.746	1014.62
497.963	1028.62
498.181	1046.62
498.398	1084.62
498.615	1104.62
498.832	1187.62
499.049	1198.62
499.267	1324.62
499.484	1360.62
499.701	1438.62
499.918	1534.62
500.135	1708.62
500.352	1828.62
500.569	1875.62
500.786	1888.62
501.003	1818.62
501.22	1668.62
501.437	1542.62
501.654	1450.62
