Data from 1963.PennyLincolnUp.Lamp.En5.5.200Scan.071719.P1._HRD10591_13-58-09-063.txt Node
Date: Thu Jul 18 13:58:09 EDT 2019
User: cochatt
Spectrometer: HR+D1059
Trigger mode: 1
Integration Time (sec): 1.000000E-1
Scans to average: 1
Electric dark correction enabled: true
Nonlinearity correction enabled: false
Boxcar width: 0
XAxis mode: Wavelengths
Number of Pixels in Spectrum: 2048
>>>>>Begin Spectral Data<<<<<
223.165	-12.69
223.4	-12.69
223.635	-12.69
223.869	-6.69
224.104	-22.69
224.338	-23.69
224.573	-15.69
224.808	-21.69
225.042	-7.69
225.277	-6.69
225.511	-0.69
225.746	-7.69
225.98	9.31
226.215	23.31
226.449	20.31
226.683	23.31
226.918	18.31
227.152	31.31
227.387	30.31
227.621	32.31
227.856	44.31
228.09	48.31
228.324	56.31
228.559	45.31
228.793	67.31
229.027	88.31
229.262	96.31
229.496	108.31
229.73	109.31
229.964	133.31
230.199	120.31
230.433	113.31
230.667	109.31
230.901	112.31
231.136	105.31
231.37	106.31
231.604	119.31
231.838	108.31
232.072	123.31
232.306	103.31
232.541	130.31
232.775	108.31
233.009	126.31
233.243	107.31
233.477	122.31
233.711	124.31
233.945	125.31
234.179	118.31
234.413	120.31
234.647	126.31
234.881	122.31
235.115	116.31
235.349	134.31
235.583	127.31
235.817	130.31
236.051	138.31
236.285	131.31
236.519	130.31
236.753	130.31
236.987	139.31
237.221	176.31
237.455	191.31
237.689	156.31
237.922	138.31
238.156	145.31
238.39	130.31
238.624	143.31
238.858	124.31
239.091	119.31
239.325	122.31
239.559	126.31
239.793	131.31
240.027	152.31
240.26	130.31
240.494	135.31
240.728	142.31
240.961	157.31
241.195	157.31
241.429	162.31
241.662	140.31
241.896	144.31
242.13	154.31
242.363	153.31
242.597	142.31
242.83	161.31
243.064	141.31
243.298	150.31
243.531	143.31
243.765	158.31
243.998	151.31
244.232	154.31
244.465	149.31
244.699	148.31
244.932	169.31
245.166	171.31
245.399	157.31
245.633	151.31
245.866	159.31
246.099	165.31
246.333	165.31
246.566	167.31
246.8	172.31
247.033	168.31
247.266	157.31
247.5	180.31
247.733	190.31
247.966	192.31
248.2	192.31
248.433	193.31
248.666	194.31
248.899	199.31
249.133	197.31
249.366	205.31
249.599	218.31
249.832	195.31
250.066	192.31
250.299	213.31
250.532	190.31
250.765	202.31
250.998	205.31
251.231	220.31
251.465	209.31
251.698	209.31
251.931	195.31
252.164	219.31
252.397	223.31
252.63	213.31
252.863	216.31
253.096	227.31
253.329	220.31
253.562	226.31
253.795	220.31
254.028	238.31
254.261	231.31
254.494	226.31
254.727	245.31
254.96	262.31
255.193	235.31
255.426	255.31
255.659	228.31
255.892	237.31
256.124	243.31
256.357	217.31
256.59	232.31
256.823	220.31
257.056	219.31
257.289	227.31
257.521	222.31
257.754	221.31
257.987	200.31
258.22	242.31
258.452	219.31
258.685	224.31
258.918	235.31
259.151	220.31
259.383	225.31
259.616	236.31
259.849	235.31
260.081	229.31
260.314	257.31
260.547	269.31
260.779	253.31
261.012	256.31
261.244	236.31
261.477	235.31
261.71	217.31
261.942	228.31
262.175	237.31
262.407	231.31
262.64	214.31
262.872	234.31
263.105	249.31
263.337	233.31
263.57	245.31
263.802	231.31
264.035	248.31
264.267	222.31
264.499	231.31
264.732	228.31
264.964	229.31
265.197	252.31
265.429	258.31
265.661	246.31
265.894	227.31
266.126	269.31
266.358	231.31
266.591	254.31
266.823	256.31
267.055	258.31
267.287	256.31
267.52	262.31
267.752	262.31
267.984	266.31
268.216	273.31
268.448	249.31
268.681	262.31
268.913	265.31
269.145	261.31
269.377	282.31
269.609	288.31
269.841	308.31
270.073	295.31
270.306	296.31
270.538	311.31
270.77	316.31
271.002	308.31
271.234	307.31
271.466	310.31
271.698	313.31
271.93	313.31
272.162	337.31
272.394	315.31
272.626	310.31
272.858	309.31
273.09	296.31
273.322	276.31
273.553	285.31
273.785	297.31
274.017	278.31
274.249	283.31
274.481	283.31
274.713	299.31
274.945	288.31
275.176	276.31
275.408	307.31
275.64	277.31
275.872	270.31
276.104	304.31
276.335	298.31
276.567	304.31
276.799	298.31
277.031	322.31
277.262	324.31
277.494	333.31
277.726	315.31
277.957	317.31
278.189	332.31
278.421	304.31
278.652	312.31
278.884	322.31
279.115	306.31
279.347	283.31
279.579	299.31
279.81	308.31
280.042	317.31
280.273	299.31
280.505	301.31
280.736	297.31
280.968	318.31
281.199	315.31
281.431	299.31
281.662	302.31
281.894	322.31
282.125	324.31
282.356	313.31
282.588	330.31
282.819	346.31
283.051	342.31
283.282	308.31
283.513	301.31
283.745	304.31
283.976	340.31
284.207	347.31
284.439	337.31
284.67	338.31
284.901	333.31
285.132	340.31
285.364	328.31
285.595	322.31
285.826	335.31
286.057	353.31
286.288	322.31
286.52	343.31
286.751	329.31
286.982	354.31
287.213	347.31
287.444	348.31
287.675	356.31
287.906	340.31
288.138	348.31
288.369	356.31
288.6	360.31
288.831	354.31
289.062	323.31
289.293	342.31
289.524	352.31
289.755	324.31
289.986	347.31
290.217	341.31
290.448	343.31
290.679	348.31
290.91	356.31
291.141	334.31
291.371	355.31
291.602	354.31
291.833	341.31
292.064	342.31
292.295	359.31
292.526	333.31
292.757	355.31
292.987	366.31
293.218	352.31
293.449	368.31
293.68	363.31
293.91	338.31
294.141	365.31
294.372	340.31
294.603	361.31
294.833	346.31
295.064	349.31
295.295	354.31
295.525	369.31
295.756	368.31
295.987	364.31
296.217	371.31
296.448	374.31
296.679	359.31
296.909	363.31
297.14	354.31
297.37	386.31
297.601	350.31
297.831	370.31
298.062	385.31
298.292	389.31
298.523	388.31
298.753	378.31
298.984	388.31
299.214	373.31
299.445	386.31
299.675	400.31
299.905	379.31
300.136	386.31
300.366	386.31
300.597	392.31
300.827	395.31
301.057	395.31
301.288	397.31
301.518	376.31
301.748	394.31
301.979	435.31
302.209	394.31
302.439	388.31
302.669	385.31
302.9	399.31
303.13	403.31
303.36	415.31
303.59	412.31
303.82	426.31
304.051	413.31
304.281	397.31
304.511	406.31
304.741	416.31
304.971	411.31
305.201	402.31
305.431	418.31
305.661	391.31
305.891	406.31
306.121	419.31
306.352	414.31
306.582	399.31
306.812	404.31
307.042	388.31
307.272	405.31
307.502	406.31
307.731	398.31
307.961	398.31
308.191	419.31
308.421	402.31
308.651	416.31
308.881	394.31
309.111	407.31
309.341	390.31
309.571	425.31
309.8	417.31
310.03	410.31
310.26	412.31
310.49	416.31
310.72	428.31
310.949	425.31
311.179	423.31
311.409	428.31
311.639	430.31
311.868	439.31
312.098	414.31
312.328	447.31
312.557	445.31
312.787	466.31
313.017	456.31
313.246	425.31
313.476	433.31
313.706	444.31
313.935	455.31
314.165	449.31
314.394	466.31
314.624	455.31
314.853	445.31
315.083	447.31
315.312	456.31
315.542	448.31
315.771	437.31
316.001	438.31
316.23	451.31
316.46	441.31
316.689	441.31
316.919	441.31
317.148	449.31
317.377	433.31
317.607	463.31
317.836	442.31
318.065	441.31
318.295	438.31
318.524	443.31
318.753	447.31
318.983	426.31
319.212	432.31
319.441	445.31
319.67	444.31
319.9	448.31
320.129	443.31
320.358	460.31
320.587	469.31
320.816	434.31
321.046	460.31
321.275	449.31
321.504	436.31
321.733	466.31
321.962	459.31
322.191	480.31
322.42	469.31
322.649	466.31
322.878	489.31
323.108	482.31
323.337	513.31
323.566	484.31
323.795	498.31
324.024	521.31
324.253	584.31
324.482	762.31
324.71	1078.31
324.939	1494.31
325.168	1330.31
325.397	764.31
325.626	566.31
325.855	548.31
326.084	534.31
326.313	504.31
326.542	532.31
326.77	541.31
326.999	603.31
327.228	718.31
327.457	992.31
327.686	1212.31
327.914	852.31
328.143	638.31
328.372	576.31
328.6	564.31
328.829	556.31
329.058	526.31
329.287	566.31
329.515	536.31
329.744	544.31
329.972	529.31
330.201	534.31
330.43	569.31
330.658	589.31
330.887	603.31
331.115	587.31
331.344	557.31
331.572	547.31
331.801	551.31
332.03	546.31
332.258	573.31
332.486	548.31
332.715	536.31
332.943	560.31
333.172	580.31
333.4	577.31
333.629	576.31
333.857	608.31
334.085	621.31
334.314	618.31
334.542	630.31
334.771	642.31
334.999	628.31
335.227	589.31
335.455	599.31
335.684	562.31
335.912	573.31
336.14	581.31
336.369	562.31
336.597	562.31
336.825	559.31
337.053	533.31
337.281	539.31
337.51	534.31
337.738	556.31
337.966	519.31
338.194	530.31
338.422	544.31
338.65	526.31
338.878	538.31
339.106	504.31
339.334	520.31
339.562	519.31
339.79	505.31
340.018	520.31
340.246	504.31
340.474	520.31
340.702	503.31
340.93	510.31
341.158	505.31
341.386	506.31
341.614	517.31
341.842	552.31
342.07	518.31
342.298	506.31
342.526	500.31
342.754	498.31
342.981	521.31
343.209	514.31
343.437	537.31
343.665	539.31
343.893	568.31
344.12	588.31
344.348	565.31
344.576	536.31
344.804	537.31
345.031	544.31
345.259	535.31
345.487	504.31
345.714	485.31
345.942	505.31
346.17	514.31
346.397	491.31
346.625	496.31
346.853	509.31
347.08	480.31
347.308	496.31
347.535	483.31
347.763	489.31
347.99	501.31
348.218	504.31
348.445	519.31
348.673	499.31
348.9	468.31
349.128	474.31
349.355	476.31
349.583	492.31
349.81	481.31
350.037	471.31
350.265	501.31
350.492	486.31
350.72	462.31
350.947	484.31
351.174	498.31
351.402	509.31
351.629	476.31
351.856	499.31
352.083	499.31
352.311	505.31
352.538	460.31
352.765	474.31
352.992	467.31
353.22	482.31
353.447	493.31
353.674	491.31
353.901	473.31
354.128	458.31
354.355	453.31
354.583	460.31
354.81	478.31
355.037	470.31
355.264	473.31
355.491	457.31
355.718	482.31
355.945	468.31
356.172	481.31
356.399	464.31
356.626	468.31
356.853	474.31
357.08	456.31
357.307	477.31
357.534	466.31
357.761	494.31
357.988	462.31
358.215	471.31
358.441	458.31
358.668	473.31
358.895	472.31
359.122	468.31
359.349	464.31
359.576	497.31
359.802	489.31
360.029	503.31
360.256	505.31
360.483	502.31
360.709	488.31
360.936	506.31
361.163	488.31
361.39	490.31
361.616	491.31
361.843	490.31
362.07	458.31
362.296	497.31
362.523	496.31
362.749	467.31
362.976	478.31
363.203	487.31
363.429	470.31
363.656	467.31
363.882	488.31
364.109	480.31
364.335	489.31
364.562	474.31
364.788	479.31
365.015	488.31
365.241	493.31
365.468	483.31
365.694	496.31
365.92	512.31
366.147	503.31
366.373	484.31
366.599	486.31
366.826	488.31
367.052	454.31
367.278	491.31
367.505	499.31
367.731	506.31
367.957	485.31
368.184	465.31
368.41	476.31
368.636	498.31
368.862	491.31
369.089	485.31
369.315	485.31
369.541	511.31
369.767	518.31
369.993	504.31
370.219	468.31
370.445	493.31
370.672	487.31
370.898	499.31
371.124	499.31
371.35	501.31
371.576	515.31
371.802	472.31
372.028	502.31
372.254	480.31
372.48	502.31
372.706	516.31
372.932	520.31
373.158	494.31
373.384	529.31
373.61	514.31
373.835	517.31
374.061	503.31
374.287	498.31
374.513	505.31
374.739	540.31
374.965	548.31
375.191	536.31
375.416	547.31
375.642	525.31
375.868	515.31
376.094	511.31
376.319	518.31
376.545	522.31
376.771	523.31
376.997	489.31
377.222	493.31
377.448	477.31
377.674	505.31
377.899	500.31
378.125	493.31
378.35	512.31
378.576	491.31
378.802	486.31
379.027	493.31
379.253	518.31
379.478	488.31
379.704	508.31
379.929	488.31
380.155	477.31
380.38	491.31
380.606	522.31
380.831	514.31
381.057	520.31
381.282	512.31
381.507	500.31
381.733	516.31
381.958	511.31
382.184	534.31
382.409	517.31
382.634	531.31
382.86	530.31
383.085	531.31
383.31	518.31
383.535	550.31
383.761	535.31
383.986	532.31
384.211	564.31
384.436	547.31
384.662	538.31
384.887	589.31
385.112	568.31
385.337	558.31
385.562	594.31
385.787	598.31
386.013	615.31
386.238	597.31
386.463	598.31
386.688	576.31
386.913	612.31
387.138	584.31
387.363	583.31
387.588	561.31
387.813	580.31
388.038	576.31
388.263	581.31
388.488	585.31
388.713	567.31
388.938	570.31
389.163	579.31
389.387	575.31
389.612	575.31
389.837	554.31
390.062	560.31
390.287	592.31
390.512	565.31
390.736	579.31
390.961	583.31
391.186	570.31
391.411	581.31
391.636	604.31
391.86	637.31
392.085	633.31
392.31	625.31
392.534	635.31
392.759	619.31
392.984	596.31
393.208	619.31
393.433	609.31
393.658	585.31
393.882	606.31
394.107	616.31
394.331	586.31
394.556	599.31
394.78	596.31
395.005	602.31
395.229	609.31
395.454	601.31
395.678	618.31
395.903	647.31
396.127	653.31
396.352	649.31
396.576	626.31
396.801	609.31
397.025	638.31
397.249	636.31
397.474	630.31
397.698	625.31
397.922	636.31
398.147	650.31
398.371	679.31
398.595	666.31
398.82	706.31
399.044	746.31
399.268	760.31
399.492	826.31
399.717	947.31
399.941	960.31
400.165	908.31
400.389	849.31
400.613	793.31
400.837	723.31
401.062	725.31
401.286	688.31
401.51	707.31
401.734	721.31
401.958	679.31
402.182	693.31
402.406	716.31
402.63	710.31
402.854	709.31
403.078	728.31
403.302	749.31
403.526	772.31
403.75	788.31
403.974	770.31
404.198	752.31
404.422	761.31
404.645	756.31
404.869	759.31
405.093	768.31
405.317	795.31
405.541	840.31
405.765	776.31
405.988	780.31
406.212	785.31
406.436	774.31
406.66	772.31
406.883	775.31
407.107	819.31
407.331	865.31
407.555	911.31
407.778	930.31
408.002	872.31
408.226	821.31
408.449	795.31
408.673	807.31
408.896	790.31
409.12	824.31
409.344	790.31
409.567	774.31
409.791	736.31
410.014	768.31
410.238	740.31
410.461	748.31
410.685	736.31
410.908	735.31
411.132	745.31
411.355	757.31
411.578	765.31
411.802	728.31
412.025	711.31
412.249	733.31
412.472	749.31
412.695	776.31
412.919	766.31
413.142	725.31
413.365	711.31
413.589	692.31
413.812	712.31
414.035	693.31
414.258	696.31
414.482	702.31
414.705	708.31
414.928	682.31
415.151	701.31
415.374	708.31
415.597	671.31
415.821	674.31
416.044	678.31
416.267	681.31
416.49	680.31
416.713	664.31
416.936	669.31
417.159	688.31
417.382	684.31
417.605	691.31
417.828	702.31
418.051	689.31
418.274	678.31
418.497	675.31
418.72	701.31
418.943	690.31
419.166	770.31
419.389	767.31
419.611	756.31
419.834	740.31
420.057	705.31
420.28	713.31
420.503	723.31
420.726	727.31
420.948	701.31
421.171	722.31
421.394	737.31
421.617	700.31
421.839	694.31
422.062	697.31
422.285	714.31
422.507	732.31
422.73	808.31
422.953	791.31
423.175	744.31
423.398	709.31
423.621	718.31
423.843	771.31
424.066	738.31
424.288	758.31
424.511	742.31
424.733	776.31
424.956	812.31
425.178	820.31
425.401	805.31
425.623	806.31
425.846	739.31
426.068	718.31
426.291	690.31
426.513	691.31
426.735	691.31
426.958	720.31
427.18	776.31
427.402	871.31
427.625	935.31
427.847	828.31
428.069	769.31
428.292	708.31
428.514	690.31
428.736	675.31
428.958	652.31
429.181	632.31
429.403	653.31
429.625	626.31
429.847	663.31
430.069	721.31
430.292	693.31
430.514	643.31
430.736	647.31
430.958	645.31
431.18	638.31
431.402	612.31
431.624	628.31
431.846	610.31
432.068	625.31
432.29	645.31
432.512	634.31
432.734	634.31
432.956	636.31
433.178	654.31
433.4	649.31
433.622	624.31
433.844	647.31
434.066	626.31
434.287	625.31
434.509	652.31
434.731	655.31
434.953	706.31
435.175	704.31
435.397	704.31
435.618	686.31
435.84	703.31
436.062	762.31
436.284	827.31
436.505	726.31
436.727	684.31
436.949	662.31
437.17	652.31
437.392	642.31
437.614	636.31
437.835	654.31
438.057	733.31
438.278	804.31
438.5	800.31
438.721	851.31
438.943	812.31
439.165	690.31
439.386	648.31
439.608	681.31
439.829	657.31
440.05	669.31
440.272	723.31
440.493	692.31
440.715	692.31
440.936	652.31
441.158	672.31
441.379	676.31
441.6	698.31
441.822	721.31
442.043	748.31
442.264	808.31
442.486	809.31
442.707	746.31
442.928	720.31
443.149	723.31
443.371	742.31
443.592	768.31
443.813	834.31
444.034	875.31
444.255	786.31
444.476	755.31
444.698	774.31
444.919	792.31
445.14	902.31
445.361	819.31
445.582	752.31
445.803	768.31
446.024	822.31
446.245	843.31
446.466	778.31
446.687	693.31
446.908	682.31
447.129	644.31
447.35	611.31
447.571	622.31
447.792	595.31
448.013	604.31
448.234	631.31
448.455	638.31
448.675	737.31
448.896	814.31
449.117	738.31
449.338	701.31
449.559	768.31
449.779	842.31
450	727.31
450.221	653.31
450.442	628.31
450.662	600.31
450.883	600.31
451.104	632.31
451.324	611.31
451.545	614.31
451.766	600.31
451.986	594.31
452.207	585.31
452.428	584.31
452.648	556.31
452.869	579.31
453.089	565.31
453.31	580.31
453.53	593.31
453.751	576.31
453.971	569.31
454.192	612.31
454.412	566.31
454.633	551.31
454.853	567.31
455.073	562.31
455.294	576.31
455.514	625.31
455.734	625.31
455.955	574.31
456.175	566.31
456.395	564.31
456.616	547.31
456.836	542.31
457.056	542.31
457.276	545.31
457.497	548.31
457.717	566.31
457.937	582.31
458.157	570.31
458.377	573.31
458.598	597.31
458.818	610.31
459.038	682.31
459.258	693.31
459.478	654.31
459.698	667.31
459.918	643.31
460.138	672.31
460.358	668.31
460.578	711.31
460.798	702.31
461.018	719.31
461.238	700.31
461.458	694.31
461.678	657.31
461.898	710.31
462.118	705.31
462.338	733.31
462.558	736.31
462.777	760.31
462.997	806.31
463.217	849.31
463.437	838.31
463.657	783.31
463.876	787.31
464.096	778.31
464.316	805.31
464.536	792.31
464.755	773.31
464.975	778.31
465.195	748.31
465.414	764.31
465.634	690.31
465.854	660.31
466.073	640.31
466.293	643.31
466.512	633.31
466.732	616.31
466.951	598.31
467.171	605.31
467.391	621.31
467.61	603.31
467.829	630.31
468.049	616.31
468.268	603.31
468.488	590.31
468.707	597.31
468.927	601.31
469.146	586.31
469.365	588.31
469.585	606.31
469.804	614.31
470.023	635.31
470.243	632.31
470.462	633.31
470.681	619.31
470.901	630.31
471.12	643.31
471.339	606.31
471.558	609.31
471.777	631.31
471.997	591.31
472.216	602.31
472.435	644.31
472.654	607.31
472.873	594.31
473.092	618.31
473.311	597.31
473.53	613.31
473.749	603.31
473.968	638.31
474.187	698.31
474.406	706.31
474.625	617.31
474.844	615.31
475.063	588.31
475.282	602.31
475.501	603.31
475.72	610.31
475.939	621.31
476.158	607.31
476.377	611.31
476.596	616.31
476.814	621.31
477.033	630.31
477.252	629.31
477.471	647.31
477.69	674.31
477.908	685.31
478.127	692.31
478.346	693.31
478.564	700.31
478.783	728.31
479.002	737.31
479.22	742.31
479.439	736.31
479.658	733.31
479.876	744.31
480.095	760.31
480.313	799.31
480.532	782.31
480.751	790.31
480.969	786.31
481.188	784.31
481.406	817.31
481.624	760.31
481.843	717.31
482.061	708.31
482.28	724.31
482.498	711.31
482.717	706.31
482.935	696.31
483.153	687.31
483.372	711.31
483.59	700.31
483.808	701.31
484.027	710.31
484.245	719.31
484.463	712.31
484.681	724.31
484.9	752.31
485.118	732.31
485.336	700.31
485.554	734.31
485.772	738.31
485.99	726.31
486.209	734.31
486.427	750.31
486.645	770.31
486.863	754.31
487.081	755.31
487.299	752.31
487.517	746.31
487.735	750.31
487.953	741.31
488.171	745.31
488.389	732.31
488.607	731.31
488.825	754.31
489.043	737.31
489.261	772.31
489.479	760.31
489.696	762.31
489.914	760.31
490.132	762.31
490.35	749.31
490.568	786.31
490.786	752.31
491.003	800.31
491.221	790.31
491.439	806.31
491.657	802.31
491.874	836.31
492.092	837.31
492.31	834.31
492.527	820.31
492.745	836.31
492.963	821.31
493.18	854.31
493.398	843.31
493.615	835.31
493.833	854.31
494.05	864.31
494.268	864.31
494.485	872.31
494.703	861.31
494.92	848.31
495.138	853.31
495.355	856.31
495.573	857.31
495.79	859.31
496.008	856.31
496.225	885.31
496.442	882.31
496.66	858.31
496.877	872.31
497.094	882.31
497.312	898.31
497.529	910.31
497.746	958.31
497.963	965.31
498.181	967.31
498.398	993.31
498.615	1045.31
498.832	1074.31
499.049	1146.31
499.267	1187.31
499.484	1276.31
499.701	1386.31
499.918	1445.31
500.135	1598.31
500.352	1721.31
500.569	1787.31
500.786	1754.31
501.003	1668.31
501.22	1618.31
501.437	1458.31
501.654	1374.31
