Data from 1963.PennyLincolnUp.Lamp.En5.5.200Scan.071719.P1._HRD10591_13-59-34-064.txt Node
Date: Thu Jul 18 13:59:34 EDT 2019
User: cochatt
Spectrometer: HR+D1059
Trigger mode: 1
Integration Time (sec): 1.000000E-1
Scans to average: 1
Electric dark correction enabled: true
Nonlinearity correction enabled: false
Boxcar width: 0
XAxis mode: Wavelengths
Number of Pixels in Spectrum: 2048
>>>>>Begin Spectral Data<<<<<
223.165	-13.75
223.4	-13.75
223.635	-13.75
223.869	-16.75
224.104	-16.75
224.338	0.25
224.573	-12.75
224.808	-20.75
225.042	-16.75
225.277	5.25
225.511	-10.75
225.746	-2.75
225.98	11.25
226.215	14.25
226.449	9.25
226.683	17.25
226.918	29.25
227.152	24.25
227.387	19.25
227.621	33.25
227.856	38.25
228.09	26.25
228.324	42.25
228.559	59.25
228.793	68.25
229.027	102.25
229.262	104.25
229.496	110.25
229.73	119.25
229.964	130.25
230.199	124.25
230.433	114.25
230.667	111.25
230.901	114.25
231.136	116.25
231.37	123.25
231.604	109.25
231.838	122.25
232.072	90.25
232.306	115.25
232.541	113.25
232.775	112.25
233.009	107.25
233.243	112.25
233.477	109.25
233.711	125.25
233.945	123.25
234.179	127.25
234.413	124.25
234.647	119.25
234.881	141.25
235.115	146.25
235.349	125.25
235.583	119.25
235.817	113.25
236.051	133.25
236.285	127.25
236.519	136.25
236.753	135.25
236.987	122.25
237.221	160.25
237.455	213.25
237.689	162.25
237.922	138.25
238.156	136.25
238.39	125.25
238.624	128.25
238.858	123.25
239.091	129.25
239.325	143.25
239.559	124.25
239.793	125.25
240.027	162.25
240.26	153.25
240.494	152.25
240.728	170.25
240.961	161.25
241.195	163.25
241.429	139.25
241.662	138.25
241.896	155.25
242.13	150.25
242.363	143.25
242.597	153.25
242.83	161.25
243.064	149.25
243.298	136.25
243.531	148.25
243.765	160.25
243.998	146.25
244.232	159.25
244.465	166.25
244.699	184.25
244.932	157.25
245.166	169.25
245.399	158.25
245.633	172.25
245.866	159.25
246.099	169.25
246.333	181.25
246.566	163.25
246.8	159.25
247.033	179.25
247.266	187.25
247.5	180.25
247.733	179.25
247.966	179.25
248.2	187.25
248.433	171.25
248.666	176.25
248.899	185.25
249.133	207.25
249.366	212.25
249.599	211.25
249.832	203.25
250.066	211.25
250.299	191.25
250.532	200.25
250.765	219.25
250.998	234.25
251.231	219.25
251.465	212.25
251.698	211.25
251.931	218.25
252.164	212.25
252.397	207.25
252.63	221.25
252.863	230.25
253.096	226.25
253.329	225.25
253.562	243.25
253.795	219.25
254.028	208.25
254.261	220.25
254.494	234.25
254.727	262.25
254.96	282.25
255.193	266.25
255.426	259.25
255.659	240.25
255.892	255.25
256.124	257.25
256.357	255.25
256.59	241.25
256.823	234.25
257.056	215.25
257.289	205.25
257.521	231.25
257.754	247.25
257.987	227.25
258.22	233.25
258.452	220.25
258.685	217.25
258.918	221.25
259.151	226.25
259.383	234.25
259.616	240.25
259.849	247.25
260.081	239.25
260.314	261.25
260.547	270.25
260.779	261.25
261.012	262.25
261.244	241.25
261.477	248.25
261.71	265.25
261.942	235.25
262.175	263.25
262.407	239.25
262.64	224.25
262.872	238.25
263.105	226.25
263.337	241.25
263.57	257.25
263.802	233.25
264.035	244.25
264.267	225.25
264.499	227.25
264.732	234.25
264.964	234.25
265.197	240.25
265.429	243.25
265.661	251.25
265.894	251.25
266.126	245.25
266.358	253.25
266.591	255.25
266.823	261.25
267.055	260.25
267.287	248.25
267.52	241.25
267.752	260.25
267.984	239.25
268.216	257.25
268.448	267.25
268.681	261.25
268.913	261.25
269.145	288.25
269.377	296.25
269.609	282.25
269.841	287.25
270.073	287.25
270.306	313.25
270.538	340.25
270.77	328.25
271.002	320.25
271.234	314.25
271.466	321.25
271.698	314.25
271.93	342.25
272.162	329.25
272.394	319.25
272.626	326.25
272.858	321.25
273.09	310.25
273.322	300.25
273.553	291.25
273.785	299.25
274.017	298.25
274.249	299.25
274.481	288.25
274.713	283.25
274.945	275.25
275.176	303.25
275.408	295.25
275.64	293.25
275.872	304.25
276.104	297.25
276.335	289.25
276.567	313.25
276.799	312.25
277.031	320.25
277.262	341.25
277.494	331.25
277.726	309.25
277.957	322.25
278.189	308.25
278.421	305.25
278.652	312.25
278.884	314.25
279.115	311.25
279.347	309.25
279.579	310.25
279.81	304.25
280.042	316.25
280.273	304.25
280.505	292.25
280.736	307.25
280.968	322.25
281.199	335.25
281.431	324.25
281.662	308.25
281.894	308.25
282.125	338.25
282.356	341.25
282.588	349.25
282.819	333.25
283.051	335.25
283.282	342.25
283.513	347.25
283.745	336.25
283.976	338.25
284.207	338.25
284.439	330.25
284.67	335.25
284.901	346.25
285.132	339.25
285.364	320.25
285.595	331.25
285.826	342.25
286.057	330.25
286.288	331.25
286.52	323.25
286.751	332.25
286.982	347.25
287.213	342.25
287.444	365.25
287.675	347.25
287.906	356.25
288.138	364.25
288.369	369.25
288.6	348.25
288.831	337.25
289.062	367.25
289.293	375.25
289.524	354.25
289.755	348.25
289.986	348.25
290.217	357.25
290.448	340.25
290.679	356.25
290.91	356.25
291.141	342.25
291.371	362.25
291.602	357.25
291.833	361.25
292.064	369.25
292.295	364.25
292.526	352.25
292.757	371.25
292.987	375.25
293.218	348.25
293.449	372.25
293.68	354.25
293.91	349.25
294.141	370.25
294.372	370.25
294.603	355.25
294.833	363.25
295.064	376.25
295.295	355.25
295.525	348.25
295.756	377.25
295.987	361.25
296.217	396.25
296.448	391.25
296.679	384.25
296.909	370.25
297.14	373.25
297.37	377.25
297.601	394.25
297.831	361.25
298.062	387.25
298.292	388.25
298.523	377.25
298.753	400.25
298.984	377.25
299.214	391.25
299.445	408.25
299.675	386.25
299.905	373.25
300.136	386.25
300.366	373.25
300.597	385.25
300.827	402.25
301.057	399.25
301.288	404.25
301.518	403.25
301.748	409.25
301.979	422.25
302.209	400.25
302.439	407.25
302.669	417.25
302.9	387.25
303.13	404.25
303.36	408.25
303.59	398.25
303.82	402.25
304.051	413.25
304.281	413.25
304.511	405.25
304.741	392.25
304.971	389.25
305.201	401.25
305.431	426.25
305.661	401.25
305.891	404.25
306.121	396.25
306.352	418.25
306.582	397.25
306.812	390.25
307.042	402.25
307.272	404.25
307.502	416.25
307.731	412.25
307.961	412.25
308.191	411.25
308.421	410.25
308.651	402.25
308.881	408.25
309.111	408.25
309.341	400.25
309.571	419.25
309.8	433.25
310.03	421.25
310.26	421.25
310.49	429.25
310.72	436.25
310.949	448.25
311.179	442.25
311.409	464.25
311.639	448.25
311.868	444.25
312.098	431.25
312.328	446.25
312.557	464.25
312.787	474.25
313.017	468.25
313.246	453.25
313.476	444.25
313.706	436.25
313.935	451.25
314.165	463.25
314.394	488.25
314.624	473.25
314.853	433.25
315.083	455.25
315.312	438.25
315.542	448.25
315.771	447.25
316.001	445.25
316.23	458.25
316.46	451.25
316.689	446.25
316.919	441.25
317.148	458.25
317.377	461.25
317.607	467.25
317.836	455.25
318.065	448.25
318.295	467.25
318.524	453.25
318.753	458.25
318.983	452.25
319.212	441.25
319.441	457.25
319.67	449.25
319.9	421.25
320.129	457.25
320.358	445.25
320.587	468.25
320.816	459.25
321.046	471.25
321.275	482.25
321.504	469.25
321.733	486.25
321.962	462.25
322.191	507.25
322.42	467.25
322.649	488.25
322.878	484.25
323.108	473.25
323.337	486.25
323.566	503.25
323.795	530.25
324.024	586.25
324.253	632.25
324.482	815.25
324.71	1181.25
324.939	1691.25
325.168	1502.25
325.397	823.25
325.626	628.25
325.855	547.25
326.084	537.25
326.313	537.25
326.542	540.25
326.77	577.25
326.999	629.25
327.228	801.25
327.457	1085.25
327.686	1292.25
327.914	925.25
328.143	684.25
328.372	619.25
328.6	580.25
328.829	580.25
329.058	573.25
329.287	600.25
329.515	561.25
329.744	538.25
329.972	526.25
330.201	578.25
330.43	588.25
330.658	607.25
330.887	618.25
331.115	616.25
331.344	598.25
331.572	561.25
331.801	592.25
332.03	589.25
332.258	557.25
332.486	554.25
332.715	595.25
332.943	576.25
333.172	595.25
333.4	610.25
333.629	637.25
333.857	615.25
334.085	626.25
334.314	641.25
334.542	666.25
334.771	663.25
334.999	639.25
335.227	605.25
335.455	596.25
335.684	589.25
335.912	582.25
336.14	579.25
336.369	581.25
336.597	575.25
336.825	555.25
337.053	572.25
337.281	568.25
337.51	560.25
337.738	542.25
337.966	528.25
338.194	564.25
338.422	566.25
338.65	547.25
338.878	556.25
339.106	532.25
339.334	566.25
339.562	529.25
339.79	521.25
340.018	504.25
340.246	533.25
340.474	519.25
340.702	523.25
340.93	521.25
341.158	517.25
341.386	535.25
341.614	535.25
341.842	524.25
342.07	518.25
342.298	512.25
342.526	538.25
342.754	533.25
342.981	481.25
343.209	522.25
343.437	543.25
343.665	551.25
343.893	584.25
344.12	591.25
344.348	593.25
344.576	565.25
344.804	550.25
345.031	555.25
345.259	517.25
345.487	543.25
345.714	544.25
345.942	502.25
346.17	522.25
346.397	513.25
346.625	496.25
346.853	504.25
347.08	477.25
347.308	491.25
347.535	524.25
347.763	513.25
347.99	517.25
348.218	501.25
348.445	522.25
348.673	489.25
348.9	502.25
349.128	516.25
349.355	483.25
349.583	476.25
349.81	472.25
350.037	490.25
350.265	482.25
350.492	498.25
350.72	491.25
350.947	498.25
351.174	488.25
351.402	509.25
351.629	520.25
351.856	513.25
352.083	501.25
352.311	514.25
352.538	487.25
352.765	498.25
352.992	501.25
353.22	471.25
353.447	504.25
353.674	484.25
353.901	497.25
354.128	485.25
354.355	467.25
354.583	486.25
354.81	478.25
355.037	472.25
355.264	489.25
355.491	478.25
355.718	463.25
355.945	482.25
356.172	480.25
356.399	481.25
356.626	456.25
356.853	472.25
357.08	448.25
357.307	445.25
357.534	482.25
357.761	496.25
357.988	490.25
358.215	491.25
358.441	492.25
358.668	484.25
358.895	514.25
359.122	505.25
359.349	466.25
359.576	495.25
359.802	528.25
360.029	525.25
360.256	521.25
360.483	501.25
360.709	483.25
360.936	515.25
361.163	488.25
361.39	484.25
361.616	509.25
361.843	481.25
362.07	487.25
362.296	499.25
362.523	508.25
362.749	496.25
362.976	483.25
363.203	482.25
363.429	499.25
363.656	499.25
363.882	485.25
364.109	474.25
364.335	470.25
364.562	509.25
364.788	489.25
365.015	500.25
365.241	486.25
365.468	485.25
365.694	495.25
365.92	493.25
366.147	480.25
366.373	474.25
366.599	506.25
366.826	479.25
367.052	475.25
367.278	500.25
367.505	514.25
367.731	489.25
367.957	479.25
368.184	508.25
368.41	491.25
368.636	481.25
368.862	516.25
369.089	491.25
369.315	492.25
369.541	497.25
369.767	503.25
369.993	491.25
370.219	509.25
370.445	526.25
370.672	511.25
370.898	505.25
371.124	513.25
371.35	528.25
371.576	487.25
371.802	482.25
372.028	495.25
372.254	509.25
372.48	518.25
372.706	523.25
372.932	514.25
373.158	500.25
373.384	533.25
373.61	522.25
373.835	536.25
374.061	505.25
374.287	492.25
374.513	537.25
374.739	532.25
374.965	549.25
375.191	532.25
375.416	526.25
375.642	539.25
375.868	517.25
376.094	521.25
376.319	519.25
376.545	513.25
376.771	514.25
376.997	484.25
377.222	523.25
377.448	513.25
377.674	497.25
377.899	515.25
378.125	518.25
378.35	498.25
378.576	514.25
378.802	512.25
379.027	504.25
379.253	517.25
379.478	508.25
379.704	511.25
379.929	517.25
380.155	512.25
380.38	512.25
380.606	519.25
380.831	521.25
381.057	525.25
381.282	502.25
381.507	499.25
381.733	526.25
381.958	504.25
382.184	514.25
382.409	519.25
382.634	525.25
382.86	520.25
383.085	554.25
383.31	522.25
383.535	542.25
383.761	549.25
383.986	546.25
384.211	587.25
384.436	570.25
384.662	578.25
384.887	604.25
385.112	573.25
385.337	579.25
385.562	596.25
385.787	573.25
386.013	596.25
386.238	581.25
386.463	597.25
386.688	596.25
386.913	600.25
387.138	576.25
387.363	594.25
387.588	583.25
387.813	572.25
388.038	581.25
388.263	586.25
388.488	592.25
388.713	585.25
388.938	559.25
389.163	566.25
389.387	609.25
389.612	592.25
389.837	577.25
390.062	579.25
390.287	595.25
390.512	583.25
390.736	591.25
390.961	607.25
391.186	588.25
391.411	609.25
391.636	632.25
391.86	632.25
392.085	635.25
392.31	632.25
392.534	620.25
392.759	615.25
392.984	627.25
393.208	612.25
393.433	634.25
393.658	609.25
393.882	615.25
394.107	625.25
394.331	616.25
394.556	600.25
394.78	605.25
395.005	617.25
395.229	605.25
395.454	629.25
395.678	659.25
395.903	635.25
396.127	645.25
396.352	619.25
396.576	627.25
396.801	616.25
397.025	615.25
397.249	617.25
397.474	652.25
397.698	646.25
397.922	641.25
398.147	659.25
398.371	679.25
398.595	683.25
398.82	686.25
399.044	708.25
399.268	769.25
399.492	863.25
399.717	965.25
399.941	967.25
400.165	924.25
400.389	883.25
400.613	835.25
400.837	739.25
401.062	749.25
401.286	715.25
401.51	699.25
401.734	668.25
401.958	709.25
402.182	722.25
402.406	733.25
402.63	731.25
402.854	736.25
403.078	741.25
403.302	760.25
403.526	769.25
403.75	776.25
403.974	781.25
404.198	793.25
404.422	787.25
404.645	792.25
404.869	757.25
405.093	793.25
405.317	817.25
405.541	870.25
405.765	786.25
405.988	786.25
406.212	807.25
406.436	794.25
406.66	809.25
406.883	810.25
407.107	853.25
407.331	903.25
407.555	953.25
407.778	928.25
408.002	893.25
408.226	863.25
408.449	812.25
408.673	792.25
408.896	836.25
409.12	841.25
409.344	805.25
409.567	783.25
409.791	765.25
410.014	739.25
410.238	737.25
410.461	725.25
410.685	743.25
410.908	746.25
411.132	748.25
411.355	831.25
411.578	763.25
411.802	724.25
412.025	742.25
412.249	771.25
412.472	794.25
412.695	794.25
412.919	770.25
413.142	748.25
413.365	714.25
413.589	736.25
413.812	698.25
414.035	695.25
414.258	680.25
414.482	696.25
414.705	739.25
414.928	708.25
415.151	682.25
415.374	705.25
415.597	695.25
415.821	672.25
416.044	673.25
416.267	697.25
416.49	665.25
416.713	684.25
416.936	699.25
417.159	671.25
417.382	684.25
417.605	698.25
417.828	709.25
418.051	708.25
418.274	710.25
418.497	707.25
418.72	706.25
418.943	696.25
419.166	733.25
419.389	786.25
419.611	770.25
419.834	752.25
420.057	752.25
420.28	741.25
420.503	726.25
420.726	695.25
420.948	711.25
421.171	777.25
421.394	756.25
421.617	725.25
421.839	731.25
422.062	710.25
422.285	710.25
422.507	753.25
422.73	833.25
422.953	804.25
423.175	765.25
423.398	745.25
423.621	727.25
423.843	753.25
424.066	775.25
424.288	747.25
424.511	772.25
424.733	816.25
424.956	852.25
425.178	825.25
425.401	837.25
425.623	861.25
425.846	752.25
426.068	744.25
426.291	699.25
426.513	711.25
426.735	737.25
426.958	755.25
427.18	778.25
427.402	895.25
427.625	974.25
427.847	844.25
428.069	821.25
428.292	725.25
428.514	703.25
428.736	672.25
428.958	669.25
429.181	660.25
429.403	653.25
429.625	689.25
429.847	687.25
430.069	751.25
430.292	738.25
430.514	667.25
430.736	659.25
430.958	645.25
431.18	639.25
431.402	666.25
431.624	628.25
431.846	675.25
432.068	664.25
432.29	674.25
432.512	637.25
432.734	653.25
432.956	636.25
433.178	662.25
433.4	654.25
433.622	644.25
433.844	666.25
434.066	664.25
434.287	652.25
434.509	677.25
434.731	701.25
434.953	698.25
435.175	731.25
435.397	754.25
435.618	747.25
435.84	739.25
436.062	818.25
436.284	866.25
436.505	752.25
436.727	705.25
436.949	675.25
437.17	653.25
437.392	676.25
437.614	661.25
437.835	657.25
438.057	740.25
438.278	822.25
438.5	828.25
438.721	870.25
438.943	855.25
439.165	755.25
439.386	684.25
439.608	719.25
439.829	695.25
440.05	724.25
440.272	766.25
440.493	721.25
440.715	673.25
440.936	670.25
441.158	677.25
441.379	703.25
441.6	722.25
441.822	739.25
442.043	782.25
442.264	801.25
442.486	823.25
442.707	757.25
442.928	728.25
443.149	753.25
443.371	776.25
443.592	820.25
443.813	861.25
444.034	916.25
444.255	837.25
444.476	793.25
444.698	824.25
444.919	813.25
445.14	922.25
445.361	832.25
445.582	787.25
445.803	806.25
446.024	864.25
446.245	859.25
446.466	800.25
446.687	749.25
446.908	716.25
447.129	648.25
447.35	658.25
447.571	652.25
447.792	621.25
448.013	647.25
448.234	633.25
448.455	702.25
448.675	743.25
448.896	862.25
449.117	767.25
449.338	732.25
449.559	841.25
449.779	900.25
450	755.25
450.221	682.25
450.442	643.25
450.662	618.25
450.883	653.25
451.104	673.25
451.324	645.25
451.545	628.25
451.766	590.25
451.986	596.25
452.207	608.25
452.428	575.25
452.648	591.25
452.869	596.25
453.089	589.25
453.31	635.25
453.53	597.25
453.751	584.25
453.971	583.25
454.192	607.25
454.412	599.25
454.633	562.25
454.853	565.25
455.073	570.25
455.294	593.25
455.514	659.25
455.734	647.25
455.955	580.25
456.175	559.25
456.395	551.25
456.616	560.25
456.836	567.25
457.056	555.25
457.276	546.25
457.497	550.25
457.717	570.25
457.937	566.25
458.157	566.25
458.377	586.25
458.598	625.25
458.818	635.25
459.038	711.25
459.258	738.25
459.478	693.25
459.698	671.25
459.918	677.25
460.138	680.25
460.358	698.25
460.578	723.25
460.798	729.25
461.018	700.25
461.238	709.25
461.458	688.25
461.678	687.25
461.898	703.25
462.118	716.25
462.338	744.25
462.558	734.25
462.777	791.25
462.997	828.25
463.217	855.25
463.437	858.25
463.657	812.25
463.876	774.25
464.096	770.25
464.316	800.25
464.536	807.25
464.755	778.25
464.975	766.25
465.195	775.25
465.414	779.25
465.634	749.25
465.854	706.25
466.073	657.25
466.293	646.25
466.512	640.25
466.732	648.25
466.951	625.25
467.171	619.25
467.391	636.25
467.61	620.25
467.829	636.25
468.049	642.25
468.268	628.25
468.488	603.25
468.707	598.25
468.927	605.25
469.146	579.25
469.365	613.25
469.585	606.25
469.804	599.25
470.023	646.25
470.243	629.25
470.462	652.25
470.681	656.25
470.901	640.25
471.12	639.25
471.339	620.25
471.558	615.25
471.777	631.25
471.997	623.25
472.216	620.25
472.435	653.25
472.654	646.25
472.873	626.25
473.092	633.25
473.311	604.25
473.53	603.25
473.749	623.25
473.968	651.25
474.187	689.25
474.406	729.25
474.625	641.25
474.844	623.25
475.063	608.25
475.282	592.25
475.501	625.25
475.72	627.25
475.939	620.25
476.158	649.25
476.377	640.25
476.596	643.25
476.814	637.25
477.033	624.25
477.252	669.25
477.471	671.25
477.69	681.25
477.908	682.25
478.127	704.25
478.346	687.25
478.564	724.25
478.783	709.25
479.002	751.25
479.22	749.25
479.439	760.25
479.658	738.25
479.876	755.25
480.095	749.25
480.313	808.25
480.532	809.25
480.751	792.25
480.969	795.25
481.188	828.25
481.406	840.25
481.624	773.25
481.843	744.25
482.061	732.25
482.28	722.25
482.498	737.25
482.717	709.25
482.935	719.25
483.153	694.25
483.372	708.25
483.59	706.25
483.808	706.25
484.027	705.25
484.245	717.25
484.463	713.25
484.681	745.25
484.9	735.25
485.118	753.25
485.336	722.25
485.554	745.25
485.772	744.25
485.99	761.25
486.209	756.25
486.427	719.25
486.645	736.25
486.863	767.25
487.081	769.25
487.299	754.25
487.517	775.25
487.735	777.25
487.953	769.25
488.171	796.25
488.389	766.25
488.607	755.25
488.825	764.25
489.043	730.25
489.261	780.25
489.479	785.25
489.696	765.25
489.914	774.25
490.132	783.25
490.35	793.25
490.568	812.25
490.786	787.25
491.003	813.25
491.221	804.25
491.439	817.25
491.657	817.25
491.874	844.25
492.092	856.25
492.31	843.25
492.527	862.25
492.745	876.25
492.963	863.25
493.18	898.25
493.398	875.25
493.615	884.25
493.833	884.25
494.05	853.25
494.268	890.25
494.485	877.25
494.703	913.25
494.92	889.25
495.138	895.25
495.355	901.25
495.573	881.25
495.79	862.25
496.008	866.25
496.225	888.25
496.442	894.25
496.66	896.25
496.877	880.25
497.094	919.25
497.312	915.25
497.529	937.25
497.746	937.25
497.963	979.25
498.181	1015.25
498.398	1026.25
498.615	1102.25
498.832	1085.25
499.049	1171.25
499.267	1202.25
499.484	1287.25
499.701	1389.25
499.918	1472.25
500.135	1635.25
500.352	1749.25
500.569	1809.25
500.786	1792.25
501.003	1732.25
501.22	1652.25
501.437	1503.25
501.654	1395.25
