Data from 1963.PennyLincolnUp.Lamp.En5.5.200Scan.071719.P1._HRD10591_13-57-43-063.txt Node
Date: Thu Jul 18 13:57:43 EDT 2019
User: cochatt
Spectrometer: HR+D1059
Trigger mode: 1
Integration Time (sec): 1.000000E-1
Scans to average: 1
Electric dark correction enabled: true
Nonlinearity correction enabled: false
Boxcar width: 0
XAxis mode: Wavelengths
Number of Pixels in Spectrum: 2048
>>>>>Begin Spectral Data<<<<<
223.165	-21.38
223.4	-21.38
223.635	-21.38
223.869	-12.38
224.104	-4.38
224.338	-9.38
224.573	-4.38
224.808	0.62
225.042	-9.38
225.277	-18.38
225.511	2.62
225.746	-4.38
225.98	1.62
226.215	11.62
226.449	4.62
226.683	18.62
226.918	15.62
227.152	28.62
227.387	19.62
227.621	26.62
227.856	33.62
228.09	34.62
228.324	42.62
228.559	68.62
228.793	66.62
229.027	83.62
229.262	112.62
229.496	119.62
229.73	124.62
229.964	139.62
230.199	111.62
230.433	103.62
230.667	102.62
230.901	113.62
231.136	105.62
231.37	121.62
231.604	115.62
231.838	114.62
232.072	106.62
232.306	123.62
232.541	111.62
232.775	124.62
233.009	111.62
233.243	107.62
233.477	108.62
233.711	120.62
233.945	113.62
234.179	120.62
234.413	112.62
234.647	106.62
234.881	123.62
235.115	123.62
235.349	125.62
235.583	105.62
235.817	133.62
236.051	127.62
236.285	147.62
236.519	131.62
236.753	124.62
236.987	152.62
237.221	141.62
237.455	165.62
237.689	156.62
237.922	150.62
238.156	129.62
238.39	146.62
238.624	123.62
238.858	136.62
239.091	138.62
239.325	147.62
239.559	150.62
239.793	142.62
240.027	122.62
240.26	148.62
240.494	153.62
240.728	139.62
240.961	137.62
241.195	152.62
241.429	133.62
241.662	151.62
241.896	136.62
242.13	146.62
242.363	138.62
242.597	160.62
242.83	160.62
243.064	155.62
243.298	158.62
243.531	151.62
243.765	138.62
243.998	136.62
244.232	151.62
244.465	162.62
244.699	153.62
244.932	142.62
245.166	148.62
245.399	147.62
245.633	163.62
245.866	159.62
246.099	162.62
246.333	174.62
246.566	175.62
246.8	172.62
247.033	166.62
247.266	175.62
247.5	169.62
247.733	173.62
247.966	159.62
248.2	170.62
248.433	173.62
248.666	177.62
248.899	186.62
249.133	181.62
249.366	200.62
249.599	191.62
249.832	186.62
250.066	181.62
250.299	177.62
250.532	199.62
250.765	200.62
250.998	220.62
251.231	218.62
251.465	198.62
251.698	208.62
251.931	210.62
252.164	205.62
252.397	199.62
252.63	195.62
252.863	218.62
253.096	221.62
253.329	232.62
253.562	211.62
253.795	228.62
254.028	226.62
254.261	217.62
254.494	218.62
254.727	234.62
254.96	236.62
255.193	249.62
255.426	226.62
255.659	211.62
255.892	227.62
256.124	216.62
256.357	239.62
256.59	238.62
256.823	220.62
257.056	204.62
257.289	227.62
257.521	217.62
257.754	220.62
257.987	210.62
258.22	220.62
258.452	193.62
258.685	212.62
258.918	194.62
259.151	203.62
259.383	218.62
259.616	231.62
259.849	228.62
260.081	221.62
260.314	231.62
260.547	248.62
260.779	239.62
261.012	223.62
261.244	226.62
261.477	223.62
261.71	224.62
261.942	238.62
262.175	247.62
262.407	226.62
262.64	215.62
262.872	230.62
263.105	219.62
263.337	239.62
263.57	225.62
263.802	237.62
264.035	229.62
264.267	240.62
264.499	243.62
264.732	228.62
264.964	233.62
265.197	233.62
265.429	239.62
265.661	223.62
265.894	252.62
266.126	229.62
266.358	231.62
266.591	253.62
266.823	240.62
267.055	241.62
267.287	259.62
267.52	245.62
267.752	243.62
267.984	235.62
268.216	247.62
268.448	265.62
268.681	248.62
268.913	262.62
269.145	265.62
269.377	286.62
269.609	281.62
269.841	286.62
270.073	259.62
270.306	297.62
270.538	289.62
270.77	298.62
271.002	307.62
271.234	292.62
271.466	289.62
271.698	316.62
271.93	304.62
272.162	325.62
272.394	315.62
272.626	292.62
272.858	296.62
273.09	282.62
273.322	290.62
273.553	279.62
273.785	284.62
274.017	283.62
274.249	265.62
274.481	293.62
274.713	285.62
274.945	298.62
275.176	293.62
275.408	270.62
275.64	289.62
275.872	301.62
276.104	287.62
276.335	285.62
276.567	298.62
276.799	291.62
277.031	328.62
277.262	320.62
277.494	309.62
277.726	300.62
277.957	312.62
278.189	292.62
278.421	294.62
278.652	304.62
278.884	312.62
279.115	291.62
279.347	306.62
279.579	305.62
279.81	309.62
280.042	312.62
280.273	319.62
280.505	296.62
280.736	312.62
280.968	289.62
281.199	313.62
281.431	316.62
281.662	316.62
281.894	317.62
282.125	306.62
282.356	313.62
282.588	323.62
282.819	332.62
283.051	315.62
283.282	322.62
283.513	308.62
283.745	317.62
283.976	328.62
284.207	313.62
284.439	325.62
284.67	304.62
284.901	333.62
285.132	331.62
285.364	285.62
285.595	318.62
285.826	339.62
286.057	327.62
286.288	333.62
286.52	334.62
286.751	311.62
286.982	331.62
287.213	335.62
287.444	330.62
287.675	340.62
287.906	335.62
288.138	347.62
288.369	355.62
288.6	350.62
288.831	355.62
289.062	350.62
289.293	354.62
289.524	361.62
289.755	352.62
289.986	327.62
290.217	340.62
290.448	353.62
290.679	346.62
290.91	352.62
291.141	335.62
291.371	345.62
291.602	342.62
291.833	348.62
292.064	362.62
292.295	360.62
292.526	335.62
292.757	345.62
292.987	329.62
293.218	347.62
293.449	356.62
293.68	370.62
293.91	359.62
294.141	344.62
294.372	345.62
294.603	335.62
294.833	359.62
295.064	362.62
295.295	344.62
295.525	345.62
295.756	358.62
295.987	352.62
296.217	368.62
296.448	369.62
296.679	361.62
296.909	351.62
297.14	362.62
297.37	362.62
297.601	372.62
297.831	363.62
298.062	373.62
298.292	377.62
298.523	375.62
298.753	353.62
298.984	375.62
299.214	359.62
299.445	349.62
299.675	375.62
299.905	365.62
300.136	376.62
300.366	376.62
300.597	380.62
300.827	392.62
301.057	369.62
301.288	395.62
301.518	375.62
301.748	409.62
301.979	400.62
302.209	378.62
302.439	387.62
302.669	390.62
302.9	387.62
303.13	401.62
303.36	379.62
303.59	384.62
303.82	411.62
304.051	404.62
304.281	401.62
304.511	389.62
304.741	382.62
304.971	376.62
305.201	389.62
305.431	398.62
305.661	405.62
305.891	389.62
306.121	389.62
306.352	379.62
306.582	407.62
306.812	383.62
307.042	384.62
307.272	388.62
307.502	420.62
307.731	388.62
307.961	396.62
308.191	395.62
308.421	404.62
308.651	401.62
308.881	372.62
309.111	381.62
309.341	389.62
309.571	421.62
309.8	409.62
310.03	395.62
310.26	416.62
310.49	408.62
310.72	415.62
310.949	416.62
311.179	429.62
311.409	409.62
311.639	450.62
311.868	427.62
312.098	428.62
312.328	435.62
312.557	424.62
312.787	431.62
313.017	442.62
313.246	434.62
313.476	410.62
313.706	433.62
313.935	452.62
314.165	446.62
314.394	429.62
314.624	444.62
314.853	434.62
315.083	439.62
315.312	452.62
315.542	442.62
315.771	415.62
316.001	424.62
316.23	445.62
316.46	426.62
316.689	425.62
316.919	422.62
317.148	441.62
317.377	425.62
317.607	450.62
317.836	421.62
318.065	417.62
318.295	428.62
318.524	424.62
318.753	440.62
318.983	445.62
319.212	428.62
319.441	434.62
319.67	437.62
319.9	442.62
320.129	424.62
320.358	446.62
320.587	437.62
320.816	431.62
321.046	441.62
321.275	451.62
321.504	441.62
321.733	438.62
321.962	471.62
322.191	462.62
322.42	461.62
322.649	452.62
322.878	468.62
323.108	461.62
323.337	488.62
323.566	483.62
323.795	490.62
324.024	479.62
324.253	544.62
324.482	684.62
324.71	991.62
324.939	1338.62
325.168	1199.62
325.397	712.62
325.626	575.62
325.855	503.62
326.084	498.62
326.313	490.62
326.542	491.62
326.77	515.62
326.999	566.62
327.228	689.62
327.457	929.62
327.686	1103.62
327.914	789.62
328.143	600.62
328.372	565.62
328.6	557.62
328.829	536.62
329.058	543.62
329.287	557.62
329.515	554.62
329.744	515.62
329.972	530.62
330.201	544.62
330.43	551.62
330.658	528.62
330.887	568.62
331.115	588.62
331.344	545.62
331.572	524.62
331.801	539.62
332.03	525.62
332.258	529.62
332.486	541.62
332.715	550.62
332.943	541.62
333.172	559.62
333.4	582.62
333.629	582.62
333.857	602.62
334.085	610.62
334.314	613.62
334.542	626.62
334.771	621.62
334.999	602.62
335.227	602.62
335.455	580.62
335.684	529.62
335.912	547.62
336.14	546.62
336.369	562.62
336.597	553.62
336.825	553.62
337.053	541.62
337.281	548.62
337.51	519.62
337.738	525.62
337.966	525.62
338.194	523.62
338.422	519.62
338.65	512.62
338.878	535.62
339.106	513.62
339.334	510.62
339.562	505.62
339.79	506.62
340.018	517.62
340.246	507.62
340.474	492.62
340.702	504.62
340.93	485.62
341.158	499.62
341.386	509.62
341.614	528.62
341.842	493.62
342.07	490.62
342.298	493.62
342.526	492.62
342.754	493.62
342.981	492.62
343.209	499.62
343.437	515.62
343.665	549.62
343.893	546.62
344.12	578.62
344.348	561.62
344.576	537.62
344.804	531.62
345.031	509.62
345.259	520.62
345.487	509.62
345.714	499.62
345.942	489.62
346.17	504.62
346.397	490.62
346.625	488.62
346.853	505.62
347.08	475.62
347.308	475.62
347.535	484.62
347.763	482.62
347.99	489.62
348.218	473.62
348.445	488.62
348.673	465.62
348.9	469.62
349.128	469.62
349.355	465.62
349.583	473.62
349.81	478.62
350.037	457.62
350.265	468.62
350.492	487.62
350.72	465.62
350.947	473.62
351.174	479.62
351.402	462.62
351.629	493.62
351.856	483.62
352.083	462.62
352.311	473.62
352.538	489.62
352.765	480.62
352.992	472.62
353.22	473.62
353.447	467.62
353.674	473.62
353.901	470.62
354.128	477.62
354.355	459.62
354.583	464.62
354.81	470.62
355.037	468.62
355.264	455.62
355.491	476.62
355.718	455.62
355.945	463.62
356.172	473.62
356.399	484.62
356.626	490.62
356.853	460.62
357.08	474.62
357.307	480.62
357.534	472.62
357.761	464.62
357.988	439.62
358.215	463.62
358.441	465.62
358.668	464.62
358.895	491.62
359.122	453.62
359.349	481.62
359.576	476.62
359.802	483.62
360.029	500.62
360.256	491.62
360.483	505.62
360.709	484.62
360.936	493.62
361.163	450.62
361.39	473.62
361.616	470.62
361.843	479.62
362.07	482.62
362.296	474.62
362.523	473.62
362.749	487.62
362.976	479.62
363.203	469.62
363.429	469.62
363.656	489.62
363.882	486.62
364.109	461.62
364.335	469.62
364.562	460.62
364.788	458.62
365.015	484.62
365.241	476.62
365.468	473.62
365.694	479.62
365.92	467.62
366.147	461.62
366.373	482.62
366.599	457.62
366.826	442.62
367.052	473.62
367.278	485.62
367.505	467.62
367.731	466.62
367.957	458.62
368.184	471.62
368.41	466.62
368.636	500.62
368.862	476.62
369.089	500.62
369.315	468.62
369.541	480.62
369.767	473.62
369.993	482.62
370.219	475.62
370.445	473.62
370.672	488.62
370.898	482.62
371.124	503.62
371.35	506.62
371.576	504.62
371.802	504.62
372.028	486.62
372.254	495.62
372.48	489.62
372.706	505.62
372.932	491.62
373.158	507.62
373.384	495.62
373.61	499.62
373.835	485.62
374.061	500.62
374.287	519.62
374.513	514.62
374.739	514.62
374.965	509.62
375.191	537.62
375.416	530.62
375.642	504.62
375.868	520.62
376.094	512.62
376.319	509.62
376.545	492.62
376.771	490.62
376.997	495.62
377.222	492.62
377.448	478.62
377.674	495.62
377.899	483.62
378.125	463.62
378.35	490.62
378.576	487.62
378.802	477.62
379.027	510.62
379.253	499.62
379.478	492.62
379.704	476.62
379.929	486.62
380.155	483.62
380.38	501.62
380.606	499.62
380.831	498.62
381.057	499.62
381.282	503.62
381.507	483.62
381.733	521.62
381.958	484.62
382.184	495.62
382.409	496.62
382.634	530.62
382.86	524.62
383.085	539.62
383.31	513.62
383.535	550.62
383.761	539.62
383.986	529.62
384.211	536.62
384.436	545.62
384.662	561.62
384.887	545.62
385.112	576.62
385.337	586.62
385.562	581.62
385.787	555.62
386.013	576.62
386.238	580.62
386.463	593.62
386.688	579.62
386.913	578.62
387.138	591.62
387.363	546.62
387.588	558.62
387.813	556.62
388.038	560.62
388.263	583.62
388.488	570.62
388.713	568.62
388.938	589.62
389.163	556.62
389.387	586.62
389.612	577.62
389.837	530.62
390.062	566.62
390.287	562.62
390.512	571.62
390.736	579.62
390.961	570.62
391.186	585.62
391.411	593.62
391.636	586.62
391.86	603.62
392.085	606.62
392.31	603.62
392.534	604.62
392.759	616.62
392.984	580.62
393.208	596.62
393.433	586.62
393.658	607.62
393.882	572.62
394.107	586.62
394.331	595.62
394.556	577.62
394.78	598.62
395.005	582.62
395.229	589.62
395.454	601.62
395.678	613.62
395.903	610.62
396.127	639.62
396.352	614.62
396.576	605.62
396.801	602.62
397.025	609.62
397.249	627.62
397.474	602.62
397.698	615.62
397.922	618.62
398.147	650.62
398.371	658.62
398.595	652.62
398.82	669.62
399.044	684.62
399.268	763.62
399.492	827.62
399.717	892.62
399.941	915.62
400.165	884.62
400.389	847.62
400.613	764.62
400.837	727.62
401.062	697.62
401.286	696.62
401.51	691.62
401.734	692.62
401.958	702.62
402.182	707.62
402.406	680.62
402.63	717.62
402.854	690.62
403.078	704.62
403.302	722.62
403.526	733.62
403.75	745.62
403.974	740.62
404.198	723.62
404.422	745.62
404.645	736.62
404.869	721.62
405.093	756.62
405.317	805.62
405.541	821.62
405.765	755.62
405.988	738.62
406.212	771.62
406.436	770.62
406.66	787.62
406.883	779.62
407.107	828.62
407.331	850.62
407.555	908.62
407.778	877.62
408.002	858.62
408.226	831.62
408.449	783.62
408.673	785.62
408.896	771.62
409.12	823.62
409.344	802.62
409.567	728.62
409.791	725.62
410.014	715.62
410.238	719.62
410.461	748.62
410.685	725.62
410.908	697.62
411.132	729.62
411.355	757.62
411.578	734.62
411.802	713.62
412.025	727.62
412.249	727.62
412.472	725.62
412.695	753.62
412.919	736.62
413.142	689.62
413.365	675.62
413.589	677.62
413.812	658.62
414.035	678.62
414.258	675.62
414.482	677.62
414.705	668.62
414.928	684.62
415.151	696.62
415.374	683.62
415.597	643.62
415.821	646.62
416.044	654.62
416.267	676.62
416.49	659.62
416.713	662.62
416.936	643.62
417.159	641.62
417.382	676.62
417.605	644.62
417.828	666.62
418.051	687.62
418.274	685.62
418.497	665.62
418.72	680.62
418.943	665.62
419.166	717.62
419.389	730.62
419.611	728.62
419.834	716.62
420.057	710.62
420.28	687.62
420.503	669.62
420.726	679.62
420.948	641.62
421.171	712.62
421.394	746.62
421.617	699.62
421.839	697.62
422.062	683.62
422.285	681.62
422.507	733.62
422.73	797.62
422.953	781.62
423.175	710.62
423.398	716.62
423.621	714.62
423.843	710.62
424.066	745.62
424.288	741.62
424.511	731.62
424.733	740.62
424.956	808.62
425.178	770.62
425.401	765.62
425.623	792.62
425.846	734.62
426.068	698.62
426.291	679.62
426.513	691.62
426.735	679.62
426.958	699.62
427.18	770.62
427.402	860.62
427.625	894.62
427.847	811.62
428.069	730.62
428.292	675.62
428.514	655.62
428.736	658.62
428.958	655.62
429.181	605.62
429.403	629.62
429.625	634.62
429.847	665.62
430.069	700.62
430.292	690.62
430.514	646.62
430.736	644.62
430.958	653.62
431.18	603.62
431.402	616.62
431.624	636.62
431.846	599.62
432.068	611.62
432.29	627.62
432.512	629.62
432.734	628.62
432.956	629.62
433.178	608.62
433.4	625.62
433.622	605.62
433.844	612.62
434.066	635.62
434.287	637.62
434.509	638.62
434.731	684.62
434.953	679.62
435.175	711.62
435.397	679.62
435.618	681.62
435.84	708.62
436.062	741.62
436.284	807.62
436.505	697.62
436.727	632.62
436.949	644.62
437.17	642.62
437.392	617.62
437.614	645.62
437.835	636.62
438.057	705.62
438.278	766.62
438.5	791.62
438.721	826.62
438.943	789.62
439.165	701.62
439.386	655.62
439.608	645.62
439.829	653.62
440.05	689.62
440.272	706.62
440.493	668.62
440.715	665.62
440.936	665.62
441.158	665.62
441.379	674.62
441.6	689.62
441.822	699.62
442.043	722.62
442.264	769.62
442.486	757.62
442.707	727.62
442.928	716.62
443.149	693.62
443.371	712.62
443.592	733.62
443.813	770.62
444.034	858.62
444.255	770.62
444.476	741.62
444.698	761.62
444.919	785.62
445.14	899.62
445.361	773.62
445.582	745.62
445.803	746.62
446.024	800.62
446.245	791.62
446.466	743.62
446.687	666.62
446.908	675.62
447.129	625.62
447.35	619.62
447.571	611.62
447.792	630.62
448.013	593.62
448.234	622.62
448.455	639.62
448.675	712.62
448.896	801.62
449.117	701.62
449.338	675.62
449.559	741.62
449.779	829.62
450	720.62
450.221	638.62
450.442	609.62
450.662	589.62
450.883	589.62
451.104	612.62
451.324	571.62
451.545	567.62
451.766	565.62
451.986	599.62
452.207	568.62
452.428	562.62
452.648	563.62
452.869	556.62
453.089	577.62
453.31	574.62
453.53	569.62
453.751	555.62
453.971	563.62
454.192	540.62
454.412	566.62
454.633	556.62
454.853	533.62
455.073	550.62
455.294	589.62
455.514	591.62
455.734	598.62
455.955	548.62
456.175	546.62
456.395	549.62
456.616	531.62
456.836	550.62
457.056	541.62
457.276	526.62
457.497	546.62
457.717	556.62
457.937	557.62
458.157	546.62
458.377	580.62
458.598	587.62
458.818	615.62
459.038	646.62
459.258	657.62
459.478	662.62
459.698	633.62
459.918	633.62
460.138	656.62
460.358	646.62
460.578	690.62
460.798	703.62
461.018	705.62
461.238	680.62
461.458	691.62
461.678	685.62
461.898	717.62
462.118	705.62
462.338	707.62
462.558	731.62
462.777	767.62
462.997	774.62
463.217	834.62
463.437	838.62
463.657	808.62
463.876	781.62
464.096	757.62
464.316	744.62
464.536	788.62
464.755	771.62
464.975	720.62
465.195	740.62
465.414	726.62
465.634	676.62
465.854	643.62
466.073	625.62
466.293	632.62
466.512	619.62
466.732	614.62
466.951	590.62
467.171	603.62
467.391	612.62
467.61	610.62
467.829	625.62
468.049	593.62
468.268	598.62
468.488	586.62
468.707	577.62
468.927	565.62
469.146	571.62
469.365	572.62
469.585	587.62
469.804	578.62
470.023	609.62
470.243	610.62
470.462	611.62
470.681	631.62
470.901	629.62
471.12	592.62
471.339	604.62
471.558	595.62
471.777	603.62
471.997	594.62
472.216	581.62
472.435	613.62
472.654	584.62
472.873	576.62
473.092	570.62
473.311	583.62
473.53	571.62
473.749	584.62
473.968	595.62
474.187	656.62
474.406	696.62
474.625	600.62
474.844	586.62
475.063	575.62
475.282	593.62
475.501	604.62
475.72	570.62
475.939	594.62
476.158	607.62
476.377	600.62
476.596	606.62
476.814	623.62
477.033	626.62
477.252	624.62
477.471	655.62
477.69	652.62
477.908	656.62
478.127	708.62
478.346	655.62
478.564	692.62
478.783	686.62
479.002	715.62
479.22	722.62
479.439	721.62
479.658	707.62
479.876	737.62
480.095	719.62
480.313	749.62
480.532	761.62
480.751	740.62
480.969	737.62
481.188	777.62
481.406	789.62
481.624	725.62
481.843	706.62
482.061	692.62
482.28	665.62
482.498	685.62
482.717	681.62
482.935	690.62
483.153	673.62
483.372	688.62
483.59	657.62
483.808	673.62
484.027	663.62
484.245	679.62
484.463	701.62
484.681	707.62
484.9	685.62
485.118	723.62
485.336	703.62
485.554	706.62
485.772	731.62
485.99	706.62
486.209	733.62
486.427	705.62
486.645	735.62
486.863	745.62
487.081	717.62
487.299	707.62
487.517	729.62
487.735	731.62
487.953	722.62
488.171	708.62
488.389	713.62
488.607	723.62
488.825	738.62
489.043	709.62
489.261	724.62
489.479	765.62
489.696	741.62
489.914	772.62
490.132	735.62
490.35	743.62
490.568	746.62
490.786	769.62
491.003	752.62
491.221	784.62
491.439	788.62
491.657	758.62
491.874	770.62
492.092	780.62
492.31	778.62
492.527	810.62
492.745	842.62
492.963	820.62
493.18	812.62
493.398	801.62
493.615	819.62
493.833	809.62
494.05	802.62
494.268	803.62
494.485	834.62
494.703	836.62
494.92	833.62
495.138	819.62
495.355	844.62
495.573	826.62
495.79	850.62
496.008	843.62
496.225	883.62
496.442	851.62
496.66	853.62
496.877	840.62
497.094	839.62
497.312	866.62
497.529	895.62
497.746	936.62
497.963	926.62
498.181	960.62
498.398	990.62
498.615	1049.62
498.832	1095.62
499.049	1147.62
499.267	1170.62
499.484	1265.62
499.701	1362.62
499.918	1427.62
500.135	1554.62
500.352	1669.62
500.569	1740.62
500.786	1740.62
501.003	1656.62
501.22	1597.62
501.437	1447.62
501.654	1346.62
501.871	1282.62
