Data from 1963.PennyLincolnUp.Lamp.En5.5.200Scan.071719.P1._HRD10591_13-58-02-062.txt Node
Date: Thu Jul 18 13:58:02 EDT 2019
User: cochatt
Spectrometer: HR+D1059
Trigger mode: 1
Integration Time (sec): 1.000000E-1
Scans to average: 1
Electric dark correction enabled: true
Nonlinearity correction enabled: false
Boxcar width: 0
XAxis mode: Wavelengths
Number of Pixels in Spectrum: 2048
>>>>>Begin Spectral Data<<<<<
223.165	-13.62
223.4	-13.62
223.635	-13.62
223.869	-12.62
224.104	-7.62
224.338	-26.62
224.573	-8.62
224.808	-12.62
225.042	-22.62
225.277	-12.62
225.511	-7.62
225.746	11.38
225.98	-5.62
226.215	22.38
226.449	7.38
226.683	25.38
226.918	33.38
227.152	30.38
227.387	27.38
227.621	46.38
227.856	49.38
228.09	68.38
228.324	53.38
228.559	60.38
228.793	70.38
229.027	100.38
229.262	111.38
229.496	122.38
229.73	107.38
229.964	137.38
230.199	120.38
230.433	111.38
230.667	108.38
230.901	103.38
231.136	106.38
231.37	112.38
231.604	103.38
231.838	103.38
232.072	119.38
232.306	121.38
232.541	121.38
232.775	124.38
233.009	125.38
233.243	107.38
233.477	107.38
233.711	131.38
233.945	118.38
234.179	127.38
234.413	113.38
234.647	122.38
234.881	129.38
235.115	125.38
235.349	129.38
235.583	126.38
235.817	133.38
236.051	131.38
236.285	126.38
236.519	110.38
236.753	123.38
236.987	138.38
237.221	171.38
237.455	202.38
237.689	181.38
237.922	133.38
238.156	146.38
238.39	133.38
238.624	118.38
238.858	145.38
239.091	134.38
239.325	139.38
239.559	136.38
239.793	137.38
240.027	129.38
240.26	145.38
240.494	157.38
240.728	155.38
240.961	149.38
241.195	147.38
241.429	131.38
241.662	149.38
241.896	146.38
242.13	144.38
242.363	149.38
242.597	156.38
242.83	147.38
243.064	135.38
243.298	152.38
243.531	157.38
243.765	158.38
243.998	156.38
244.232	149.38
244.465	156.38
244.699	164.38
244.932	167.38
245.166	157.38
245.399	165.38
245.633	154.38
245.866	163.38
246.099	169.38
246.333	165.38
246.566	159.38
246.8	171.38
247.033	161.38
247.266	177.38
247.5	171.38
247.733	190.38
247.966	175.38
248.2	198.38
248.433	177.38
248.666	189.38
248.899	187.38
249.133	185.38
249.366	211.38
249.599	199.38
249.832	179.38
250.066	199.38
250.299	194.38
250.532	191.38
250.765	195.38
250.998	201.38
251.231	235.38
251.465	226.38
251.698	197.38
251.931	209.38
252.164	199.38
252.397	196.38
252.63	205.38
252.863	215.38
253.096	215.38
253.329	236.38
253.562	217.38
253.795	224.38
254.028	221.38
254.261	227.38
254.494	227.38
254.727	263.38
254.96	271.38
255.193	263.38
255.426	216.38
255.659	228.38
255.892	247.38
256.124	230.38
256.357	242.38
256.59	244.38
256.823	226.38
257.056	223.38
257.289	217.38
257.521	232.38
257.754	231.38
257.987	231.38
258.22	236.38
258.452	230.38
258.685	207.38
258.918	220.38
259.151	212.38
259.383	243.38
259.616	232.38
259.849	233.38
260.081	257.38
260.314	249.38
260.547	257.38
260.779	248.38
261.012	243.38
261.244	233.38
261.477	239.38
261.71	237.38
261.942	239.38
262.175	243.38
262.407	251.38
262.64	225.38
262.872	236.38
263.105	233.38
263.337	238.38
263.57	234.38
263.802	250.38
264.035	236.38
264.267	231.38
264.499	234.38
264.732	241.38
264.964	235.38
265.197	236.38
265.429	231.38
265.661	244.38
265.894	277.38
266.126	238.38
266.358	247.38
266.591	235.38
266.823	263.38
267.055	254.38
267.287	260.38
267.52	263.38
267.752	262.38
267.984	234.38
268.216	267.38
268.448	274.38
268.681	257.38
268.913	260.38
269.145	281.38
269.377	283.38
269.609	287.38
269.841	277.38
270.073	284.38
270.306	291.38
270.538	310.38
270.77	311.38
271.002	291.38
271.234	297.38
271.466	307.38
271.698	319.38
271.93	339.38
272.162	325.38
272.394	305.38
272.626	320.38
272.858	300.38
273.09	314.38
273.322	290.38
273.553	298.38
273.785	297.38
274.017	287.38
274.249	280.38
274.481	294.38
274.713	285.38
274.945	294.38
275.176	292.38
275.408	303.38
275.64	295.38
275.872	298.38
276.104	295.38
276.335	313.38
276.567	301.38
276.799	330.38
277.031	327.38
277.262	338.38
277.494	335.38
277.726	329.38
277.957	314.38
278.189	313.38
278.421	291.38
278.652	313.38
278.884	307.38
279.115	322.38
279.347	292.38
279.579	309.38
279.81	299.38
280.042	307.38
280.273	305.38
280.505	303.38
280.736	307.38
280.968	314.38
281.199	312.38
281.431	319.38
281.662	313.38
281.894	321.38
282.125	322.38
282.356	329.38
282.588	344.38
282.819	337.38
283.051	333.38
283.282	309.38
283.513	330.38
283.745	305.38
283.976	330.38
284.207	330.38
284.439	350.38
284.67	330.38
284.901	337.38
285.132	326.38
285.364	317.38
285.595	311.38
285.826	328.38
286.057	327.38
286.288	342.38
286.52	323.38
286.751	327.38
286.982	327.38
287.213	337.38
287.444	362.38
287.675	331.38
287.906	343.38
288.138	341.38
288.369	355.38
288.6	361.38
288.831	362.38
289.062	350.38
289.293	343.38
289.524	351.38
289.755	337.38
289.986	350.38
290.217	343.38
290.448	335.38
290.679	354.38
290.91	349.38
291.141	354.38
291.371	359.38
291.602	352.38
291.833	357.38
292.064	356.38
292.295	358.38
292.526	349.38
292.757	353.38
292.987	335.38
293.218	346.38
293.449	360.38
293.68	361.38
293.91	358.38
294.141	363.38
294.372	360.38
294.603	361.38
294.833	371.38
295.064	377.38
295.295	371.38
295.525	365.38
295.756	348.38
295.987	367.38
296.217	370.38
296.448	380.38
296.679	373.38
296.909	362.38
297.14	356.38
297.37	379.38
297.601	382.38
297.831	387.38
298.062	357.38
298.292	369.38
298.523	377.38
298.753	380.38
298.984	358.38
299.214	387.38
299.445	363.38
299.675	376.38
299.905	399.38
300.136	387.38
300.366	390.38
300.597	374.38
300.827	413.38
301.057	403.38
301.288	389.38
301.518	404.38
301.748	402.38
301.979	394.38
302.209	413.38
302.439	397.38
302.669	397.38
302.9	402.38
303.13	405.38
303.36	401.38
303.59	400.38
303.82	403.38
304.051	405.38
304.281	388.38
304.511	405.38
304.741	389.38
304.971	405.38
305.201	409.38
305.431	394.38
305.661	386.38
305.891	408.38
306.121	394.38
306.352	387.38
306.582	403.38
306.812	372.38
307.042	383.38
307.272	403.38
307.502	403.38
307.731	410.38
307.961	407.38
308.191	403.38
308.421	402.38
308.651	407.38
308.881	406.38
309.111	389.38
309.341	397.38
309.571	412.38
309.8	419.38
310.03	411.38
310.26	416.38
310.49	421.38
310.72	405.38
310.949	439.38
311.179	477.38
311.409	427.38
311.639	420.38
311.868	445.38
312.098	452.38
312.328	445.38
312.557	428.38
312.787	439.38
313.017	445.38
313.246	440.38
313.476	437.38
313.706	440.38
313.935	444.38
314.165	456.38
314.394	438.38
314.624	441.38
314.853	431.38
315.083	444.38
315.312	459.38
315.542	435.38
315.771	425.38
316.001	462.38
316.23	460.38
316.46	436.38
316.689	439.38
316.919	442.38
317.148	436.38
317.377	476.38
317.607	450.38
317.836	439.38
318.065	430.38
318.295	426.38
318.524	443.38
318.753	447.38
318.983	435.38
319.212	434.38
319.441	447.38
319.67	459.38
319.9	457.38
320.129	442.38
320.358	450.38
320.587	460.38
320.816	433.38
321.046	443.38
321.275	460.38
321.504	458.38
321.733	473.38
321.962	457.38
322.191	445.38
322.42	486.38
322.649	475.38
322.878	482.38
323.108	484.38
323.337	500.38
323.566	485.38
323.795	513.38
324.024	531.38
324.253	602.38
324.482	752.38
324.71	1059.38
324.939	1468.38
325.168	1319.38
325.397	761.38
325.626	567.38
325.855	539.38
326.084	525.38
326.313	525.38
326.542	500.38
326.77	553.38
326.999	578.38
327.228	732.38
327.457	1019.38
327.686	1200.38
327.914	840.38
328.143	629.38
328.372	619.38
328.6	587.38
328.829	523.38
329.058	561.38
329.287	589.38
329.515	552.38
329.744	533.38
329.972	513.38
330.201	526.38
330.43	577.38
330.658	572.38
330.887	587.38
331.115	597.38
331.344	562.38
331.572	522.38
331.801	554.38
332.03	549.38
332.258	515.38
332.486	540.38
332.715	534.38
332.943	556.38
333.172	554.38
333.4	599.38
333.629	599.38
333.857	608.38
334.085	625.38
334.314	621.38
334.542	639.38
334.771	649.38
334.999	613.38
335.227	604.38
335.455	571.38
335.684	590.38
335.912	599.38
336.14	558.38
336.369	573.38
336.597	563.38
336.825	541.38
337.053	549.38
337.281	536.38
337.51	534.38
337.738	578.38
337.966	554.38
338.194	531.38
338.422	522.38
338.65	530.38
338.878	548.38
339.106	536.38
339.334	500.38
339.562	525.38
339.79	520.38
340.018	507.38
340.246	501.38
340.474	493.38
340.702	528.38
340.93	519.38
341.158	531.38
341.386	531.38
341.614	516.38
341.842	515.38
342.07	502.38
342.298	510.38
342.526	482.38
342.754	514.38
342.981	498.38
343.209	497.38
343.437	533.38
343.665	533.38
343.893	578.38
344.12	604.38
344.348	598.38
344.576	575.38
344.804	564.38
345.031	537.38
345.259	536.38
345.487	529.38
345.714	500.38
345.942	482.38
346.17	497.38
346.397	487.38
346.625	493.38
346.853	500.38
347.08	487.38
347.308	493.38
347.535	503.38
347.763	523.38
347.99	498.38
348.218	474.38
348.445	504.38
348.673	501.38
348.9	497.38
349.128	498.38
349.355	485.38
349.583	482.38
349.81	485.38
350.037	487.38
350.265	482.38
350.492	484.38
350.72	477.38
350.947	485.38
351.174	490.38
351.402	517.38
351.629	509.38
351.856	482.38
352.083	494.38
352.311	479.38
352.538	478.38
352.765	490.38
352.992	483.38
353.22	469.38
353.447	495.38
353.674	460.38
353.901	489.38
354.128	480.38
354.355	474.38
354.583	476.38
354.81	477.38
355.037	465.38
355.264	469.38
355.491	478.38
355.718	465.38
355.945	470.38
356.172	484.38
356.399	451.38
356.626	464.38
356.853	486.38
357.08	464.38
357.307	472.38
357.534	463.38
357.761	474.38
357.988	480.38
358.215	479.38
358.441	482.38
358.668	481.38
358.895	476.38
359.122	483.38
359.349	472.38
359.576	481.38
359.802	524.38
360.029	521.38
360.256	518.38
360.483	515.38
360.709	490.38
360.936	490.38
361.163	518.38
361.39	468.38
361.616	495.38
361.843	491.38
362.07	487.38
362.296	482.38
362.523	492.38
362.749	471.38
362.976	494.38
363.203	486.38
363.429	474.38
363.656	461.38
363.882	478.38
364.109	472.38
364.335	482.38
364.562	483.38
364.788	459.38
365.015	479.38
365.241	482.38
365.468	499.38
365.694	495.38
365.92	478.38
366.147	483.38
366.373	501.38
366.599	485.38
366.826	474.38
367.052	479.38
367.278	492.38
367.505	486.38
367.731	503.38
367.957	484.38
368.184	473.38
368.41	474.38
368.636	473.38
368.862	491.38
369.089	486.38
369.315	481.38
369.541	492.38
369.767	486.38
369.993	511.38
370.219	481.38
370.445	509.38
370.672	468.38
370.898	489.38
371.124	474.38
371.35	489.38
371.576	493.38
371.802	488.38
372.028	484.38
372.254	502.38
372.48	521.38
372.706	523.38
372.932	522.38
373.158	519.38
373.384	523.38
373.61	494.38
373.835	515.38
374.061	510.38
374.287	539.38
374.513	523.38
374.739	535.38
374.965	523.38
375.191	545.38
375.416	533.38
375.642	545.38
375.868	519.38
376.094	506.38
376.319	526.38
376.545	511.38
376.771	504.38
376.997	495.38
377.222	506.38
377.448	521.38
377.674	492.38
377.899	503.38
378.125	511.38
378.35	490.38
378.576	476.38
378.802	484.38
379.027	510.38
379.253	499.38
379.478	501.38
379.704	513.38
379.929	471.38
380.155	492.38
380.38	489.38
380.606	496.38
380.831	502.38
381.057	500.38
381.282	519.38
381.507	514.38
381.733	507.38
381.958	500.38
382.184	501.38
382.409	532.38
382.634	531.38
382.86	521.38
383.085	529.38
383.31	522.38
383.535	543.38
383.761	519.38
383.986	561.38
384.211	571.38
384.436	579.38
384.662	550.38
384.887	586.38
385.112	558.38
385.337	590.38
385.562	594.38
385.787	584.38
386.013	593.38
386.238	565.38
386.463	608.38
386.688	589.38
386.913	588.38
387.138	586.38
387.363	583.38
387.588	561.38
387.813	590.38
388.038	581.38
388.263	582.38
388.488	569.38
388.713	577.38
388.938	555.38
389.163	566.38
389.387	586.38
389.612	580.38
389.837	582.38
390.062	585.38
390.287	581.38
390.512	565.38
390.736	567.38
390.961	580.38
391.186	595.38
391.411	602.38
391.636	616.38
391.86	648.38
392.085	628.38
392.31	628.38
392.534	621.38
392.759	602.38
392.984	596.38
393.208	625.38
393.433	602.38
393.658	619.38
393.882	598.38
394.107	592.38
394.331	615.38
394.556	615.38
394.78	599.38
395.005	612.38
395.229	590.38
395.454	629.38
395.678	641.38
395.903	637.38
396.127	639.38
396.352	625.38
396.576	617.38
396.801	624.38
397.025	611.38
397.249	601.38
397.474	639.38
397.698	634.38
397.922	634.38
398.147	639.38
398.371	657.38
398.595	670.38
398.82	716.38
399.044	722.38
399.268	769.38
399.492	858.38
399.717	947.38
399.941	943.38
400.165	913.38
400.389	876.38
400.613	775.38
400.837	734.38
401.062	719.38
401.286	710.38
401.51	699.38
401.734	718.38
401.958	719.38
402.182	705.38
402.406	711.38
402.63	737.38
402.854	718.38
403.078	733.38
403.302	759.38
403.526	758.38
403.75	747.38
403.974	773.38
404.198	753.38
404.422	755.38
404.645	771.38
404.869	773.38
405.093	795.38
405.317	817.38
405.541	818.38
405.765	808.38
405.988	743.38
406.212	764.38
406.436	793.38
406.66	805.38
406.883	801.38
407.107	809.38
407.331	884.38
407.555	921.38
407.778	904.38
408.002	876.38
408.226	819.38
408.449	779.38
408.673	797.38
408.896	804.38
409.12	830.38
409.344	812.38
409.567	732.38
409.791	751.38
410.014	755.38
410.238	750.38
410.461	742.38
410.685	730.38
410.908	740.38
411.132	765.38
411.355	759.38
411.578	773.38
411.802	716.38
412.025	708.38
412.249	761.38
412.472	763.38
412.695	776.38
412.919	734.38
413.142	724.38
413.365	710.38
413.589	732.38
413.812	687.38
414.035	700.38
414.258	691.38
414.482	687.38
414.705	703.38
414.928	691.38
415.151	665.38
415.374	659.38
415.597	713.38
415.821	673.38
416.044	691.38
416.267	680.38
416.49	677.38
416.713	681.38
416.936	682.38
417.159	654.38
417.382	683.38
417.605	678.38
417.828	677.38
418.051	704.38
418.274	678.38
418.497	671.38
418.72	692.38
418.943	715.38
419.166	709.38
419.389	767.38
419.611	750.38
419.834	723.38
420.057	741.38
420.28	701.38
420.503	697.38
420.726	677.38
420.948	711.38
421.171	719.38
421.394	773.38
421.617	722.38
421.839	708.38
422.062	694.38
422.285	695.38
422.507	757.38
422.73	797.38
422.953	786.38
423.175	746.38
423.398	734.38
423.621	735.38
423.843	736.38
424.066	753.38
424.288	739.38
424.511	738.38
424.733	794.38
424.956	852.38
425.178	814.38
425.401	817.38
425.623	813.38
425.846	761.38
426.068	722.38
426.291	681.38
426.513	709.38
426.735	694.38
426.958	711.38
427.18	745.38
427.402	879.38
427.625	943.38
427.847	833.38
428.069	756.38
428.292	698.38
428.514	678.38
428.736	671.38
428.958	656.38
429.181	635.38
429.403	661.38
429.625	653.38
429.847	662.38
430.069	706.38
430.292	729.38
430.514	629.38
430.736	633.38
430.958	663.38
431.18	625.38
431.402	641.38
431.624	626.38
431.846	653.38
432.068	640.38
432.29	648.38
432.512	633.38
432.734	652.38
432.956	635.38
433.178	637.38
433.4	627.38
433.622	645.38
433.844	622.38
434.066	629.38
434.287	641.38
434.509	653.38
434.731	679.38
434.953	686.38
435.175	707.38
435.397	718.38
435.618	716.38
435.84	711.38
436.062	766.38
436.284	846.38
436.505	751.38
436.727	669.38
436.949	642.38
437.17	663.38
437.392	645.38
437.614	647.38
437.835	676.38
438.057	719.38
438.278	791.38
438.5	789.38
438.721	850.38
438.943	841.38
439.165	697.38
439.386	671.38
439.608	680.38
439.829	679.38
440.05	667.38
440.272	726.38
440.493	707.38
440.715	681.38
440.936	676.38
441.158	673.38
441.379	673.38
441.6	729.38
441.822	743.38
442.043	747.38
442.264	789.38
442.486	810.38
442.707	740.38
442.928	697.38
443.149	717.38
443.371	711.38
443.592	771.38
443.813	823.38
444.034	857.38
444.255	784.38
444.476	774.38
444.698	781.38
444.919	776.38
445.14	901.38
445.361	828.38
445.582	760.38
445.803	762.38
446.024	813.38
446.245	813.38
446.466	777.38
446.687	693.38
446.908	673.38
447.129	628.38
447.35	620.38
447.571	616.38
447.792	601.38
448.013	625.38
448.234	637.38
448.455	676.38
448.675	719.38
448.896	827.38
449.117	718.38
449.338	690.38
449.559	781.38
449.779	846.38
450	739.38
450.221	643.38
450.442	610.38
450.662	609.38
450.883	626.38
451.104	615.38
451.324	617.38
451.545	603.38
451.766	564.38
451.986	567.38
452.207	613.38
452.428	573.38
452.648	595.38
452.869	568.38
453.089	572.38
453.31	622.38
453.53	602.38
453.751	561.38
453.971	563.38
454.192	584.38
454.412	566.38
454.633	564.38
454.853	568.38
455.073	587.38
455.294	580.38
455.514	603.38
455.734	631.38
455.955	584.38
456.175	567.38
456.395	540.38
456.616	532.38
456.836	563.38
457.056	519.38
457.276	536.38
457.497	564.38
457.717	569.38
457.937	541.38
458.157	546.38
458.377	571.38
458.598	596.38
458.818	643.38
459.038	697.38
459.258	694.38
459.478	659.38
459.698	633.38
459.918	666.38
460.138	661.38
460.358	671.38
460.578	706.38
460.798	677.38
461.018	707.38
461.238	703.38
461.458	692.38
461.678	695.38
461.898	722.38
462.118	730.38
462.338	722.38
462.558	742.38
462.777	757.38
462.997	801.38
463.217	835.38
463.437	852.38
463.657	825.38
463.876	780.38
464.096	797.38
464.316	769.38
464.536	771.38
464.755	775.38
464.975	757.38
465.195	743.38
465.414	783.38
465.634	709.38
465.854	674.38
466.073	671.38
466.293	649.38
466.512	627.38
466.732	622.38
466.951	609.38
467.171	607.38
467.391	592.38
467.61	628.38
467.829	644.38
468.049	618.38
468.268	613.38
468.488	586.38
468.707	590.38
468.927	596.38
469.146	584.38
469.365	604.38
469.585	582.38
469.804	618.38
470.023	623.38
470.243	629.38
470.462	633.38
470.681	651.38
470.901	655.38
471.12	628.38
471.339	629.38
471.558	614.38
471.777	579.38
471.997	613.38
472.216	617.38
472.435	623.38
472.654	613.38
472.873	609.38
473.092	578.38
473.311	611.38
473.53	579.38
473.749	595.38
473.968	622.38
474.187	683.38
474.406	687.38
474.625	604.38
474.844	602.38
475.063	613.38
475.282	606.38
475.501	607.38
475.72	594.38
475.939	603.38
476.158	611.38
476.377	622.38
476.596	638.38
476.814	639.38
477.033	616.38
477.252	655.38
477.471	643.38
477.69	681.38
477.908	667.38
478.127	685.38
478.346	668.38
478.564	697.38
478.783	713.38
479.002	722.38
479.22	723.38
479.439	724.38
479.658	726.38
479.876	745.38
480.095	754.38
480.313	793.38
480.532	797.38
480.751	801.38
480.969	805.38
481.188	803.38
481.406	821.38
481.624	745.38
481.843	723.38
482.061	715.38
482.28	712.38
482.498	701.38
482.717	705.38
482.935	706.38
483.153	694.38
483.372	701.38
483.59	704.38
483.808	700.38
484.027	689.38
484.245	719.38
484.463	706.38
484.681	719.38
484.9	719.38
485.118	717.38
485.336	723.38
485.554	739.38
485.772	733.38
485.99	723.38
486.209	735.38
486.427	724.38
486.645	733.38
486.863	731.38
487.081	748.38
487.299	739.38
487.517	726.38
487.735	739.38
487.953	747.38
488.171	736.38
488.389	763.38
488.607	738.38
488.825	744.38
489.043	728.38
489.261	740.38
489.479	755.38
489.696	746.38
489.914	767.38
490.132	760.38
490.35	775.38
490.568	769.38
490.786	760.38
491.003	791.38
491.221	786.38
491.439	801.38
491.657	803.38
491.874	837.38
492.092	813.38
492.31	817.38
492.527	838.38
492.745	822.38
492.963	824.38
493.18	834.38
493.398	841.38
493.615	841.38
493.833	846.38
494.05	858.38
494.268	867.38
494.485	839.38
494.703	863.38
494.92	834.38
495.138	825.38
495.355	832.38
495.573	860.38
495.79	845.38
496.008	849.38
496.225	867.38
496.442	872.38
496.66	883.38
496.877	895.38
497.094	872.38
497.312	913.38
497.529	901.38
497.746	927.38
497.963	984.38
498.181	982.38
498.398	989.38
498.615	1046.38
498.832	1091.38
499.049	1153.38
499.267	1203.38
499.484	1274.38
499.701	1359.38
499.918	1445.38
500.135	1628.38
500.352	1731.38
500.569	1786.38
500.786	1787.38
501.003	1686.38
501.22	1594.38
501.437	1479.38
501.654	1393.38
