Data from 1963.PennyLincolnUp.Lamp.En5.5.200Scan.071719.P1._HRD10591_14-00-06-064.txt Node
Date: Thu Jul 18 14:00:06 EDT 2019
User: cochatt
Spectrometer: HR+D1059
Trigger mode: 1
Integration Time (sec): 1.000000E-1
Scans to average: 1
Electric dark correction enabled: true
Nonlinearity correction enabled: false
Boxcar width: 0
XAxis mode: Wavelengths
Number of Pixels in Spectrum: 2048
>>>>>Begin Spectral Data<<<<<
223.165	-15.81
223.4	-15.81
223.635	-15.81
223.869	-19.81
224.104	-19.81
224.338	-7.81
224.573	-17.81
224.808	-27.81
225.042	-14.81
225.277	-0.81
225.511	3.19
225.746	10.19
225.98	8.19
226.215	14.19
226.449	16.19
226.683	17.19
226.918	32.19
227.152	23.19
227.387	55.19
227.621	36.19
227.856	43.19
228.09	48.19
228.324	60.19
228.559	54.19
228.793	64.19
229.027	91.19
229.262	94.19
229.496	107.19
229.73	120.19
229.964	145.19
230.199	129.19
230.433	115.19
230.667	115.19
230.901	110.19
231.136	100.19
231.37	114.19
231.604	99.19
231.838	119.19
232.072	119.19
232.306	123.19
232.541	127.19
232.775	138.19
233.009	117.19
233.243	120.19
233.477	111.19
233.711	115.19
233.945	123.19
234.179	123.19
234.413	128.19
234.647	125.19
234.881	133.19
235.115	117.19
235.349	127.19
235.583	133.19
235.817	127.19
236.051	128.19
236.285	138.19
236.519	133.19
236.753	145.19
236.987	161.19
237.221	185.19
237.455	204.19
237.689	168.19
237.922	140.19
238.156	147.19
238.39	132.19
238.624	142.19
238.858	152.19
239.091	139.19
239.325	136.19
239.559	151.19
239.793	143.19
240.027	144.19
240.26	152.19
240.494	163.19
240.728	148.19
240.961	171.19
241.195	157.19
241.429	146.19
241.662	136.19
241.896	150.19
242.13	151.19
242.363	152.19
242.597	148.19
242.83	159.19
243.064	146.19
243.298	157.19
243.531	155.19
243.765	165.19
243.998	152.19
244.232	163.19
244.465	159.19
244.699	167.19
244.932	160.19
245.166	157.19
245.399	164.19
245.633	151.19
245.866	159.19
246.099	170.19
246.333	176.19
246.566	166.19
246.8	164.19
247.033	169.19
247.266	171.19
247.5	177.19
247.733	179.19
247.966	181.19
248.2	190.19
248.433	204.19
248.666	192.19
248.899	212.19
249.133	228.19
249.366	222.19
249.599	209.19
249.832	209.19
250.066	192.19
250.299	197.19
250.532	205.19
250.765	234.19
250.998	237.19
251.231	232.19
251.465	248.19
251.698	220.19
251.931	213.19
252.164	189.19
252.397	213.19
252.63	215.19
252.863	221.19
253.096	228.19
253.329	245.19
253.562	246.19
253.795	239.19
254.028	243.19
254.261	229.19
254.494	238.19
254.727	270.19
254.96	282.19
255.193	278.19
255.426	273.19
255.659	260.19
255.892	241.19
256.124	238.19
256.357	238.19
256.59	259.19
256.823	246.19
257.056	239.19
257.289	226.19
257.521	252.19
257.754	248.19
257.987	228.19
258.22	235.19
258.452	237.19
258.685	236.19
258.918	249.19
259.151	241.19
259.383	239.19
259.616	250.19
259.849	259.19
260.081	279.19
260.314	271.19
260.547	268.19
260.779	264.19
261.012	240.19
261.244	259.19
261.477	266.19
261.71	249.19
261.942	257.19
262.175	249.19
262.407	264.19
262.64	253.19
262.872	253.19
263.105	236.19
263.337	246.19
263.57	250.19
263.802	243.19
264.035	258.19
264.267	267.19
264.499	252.19
264.732	264.19
264.964	257.19
265.197	267.19
265.429	239.19
265.661	264.19
265.894	252.19
266.126	248.19
266.358	251.19
266.591	277.19
266.823	271.19
267.055	274.19
267.287	272.19
267.52	270.19
267.752	265.19
267.984	274.19
268.216	297.19
268.448	294.19
268.681	277.19
268.913	280.19
269.145	311.19
269.377	300.19
269.609	310.19
269.841	305.19
270.073	318.19
270.306	327.19
270.538	352.19
270.77	346.19
271.002	320.19
271.234	334.19
271.466	324.19
271.698	340.19
271.93	343.19
272.162	337.19
272.394	336.19
272.626	334.19
272.858	328.19
273.09	301.19
273.322	322.19
273.553	305.19
273.785	313.19
274.017	296.19
274.249	302.19
274.481	296.19
274.713	296.19
274.945	308.19
275.176	319.19
275.408	321.19
275.64	299.19
275.872	295.19
276.104	293.19
276.335	312.19
276.567	332.19
276.799	339.19
277.031	337.19
277.262	353.19
277.494	358.19
277.726	337.19
277.957	312.19
278.189	334.19
278.421	321.19
278.652	335.19
278.884	320.19
279.115	329.19
279.347	315.19
279.579	322.19
279.81	327.19
280.042	325.19
280.273	321.19
280.505	335.19
280.736	347.19
280.968	329.19
281.199	345.19
281.431	331.19
281.662	329.19
281.894	323.19
282.125	314.19
282.356	359.19
282.588	341.19
282.819	338.19
283.051	350.19
283.282	346.19
283.513	336.19
283.745	322.19
283.976	352.19
284.207	334.19
284.439	341.19
284.67	357.19
284.901	352.19
285.132	338.19
285.364	329.19
285.595	336.19
285.826	354.19
286.057	344.19
286.288	337.19
286.52	352.19
286.751	352.19
286.982	375.19
287.213	350.19
287.444	393.19
287.675	355.19
287.906	376.19
288.138	367.19
288.369	389.19
288.6	366.19
288.831	371.19
289.062	377.19
289.293	383.19
289.524	356.19
289.755	357.19
289.986	368.19
290.217	367.19
290.448	376.19
290.679	355.19
290.91	361.19
291.141	378.19
291.371	383.19
291.602	362.19
291.833	350.19
292.064	360.19
292.295	372.19
292.526	377.19
292.757	365.19
292.987	383.19
293.218	371.19
293.449	350.19
293.68	377.19
293.91	368.19
294.141	377.19
294.372	376.19
294.603	371.19
294.833	356.19
295.064	368.19
295.295	380.19
295.525	383.19
295.756	375.19
295.987	381.19
296.217	397.19
296.448	409.19
296.679	382.19
296.909	389.19
297.14	382.19
297.37	391.19
297.601	399.19
297.831	377.19
298.062	392.19
298.292	389.19
298.523	406.19
298.753	395.19
298.984	381.19
299.214	389.19
299.445	389.19
299.675	402.19
299.905	420.19
300.136	405.19
300.366	386.19
300.597	381.19
300.827	389.19
301.057	399.19
301.288	441.19
301.518	436.19
301.748	425.19
301.979	432.19
302.209	424.19
302.439	435.19
302.669	405.19
302.9	422.19
303.13	413.19
303.36	423.19
303.59	429.19
303.82	432.19
304.051	426.19
304.281	424.19
304.511	436.19
304.741	411.19
304.971	411.19
305.201	414.19
305.431	408.19
305.661	421.19
305.891	408.19
306.121	411.19
306.352	425.19
306.582	413.19
306.812	407.19
307.042	422.19
307.272	406.19
307.502	422.19
307.731	407.19
307.961	406.19
308.191	420.19
308.421	427.19
308.651	426.19
308.881	438.19
309.111	427.19
309.341	448.19
309.571	443.19
309.8	443.19
310.03	437.19
310.26	444.19
310.49	458.19
310.72	459.19
310.949	476.19
311.179	482.19
311.409	445.19
311.639	442.19
311.868	451.19
312.098	468.19
312.328	458.19
312.557	475.19
312.787	467.19
313.017	472.19
313.246	462.19
313.476	469.19
313.706	464.19
313.935	457.19
314.165	481.19
314.394	458.19
314.624	482.19
314.853	471.19
315.083	486.19
315.312	469.19
315.542	475.19
315.771	458.19
316.001	461.19
316.23	469.19
316.46	464.19
316.689	475.19
316.919	475.19
317.148	474.19
317.377	470.19
317.607	465.19
317.836	457.19
318.065	465.19
318.295	459.19
318.524	471.19
318.753	469.19
318.983	462.19
319.212	457.19
319.441	476.19
319.67	482.19
319.9	464.19
320.129	466.19
320.358	479.19
320.587	483.19
320.816	483.19
321.046	473.19
321.275	486.19
321.504	479.19
321.733	486.19
321.962	486.19
322.191	508.19
322.42	512.19
322.649	503.19
322.878	505.19
323.108	494.19
323.337	532.19
323.566	537.19
323.795	548.19
324.024	580.19
324.253	669.19
324.482	858.19
324.71	1235.19
324.939	1806.19
325.168	1539.19
325.397	867.19
325.626	665.19
325.855	579.19
326.084	569.19
326.313	581.19
326.542	545.19
326.77	585.19
326.999	639.19
327.228	817.19
327.457	1177.19
327.686	1421.19
327.914	964.19
328.143	711.19
328.372	667.19
328.6	635.19
328.829	617.19
329.058	617.19
329.287	623.19
329.515	582.19
329.744	575.19
329.972	574.19
330.201	611.19
330.43	629.19
330.658	638.19
330.887	650.19
331.115	652.19
331.344	603.19
331.572	603.19
331.801	591.19
332.03	601.19
332.258	596.19
332.486	571.19
332.715	585.19
332.943	597.19
333.172	613.19
333.4	633.19
333.629	627.19
333.857	646.19
334.085	670.19
334.314	652.19
334.542	693.19
334.771	682.19
334.999	669.19
335.227	636.19
335.455	617.19
335.684	601.19
335.912	599.19
336.14	571.19
336.369	589.19
336.597	589.19
336.825	601.19
337.053	583.19
337.281	575.19
337.51	585.19
337.738	586.19
337.966	553.19
338.194	567.19
338.422	582.19
338.65	543.19
338.878	530.19
339.106	557.19
339.334	570.19
339.562	540.19
339.79	535.19
340.018	540.19
340.246	538.19
340.474	553.19
340.702	526.19
340.93	541.19
341.158	530.19
341.386	529.19
341.614	539.19
341.842	563.19
342.07	524.19
342.298	543.19
342.526	529.19
342.754	537.19
342.981	536.19
343.209	550.19
343.437	549.19
343.665	569.19
343.893	575.19
344.12	589.19
344.348	584.19
344.576	596.19
344.804	580.19
345.031	573.19
345.259	568.19
345.487	567.19
345.714	552.19
345.942	545.19
346.17	514.19
346.397	525.19
346.625	516.19
346.853	520.19
347.08	502.19
347.308	519.19
347.535	516.19
347.763	522.19
347.99	518.19
348.218	521.19
348.445	530.19
348.673	519.19
348.9	519.19
349.128	515.19
349.355	504.19
349.583	516.19
349.81	501.19
350.037	491.19
350.265	510.19
350.492	513.19
350.72	484.19
350.947	494.19
351.174	536.19
351.402	508.19
351.629	525.19
351.856	530.19
352.083	529.19
352.311	517.19
352.538	517.19
352.765	492.19
352.992	529.19
353.22	511.19
353.447	506.19
353.674	503.19
353.901	507.19
354.128	492.19
354.355	471.19
354.583	486.19
354.81	499.19
355.037	504.19
355.264	481.19
355.491	502.19
355.718	503.19
355.945	496.19
356.172	487.19
356.399	492.19
356.626	492.19
356.853	508.19
357.08	491.19
357.307	479.19
357.534	474.19
357.761	488.19
357.988	515.19
358.215	519.19
358.441	479.19
358.668	510.19
358.895	511.19
359.122	499.19
359.349	497.19
359.576	512.19
359.802	536.19
360.029	560.19
360.256	564.19
360.483	537.19
360.709	518.19
360.936	508.19
361.163	505.19
361.39	507.19
361.616	522.19
361.843	503.19
362.07	499.19
362.296	519.19
362.523	528.19
362.749	504.19
362.976	502.19
363.203	517.19
363.429	497.19
363.656	501.19
363.882	507.19
364.109	510.19
364.335	515.19
364.562	515.19
364.788	521.19
365.015	499.19
365.241	504.19
365.468	473.19
365.694	520.19
365.92	520.19
366.147	485.19
366.373	504.19
366.599	508.19
366.826	519.19
367.052	488.19
367.278	494.19
367.505	503.19
367.731	491.19
367.957	511.19
368.184	503.19
368.41	503.19
368.636	535.19
368.862	538.19
369.089	521.19
369.315	522.19
369.541	497.19
369.767	517.19
369.993	509.19
370.219	517.19
370.445	533.19
370.672	535.19
370.898	517.19
371.124	533.19
371.35	509.19
371.576	510.19
371.802	521.19
372.028	529.19
372.254	520.19
372.48	494.19
372.706	512.19
372.932	529.19
373.158	554.19
373.384	547.19
373.61	532.19
373.835	527.19
374.061	523.19
374.287	540.19
374.513	548.19
374.739	565.19
374.965	553.19
375.191	547.19
375.416	560.19
375.642	545.19
375.868	558.19
376.094	521.19
376.319	530.19
376.545	515.19
376.771	541.19
376.997	528.19
377.222	530.19
377.448	507.19
377.674	521.19
377.899	537.19
378.125	518.19
378.35	510.19
378.576	544.19
378.802	512.19
379.027	507.19
379.253	511.19
379.478	525.19
379.704	517.19
379.929	531.19
380.155	522.19
380.38	533.19
380.606	533.19
380.831	524.19
381.057	530.19
381.282	529.19
381.507	513.19
381.733	539.19
381.958	532.19
382.184	534.19
382.409	541.19
382.634	543.19
382.86	545.19
383.085	545.19
383.31	562.19
383.535	527.19
383.761	570.19
383.986	560.19
384.211	577.19
384.436	573.19
384.662	576.19
384.887	609.19
385.112	591.19
385.337	587.19
385.562	607.19
385.787	603.19
386.013	610.19
386.238	612.19
386.463	609.19
386.688	616.19
386.913	597.19
387.138	599.19
387.363	607.19
387.588	604.19
387.813	579.19
388.038	612.19
388.263	592.19
388.488	607.19
388.713	601.19
388.938	601.19
389.163	600.19
389.387	600.19
389.612	596.19
389.837	597.19
390.062	598.19
390.287	615.19
390.512	591.19
390.736	614.19
390.961	595.19
391.186	621.19
391.411	617.19
391.636	638.19
391.86	651.19
392.085	653.19
392.31	632.19
392.534	638.19
392.759	675.19
392.984	623.19
393.208	643.19
393.433	643.19
393.658	640.19
393.882	624.19
394.107	642.19
394.331	649.19
394.556	630.19
394.78	602.19
395.005	629.19
395.229	639.19
395.454	634.19
395.678	666.19
395.903	664.19
396.127	650.19
396.352	661.19
396.576	667.19
396.801	622.19
397.025	658.19
397.249	624.19
397.474	656.19
397.698	684.19
397.922	670.19
398.147	671.19
398.371	682.19
398.595	687.19
398.82	725.19
399.044	756.19
399.268	786.19
399.492	902.19
399.717	980.19
399.941	995.19
400.165	955.19
400.389	886.19
400.613	839.19
400.837	775.19
401.062	753.19
401.286	740.19
401.51	737.19
401.734	731.19
401.958	707.19
402.182	721.19
402.406	771.19
402.63	783.19
402.854	750.19
403.078	776.19
403.302	775.19
403.526	788.19
403.75	805.19
403.974	795.19
404.198	765.19
404.422	807.19
404.645	786.19
404.869	797.19
405.093	827.19
405.317	849.19
405.541	879.19
405.765	837.19
405.988	824.19
406.212	785.19
406.436	805.19
406.66	828.19
406.883	835.19
407.107	843.19
407.331	919.19
407.555	993.19
407.778	969.19
408.002	906.19
408.226	857.19
408.449	835.19
408.673	808.19
408.896	857.19
409.12	878.19
409.344	846.19
409.567	775.19
409.791	781.19
410.014	755.19
410.238	781.19
410.461	775.19
410.685	768.19
410.908	771.19
411.132	786.19
411.355	810.19
411.578	775.19
411.802	739.19
412.025	765.19
412.249	760.19
412.472	790.19
412.695	785.19
412.919	760.19
413.142	744.19
413.365	729.19
413.589	717.19
413.812	720.19
414.035	698.19
414.258	722.19
414.482	762.19
414.705	728.19
414.928	720.19
415.151	727.19
415.374	735.19
415.597	733.19
415.821	709.19
416.044	704.19
416.267	726.19
416.49	715.19
416.713	705.19
416.936	691.19
417.159	705.19
417.382	686.19
417.605	700.19
417.828	744.19
418.051	729.19
418.274	730.19
418.497	699.19
418.72	724.19
418.943	743.19
419.166	777.19
419.389	799.19
419.611	780.19
419.834	769.19
420.057	764.19
420.28	743.19
420.503	735.19
420.726	748.19
420.948	763.19
421.171	758.19
421.394	798.19
421.617	742.19
421.839	754.19
422.062	761.19
422.285	728.19
422.507	789.19
422.73	876.19
422.953	839.19
423.175	792.19
423.398	750.19
423.621	780.19
423.843	803.19
424.066	783.19
424.288	757.19
424.511	787.19
424.733	833.19
424.956	898.19
425.178	869.19
425.401	859.19
425.623	856.19
425.846	797.19
426.068	763.19
426.291	742.19
426.513	741.19
426.735	736.19
426.958	777.19
427.18	827.19
427.402	926.19
427.625	975.19
427.847	911.19
428.069	796.19
428.292	785.19
428.514	728.19
428.736	707.19
428.958	691.19
429.181	671.19
429.403	669.19
429.625	700.19
429.847	728.19
430.069	733.19
430.292	741.19
430.514	681.19
430.736	691.19
430.958	660.19
431.18	672.19
431.402	680.19
431.624	668.19
431.846	648.19
432.068	645.19
432.29	676.19
432.512	661.19
432.734	671.19
432.956	686.19
433.178	664.19
433.4	667.19
433.622	650.19
433.844	663.19
434.066	677.19
434.287	680.19
434.509	710.19
434.731	687.19
434.953	719.19
435.175	739.19
435.397	750.19
435.618	749.19
435.84	770.19
436.062	829.19
436.284	900.19
436.505	792.19
436.727	711.19
436.949	709.19
437.17	687.19
437.392	653.19
437.614	664.19
437.835	689.19
438.057	786.19
438.278	877.19
438.5	864.19
438.721	898.19
438.943	919.19
439.165	805.19
439.386	714.19
439.608	721.19
439.829	739.19
440.05	760.19
440.272	762.19
440.493	740.19
440.715	714.19
440.936	714.19
441.158	700.19
441.379	701.19
441.6	736.19
441.822	746.19
442.043	813.19
442.264	854.19
442.486	883.19
442.707	779.19
442.928	731.19
443.149	750.19
443.371	769.19
443.592	816.19
443.813	891.19
444.034	973.19
444.255	862.19
444.476	812.19
444.698	793.19
444.919	823.19
445.14	895.19
445.361	843.19
445.582	800.19
445.803	811.19
446.024	890.19
446.245	905.19
446.466	836.19
446.687	729.19
446.908	719.19
447.129	713.19
447.35	663.19
447.571	706.19
447.792	653.19
448.013	647.19
448.234	668.19
448.455	719.19
448.675	816.19
448.896	892.19
449.117	808.19
449.338	747.19
449.559	865.19
449.779	927.19
450	768.19
450.221	696.19
450.442	651.19
450.662	631.19
450.883	645.19
451.104	671.19
451.324	632.19
451.545	622.19
451.766	617.19
451.986	615.19
452.207	589.19
452.428	600.19
452.648	606.19
452.869	580.19
453.089	629.19
453.31	640.19
453.53	614.19
453.751	606.19
453.971	603.19
454.192	617.19
454.412	613.19
454.633	602.19
454.853	588.19
455.073	580.19
455.294	607.19
455.514	669.19
455.734	684.19
455.955	580.19
456.175	569.19
456.395	575.19
456.616	556.19
456.836	561.19
457.056	565.19
457.276	557.19
457.497	586.19
457.717	571.19
457.937	565.19
458.157	558.19
458.377	600.19
458.598	614.19
458.818	633.19
459.038	713.19
459.258	758.19
459.478	720.19
459.698	699.19
459.918	691.19
460.138	676.19
460.358	704.19
460.578	723.19
460.798	723.19
461.018	740.19
461.238	734.19
461.458	733.19
461.678	692.19
461.898	738.19
462.118	727.19
462.338	772.19
462.558	784.19
462.777	829.19
462.997	838.19
463.217	849.19
463.437	875.19
463.657	847.19
463.876	777.19
464.096	795.19
464.316	804.19
464.536	839.19
464.755	796.19
464.975	777.19
465.195	794.19
465.414	828.19
465.634	742.19
465.854	704.19
466.073	713.19
466.293	669.19
466.512	639.19
466.732	649.19
466.951	653.19
467.171	619.19
467.391	659.19
467.61	663.19
467.829	647.19
468.049	657.19
468.268	631.19
468.488	629.19
468.707	616.19
468.927	611.19
469.146	629.19
469.365	624.19
469.585	627.19
469.804	633.19
470.023	685.19
470.243	662.19
470.462	655.19
470.681	663.19
470.901	675.19
471.12	660.19
471.339	678.19
471.558	656.19
471.777	664.19
471.997	651.19
472.216	651.19
472.435	688.19
472.654	651.19
472.873	617.19
473.092	648.19
473.311	607.19
473.53	621.19
473.749	633.19
473.968	641.19
474.187	734.19
474.406	728.19
474.625	663.19
474.844	651.19
475.063	638.19
475.282	618.19
475.501	619.19
475.72	643.19
475.939	655.19
476.158	651.19
476.377	622.19
476.596	631.19
476.814	667.19
477.033	667.19
477.252	666.19
477.471	670.19
477.69	679.19
477.908	692.19
478.127	719.19
478.346	712.19
478.564	744.19
478.783	751.19
479.002	776.19
479.22	774.19
479.439	762.19
479.658	782.19
479.876	805.19
480.095	779.19
480.313	817.19
480.532	798.19
480.751	833.19
480.969	805.19
481.188	839.19
481.406	875.19
481.624	808.19
481.843	768.19
482.061	748.19
482.28	710.19
482.498	722.19
482.717	729.19
482.935	746.19
483.153	734.19
483.372	720.19
483.59	740.19
483.808	718.19
484.027	740.19
484.245	767.19
484.463	736.19
484.681	776.19
484.9	752.19
485.118	749.19
485.336	749.19
485.554	774.19
485.772	784.19
485.99	768.19
486.209	775.19
486.427	765.19
486.645	775.19
486.863	803.19
487.081	803.19
487.299	789.19
487.517	784.19
487.735	779.19
487.953	792.19
488.171	773.19
488.389	776.19
488.607	783.19
488.825	773.19
489.043	803.19
489.261	749.19
489.479	786.19
489.696	792.19
489.914	786.19
490.132	831.19
490.35	789.19
490.568	850.19
490.786	803.19
491.003	833.19
491.221	854.19
491.439	850.19
491.657	858.19
491.874	853.19
492.092	855.19
492.31	886.19
492.527	891.19
492.745	898.19
492.963	913.19
493.18	900.19
493.398	899.19
493.615	925.19
493.833	899.19
494.05	891.19
494.268	934.19
494.485	929.19
494.703	884.19
494.92	907.19
495.138	913.19
495.355	907.19
495.573	901.19
495.79	903.19
496.008	912.19
496.225	938.19
496.442	937.19
496.66	929.19
496.877	927.19
497.094	932.19
497.312	968.19
497.529	972.19
497.746	970.19
497.963	1005.19
498.181	1034.19
498.398	1050.19
498.615	1116.19
498.832	1169.19
499.049	1182.19
499.267	1286.19
499.484	1337.19
499.701	1427.19
499.918	1529.19
500.135	1651.19
500.352	1795.19
500.569	1878.19
500.786	1864.19
501.003	1800.19
501.22	1660.19
501.437	1518.19
501.654	1441.19
