Data from 1963.PennyLincolnUp.Lamp.En5.5.200Scan.071719.P1._HRD10591_14-00-04-063.txt Node
Date: Thu Jul 18 14:00:04 EDT 2019
User: cochatt
Spectrometer: HR+D1059
Trigger mode: 1
Integration Time (sec): 1.000000E-1
Scans to average: 1
Electric dark correction enabled: true
Nonlinearity correction enabled: false
Boxcar width: 0
XAxis mode: Wavelengths
Number of Pixels in Spectrum: 2048
>>>>>Begin Spectral Data<<<<<
223.165	-20.88
223.4	-20.88
223.635	-20.88
223.869	-4.88
224.104	-6.88
224.338	-23.88
224.573	-12.88
224.808	-16.88
225.042	-2.88
225.277	-12.88
225.511	3.12
225.746	4.12
225.98	4.12
226.215	19.12
226.449	14.12
226.683	9.12
226.918	20.12
227.152	28.12
227.387	39.12
227.621	23.12
227.856	28.12
228.09	50.12
228.324	57.12
228.559	52.12
228.793	70.12
229.027	100.12
229.262	107.12
229.496	109.12
229.73	119.12
229.964	133.12
230.199	125.12
230.433	118.12
230.667	112.12
230.901	112.12
231.136	104.12
231.37	91.12
231.604	127.12
231.838	122.12
232.072	135.12
232.306	121.12
232.541	95.12
232.775	118.12
233.009	108.12
233.243	120.12
233.477	111.12
233.711	124.12
233.945	135.12
234.179	103.12
234.413	122.12
234.647	107.12
234.881	123.12
235.115	129.12
235.349	131.12
235.583	118.12
235.817	120.12
236.051	115.12
236.285	132.12
236.519	107.12
236.753	124.12
236.987	155.12
237.221	162.12
237.455	199.12
237.689	171.12
237.922	146.12
238.156	130.12
238.39	152.12
238.624	128.12
238.858	128.12
239.091	135.12
239.325	128.12
239.559	136.12
239.793	126.12
240.027	135.12
240.26	137.12
240.494	160.12
240.728	160.12
240.961	168.12
241.195	159.12
241.429	150.12
241.662	149.12
241.896	148.12
242.13	153.12
242.363	133.12
242.597	153.12
242.83	156.12
243.064	134.12
243.298	144.12
243.531	144.12
243.765	144.12
243.998	155.12
244.232	163.12
244.465	164.12
244.699	176.12
244.932	157.12
245.166	155.12
245.399	148.12
245.633	151.12
245.866	153.12
246.099	171.12
246.333	181.12
246.566	181.12
246.8	172.12
247.033	168.12
247.266	179.12
247.5	173.12
247.733	180.12
247.966	179.12
248.2	187.12
248.433	194.12
248.666	176.12
248.899	201.12
249.133	204.12
249.366	223.12
249.599	220.12
249.832	188.12
250.066	184.12
250.299	202.12
250.532	204.12
250.765	195.12
250.998	222.12
251.231	229.12
251.465	231.12
251.698	216.12
251.931	233.12
252.164	211.12
252.397	213.12
252.63	215.12
252.863	212.12
253.096	241.12
253.329	227.12
253.562	235.12
253.795	230.12
254.028	208.12
254.261	208.12
254.494	228.12
254.727	273.12
254.96	278.12
255.193	263.12
255.426	244.12
255.659	255.12
255.892	247.12
256.124	253.12
256.357	240.12
256.59	224.12
256.823	232.12
257.056	231.12
257.289	231.12
257.521	228.12
257.754	228.12
257.987	211.12
258.22	236.12
258.452	223.12
258.685	241.12
258.918	224.12
259.151	227.12
259.383	248.12
259.616	222.12
259.849	260.12
260.081	243.12
260.314	242.12
260.547	272.12
260.779	269.12
261.012	263.12
261.244	240.12
261.477	251.12
261.71	243.12
261.942	241.12
262.175	251.12
262.407	265.12
262.64	240.12
262.872	244.12
263.105	265.12
263.337	243.12
263.57	227.12
263.802	241.12
264.035	252.12
264.267	243.12
264.499	222.12
264.732	236.12
264.964	253.12
265.197	228.12
265.429	260.12
265.661	247.12
265.894	233.12
266.126	244.12
266.358	265.12
266.591	250.12
266.823	267.12
267.055	260.12
267.287	265.12
267.52	255.12
267.752	250.12
267.984	262.12
268.216	267.12
268.448	272.12
268.681	268.12
268.913	271.12
269.145	277.12
269.377	308.12
269.609	289.12
269.841	307.12
270.073	287.12
270.306	323.12
270.538	340.12
270.77	332.12
271.002	331.12
271.234	338.12
271.466	309.12
271.698	305.12
271.93	325.12
272.162	330.12
272.394	338.12
272.626	330.12
272.858	298.12
273.09	312.12
273.322	305.12
273.553	290.12
273.785	298.12
274.017	288.12
274.249	305.12
274.481	311.12
274.713	299.12
274.945	310.12
275.176	305.12
275.408	308.12
275.64	308.12
275.872	291.12
276.104	324.12
276.335	303.12
276.567	285.12
276.799	311.12
277.031	348.12
277.262	354.12
277.494	351.12
277.726	320.12
277.957	347.12
278.189	331.12
278.421	328.12
278.652	313.12
278.884	311.12
279.115	306.12
279.347	298.12
279.579	301.12
279.81	311.12
280.042	323.12
280.273	298.12
280.505	322.12
280.736	320.12
280.968	326.12
281.199	312.12
281.431	328.12
281.662	320.12
281.894	313.12
282.125	324.12
282.356	340.12
282.588	345.12
282.819	331.12
283.051	340.12
283.282	324.12
283.513	334.12
283.745	339.12
283.976	315.12
284.207	336.12
284.439	339.12
284.67	335.12
284.901	336.12
285.132	331.12
285.364	331.12
285.595	343.12
285.826	326.12
286.057	358.12
286.288	346.12
286.52	343.12
286.751	340.12
286.982	338.12
287.213	357.12
287.444	354.12
287.675	340.12
287.906	361.12
288.138	377.12
288.369	354.12
288.6	358.12
288.831	371.12
289.062	385.12
289.293	373.12
289.524	351.12
289.755	346.12
289.986	341.12
290.217	371.12
290.448	361.12
290.679	365.12
290.91	360.12
291.141	334.12
291.371	349.12
291.602	342.12
291.833	351.12
292.064	344.12
292.295	357.12
292.526	356.12
292.757	357.12
292.987	361.12
293.218	351.12
293.449	368.12
293.68	351.12
293.91	356.12
294.141	364.12
294.372	371.12
294.603	360.12
294.833	379.12
295.064	371.12
295.295	371.12
295.525	371.12
295.756	367.12
295.987	390.12
296.217	387.12
296.448	380.12
296.679	364.12
296.909	367.12
297.14	375.12
297.37	394.12
297.601	373.12
297.831	384.12
298.062	385.12
298.292	388.12
298.523	394.12
298.753	394.12
298.984	390.12
299.214	372.12
299.445	371.12
299.675	388.12
299.905	394.12
300.136	367.12
300.366	378.12
300.597	391.12
300.827	408.12
301.057	415.12
301.288	410.12
301.518	407.12
301.748	396.12
301.979	417.12
302.209	412.12
302.439	416.12
302.669	408.12
302.9	424.12
303.13	402.12
303.36	417.12
303.59	419.12
303.82	405.12
304.051	415.12
304.281	443.12
304.511	411.12
304.741	408.12
304.971	410.12
305.201	411.12
305.431	398.12
305.661	411.12
305.891	402.12
306.121	415.12
306.352	413.12
306.582	399.12
306.812	405.12
307.042	415.12
307.272	404.12
307.502	412.12
307.731	429.12
307.961	427.12
308.191	393.12
308.421	403.12
308.651	390.12
308.881	407.12
309.111	420.12
309.341	431.12
309.571	421.12
309.8	426.12
310.03	426.12
310.26	424.12
310.49	429.12
310.72	439.12
310.949	434.12
311.179	445.12
311.409	449.12
311.639	448.12
311.868	448.12
312.098	448.12
312.328	450.12
312.557	451.12
312.787	449.12
313.017	445.12
313.246	452.12
313.476	479.12
313.706	455.12
313.935	467.12
314.165	452.12
314.394	468.12
314.624	458.12
314.853	452.12
315.083	461.12
315.312	454.12
315.542	448.12
315.771	468.12
316.001	450.12
316.23	451.12
316.46	457.12
316.689	459.12
316.919	457.12
317.148	447.12
317.377	472.12
317.607	456.12
317.836	463.12
318.065	439.12
318.295	459.12
318.524	452.12
318.753	457.12
318.983	457.12
319.212	444.12
319.441	467.12
319.67	449.12
319.9	460.12
320.129	448.12
320.358	453.12
320.587	470.12
320.816	473.12
321.046	457.12
321.275	484.12
321.504	465.12
321.733	473.12
321.962	483.12
322.191	473.12
322.42	486.12
322.649	496.12
322.878	497.12
323.108	516.12
323.337	536.12
323.566	538.12
323.795	549.12
324.024	575.12
324.253	652.12
324.482	822.12
324.71	1208.12
324.939	1716.12
325.168	1514.12
325.397	835.12
325.626	629.12
325.855	570.12
326.084	541.12
326.313	537.12
326.542	539.12
326.77	600.12
326.999	648.12
327.228	801.12
327.457	1127.12
327.686	1394.12
327.914	985.12
328.143	643.12
328.372	616.12
328.6	611.12
328.829	586.12
329.058	576.12
329.287	605.12
329.515	590.12
329.744	561.12
329.972	556.12
330.201	578.12
330.43	613.12
330.658	619.12
330.887	638.12
331.115	603.12
331.344	583.12
331.572	560.12
331.801	565.12
332.03	588.12
332.258	570.12
332.486	577.12
332.715	567.12
332.943	590.12
333.172	626.12
333.4	608.12
333.629	619.12
333.857	633.12
334.085	661.12
334.314	633.12
334.542	669.12
334.771	683.12
334.999	614.12
335.227	602.12
335.455	593.12
335.684	585.12
335.912	616.12
336.14	560.12
336.369	583.12
336.597	579.12
336.825	614.12
337.053	576.12
337.281	535.12
337.51	554.12
337.738	549.12
337.966	558.12
338.194	556.12
338.422	567.12
338.65	549.12
338.878	563.12
339.106	550.12
339.334	545.12
339.562	522.12
339.79	495.12
340.018	519.12
340.246	529.12
340.474	545.12
340.702	518.12
340.93	541.12
341.158	535.12
341.386	522.12
341.614	516.12
341.842	537.12
342.07	510.12
342.298	529.12
342.526	519.12
342.754	512.12
342.981	548.12
343.209	532.12
343.437	545.12
343.665	572.12
343.893	574.12
344.12	612.12
344.348	604.12
344.576	553.12
344.804	567.12
345.031	543.12
345.259	553.12
345.487	532.12
345.714	531.12
345.942	517.12
346.17	517.12
346.397	490.12
346.625	519.12
346.853	511.12
347.08	506.12
347.308	513.12
347.535	524.12
347.763	497.12
347.99	495.12
348.218	518.12
348.445	520.12
348.673	529.12
348.9	512.12
349.128	487.12
349.355	513.12
349.583	501.12
349.81	481.12
350.037	493.12
350.265	502.12
350.492	492.12
350.72	489.12
350.947	498.12
351.174	503.12
351.402	511.12
351.629	520.12
351.856	495.12
352.083	502.12
352.311	507.12
352.538	494.12
352.765	532.12
352.992	526.12
353.22	500.12
353.447	503.12
353.674	486.12
353.901	496.12
354.128	476.12
354.355	485.12
354.583	480.12
354.81	480.12
355.037	473.12
355.264	463.12
355.491	474.12
355.718	481.12
355.945	482.12
356.172	501.12
356.399	505.12
356.626	493.12
356.853	498.12
357.08	467.12
357.307	492.12
357.534	479.12
357.761	486.12
357.988	509.12
358.215	482.12
358.441	503.12
358.668	491.12
358.895	500.12
359.122	485.12
359.349	500.12
359.576	503.12
359.802	511.12
360.029	518.12
360.256	545.12
360.483	511.12
360.709	533.12
360.936	499.12
361.163	522.12
361.39	512.12
361.616	519.12
361.843	516.12
362.07	501.12
362.296	497.12
362.523	507.12
362.749	525.12
362.976	499.12
363.203	490.12
363.429	495.12
363.656	484.12
363.882	497.12
364.109	491.12
364.335	497.12
364.562	474.12
364.788	491.12
365.015	511.12
365.241	488.12
365.468	499.12
365.694	494.12
365.92	492.12
366.147	511.12
366.373	499.12
366.599	506.12
366.826	506.12
367.052	465.12
367.278	468.12
367.505	475.12
367.731	497.12
367.957	472.12
368.184	504.12
368.41	511.12
368.636	499.12
368.862	525.12
369.089	483.12
369.315	500.12
369.541	510.12
369.767	490.12
369.993	492.12
370.219	500.12
370.445	513.12
370.672	490.12
370.898	511.12
371.124	517.12
371.35	509.12
371.576	511.12
371.802	505.12
372.028	513.12
372.254	495.12
372.48	521.12
372.706	531.12
372.932	508.12
373.158	526.12
373.384	513.12
373.61	511.12
373.835	552.12
374.061	518.12
374.287	508.12
374.513	512.12
374.739	566.12
374.965	515.12
375.191	535.12
375.416	560.12
375.642	553.12
375.868	554.12
376.094	531.12
376.319	522.12
376.545	520.12
376.771	537.12
376.997	533.12
377.222	508.12
377.448	507.12
377.674	509.12
377.899	512.12
378.125	506.12
378.35	493.12
378.576	516.12
378.802	534.12
379.027	529.12
379.253	523.12
379.478	514.12
379.704	520.12
379.929	517.12
380.155	487.12
380.38	491.12
380.606	504.12
380.831	520.12
381.057	525.12
381.282	528.12
381.507	524.12
381.733	525.12
381.958	518.12
382.184	521.12
382.409	524.12
382.634	532.12
382.86	508.12
383.085	544.12
383.31	533.12
383.535	525.12
383.761	557.12
383.986	549.12
384.211	585.12
384.436	561.12
384.662	559.12
384.887	584.12
385.112	572.12
385.337	594.12
385.562	577.12
385.787	587.12
386.013	603.12
386.238	599.12
386.463	608.12
386.688	595.12
386.913	587.12
387.138	581.12
387.363	593.12
387.588	602.12
387.813	607.12
388.038	596.12
388.263	593.12
388.488	575.12
388.713	586.12
388.938	584.12
389.163	585.12
389.387	572.12
389.612	582.12
389.837	598.12
390.062	569.12
390.287	560.12
390.512	592.12
390.736	594.12
390.961	614.12
391.186	605.12
391.411	600.12
391.636	617.12
391.86	619.12
392.085	652.12
392.31	637.12
392.534	625.12
392.759	608.12
392.984	614.12
393.208	632.12
393.433	615.12
393.658	603.12
393.882	613.12
394.107	612.12
394.331	613.12
394.556	611.12
394.78	631.12
395.005	624.12
395.229	622.12
395.454	624.12
395.678	630.12
395.903	652.12
396.127	663.12
396.352	665.12
396.576	643.12
396.801	607.12
397.025	635.12
397.249	631.12
397.474	636.12
397.698	653.12
397.922	671.12
398.147	653.12
398.371	661.12
398.595	676.12
398.82	699.12
399.044	753.12
399.268	798.12
399.492	869.12
399.717	942.12
399.941	943.12
400.165	916.12
400.389	874.12
400.613	820.12
400.837	767.12
401.062	741.12
401.286	730.12
401.51	709.12
401.734	714.12
401.958	716.12
402.182	736.12
402.406	745.12
402.63	718.12
402.854	748.12
403.078	747.12
403.302	746.12
403.526	767.12
403.75	793.12
403.974	791.12
404.198	801.12
404.422	795.12
404.645	763.12
404.869	778.12
405.093	795.12
405.317	820.12
405.541	859.12
405.765	798.12
405.988	789.12
406.212	808.12
406.436	795.12
406.66	805.12
406.883	823.12
407.107	824.12
407.331	901.12
407.555	964.12
407.778	946.12
408.002	890.12
408.226	841.12
408.449	835.12
408.673	781.12
408.896	827.12
409.12	844.12
409.344	833.12
409.567	771.12
409.791	744.12
410.014	717.12
410.238	767.12
410.461	738.12
410.685	733.12
410.908	765.12
411.132	801.12
411.355	817.12
411.578	775.12
411.802	720.12
412.025	731.12
412.249	770.12
412.472	785.12
412.695	800.12
412.919	778.12
413.142	736.12
413.365	716.12
413.589	717.12
413.812	741.12
414.035	701.12
414.258	717.12
414.482	707.12
414.705	721.12
414.928	717.12
415.151	720.12
415.374	703.12
415.597	695.12
415.821	684.12
416.044	697.12
416.267	718.12
416.49	696.12
416.713	676.12
416.936	704.12
417.159	682.12
417.382	689.12
417.605	701.12
417.828	709.12
418.051	728.12
418.274	726.12
418.497	716.12
418.72	725.12
418.943	699.12
419.166	727.12
419.389	784.12
419.611	783.12
419.834	740.12
420.057	733.12
420.28	703.12
420.503	699.12
420.726	703.12
420.948	695.12
421.171	755.12
421.394	771.12
421.617	742.12
421.839	744.12
422.062	713.12
422.285	713.12
422.507	758.12
422.73	851.12
422.953	823.12
423.175	773.12
423.398	736.12
423.621	743.12
423.843	770.12
424.066	752.12
424.288	779.12
424.511	785.12
424.733	835.12
424.956	895.12
425.178	842.12
425.401	820.12
425.623	841.12
425.846	747.12
426.068	739.12
426.291	735.12
426.513	708.12
426.735	707.12
426.958	765.12
427.18	784.12
427.402	923.12
427.625	974.12
427.847	889.12
428.069	787.12
428.292	738.12
428.514	712.12
428.736	698.12
428.958	678.12
429.181	678.12
429.403	666.12
429.625	664.12
429.847	698.12
430.069	758.12
430.292	734.12
430.514	674.12
430.736	669.12
430.958	654.12
431.18	661.12
431.402	681.12
431.624	638.12
431.846	651.12
432.068	654.12
432.29	669.12
432.512	639.12
432.734	673.12
432.956	662.12
433.178	647.12
433.4	650.12
433.622	650.12
433.844	642.12
434.066	674.12
434.287	644.12
434.509	661.12
434.731	706.12
434.953	728.12
435.175	716.12
435.397	738.12
435.618	711.12
435.84	727.12
436.062	809.12
436.284	855.12
436.505	756.12
436.727	711.12
436.949	665.12
437.17	673.12
437.392	664.12
437.614	681.12
437.835	671.12
438.057	753.12
438.278	836.12
438.5	846.12
438.721	893.12
438.943	868.12
439.165	756.12
439.386	729.12
439.608	697.12
439.829	692.12
440.05	697.12
440.272	756.12
440.493	723.12
440.715	674.12
440.936	675.12
441.158	683.12
441.379	666.12
441.6	722.12
441.822	724.12
442.043	775.12
442.264	807.12
442.486	863.12
442.707	761.12
442.928	739.12
443.149	745.12
443.371	751.12
443.592	804.12
443.813	872.12
444.034	924.12
444.255	842.12
444.476	792.12
444.698	820.12
444.919	819.12
445.14	890.12
445.361	822.12
445.582	777.12
445.803	802.12
446.024	876.12
446.245	914.12
446.466	814.12
446.687	741.12
446.908	702.12
447.129	675.12
447.35	661.12
447.571	637.12
447.792	636.12
448.013	660.12
448.234	641.12
448.455	683.12
448.675	785.12
448.896	863.12
449.117	748.12
449.338	756.12
449.559	829.12
449.779	960.12
450	760.12
450.221	706.12
450.442	642.12
450.662	629.12
450.883	614.12
451.104	631.12
451.324	610.12
451.545	612.12
451.766	616.12
451.986	580.12
452.207	586.12
452.428	593.12
452.648	599.12
452.869	581.12
453.089	592.12
453.31	608.12
453.53	598.12
453.751	583.12
453.971	577.12
454.192	589.12
454.412	593.12
454.633	588.12
454.853	581.12
455.073	569.12
455.294	607.12
455.514	658.12
455.734	645.12
455.955	596.12
456.175	564.12
456.395	569.12
456.616	554.12
456.836	559.12
457.056	548.12
457.276	559.12
457.497	581.12
457.717	570.12
457.937	575.12
458.157	568.12
458.377	561.12
458.598	595.12
458.818	640.12
459.038	715.12
459.258	767.12
459.478	691.12
459.698	671.12
459.918	668.12
460.138	671.12
460.358	717.12
460.578	694.12
460.798	705.12
461.018	731.12
461.238	709.12
461.458	689.12
461.678	717.12
461.898	707.12
462.118	732.12
462.338	727.12
462.558	776.12
462.777	772.12
462.997	825.12
463.217	884.12
463.437	852.12
463.657	820.12
463.876	796.12
464.096	794.12
464.316	782.12
464.536	797.12
464.755	785.12
464.975	749.12
465.195	784.12
465.414	831.12
465.634	741.12
465.854	709.12
466.073	674.12
466.293	643.12
466.512	610.12
466.732	619.12
466.951	615.12
467.171	609.12
467.391	641.12
467.61	636.12
467.829	652.12
468.049	641.12
468.268	633.12
468.488	579.12
468.707	590.12
468.927	613.12
469.146	596.12
469.365	635.12
469.585	599.12
469.804	615.12
470.023	623.12
470.243	620.12
470.462	637.12
470.681	643.12
470.901	656.12
471.12	645.12
471.339	624.12
471.558	611.12
471.777	645.12
471.997	626.12
472.216	631.12
472.435	669.12
472.654	632.12
472.873	617.12
473.092	609.12
473.311	607.12
473.53	599.12
473.749	640.12
473.968	654.12
474.187	717.12
474.406	729.12
474.625	655.12
474.844	625.12
475.063	601.12
475.282	611.12
475.501	631.12
475.72	631.12
475.939	633.12
476.158	629.12
476.377	624.12
476.596	640.12
476.814	665.12
477.033	671.12
477.252	661.12
477.471	659.12
477.69	668.12
477.908	657.12
478.127	711.12
478.346	724.12
478.564	707.12
478.783	729.12
479.002	718.12
479.22	756.12
479.439	737.12
479.658	775.12
479.876	779.12
480.095	739.12
480.313	804.12
480.532	806.12
480.751	815.12
480.969	801.12
481.188	824.12
481.406	835.12
481.624	785.12
481.843	752.12
482.061	755.12
482.28	744.12
482.498	717.12
482.717	696.12
482.935	727.12
483.153	713.12
483.372	673.12
483.59	708.12
483.808	715.12
484.027	714.12
484.245	724.12
484.463	731.12
484.681	735.12
484.9	732.12
485.118	715.12
485.336	728.12
485.554	734.12
485.772	753.12
485.99	764.12
486.209	753.12
486.427	746.12
486.645	767.12
486.863	764.12
487.081	776.12
487.299	777.12
487.517	769.12
487.735	736.12
487.953	762.12
488.171	761.12
488.389	760.12
488.607	756.12
488.825	756.12
489.043	753.12
489.261	751.12
489.479	804.12
489.696	777.12
489.914	780.12
490.132	794.12
490.35	804.12
490.568	788.12
490.786	819.12
491.003	808.12
491.221	817.12
491.439	842.12
491.657	824.12
491.874	839.12
492.092	834.12
492.31	842.12
492.527	863.12
492.745	870.12
492.963	866.12
493.18	866.12
493.398	901.12
493.615	865.12
493.833	881.12
494.05	874.12
494.268	887.12
494.485	900.12
494.703	896.12
494.92	885.12
495.138	877.12
495.355	895.12
495.573	887.12
495.79	890.12
496.008	923.12
496.225	921.12
496.442	896.12
496.66	921.12
496.877	929.12
497.094	934.12
497.312	925.12
497.529	958.12
497.746	934.12
497.963	971.12
498.181	996.12
498.398	1054.12
498.615	1076.12
498.832	1116.12
499.049	1184.12
499.267	1263.12
499.484	1313.12
499.701	1398.12
499.918	1500.12
500.135	1616.12
500.352	1751.12
500.569	1831.12
500.786	1852.12
501.003	1745.12
501.22	1653.12
501.437	1532.12
501.654	1415.12
