Data from 1963.PennyLincolnUp.Lamp.En5.5.200Scan.071719.P1._HRD10591_14-00-05-064.txt Node
Date: Thu Jul 18 14:00:05 EDT 2019
User: cochatt
Spectrometer: HR+D1059
Trigger mode: 1
Integration Time (sec): 1.000000E-1
Scans to average: 1
Electric dark correction enabled: true
Nonlinearity correction enabled: false
Boxcar width: 0
XAxis mode: Wavelengths
Number of Pixels in Spectrum: 2048
>>>>>Begin Spectral Data<<<<<
223.165	-14.12
223.4	-14.12
223.635	-14.12
223.869	-10.12
224.104	-1.12
224.338	-16.12
224.573	-19.12
224.808	-1.12
225.042	3.88
225.277	-13.12
225.511	-33.12
225.746	-4.12
225.98	15.88
226.215	15.88
226.449	12.88
226.683	17.88
226.918	15.88
227.152	29.88
227.387	30.88
227.621	43.88
227.856	43.88
228.09	45.88
228.324	40.88
228.559	52.88
228.793	61.88
229.027	117.88
229.262	107.88
229.496	120.88
229.73	133.88
229.964	156.88
230.199	133.88
230.433	114.88
230.667	123.88
230.901	113.88
231.136	109.88
231.37	110.88
231.604	120.88
231.838	124.88
232.072	134.88
232.306	130.88
232.541	111.88
232.775	135.88
233.009	139.88
233.243	129.88
233.477	129.88
233.711	112.88
233.945	128.88
234.179	122.88
234.413	114.88
234.647	119.88
234.881	127.88
235.115	141.88
235.349	132.88
235.583	127.88
235.817	128.88
236.051	133.88
236.285	135.88
236.519	129.88
236.753	137.88
236.987	139.88
237.221	157.88
237.455	227.88
237.689	165.88
237.922	145.88
238.156	146.88
238.39	133.88
238.624	144.88
238.858	145.88
239.091	140.88
239.325	133.88
239.559	158.88
239.793	142.88
240.027	151.88
240.26	155.88
240.494	170.88
240.728	159.88
240.961	162.88
241.195	155.88
241.429	157.88
241.662	150.88
241.896	153.88
242.13	140.88
242.363	147.88
242.597	159.88
242.83	154.88
243.064	150.88
243.298	165.88
243.531	156.88
243.765	162.88
243.998	167.88
244.232	155.88
244.465	171.88
244.699	173.88
244.932	168.88
245.166	172.88
245.399	177.88
245.633	169.88
245.866	161.88
246.099	174.88
246.333	166.88
246.566	163.88
246.8	178.88
247.033	174.88
247.266	173.88
247.5	171.88
247.733	176.88
247.966	211.88
248.2	189.88
248.433	203.88
248.666	192.88
248.899	193.88
249.133	225.88
249.366	215.88
249.599	199.88
249.832	205.88
250.066	192.88
250.299	214.88
250.532	199.88
250.765	229.88
250.998	242.88
251.231	253.88
251.465	232.88
251.698	226.88
251.931	206.88
252.164	225.88
252.397	225.88
252.63	232.88
252.863	211.88
253.096	235.88
253.329	247.88
253.562	242.88
253.795	245.88
254.028	238.88
254.261	227.88
254.494	232.88
254.727	245.88
254.96	268.88
255.193	294.88
255.426	231.88
255.659	257.88
255.892	250.88
256.124	241.88
256.357	256.88
256.59	251.88
256.823	233.88
257.056	251.88
257.289	216.88
257.521	217.88
257.754	201.88
257.987	223.88
258.22	236.88
258.452	226.88
258.685	233.88
258.918	225.88
259.151	246.88
259.383	230.88
259.616	238.88
259.849	241.88
260.081	269.88
260.314	257.88
260.547	261.88
260.779	268.88
261.012	248.88
261.244	248.88
261.477	263.88
261.71	229.88
261.942	245.88
262.175	273.88
262.407	272.88
262.64	255.88
262.872	223.88
263.105	253.88
263.337	250.88
263.57	253.88
263.802	250.88
264.035	251.88
264.267	265.88
264.499	245.88
264.732	257.88
264.964	241.88
265.197	273.88
265.429	261.88
265.661	265.88
265.894	266.88
266.126	264.88
266.358	239.88
266.591	255.88
266.823	254.88
267.055	273.88
267.287	275.88
267.52	245.88
267.752	270.88
267.984	263.88
268.216	261.88
268.448	280.88
268.681	284.88
268.913	280.88
269.145	304.88
269.377	311.88
269.609	307.88
269.841	306.88
270.073	316.88
270.306	314.88
270.538	354.88
270.77	354.88
271.002	303.88
271.234	309.88
271.466	327.88
271.698	353.88
271.93	345.88
272.162	351.88
272.394	336.88
272.626	321.88
272.858	321.88
273.09	313.88
273.322	303.88
273.553	311.88
273.785	281.88
274.017	306.88
274.249	301.88
274.481	299.88
274.713	297.88
274.945	322.88
275.176	321.88
275.408	315.88
275.64	316.88
275.872	318.88
276.104	304.88
276.335	309.88
276.567	317.88
276.799	336.88
277.031	344.88
277.262	376.88
277.494	354.88
277.726	329.88
277.957	336.88
278.189	327.88
278.421	311.88
278.652	306.88
278.884	326.88
279.115	301.88
279.347	314.88
279.579	313.88
279.81	303.88
280.042	331.88
280.273	328.88
280.505	314.88
280.736	332.88
280.968	330.88
281.199	318.88
281.431	344.88
281.662	313.88
281.894	318.88
282.125	365.88
282.356	320.88
282.588	352.88
282.819	354.88
283.051	329.88
283.282	317.88
283.513	347.88
283.745	332.88
283.976	333.88
284.207	345.88
284.439	335.88
284.67	327.88
284.901	340.88
285.132	334.88
285.364	338.88
285.595	365.88
285.826	345.88
286.057	358.88
286.288	357.88
286.52	345.88
286.751	363.88
286.982	368.88
287.213	344.88
287.444	367.88
287.675	349.88
287.906	351.88
288.138	365.88
288.369	373.88
288.6	345.88
288.831	370.88
289.062	362.88
289.293	377.88
289.524	345.88
289.755	352.88
289.986	365.88
290.217	374.88
290.448	367.88
290.679	385.88
290.91	355.88
291.141	365.88
291.371	379.88
291.602	366.88
291.833	343.88
292.064	373.88
292.295	351.88
292.526	345.88
292.757	367.88
292.987	377.88
293.218	366.88
293.449	365.88
293.68	381.88
293.91	383.88
294.141	373.88
294.372	362.88
294.603	367.88
294.833	378.88
295.064	362.88
295.295	380.88
295.525	384.88
295.756	371.88
295.987	389.88
296.217	387.88
296.448	403.88
296.679	373.88
296.909	377.88
297.14	381.88
297.37	380.88
297.601	386.88
297.831	370.88
298.062	370.88
298.292	399.88
298.523	426.88
298.753	395.88
298.984	382.88
299.214	393.88
299.445	389.88
299.675	399.88
299.905	381.88
300.136	398.88
300.366	407.88
300.597	424.88
300.827	409.88
301.057	407.88
301.288	413.88
301.518	416.88
301.748	416.88
301.979	438.88
302.209	409.88
302.439	413.88
302.669	439.88
302.9	428.88
303.13	399.88
303.36	446.88
303.59	413.88
303.82	416.88
304.051	447.88
304.281	439.88
304.511	414.88
304.741	430.88
304.971	423.88
305.201	407.88
305.431	407.88
305.661	409.88
305.891	432.88
306.121	429.88
306.352	402.88
306.582	410.88
306.812	437.88
307.042	413.88
307.272	414.88
307.502	401.88
307.731	409.88
307.961	416.88
308.191	408.88
308.421	402.88
308.651	413.88
308.881	421.88
309.111	431.88
309.341	420.88
309.571	442.88
309.8	434.88
310.03	454.88
310.26	436.88
310.49	461.88
310.72	445.88
310.949	470.88
311.179	459.88
311.409	447.88
311.639	454.88
311.868	455.88
312.098	440.88
312.328	470.88
312.557	457.88
312.787	462.88
313.017	467.88
313.246	454.88
313.476	472.88
313.706	465.88
313.935	485.88
314.165	478.88
314.394	498.88
314.624	471.88
314.853	435.88
315.083	452.88
315.312	474.88
315.542	458.88
315.771	454.88
316.001	470.88
316.23	460.88
316.46	462.88
316.689	477.88
316.919	471.88
317.148	473.88
317.377	489.88
317.607	456.88
317.836	476.88
318.065	443.88
318.295	463.88
318.524	464.88
318.753	479.88
318.983	464.88
319.212	461.88
319.441	472.88
319.67	482.88
319.9	467.88
320.129	457.88
320.358	458.88
320.587	470.88
320.816	471.88
321.046	457.88
321.275	477.88
321.504	468.88
321.733	453.88
321.962	476.88
322.191	481.88
322.42	501.88
322.649	522.88
322.878	490.88
323.108	495.88
323.337	534.88
323.566	537.88
323.795	574.88
324.024	611.88
324.253	664.88
324.482	837.88
324.71	1239.88
324.939	1780.88
325.168	1537.88
325.397	879.88
325.626	645.88
325.855	591.88
326.084	570.88
326.313	564.88
326.542	561.88
326.77	576.88
326.999	624.88
327.228	829.88
327.457	1152.88
327.686	1425.88
327.914	973.88
328.143	702.88
328.372	640.88
328.6	611.88
328.829	601.88
329.058	625.88
329.287	606.88
329.515	608.88
329.744	560.88
329.972	567.88
330.201	591.88
330.43	596.88
330.658	620.88
330.887	653.88
331.115	659.88
331.344	610.88
331.572	577.88
331.801	579.88
332.03	577.88
332.258	586.88
332.486	578.88
332.715	591.88
332.943	600.88
333.172	607.88
333.4	599.88
333.629	642.88
333.857	634.88
334.085	627.88
334.314	658.88
334.542	655.88
334.771	665.88
334.999	634.88
335.227	613.88
335.455	591.88
335.684	590.88
335.912	592.88
336.14	591.88
336.369	586.88
336.597	590.88
336.825	573.88
337.053	561.88
337.281	567.88
337.51	558.88
337.738	584.88
337.966	557.88
338.194	553.88
338.422	553.88
338.65	557.88
338.878	529.88
339.106	535.88
339.334	542.88
339.562	545.88
339.79	527.88
340.018	545.88
340.246	533.88
340.474	539.88
340.702	541.88
340.93	521.88
341.158	532.88
341.386	560.88
341.614	518.88
341.842	541.88
342.07	529.88
342.298	530.88
342.526	523.88
342.754	556.88
342.981	517.88
343.209	526.88
343.437	556.88
343.665	571.88
343.893	591.88
344.12	608.88
344.348	588.88
344.576	557.88
344.804	572.88
345.031	541.88
345.259	546.88
345.487	550.88
345.714	531.88
345.942	510.88
346.17	509.88
346.397	504.88
346.625	520.88
346.853	524.88
347.08	534.88
347.308	521.88
347.535	524.88
347.763	520.88
347.99	504.88
348.218	529.88
348.445	523.88
348.673	515.88
348.9	537.88
349.128	515.88
349.355	483.88
349.583	485.88
349.81	494.88
350.037	514.88
350.265	487.88
350.492	493.88
350.72	478.88
350.947	521.88
351.174	517.88
351.402	511.88
351.629	534.88
351.856	510.88
352.083	521.88
352.311	517.88
352.538	516.88
352.765	526.88
352.992	497.88
353.22	512.88
353.447	495.88
353.674	493.88
353.901	502.88
354.128	493.88
354.355	489.88
354.583	498.88
354.81	485.88
355.037	505.88
355.264	504.88
355.491	495.88
355.718	489.88
355.945	498.88
356.172	487.88
356.399	493.88
356.626	495.88
356.853	494.88
357.08	488.88
357.307	502.88
357.534	498.88
357.761	494.88
357.988	492.88
358.215	489.88
358.441	510.88
358.668	501.88
358.895	494.88
359.122	494.88
359.349	481.88
359.576	543.88
359.802	542.88
360.029	516.88
360.256	537.88
360.483	535.88
360.709	528.88
360.936	501.88
361.163	523.88
361.39	513.88
361.616	514.88
361.843	512.88
362.07	512.88
362.296	542.88
362.523	514.88
362.749	522.88
362.976	486.88
363.203	508.88
363.429	482.88
363.656	501.88
363.882	510.88
364.109	498.88
364.335	496.88
364.562	499.88
364.788	506.88
365.015	511.88
365.241	532.88
365.468	516.88
365.694	510.88
365.92	527.88
366.147	497.88
366.373	506.88
366.599	498.88
366.826	487.88
367.052	485.88
367.278	486.88
367.505	510.88
367.731	513.88
367.957	497.88
368.184	519.88
368.41	491.88
368.636	506.88
368.862	532.88
369.089	507.88
369.315	511.88
369.541	509.88
369.767	537.88
369.993	496.88
370.219	527.88
370.445	505.88
370.672	507.88
370.898	539.88
371.124	522.88
371.35	530.88
371.576	528.88
371.802	512.88
372.028	531.88
372.254	508.88
372.48	523.88
372.706	533.88
372.932	544.88
373.158	515.88
373.384	535.88
373.61	522.88
373.835	539.88
374.061	532.88
374.287	523.88
374.513	525.88
374.739	548.88
374.965	530.88
375.191	565.88
375.416	559.88
375.642	553.88
375.868	547.88
376.094	527.88
376.319	512.88
376.545	538.88
376.771	534.88
376.997	513.88
377.222	522.88
377.448	525.88
377.674	517.88
377.899	523.88
378.125	527.88
378.35	524.88
378.576	496.88
378.802	522.88
379.027	525.88
379.253	529.88
379.478	527.88
379.704	517.88
379.929	525.88
380.155	515.88
380.38	527.88
380.606	517.88
380.831	529.88
381.057	528.88
381.282	520.88
381.507	507.88
381.733	537.88
381.958	538.88
382.184	537.88
382.409	546.88
382.634	539.88
382.86	529.88
383.085	545.88
383.31	549.88
383.535	566.88
383.761	546.88
383.986	556.88
384.211	548.88
384.436	570.88
384.662	532.88
384.887	599.88
385.112	582.88
385.337	633.88
385.562	591.88
385.787	598.88
386.013	595.88
386.238	609.88
386.463	616.88
386.688	594.88
386.913	596.88
387.138	587.88
387.363	605.88
387.588	593.88
387.813	582.88
388.038	596.88
388.263	606.88
388.488	589.88
388.713	595.88
388.938	588.88
389.163	593.88
389.387	610.88
389.612	570.88
389.837	599.88
390.062	578.88
390.287	599.88
390.512	605.88
390.736	598.88
390.961	601.88
391.186	570.88
391.411	614.88
391.636	620.88
391.86	647.88
392.085	677.88
392.31	637.88
392.534	644.88
392.759	645.88
392.984	620.88
393.208	618.88
393.433	614.88
393.658	648.88
393.882	613.88
394.107	607.88
394.331	607.88
394.556	614.88
394.78	624.88
395.005	641.88
395.229	629.88
395.454	630.88
395.678	648.88
395.903	654.88
396.127	649.88
396.352	641.88
396.576	619.88
396.801	624.88
397.025	640.88
397.249	633.88
397.474	648.88
397.698	657.88
397.922	647.88
398.147	665.88
398.371	675.88
398.595	675.88
398.82	698.88
399.044	767.88
399.268	814.88
399.492	873.88
399.717	936.88
399.941	986.88
400.165	936.88
400.389	891.88
400.613	799.88
400.837	788.88
401.062	757.88
401.286	731.88
401.51	730.88
401.734	718.88
401.958	739.88
402.182	764.88
402.406	740.88
402.63	740.88
402.854	743.88
403.078	751.88
403.302	761.88
403.526	797.88
403.75	801.88
403.974	802.88
404.198	770.88
404.422	800.88
404.645	778.88
404.869	780.88
405.093	805.88
405.317	857.88
405.541	862.88
405.765	824.88
405.988	796.88
406.212	782.88
406.436	798.88
406.66	852.88
406.883	822.88
407.107	850.88
407.331	928.88
407.555	956.88
407.778	977.88
408.002	900.88
408.226	844.88
408.449	831.88
408.673	811.88
408.896	849.88
409.12	842.88
409.344	811.88
409.567	774.88
409.791	798.88
410.014	776.88
410.238	754.88
410.461	749.88
410.685	766.88
410.908	764.88
411.132	795.88
411.355	810.88
411.578	790.88
411.802	754.88
412.025	747.88
412.249	742.88
412.472	807.88
412.695	794.88
412.919	765.88
413.142	749.88
413.365	741.88
413.589	737.88
413.812	718.88
414.035	706.88
414.258	686.88
414.482	715.88
414.705	723.88
414.928	721.88
415.151	716.88
415.374	723.88
415.597	705.88
415.821	698.88
416.044	719.88
416.267	713.88
416.49	706.88
416.713	677.88
416.936	687.88
417.159	714.88
417.382	718.88
417.605	690.88
417.828	701.88
418.051	740.88
418.274	751.88
418.497	702.88
418.72	750.88
418.943	719.88
419.166	743.88
419.389	803.88
419.611	780.88
419.834	765.88
420.057	750.88
420.28	748.88
420.503	726.88
420.726	738.88
420.948	723.88
421.171	757.88
421.394	774.88
421.617	736.88
421.839	719.88
422.062	721.88
422.285	719.88
422.507	778.88
422.73	857.88
422.953	832.88
423.175	765.88
423.398	764.88
423.621	744.88
423.843	757.88
424.066	777.88
424.288	764.88
424.511	777.88
424.733	816.88
424.956	879.88
425.178	857.88
425.401	837.88
425.623	879.88
425.846	776.88
426.068	746.88
426.291	738.88
426.513	748.88
426.735	741.88
426.958	749.88
427.18	842.88
427.402	944.88
427.625	995.88
427.847	851.88
428.069	825.88
428.292	749.88
428.514	697.88
428.736	695.88
428.958	701.88
429.181	677.88
429.403	667.88
429.625	683.88
429.847	706.88
430.069	761.88
430.292	759.88
430.514	688.88
430.736	670.88
430.958	674.88
431.18	674.88
431.402	650.88
431.624	657.88
431.846	640.88
432.068	640.88
432.29	671.88
432.512	651.88
432.734	669.88
432.956	638.88
433.178	690.88
433.4	680.88
433.622	662.88
433.844	647.88
434.066	662.88
434.287	677.88
434.509	674.88
434.731	690.88
434.953	703.88
435.175	723.88
435.397	741.88
435.618	726.88
435.84	744.88
436.062	798.88
436.284	883.88
436.505	753.88
436.727	701.88
436.949	689.88
437.17	682.88
437.392	679.88
437.614	686.88
437.835	697.88
438.057	777.88
438.278	845.88
438.5	861.88
438.721	938.88
438.943	885.88
439.165	725.88
439.386	691.88
439.608	712.88
439.829	704.88
440.05	720.88
440.272	742.88
440.493	737.88
440.715	715.88
440.936	686.88
441.158	690.88
441.379	724.88
441.6	717.88
441.822	761.88
442.043	807.88
442.264	864.88
442.486	866.88
442.707	763.88
442.928	765.88
443.149	736.88
443.371	758.88
443.592	821.88
443.813	881.88
444.034	935.88
444.255	838.88
444.476	815.88
444.698	807.88
444.919	815.88
445.14	898.88
445.361	815.88
445.582	795.88
445.803	800.88
446.024	897.88
446.245	895.88
446.466	805.88
446.687	743.88
446.908	704.88
447.129	695.88
447.35	679.88
447.571	649.88
447.792	660.88
448.013	655.88
448.234	668.88
448.455	700.88
448.675	801.88
448.896	881.88
449.117	782.88
449.338	759.88
449.559	816.88
449.779	915.88
450	769.88
450.221	691.88
450.442	643.88
450.662	637.88
450.883	648.88
451.104	649.88
451.324	666.88
451.545	636.88
451.766	633.88
451.986	610.88
452.207	612.88
452.428	610.88
452.648	625.88
452.869	590.88
453.089	615.88
453.31	614.88
453.53	605.88
453.751	609.88
453.971	614.88
454.192	618.88
454.412	603.88
454.633	603.88
454.853	596.88
455.073	599.88
455.294	629.88
455.514	677.88
455.734	656.88
455.955	586.88
456.175	562.88
456.395	571.88
456.616	570.88
456.836	554.88
457.056	567.88
457.276	562.88
457.497	582.88
457.717	583.88
457.937	591.88
458.157	583.88
458.377	589.88
458.598	617.88
458.818	657.88
459.038	714.88
459.258	738.88
459.478	714.88
459.698	684.88
459.918	690.88
460.138	667.88
460.358	709.88
460.578	689.88
460.798	709.88
461.018	735.88
461.238	725.88
461.458	722.88
461.678	732.88
461.898	726.88
462.118	725.88
462.338	743.88
462.558	763.88
462.777	793.88
462.997	835.88
463.217	871.88
463.437	849.88
463.657	840.88
463.876	831.88
464.096	810.88
464.316	801.88
464.536	847.88
464.755	797.88
464.975	741.88
465.195	778.88
465.414	813.88
465.634	737.88
465.854	689.88
466.073	674.88
466.293	645.88
466.512	641.88
466.732	611.88
466.951	645.88
467.171	637.88
467.391	649.88
467.61	639.88
467.829	632.88
468.049	639.88
468.268	617.88
468.488	615.88
468.707	629.88
468.927	607.88
469.146	608.88
469.365	625.88
469.585	619.88
469.804	643.88
470.023	651.88
470.243	649.88
470.462	655.88
470.681	667.88
470.901	649.88
471.12	641.88
471.339	651.88
471.558	651.88
471.777	653.88
471.997	642.88
472.216	650.88
472.435	643.88
472.654	651.88
472.873	609.88
473.092	611.88
473.311	606.88
473.53	615.88
473.749	638.88
473.968	657.88
474.187	689.88
474.406	731.88
474.625	636.88
474.844	615.88
475.063	622.88
475.282	605.88
475.501	612.88
475.72	644.88
475.939	645.88
476.158	634.88
476.377	658.88
476.596	657.88
476.814	641.88
477.033	678.88
477.252	652.88
477.471	669.88
477.69	706.88
477.908	701.88
478.127	693.88
478.346	717.88
478.564	745.88
478.783	736.88
479.002	743.88
479.22	763.88
479.439	753.88
479.658	777.88
479.876	768.88
480.095	754.88
480.313	815.88
480.532	811.88
480.751	806.88
480.969	793.88
481.188	838.88
481.406	831.88
481.624	811.88
481.843	762.88
482.061	731.88
482.28	733.88
482.498	722.88
482.717	718.88
482.935	719.88
483.153	732.88
483.372	679.88
483.59	736.88
483.808	728.88
484.027	716.88
484.245	750.88
484.463	722.88
484.681	748.88
484.9	753.88
485.118	773.88
485.336	769.88
485.554	771.88
485.772	770.88
485.99	743.88
486.209	767.88
486.427	783.88
486.645	775.88
486.863	781.88
487.081	762.88
487.299	753.88
487.517	767.88
487.735	765.88
487.953	762.88
488.171	795.88
488.389	764.88
488.607	787.88
488.825	798.88
489.043	791.88
489.261	787.88
489.479	799.88
489.696	778.88
489.914	774.88
490.132	802.88
490.35	806.88
490.568	803.88
490.786	797.88
491.003	798.88
491.221	841.88
491.439	833.88
491.657	802.88
491.874	855.88
492.092	875.88
492.31	858.88
492.527	859.88
492.745	896.88
492.963	893.88
493.18	895.88
493.398	893.88
493.615	868.88
493.833	890.88
494.05	882.88
494.268	892.88
494.485	897.88
494.703	907.88
494.92	893.88
495.138	890.88
495.355	906.88
495.573	912.88
495.79	911.88
496.008	906.88
496.225	904.88
496.442	905.88
496.66	933.88
496.877	913.88
497.094	933.88
497.312	959.88
497.529	925.88
497.746	963.88
497.963	1015.88
498.181	1033.88
498.398	1061.88
498.615	1081.88
498.832	1147.88
499.049	1187.88
499.267	1245.88
499.484	1345.88
499.701	1400.88
499.918	1516.88
500.135	1662.88
500.352	1786.88
500.569	1840.88
500.786	1821.88
501.003	1741.88
501.22	1645.88
501.437	1552.88
501.654	1414.88
