Data from 1963.PennyLincolnUp.Lamp.En5.5.200Scan.071719.P1._HRD10591_14-00-00-063.txt Node
Date: Thu Jul 18 14:00:00 EDT 2019
User: cochatt
Spectrometer: HR+D1059
Trigger mode: 1
Integration Time (sec): 1.000000E-1
Scans to average: 1
Electric dark correction enabled: true
Nonlinearity correction enabled: false
Boxcar width: 0
XAxis mode: Wavelengths
Number of Pixels in Spectrum: 2048
>>>>>Begin Spectral Data<<<<<
223.165	-21.88
223.4	-21.88
223.635	-21.88
223.869	-5.88
224.104	-15.88
224.338	-14.88
224.573	-15.88
224.808	-13.88
225.042	-9.88
225.277	-6.88
225.511	-7.88
225.746	1.12
225.98	-4.88
226.215	16.12
226.449	26.12
226.683	18.12
226.918	29.12
227.152	27.12
227.387	49.12
227.621	31.12
227.856	41.12
228.09	52.12
228.324	44.12
228.559	46.12
228.793	68.12
229.027	111.12
229.262	103.12
229.496	122.12
229.73	120.12
229.964	128.12
230.199	107.12
230.433	114.12
230.667	116.12
230.901	99.12
231.136	116.12
231.37	122.12
231.604	107.12
231.838	125.12
232.072	123.12
232.306	122.12
232.541	106.12
232.775	116.12
233.009	102.12
233.243	130.12
233.477	125.12
233.711	120.12
233.945	127.12
234.179	122.12
234.413	136.12
234.647	127.12
234.881	122.12
235.115	134.12
235.349	124.12
235.583	132.12
235.817	143.12
236.051	132.12
236.285	126.12
236.519	140.12
236.753	138.12
236.987	128.12
237.221	159.12
237.455	212.12
237.689	161.12
237.922	142.12
238.156	139.12
238.39	131.12
238.624	140.12
238.858	126.12
239.091	113.12
239.325	123.12
239.559	134.12
239.793	132.12
240.027	128.12
240.26	139.12
240.494	165.12
240.728	163.12
240.961	158.12
241.195	156.12
241.429	154.12
241.662	135.12
241.896	150.12
242.13	154.12
242.363	153.12
242.597	158.12
242.83	162.12
243.064	152.12
243.298	152.12
243.531	146.12
243.765	170.12
243.998	146.12
244.232	145.12
244.465	144.12
244.699	150.12
244.932	167.12
245.166	170.12
245.399	166.12
245.633	166.12
245.866	160.12
246.099	158.12
246.333	178.12
246.566	154.12
246.8	156.12
247.033	168.12
247.266	183.12
247.5	174.12
247.733	178.12
247.966	191.12
248.2	189.12
248.433	188.12
248.666	174.12
248.899	198.12
249.133	200.12
249.366	195.12
249.599	203.12
249.832	205.12
250.066	196.12
250.299	198.12
250.532	203.12
250.765	224.12
250.998	226.12
251.231	234.12
251.465	217.12
251.698	209.12
251.931	216.12
252.164	202.12
252.397	219.12
252.63	215.12
252.863	221.12
253.096	233.12
253.329	232.12
253.562	245.12
253.795	224.12
254.028	222.12
254.261	233.12
254.494	219.12
254.727	256.12
254.96	275.12
255.193	272.12
255.426	255.12
255.659	219.12
255.892	231.12
256.124	251.12
256.357	248.12
256.59	240.12
256.823	243.12
257.056	231.12
257.289	231.12
257.521	246.12
257.754	238.12
257.987	240.12
258.22	230.12
258.452	221.12
258.685	213.12
258.918	222.12
259.151	228.12
259.383	255.12
259.616	230.12
259.849	250.12
260.081	250.12
260.314	257.12
260.547	279.12
260.779	267.12
261.012	244.12
261.244	247.12
261.477	255.12
261.71	245.12
261.942	260.12
262.175	264.12
262.407	241.12
262.64	243.12
262.872	243.12
263.105	240.12
263.337	226.12
263.57	240.12
263.802	232.12
264.035	247.12
264.267	246.12
264.499	239.12
264.732	254.12
264.964	242.12
265.197	240.12
265.429	255.12
265.661	255.12
265.894	261.12
266.126	243.12
266.358	242.12
266.591	264.12
266.823	274.12
267.055	268.12
267.287	266.12
267.52	256.12
267.752	269.12
267.984	257.12
268.216	277.12
268.448	248.12
268.681	279.12
268.913	274.12
269.145	274.12
269.377	300.12
269.609	292.12
269.841	285.12
270.073	289.12
270.306	318.12
270.538	336.12
270.77	313.12
271.002	334.12
271.234	311.12
271.466	325.12
271.698	329.12
271.93	327.12
272.162	341.12
272.394	333.12
272.626	354.12
272.858	326.12
273.09	301.12
273.322	315.12
273.553	300.12
273.785	289.12
274.017	310.12
274.249	300.12
274.481	294.12
274.713	299.12
274.945	308.12
275.176	304.12
275.408	294.12
275.64	300.12
275.872	296.12
276.104	311.12
276.335	315.12
276.567	304.12
276.799	330.12
277.031	335.12
277.262	342.12
277.494	332.12
277.726	344.12
277.957	329.12
278.189	323.12
278.421	296.12
278.652	313.12
278.884	335.12
279.115	306.12
279.347	306.12
279.579	296.12
279.81	310.12
280.042	311.12
280.273	316.12
280.505	323.12
280.736	323.12
280.968	314.12
281.199	325.12
281.431	342.12
281.662	319.12
281.894	319.12
282.125	324.12
282.356	347.12
282.588	336.12
282.819	360.12
283.051	319.12
283.282	322.12
283.513	338.12
283.745	342.12
283.976	331.12
284.207	334.12
284.439	338.12
284.67	338.12
284.901	347.12
285.132	335.12
285.364	342.12
285.595	346.12
285.826	343.12
286.057	351.12
286.288	344.12
286.52	337.12
286.751	342.12
286.982	331.12
287.213	318.12
287.444	351.12
287.675	362.12
287.906	352.12
288.138	353.12
288.369	357.12
288.6	359.12
288.831	366.12
289.062	369.12
289.293	357.12
289.524	345.12
289.755	342.12
289.986	360.12
290.217	345.12
290.448	349.12
290.679	378.12
290.91	361.12
291.141	358.12
291.371	372.12
291.602	377.12
291.833	358.12
292.064	360.12
292.295	354.12
292.526	378.12
292.757	355.12
292.987	355.12
293.218	375.12
293.449	358.12
293.68	372.12
293.91	352.12
294.141	355.12
294.372	364.12
294.603	353.12
294.833	367.12
295.064	364.12
295.295	372.12
295.525	386.12
295.756	371.12
295.987	382.12
296.217	393.12
296.448	392.12
296.679	396.12
296.909	356.12
297.14	385.12
297.37	391.12
297.601	375.12
297.831	394.12
298.062	368.12
298.292	392.12
298.523	382.12
298.753	386.12
298.984	365.12
299.214	382.12
299.445	375.12
299.675	390.12
299.905	385.12
300.136	391.12
300.366	403.12
300.597	395.12
300.827	400.12
301.057	409.12
301.288	415.12
301.518	403.12
301.748	396.12
301.979	410.12
302.209	411.12
302.439	410.12
302.669	411.12
302.9	409.12
303.13	411.12
303.36	412.12
303.59	394.12
303.82	422.12
304.051	409.12
304.281	412.12
304.511	412.12
304.741	411.12
304.971	409.12
305.201	408.12
305.431	405.12
305.661	405.12
305.891	420.12
306.121	425.12
306.352	408.12
306.582	410.12
306.812	410.12
307.042	406.12
307.272	403.12
307.502	431.12
307.731	416.12
307.961	420.12
308.191	403.12
308.421	418.12
308.651	414.12
308.881	422.12
309.111	412.12
309.341	430.12
309.571	441.12
309.8	446.12
310.03	450.12
310.26	436.12
310.49	425.12
310.72	448.12
310.949	451.12
311.179	467.12
311.409	442.12
311.639	448.12
311.868	450.12
312.098	473.12
312.328	440.12
312.557	472.12
312.787	476.12
313.017	482.12
313.246	464.12
313.476	455.12
313.706	471.12
313.935	486.12
314.165	459.12
314.394	469.12
314.624	478.12
314.853	449.12
315.083	462.12
315.312	468.12
315.542	459.12
315.771	456.12
316.001	443.12
316.23	463.12
316.46	457.12
316.689	435.12
316.919	460.12
317.148	485.12
317.377	482.12
317.607	479.12
317.836	458.12
318.065	449.12
318.295	459.12
318.524	444.12
318.753	440.12
318.983	455.12
319.212	458.12
319.441	443.12
319.67	466.12
319.9	460.12
320.129	463.12
320.358	445.12
320.587	479.12
320.816	452.12
321.046	464.12
321.275	476.12
321.504	465.12
321.733	494.12
321.962	487.12
322.191	495.12
322.42	512.12
322.649	505.12
322.878	500.12
323.108	499.12
323.337	516.12
323.566	549.12
323.795	554.12
324.024	563.12
324.253	677.12
324.482	866.12
324.71	1224.12
324.939	1751.12
325.168	1559.12
325.397	875.12
325.626	657.12
325.855	570.12
326.084	569.12
326.313	549.12
326.542	566.12
326.77	593.12
326.999	651.12
327.228	815.12
327.457	1147.12
327.686	1398.12
327.914	954.12
328.143	695.12
328.372	635.12
328.6	622.12
328.829	600.12
329.058	604.12
329.287	636.12
329.515	604.12
329.744	572.12
329.972	580.12
330.201	591.12
330.43	612.12
330.658	600.12
330.887	654.12
331.115	634.12
331.344	580.12
331.572	548.12
331.801	578.12
332.03	595.12
332.258	584.12
332.486	555.12
332.715	572.12
332.943	577.12
333.172	614.12
333.4	612.12
333.629	619.12
333.857	641.12
334.085	648.12
334.314	648.12
334.542	667.12
334.771	673.12
334.999	652.12
335.227	637.12
335.455	599.12
335.684	592.12
335.912	590.12
336.14	584.12
336.369	569.12
336.597	572.12
336.825	568.12
337.053	580.12
337.281	551.12
337.51	539.12
337.738	573.12
337.966	556.12
338.194	570.12
338.422	560.12
338.65	555.12
338.878	552.12
339.106	535.12
339.334	564.12
339.562	560.12
339.79	532.12
340.018	523.12
340.246	529.12
340.474	543.12
340.702	540.12
340.93	551.12
341.158	534.12
341.386	538.12
341.614	551.12
341.842	537.12
342.07	507.12
342.298	513.12
342.526	528.12
342.754	512.12
342.981	518.12
343.209	515.12
343.437	554.12
343.665	570.12
343.893	583.12
344.12	590.12
344.348	603.12
344.576	552.12
344.804	553.12
345.031	542.12
345.259	545.12
345.487	551.12
345.714	533.12
345.942	515.12
346.17	533.12
346.397	506.12
346.625	510.12
346.853	508.12
347.08	502.12
347.308	517.12
347.535	503.12
347.763	531.12
347.99	502.12
348.218	510.12
348.445	502.12
348.673	517.12
348.9	516.12
349.128	503.12
349.355	507.12
349.583	519.12
349.81	511.12
350.037	492.12
350.265	506.12
350.492	493.12
350.72	498.12
350.947	467.12
351.174	505.12
351.402	508.12
351.629	506.12
351.856	519.12
352.083	491.12
352.311	509.12
352.538	489.12
352.765	518.12
352.992	490.12
353.22	514.12
353.447	511.12
353.674	480.12
353.901	486.12
354.128	483.12
354.355	502.12
354.583	487.12
354.81	470.12
355.037	479.12
355.264	481.12
355.491	496.12
355.718	475.12
355.945	490.12
356.172	482.12
356.399	487.12
356.626	475.12
356.853	479.12
357.08	489.12
357.307	500.12
357.534	474.12
357.761	496.12
357.988	479.12
358.215	467.12
358.441	494.12
358.668	477.12
358.895	491.12
359.122	473.12
359.349	510.12
359.576	497.12
359.802	537.12
360.029	550.12
360.256	537.12
360.483	547.12
360.709	501.12
360.936	498.12
361.163	490.12
361.39	499.12
361.616	502.12
361.843	507.12
362.07	528.12
362.296	498.12
362.523	501.12
362.749	494.12
362.976	501.12
363.203	502.12
363.429	495.12
363.656	500.12
363.882	468.12
364.109	467.12
364.335	483.12
364.562	489.12
364.788	496.12
365.015	473.12
365.241	487.12
365.468	505.12
365.694	502.12
365.92	505.12
366.147	498.12
366.373	500.12
366.599	469.12
366.826	506.12
367.052	508.12
367.278	496.12
367.505	501.12
367.731	498.12
367.957	491.12
368.184	485.12
368.41	514.12
368.636	519.12
368.862	544.12
369.089	495.12
369.315	527.12
369.541	499.12
369.767	495.12
369.993	516.12
370.219	517.12
370.445	520.12
370.672	494.12
370.898	502.12
371.124	507.12
371.35	531.12
371.576	523.12
371.802	531.12
372.028	519.12
372.254	528.12
372.48	501.12
372.706	522.12
372.932	545.12
373.158	510.12
373.384	505.12
373.61	521.12
373.835	496.12
374.061	524.12
374.287	532.12
374.513	531.12
374.739	562.12
374.965	567.12
375.191	564.12
375.416	555.12
375.642	549.12
375.868	548.12
376.094	524.12
376.319	522.12
376.545	511.12
376.771	518.12
376.997	502.12
377.222	513.12
377.448	505.12
377.674	511.12
377.899	504.12
378.125	515.12
378.35	520.12
378.576	515.12
378.802	507.12
379.027	532.12
379.253	516.12
379.478	530.12
379.704	489.12
379.929	504.12
380.155	534.12
380.38	551.12
380.606	508.12
380.831	526.12
381.057	530.12
381.282	502.12
381.507	530.12
381.733	525.12
381.958	502.12
382.184	510.12
382.409	524.12
382.634	520.12
382.86	526.12
383.085	558.12
383.31	517.12
383.535	548.12
383.761	562.12
383.986	559.12
384.211	551.12
384.436	576.12
384.662	571.12
384.887	587.12
385.112	583.12
385.337	584.12
385.562	600.12
385.787	571.12
386.013	579.12
386.238	598.12
386.463	605.12
386.688	592.12
386.913	581.12
387.138	595.12
387.363	576.12
387.588	592.12
387.813	572.12
388.038	578.12
388.263	599.12
388.488	580.12
388.713	587.12
388.938	579.12
389.163	583.12
389.387	598.12
389.612	583.12
389.837	574.12
390.062	579.12
390.287	586.12
390.512	587.12
390.736	596.12
390.961	589.12
391.186	575.12
391.411	626.12
391.636	632.12
391.86	627.12
392.085	646.12
392.31	639.12
392.534	636.12
392.759	615.12
392.984	633.12
393.208	625.12
393.433	605.12
393.658	589.12
393.882	618.12
394.107	623.12
394.331	631.12
394.556	620.12
394.78	627.12
395.005	609.12
395.229	623.12
395.454	619.12
395.678	653.12
395.903	658.12
396.127	669.12
396.352	635.12
396.576	644.12
396.801	631.12
397.025	632.12
397.249	635.12
397.474	635.12
397.698	639.12
397.922	679.12
398.147	661.12
398.371	671.12
398.595	703.12
398.82	695.12
399.044	733.12
399.268	783.12
399.492	854.12
399.717	914.12
399.941	950.12
400.165	921.12
400.389	893.12
400.613	811.12
400.837	768.12
401.062	736.12
401.286	705.12
401.51	709.12
401.734	690.12
401.958	700.12
402.182	737.12
402.406	741.12
402.63	754.12
402.854	726.12
403.078	760.12
403.302	779.12
403.526	776.12
403.75	779.12
403.974	772.12
404.198	774.12
404.422	806.12
404.645	784.12
404.869	775.12
405.093	818.12
405.317	826.12
405.541	865.12
405.765	812.12
405.988	777.12
406.212	781.12
406.436	794.12
406.66	811.12
406.883	799.12
407.107	861.12
407.331	929.12
407.555	962.12
407.778	981.12
408.002	884.12
408.226	837.12
408.449	827.12
408.673	800.12
408.896	825.12
409.12	882.12
409.344	841.12
409.567	780.12
409.791	776.12
410.014	768.12
410.238	752.12
410.461	756.12
410.685	746.12
410.908	747.12
411.132	783.12
411.355	802.12
411.578	795.12
411.802	738.12
412.025	715.12
412.249	736.12
412.472	763.12
412.695	821.12
412.919	837.12
413.142	740.12
413.365	722.12
413.589	723.12
413.812	693.12
414.035	701.12
414.258	690.12
414.482	707.12
414.705	726.12
414.928	716.12
415.151	701.12
415.374	696.12
415.597	688.12
415.821	692.12
416.044	684.12
416.267	693.12
416.49	694.12
416.713	701.12
416.936	685.12
417.159	660.12
417.382	693.12
417.605	688.12
417.828	700.12
418.051	698.12
418.274	698.12
418.497	722.12
418.72	713.12
418.943	686.12
419.166	759.12
419.389	795.12
419.611	754.12
419.834	730.12
420.057	728.12
420.28	750.12
420.503	708.12
420.726	729.12
420.948	714.12
421.171	745.12
421.394	768.12
421.617	720.12
421.839	725.12
422.062	699.12
422.285	733.12
422.507	792.12
422.73	854.12
422.953	846.12
423.175	775.12
423.398	747.12
423.621	755.12
423.843	772.12
424.066	759.12
424.288	763.12
424.511	764.12
424.733	808.12
424.956	850.12
425.178	824.12
425.401	839.12
425.623	864.12
425.846	773.12
426.068	734.12
426.291	743.12
426.513	702.12
426.735	728.12
426.958	747.12
427.18	847.12
427.402	920.12
427.625	962.12
427.847	844.12
428.069	795.12
428.292	726.12
428.514	688.12
428.736	691.12
428.958	681.12
429.181	649.12
429.403	667.12
429.625	638.12
429.847	708.12
430.069	747.12
430.292	747.12
430.514	684.12
430.736	651.12
430.958	650.12
431.18	644.12
431.402	661.12
431.624	674.12
431.846	623.12
432.068	647.12
432.29	660.12
432.512	665.12
432.734	673.12
432.956	660.12
433.178	660.12
433.4	671.12
433.622	646.12
433.844	666.12
434.066	687.12
434.287	641.12
434.509	664.12
434.731	683.12
434.953	709.12
435.175	735.12
435.397	737.12
435.618	726.12
435.84	747.12
436.062	795.12
436.284	839.12
436.505	743.12
436.727	723.12
436.949	690.12
437.17	666.12
437.392	640.12
437.614	668.12
437.835	686.12
438.057	761.12
438.278	828.12
438.5	834.12
438.721	891.12
438.943	850.12
439.165	760.12
439.386	710.12
439.608	700.12
439.829	697.12
440.05	720.12
440.272	748.12
440.493	730.12
440.715	708.12
440.936	679.12
441.158	692.12
441.379	686.12
441.6	726.12
441.822	743.12
442.043	788.12
442.264	810.12
442.486	852.12
442.707	767.12
442.928	790.12
443.149	751.12
443.371	752.12
443.592	770.12
443.813	864.12
444.034	931.12
444.255	846.12
444.476	800.12
444.698	801.12
444.919	815.12
445.14	892.12
445.361	828.12
445.582	797.12
445.803	791.12
446.024	864.12
446.245	884.12
446.466	832.12
446.687	719.12
446.908	721.12
447.129	682.12
447.35	640.12
447.571	637.12
447.792	628.12
448.013	644.12
448.234	652.12
448.455	690.12
448.675	778.12
448.896	855.12
449.117	765.12
449.338	750.12
449.559	832.12
449.779	909.12
450	752.12
450.221	662.12
450.442	642.12
450.662	640.12
450.883	637.12
451.104	660.12
451.324	632.12
451.545	625.12
451.766	586.12
451.986	606.12
452.207	583.12
452.428	593.12
452.648	567.12
452.869	570.12
453.089	608.12
453.31	618.12
453.53	609.12
453.751	585.12
453.971	584.12
454.192	617.12
454.412	592.12
454.633	575.12
454.853	581.12
455.073	575.12
455.294	564.12
455.514	639.12
455.734	635.12
455.955	563.12
456.175	576.12
456.395	555.12
456.616	558.12
456.836	566.12
457.056	544.12
457.276	567.12
457.497	577.12
457.717	601.12
457.937	588.12
458.157	576.12
458.377	585.12
458.598	612.12
458.818	660.12
459.038	722.12
459.258	768.12
459.478	698.12
459.698	653.12
459.918	641.12
460.138	673.12
460.358	701.12
460.578	733.12
460.798	707.12
461.018	731.12
461.238	720.12
461.458	718.12
461.678	683.12
461.898	717.12
462.118	720.12
462.338	740.12
462.558	809.12
462.777	784.12
462.997	823.12
463.217	872.12
463.437	874.12
463.657	819.12
463.876	792.12
464.096	804.12
464.316	778.12
464.536	806.12
464.755	772.12
464.975	784.12
465.195	770.12
465.414	788.12
465.634	719.12
465.854	691.12
466.073	680.12
466.293	673.12
466.512	651.12
466.732	619.12
466.951	634.12
467.171	618.12
467.391	638.12
467.61	599.12
467.829	641.12
468.049	646.12
468.268	650.12
468.488	625.12
468.707	633.12
468.927	627.12
469.146	591.12
469.365	602.12
469.585	610.12
469.804	633.12
470.023	646.12
470.243	636.12
470.462	629.12
470.681	652.12
470.901	656.12
471.12	648.12
471.339	631.12
471.558	636.12
471.777	638.12
471.997	630.12
472.216	604.12
472.435	644.12
472.654	652.12
472.873	634.12
473.092	618.12
473.311	623.12
473.53	632.12
473.749	639.12
473.968	651.12
474.187	727.12
474.406	727.12
474.625	652.12
474.844	616.12
475.063	628.12
475.282	594.12
475.501	625.12
475.72	635.12
475.939	617.12
476.158	635.12
476.377	646.12
476.596	612.12
476.814	636.12
477.033	638.12
477.252	644.12
477.471	666.12
477.69	675.12
477.908	688.12
478.127	699.12
478.346	730.12
478.564	707.12
478.783	739.12
479.002	736.12
479.22	739.12
479.439	740.12
479.658	764.12
479.876	757.12
480.095	782.12
480.313	803.12
480.532	815.12
480.751	792.12
480.969	788.12
481.188	855.12
481.406	849.12
481.624	756.12
481.843	730.12
482.061	755.12
482.28	744.12
482.498	725.12
482.717	721.12
482.935	720.12
483.153	700.12
483.372	713.12
483.59	735.12
483.808	723.12
484.027	739.12
484.245	733.12
484.463	738.12
484.681	730.12
484.9	767.12
485.118	745.12
485.336	744.12
485.554	749.12
485.772	738.12
485.99	740.12
486.209	772.12
486.427	762.12
486.645	772.12
486.863	791.12
487.081	781.12
487.299	767.12
487.517	770.12
487.735	780.12
487.953	779.12
488.171	761.12
488.389	772.12
488.607	770.12
488.825	783.12
489.043	752.12
489.261	794.12
489.479	756.12
489.696	780.12
489.914	792.12
490.132	804.12
490.35	799.12
490.568	825.12
490.786	828.12
491.003	816.12
491.221	828.12
491.439	842.12
491.657	837.12
491.874	841.12
492.092	833.12
492.31	837.12
492.527	849.12
492.745	886.12
492.963	856.12
493.18	860.12
493.398	860.12
493.615	876.12
493.833	878.12
494.05	869.12
494.268	902.12
494.485	888.12
494.703	879.12
494.92	879.12
495.138	888.12
495.355	892.12
495.573	891.12
495.79	881.12
496.008	892.12
496.225	896.12
496.442	899.12
496.66	933.12
496.877	902.12
497.094	916.12
497.312	921.12
497.529	940.12
497.746	940.12
497.963	985.12
498.181	1010.12
498.398	1060.12
498.615	1115.12
498.832	1114.12
499.049	1174.12
499.267	1227.12
499.484	1316.12
499.701	1404.12
499.918	1490.12
500.135	1633.12
500.352	1738.12
500.569	1852.12
500.786	1816.12
501.003	1743.12
501.22	1604.12
501.437	1493.12
501.654	1400.12
