Data from 1963.PennyLincolnUp.Lamp.En5.5.200Scan.071719.P1._HRD10591_13-57-58-062.txt Node
Date: Thu Jul 18 13:57:58 EDT 2019
User: cochatt
Spectrometer: HR+D1059
Trigger mode: 1
Integration Time (sec): 1.000000E-1
Scans to average: 1
Electric dark correction enabled: true
Nonlinearity correction enabled: false
Boxcar width: 0
XAxis mode: Wavelengths
Number of Pixels in Spectrum: 2048
>>>>>Begin Spectral Data<<<<<
223.165	-16.5
223.4	-16.5
223.635	-16.5
223.869	-8.5
224.104	-26.5
224.338	-16.5
224.573	-28.5
224.808	-14.5
225.042	-0.5
225.277	-5.5
225.511	-1.5
225.746	8.5
225.98	0.5
226.215	7.5
226.449	13.5
226.683	24.5
226.918	25.5
227.152	38.5
227.387	36.5
227.621	31.5
227.856	58.5
228.09	36.5
228.324	31.5
228.559	56.5
228.793	63.5
229.027	101.5
229.262	105.5
229.496	116.5
229.73	130.5
229.964	147.5
230.199	123.5
230.433	111.5
230.667	103.5
230.901	116.5
231.136	110.5
231.37	122.5
231.604	119.5
231.838	116.5
232.072	118.5
232.306	120.5
232.541	121.5
232.775	123.5
233.009	119.5
233.243	126.5
233.477	126.5
233.711	122.5
233.945	116.5
234.179	124.5
234.413	112.5
234.647	117.5
234.881	127.5
235.115	125.5
235.349	134.5
235.583	122.5
235.817	122.5
236.051	134.5
236.285	128.5
236.519	139.5
236.753	134.5
236.987	131.5
237.221	168.5
237.455	182.5
237.689	147.5
237.922	148.5
238.156	148.5
238.39	135.5
238.624	139.5
238.858	121.5
239.091	144.5
239.325	139.5
239.559	148.5
239.793	129.5
240.027	138.5
240.26	142.5
240.494	156.5
240.728	139.5
240.961	137.5
241.195	152.5
241.429	168.5
241.662	131.5
241.896	143.5
242.13	135.5
242.363	144.5
242.597	142.5
242.83	144.5
243.064	153.5
243.298	154.5
243.531	151.5
243.765	162.5
243.998	158.5
244.232	147.5
244.465	173.5
244.699	157.5
244.932	165.5
245.166	152.5
245.399	149.5
245.633	161.5
245.866	160.5
246.099	171.5
246.333	167.5
246.566	156.5
246.8	166.5
247.033	164.5
247.266	176.5
247.5	157.5
247.733	182.5
247.966	165.5
248.2	184.5
248.433	172.5
248.666	182.5
248.899	197.5
249.133	187.5
249.366	206.5
249.599	198.5
249.832	183.5
250.066	180.5
250.299	200.5
250.532	206.5
250.765	223.5
250.998	213.5
251.231	216.5
251.465	217.5
251.698	203.5
251.931	196.5
252.164	208.5
252.397	203.5
252.63	208.5
252.863	215.5
253.096	227.5
253.329	237.5
253.562	224.5
253.795	208.5
254.028	233.5
254.261	207.5
254.494	226.5
254.727	259.5
254.96	246.5
255.193	254.5
255.426	233.5
255.659	238.5
255.892	223.5
256.124	238.5
256.357	238.5
256.59	245.5
256.823	219.5
257.056	237.5
257.289	218.5
257.521	244.5
257.754	230.5
257.987	216.5
258.22	210.5
258.452	236.5
258.685	220.5
258.918	221.5
259.151	227.5
259.383	242.5
259.616	227.5
259.849	238.5
260.081	261.5
260.314	256.5
260.547	261.5
260.779	253.5
261.012	234.5
261.244	248.5
261.477	255.5
261.71	233.5
261.942	238.5
262.175	264.5
262.407	239.5
262.64	244.5
262.872	248.5
263.105	227.5
263.337	231.5
263.57	228.5
263.802	215.5
264.035	242.5
264.267	236.5
264.499	235.5
264.732	239.5
264.964	250.5
265.197	239.5
265.429	236.5
265.661	249.5
265.894	236.5
266.126	250.5
266.358	242.5
266.591	248.5
266.823	257.5
267.055	246.5
267.287	272.5
267.52	235.5
267.752	276.5
267.984	277.5
268.216	246.5
268.448	280.5
268.681	272.5
268.913	273.5
269.145	288.5
269.377	298.5
269.609	290.5
269.841	277.5
270.073	290.5
270.306	308.5
270.538	319.5
270.77	319.5
271.002	313.5
271.234	306.5
271.466	295.5
271.698	306.5
271.93	306.5
272.162	322.5
272.394	317.5
272.626	313.5
272.858	297.5
273.09	292.5
273.322	288.5
273.553	293.5
273.785	280.5
274.017	300.5
274.249	281.5
274.481	281.5
274.713	272.5
274.945	296.5
275.176	277.5
275.408	285.5
275.64	280.5
275.872	298.5
276.104	289.5
276.335	291.5
276.567	313.5
276.799	315.5
277.031	325.5
277.262	327.5
277.494	322.5
277.726	320.5
277.957	313.5
278.189	306.5
278.421	314.5
278.652	302.5
278.884	304.5
279.115	299.5
279.347	309.5
279.579	314.5
279.81	289.5
280.042	318.5
280.273	294.5
280.505	302.5
280.736	326.5
280.968	294.5
281.199	318.5
281.431	312.5
281.662	325.5
281.894	319.5
282.125	311.5
282.356	314.5
282.588	343.5
282.819	327.5
283.051	313.5
283.282	347.5
283.513	329.5
283.745	322.5
283.976	328.5
284.207	337.5
284.439	331.5
284.67	323.5
284.901	337.5
285.132	336.5
285.364	333.5
285.595	322.5
285.826	328.5
286.057	317.5
286.288	313.5
286.52	335.5
286.751	334.5
286.982	336.5
287.213	346.5
287.444	341.5
287.675	345.5
287.906	340.5
288.138	347.5
288.369	337.5
288.6	359.5
288.831	361.5
289.062	364.5
289.293	353.5
289.524	334.5
289.755	332.5
289.986	348.5
290.217	356.5
290.448	345.5
290.679	345.5
290.91	335.5
291.141	361.5
291.371	363.5
291.602	350.5
291.833	347.5
292.064	335.5
292.295	364.5
292.526	349.5
292.757	348.5
292.987	340.5
293.218	339.5
293.449	362.5
293.68	348.5
293.91	340.5
294.141	344.5
294.372	330.5
294.603	346.5
294.833	358.5
295.064	363.5
295.295	360.5
295.525	352.5
295.756	354.5
295.987	365.5
296.217	378.5
296.448	376.5
296.679	374.5
296.909	381.5
297.14	378.5
297.37	351.5
297.601	357.5
297.831	353.5
298.062	382.5
298.292	361.5
298.523	386.5
298.753	394.5
298.984	367.5
299.214	380.5
299.445	370.5
299.675	375.5
299.905	398.5
300.136	371.5
300.366	392.5
300.597	378.5
300.827	390.5
301.057	393.5
301.288	416.5
301.518	410.5
301.748	395.5
301.979	399.5
302.209	415.5
302.439	409.5
302.669	403.5
302.9	398.5
303.13	400.5
303.36	396.5
303.59	405.5
303.82	388.5
304.051	421.5
304.281	396.5
304.511	398.5
304.741	398.5
304.971	408.5
305.201	394.5
305.431	392.5
305.661	402.5
305.891	396.5
306.121	419.5
306.352	406.5
306.582	414.5
306.812	392.5
307.042	396.5
307.272	383.5
307.502	406.5
307.731	410.5
307.961	390.5
308.191	414.5
308.421	405.5
308.651	398.5
308.881	383.5
309.111	408.5
309.341	418.5
309.571	397.5
309.8	426.5
310.03	429.5
310.26	430.5
310.49	418.5
310.72	399.5
310.949	426.5
311.179	456.5
311.409	439.5
311.639	430.5
311.868	423.5
312.098	439.5
312.328	430.5
312.557	439.5
312.787	450.5
313.017	453.5
313.246	450.5
313.476	412.5
313.706	456.5
313.935	452.5
314.165	452.5
314.394	454.5
314.624	449.5
314.853	448.5
315.083	448.5
315.312	453.5
315.542	448.5
315.771	444.5
316.001	442.5
316.23	439.5
316.46	430.5
316.689	453.5
316.919	465.5
317.148	450.5
317.377	421.5
317.607	450.5
317.836	447.5
318.065	448.5
318.295	444.5
318.524	425.5
318.753	443.5
318.983	427.5
319.212	428.5
319.441	447.5
319.67	446.5
319.9	446.5
320.129	439.5
320.358	450.5
320.587	454.5
320.816	460.5
321.046	448.5
321.275	442.5
321.504	446.5
321.733	450.5
321.962	459.5
322.191	466.5
322.42	457.5
322.649	472.5
322.878	465.5
323.108	473.5
323.337	520.5
323.566	498.5
323.795	509.5
324.024	525.5
324.253	614.5
324.482	729.5
324.71	1026.5
324.939	1490.5
325.168	1318.5
325.397	739.5
325.626	592.5
325.855	522.5
326.084	524.5
326.313	521.5
326.542	522.5
326.77	529.5
326.999	605.5
327.228	721.5
327.457	996.5
327.686	1166.5
327.914	843.5
328.143	632.5
328.372	588.5
328.6	562.5
328.829	554.5
329.058	555.5
329.287	538.5
329.515	525.5
329.744	528.5
329.972	538.5
330.201	537.5
330.43	565.5
330.658	569.5
330.887	581.5
331.115	592.5
331.344	543.5
331.572	518.5
331.801	542.5
332.03	547.5
332.258	528.5
332.486	548.5
332.715	559.5
332.943	582.5
333.172	568.5
333.4	598.5
333.629	588.5
333.857	634.5
334.085	613.5
334.314	620.5
334.542	653.5
334.771	642.5
334.999	615.5
335.227	582.5
335.455	579.5
335.684	582.5
335.912	573.5
336.14	556.5
336.369	538.5
336.597	547.5
336.825	577.5
337.053	554.5
337.281	509.5
337.51	529.5
337.738	547.5
337.966	523.5
338.194	550.5
338.422	520.5
338.65	522.5
338.878	545.5
339.106	537.5
339.334	541.5
339.562	528.5
339.79	497.5
340.018	516.5
340.246	519.5
340.474	517.5
340.702	524.5
340.93	519.5
341.158	519.5
341.386	523.5
341.614	524.5
341.842	516.5
342.07	516.5
342.298	494.5
342.526	521.5
342.754	516.5
342.981	500.5
343.209	495.5
343.437	532.5
343.665	552.5
343.893	571.5
344.12	573.5
344.348	578.5
344.576	555.5
344.804	529.5
345.031	518.5
345.259	525.5
345.487	507.5
345.714	528.5
345.942	512.5
346.17	498.5
346.397	465.5
346.625	488.5
346.853	488.5
347.08	484.5
347.308	497.5
347.535	486.5
347.763	493.5
347.99	496.5
348.218	475.5
348.445	500.5
348.673	498.5
348.9	478.5
349.128	478.5
349.355	488.5
349.583	490.5
349.81	476.5
350.037	486.5
350.265	496.5
350.492	486.5
350.72	478.5
350.947	482.5
351.174	486.5
351.402	486.5
351.629	494.5
351.856	480.5
352.083	468.5
352.311	470.5
352.538	473.5
352.765	504.5
352.992	493.5
353.22	468.5
353.447	486.5
353.674	464.5
353.901	482.5
354.128	442.5
354.355	504.5
354.583	484.5
354.81	471.5
355.037	475.5
355.264	464.5
355.491	475.5
355.718	493.5
355.945	472.5
356.172	476.5
356.399	470.5
356.626	471.5
356.853	468.5
357.08	476.5
357.307	472.5
357.534	486.5
357.761	458.5
357.988	477.5
358.215	455.5
358.441	470.5
358.668	491.5
358.895	481.5
359.122	474.5
359.349	464.5
359.576	479.5
359.802	480.5
360.029	500.5
360.256	498.5
360.483	493.5
360.709	471.5
360.936	490.5
361.163	471.5
361.39	514.5
361.616	500.5
361.843	484.5
362.07	501.5
362.296	493.5
362.523	485.5
362.749	468.5
362.976	478.5
363.203	477.5
363.429	473.5
363.656	473.5
363.882	487.5
364.109	470.5
364.335	482.5
364.562	473.5
364.788	479.5
365.015	476.5
365.241	490.5
365.468	480.5
365.694	484.5
365.92	478.5
366.147	488.5
366.373	474.5
366.599	485.5
366.826	466.5
367.052	484.5
367.278	477.5
367.505	476.5
367.731	488.5
367.957	458.5
368.184	483.5
368.41	481.5
368.636	480.5
368.862	488.5
369.089	501.5
369.315	491.5
369.541	478.5
369.767	521.5
369.993	500.5
370.219	487.5
370.445	477.5
370.672	465.5
370.898	475.5
371.124	475.5
371.35	498.5
371.576	521.5
371.802	509.5
372.028	503.5
372.254	512.5
372.48	502.5
372.706	517.5
372.932	519.5
373.158	511.5
373.384	533.5
373.61	499.5
373.835	500.5
374.061	514.5
374.287	506.5
374.513	506.5
374.739	546.5
374.965	530.5
375.191	530.5
375.416	541.5
375.642	528.5
375.868	524.5
376.094	498.5
376.319	487.5
376.545	522.5
376.771	482.5
376.997	525.5
377.222	526.5
377.448	506.5
377.674	507.5
377.899	512.5
378.125	487.5
378.35	492.5
378.576	484.5
378.802	495.5
379.027	489.5
379.253	475.5
379.478	494.5
379.704	490.5
379.929	484.5
380.155	484.5
380.38	506.5
380.606	503.5
380.831	517.5
381.057	489.5
381.282	502.5
381.507	514.5
381.733	500.5
381.958	495.5
382.184	506.5
382.409	506.5
382.634	525.5
382.86	542.5
383.085	524.5
383.31	536.5
383.535	526.5
383.761	518.5
383.986	551.5
384.211	543.5
384.436	544.5
384.662	573.5
384.887	590.5
385.112	565.5
385.337	558.5
385.562	584.5
385.787	580.5
386.013	572.5
386.238	603.5
386.463	588.5
386.688	564.5
386.913	594.5
387.138	583.5
387.363	557.5
387.588	571.5
387.813	584.5
388.038	577.5
388.263	564.5
388.488	587.5
388.713	572.5
388.938	568.5
389.163	569.5
389.387	574.5
389.612	576.5
389.837	573.5
390.062	567.5
390.287	575.5
390.512	558.5
390.736	596.5
390.961	590.5
391.186	586.5
391.411	606.5
391.636	579.5
391.86	615.5
392.085	632.5
392.31	619.5
392.534	640.5
392.759	627.5
392.984	591.5
393.208	596.5
393.433	604.5
393.658	597.5
393.882	581.5
394.107	596.5
394.331	601.5
394.556	589.5
394.78	600.5
395.005	592.5
395.229	614.5
395.454	636.5
395.678	632.5
395.903	634.5
396.127	626.5
396.352	642.5
396.576	607.5
396.801	610.5
397.025	616.5
397.249	622.5
397.474	616.5
397.698	639.5
397.922	640.5
398.147	630.5
398.371	646.5
398.595	648.5
398.82	675.5
399.044	713.5
399.268	771.5
399.492	808.5
399.717	896.5
399.941	916.5
400.165	869.5
400.389	822.5
400.613	781.5
400.837	762.5
401.062	718.5
401.286	707.5
401.51	696.5
401.734	703.5
401.958	705.5
402.182	691.5
402.406	756.5
402.63	716.5
402.854	730.5
403.078	729.5
403.302	744.5
403.526	741.5
403.75	754.5
403.974	732.5
404.198	754.5
404.422	766.5
404.645	733.5
404.869	782.5
405.093	782.5
405.317	810.5
405.541	835.5
405.765	795.5
405.988	758.5
406.212	780.5
406.436	758.5
406.66	794.5
406.883	770.5
407.107	835.5
407.331	871.5
407.555	907.5
407.778	906.5
408.002	858.5
408.226	827.5
408.449	793.5
408.673	788.5
408.896	791.5
409.12	831.5
409.344	831.5
409.567	752.5
409.791	779.5
410.014	727.5
410.238	718.5
410.461	723.5
410.685	735.5
410.908	712.5
411.132	760.5
411.355	752.5
411.578	758.5
411.802	726.5
412.025	722.5
412.249	725.5
412.472	744.5
412.695	764.5
412.919	732.5
413.142	713.5
413.365	697.5
413.589	679.5
413.812	690.5
414.035	709.5
414.258	660.5
414.482	694.5
414.705	705.5
414.928	670.5
415.151	680.5
415.374	697.5
415.597	679.5
415.821	669.5
416.044	646.5
416.267	658.5
416.49	661.5
416.713	667.5
416.936	669.5
417.159	660.5
417.382	708.5
417.605	665.5
417.828	671.5
418.051	697.5
418.274	697.5
418.497	680.5
418.72	682.5
418.943	680.5
419.166	728.5
419.389	770.5
419.611	765.5
419.834	738.5
420.057	736.5
420.28	704.5
420.503	702.5
420.726	695.5
420.948	711.5
421.171	715.5
421.394	748.5
421.617	706.5
421.839	683.5
422.062	714.5
422.285	684.5
422.507	752.5
422.73	784.5
422.953	799.5
423.175	751.5
423.398	720.5
423.621	683.5
423.843	730.5
424.066	744.5
424.288	731.5
424.511	757.5
424.733	776.5
424.956	821.5
425.178	824.5
425.401	813.5
425.623	841.5
425.846	739.5
426.068	735.5
426.291	709.5
426.513	713.5
426.735	698.5
426.958	714.5
427.18	778.5
427.402	860.5
427.625	936.5
427.847	827.5
428.069	786.5
428.292	678.5
428.514	675.5
428.736	649.5
428.958	659.5
429.181	648.5
429.403	633.5
429.625	642.5
429.847	660.5
430.069	703.5
430.292	710.5
430.514	648.5
430.736	641.5
430.958	648.5
431.18	639.5
431.402	611.5
431.624	622.5
431.846	626.5
432.068	626.5
432.29	643.5
432.512	646.5
432.734	636.5
432.956	622.5
433.178	651.5
433.4	622.5
433.622	601.5
433.844	650.5
434.066	632.5
434.287	642.5
434.509	659.5
434.731	642.5
434.953	684.5
435.175	696.5
435.397	676.5
435.618	718.5
435.84	719.5
436.062	735.5
436.284	831.5
436.505	716.5
436.727	684.5
436.949	668.5
437.17	659.5
437.392	633.5
437.614	633.5
437.835	670.5
438.057	715.5
438.278	776.5
438.5	756.5
438.721	838.5
438.943	852.5
439.165	697.5
439.386	688.5
439.608	693.5
439.829	679.5
440.05	690.5
440.272	714.5
440.493	682.5
440.715	661.5
440.936	660.5
441.158	669.5
441.379	682.5
441.6	682.5
441.822	694.5
442.043	714.5
442.264	804.5
442.486	813.5
442.707	714.5
442.928	701.5
443.149	701.5
443.371	740.5
443.592	760.5
443.813	834.5
444.034	884.5
444.255	794.5
444.476	743.5
444.698	779.5
444.919	776.5
445.14	924.5
445.361	842.5
445.582	746.5
445.803	777.5
446.024	864.5
446.245	841.5
446.466	795.5
446.687	724.5
446.908	661.5
447.129	670.5
447.35	640.5
447.571	624.5
447.792	626.5
448.013	636.5
448.234	661.5
448.455	656.5
448.675	747.5
448.896	848.5
449.117	723.5
449.338	695.5
449.559	792.5
449.779	872.5
450	724.5
450.221	639.5
450.442	618.5
450.662	596.5
450.883	598.5
451.104	598.5
451.324	614.5
451.545	600.5
451.766	589.5
451.986	574.5
452.207	596.5
452.428	573.5
452.648	574.5
452.869	578.5
453.089	570.5
453.31	571.5
453.53	583.5
453.751	570.5
453.971	548.5
454.192	544.5
454.412	583.5
454.633	557.5
454.853	547.5
455.073	573.5
455.294	577.5
455.514	614.5
455.734	620.5
455.955	554.5
456.175	517.5
456.395	519.5
456.616	547.5
456.836	572.5
457.056	552.5
457.276	535.5
457.497	558.5
457.717	549.5
457.937	552.5
458.157	553.5
458.377	572.5
458.598	611.5
458.818	614.5
459.038	674.5
459.258	680.5
459.478	631.5
459.698	662.5
459.918	646.5
460.138	643.5
460.358	662.5
460.578	674.5
460.798	687.5
461.018	694.5
461.238	703.5
461.458	693.5
461.678	685.5
461.898	703.5
462.118	672.5
462.338	703.5
462.558	728.5
462.777	752.5
462.997	815.5
463.217	851.5
463.437	853.5
463.657	814.5
463.876	752.5
464.096	798.5
464.316	757.5
464.536	760.5
464.755	752.5
464.975	747.5
465.195	777.5
465.414	765.5
465.634	706.5
465.854	651.5
466.073	618.5
466.293	613.5
466.512	607.5
466.732	605.5
466.951	610.5
467.171	608.5
467.391	606.5
467.61	613.5
467.829	610.5
468.049	628.5
468.268	593.5
468.488	591.5
468.707	580.5
468.927	606.5
469.146	555.5
469.365	602.5
469.585	596.5
469.804	623.5
470.023	641.5
470.243	638.5
470.462	636.5
470.681	628.5
470.901	610.5
471.12	628.5
471.339	614.5
471.558	630.5
471.777	621.5
471.997	588.5
472.216	598.5
472.435	635.5
472.654	620.5
472.873	611.5
473.092	589.5
473.311	592.5
473.53	607.5
473.749	598.5
473.968	612.5
474.187	686.5
474.406	703.5
474.625	636.5
474.844	604.5
475.063	596.5
475.282	606.5
475.501	612.5
475.72	626.5
475.939	597.5
476.158	621.5
476.377	600.5
476.596	622.5
476.814	624.5
477.033	621.5
477.252	639.5
477.471	632.5
477.69	667.5
477.908	709.5
478.127	667.5
478.346	678.5
478.564	708.5
478.783	709.5
479.002	713.5
479.22	717.5
479.439	708.5
479.658	740.5
479.876	762.5
480.095	759.5
480.313	807.5
480.532	788.5
480.751	769.5
480.969	786.5
481.188	818.5
481.406	816.5
481.624	738.5
481.843	711.5
482.061	715.5
482.28	703.5
482.498	696.5
482.717	717.5
482.935	702.5
483.153	691.5
483.372	680.5
483.59	700.5
483.808	694.5
484.027	716.5
484.245	697.5
484.463	729.5
484.681	701.5
484.9	715.5
485.118	717.5
485.336	709.5
485.554	718.5
485.772	740.5
485.99	732.5
486.209	747.5
486.427	726.5
486.645	720.5
486.863	728.5
487.081	747.5
487.299	736.5
487.517	732.5
487.735	728.5
487.953	729.5
488.171	766.5
488.389	730.5
488.607	734.5
488.825	731.5
489.043	719.5
489.261	724.5
489.479	767.5
489.696	732.5
489.914	741.5
490.132	749.5
490.35	759.5
490.568	728.5
490.786	739.5
491.003	778.5
491.221	767.5
491.439	803.5
491.657	827.5
491.874	820.5
492.092	801.5
492.31	810.5
492.527	804.5
492.745	823.5
492.963	844.5
493.18	832.5
493.398	886.5
493.615	823.5
493.833	823.5
494.05	863.5
494.268	834.5
494.485	852.5
494.703	839.5
494.92	820.5
495.138	843.5
495.355	837.5
495.573	851.5
495.79	852.5
496.008	854.5
496.225	875.5
496.442	871.5
496.66	897.5
496.877	891.5
497.094	885.5
497.312	901.5
497.529	904.5
497.746	927.5
497.963	944.5
498.181	994.5
498.398	1007.5
498.615	1044.5
498.832	1123.5
499.049	1121.5
499.267	1204.5
499.484	1271.5
499.701	1352.5
499.918	1475.5
500.135	1547.5
500.352	1685.5
500.569	1768.5
500.786	1800.5
501.003	1737.5
501.22	1593.5
501.437	1466.5
501.654	1362.5
501.871	1266.5
502.088	1192.5
502.305	1152.5
502.522	1089.5
502.739	1069.5
502.956	1016.5
503.172	973.5
503.389	943.5
503.606	945.5
503.823	959.5
504.04	936.5
504.256	952.5
504.473	927.5
504.69	932.5
504.907	925.5
505.123	911.5
505.34	876.5
505.557	822.5
505.773	826.5
505.99	840.5
506.207	795.5
506.423	803.5
506.64	803.5
506.856	773.5
507.073	773.5
507.289	754.5
507.506	753.5
507.722	776.5
507.939	751.5
508.155	781.5
508.372	771.5
508.588	747.5
508.805	743.5
509.021	728.5
509.238	755.5
509.454	735.5
509.67	722.5
509.887	764.5
510.103	711.5
510.319	749.5
510.536	806.5
510.752	1098.5
510.968	928.5
511.184	769.5
511.401	727.5
511.617	687.5
511.833	714.5
512.049	703.5
512.265	692.5
512.481	707.5
512.698	703.5
512.914	684.5
513.13	703.5
513.346	697.5
513.562	705.5
513.778	707.5
513.994	697.5
514.21	700.5
514.426	708.5
514.642	731.5
514.858	722.5
515.074	768.5
515.29	855.5
515.506	1121.5
515.721	1001.5
515.937	773.5
516.153	781.5
516.369	770.5
516.585	770.5
516.801	778.5
517.016	815.5
517.232	806.5
517.448	815.5
517.664	855.5
517.879	852.5
518.095	888.5
518.311	861.5
518.527	808.5
518.742	776.5
518.958	774.5
519.173	756.5
519.389	763.5
519.605	749.5
