Data from 1963.PennyLincolnUp.Lamp.En5.5.200Scan.071719.P1._HRD10591_13-59-53-063.txt Node
Date: Thu Jul 18 13:59:53 EDT 2019
User: cochatt
Spectrometer: HR+D1059
Trigger mode: 1
Integration Time (sec): 1.000000E-1
Scans to average: 1
Electric dark correction enabled: true
Nonlinearity correction enabled: false
Boxcar width: 0
XAxis mode: Wavelengths
Number of Pixels in Spectrum: 2048
>>>>>Begin Spectral Data<<<<<
223.165	-12.19
223.4	-12.19
223.635	-12.19
223.869	-31.19
224.104	-21.19
224.338	-17.19
224.573	-7.19
224.808	-7.19
225.042	-3.19
225.277	0.81
225.511	1.81
225.746	2.81
225.98	10.81
226.215	-0.19
226.449	1.81
226.683	20.81
226.918	25.81
227.152	34.81
227.387	33.81
227.621	25.81
227.856	35.81
228.09	46.81
228.324	25.81
228.559	53.81
228.793	73.81
229.027	96.81
229.262	105.81
229.496	104.81
229.73	133.81
229.964	137.81
230.199	122.81
230.433	120.81
230.667	125.81
230.901	121.81
231.136	112.81
231.37	109.81
231.604	135.81
231.838	112.81
232.072	111.81
232.306	121.81
232.541	126.81
232.775	127.81
233.009	131.81
233.243	104.81
233.477	121.81
233.711	132.81
233.945	122.81
234.179	107.81
234.413	114.81
234.647	121.81
234.881	119.81
235.115	131.81
235.349	122.81
235.583	118.81
235.817	122.81
236.051	118.81
236.285	123.81
236.519	122.81
236.753	128.81
236.987	148.81
237.221	163.81
237.455	225.81
237.689	167.81
237.922	150.81
238.156	122.81
238.39	133.81
238.624	140.81
238.858	133.81
239.091	133.81
239.325	139.81
239.559	129.81
239.793	131.81
240.027	140.81
240.26	154.81
240.494	176.81
240.728	155.81
240.961	167.81
241.195	167.81
241.429	157.81
241.662	153.81
241.896	136.81
242.13	149.81
242.363	139.81
242.597	160.81
242.83	155.81
243.064	125.81
243.298	147.81
243.531	159.81
243.765	157.81
243.998	154.81
244.232	150.81
244.465	152.81
244.699	157.81
244.932	149.81
245.166	166.81
245.399	169.81
245.633	160.81
245.866	175.81
246.099	153.81
246.333	159.81
246.566	167.81
246.8	168.81
247.033	170.81
247.266	169.81
247.5	183.81
247.733	181.81
247.966	176.81
248.2	202.81
248.433	188.81
248.666	194.81
248.899	196.81
249.133	201.81
249.366	221.81
249.599	193.81
249.832	202.81
250.066	203.81
250.299	204.81
250.532	206.81
250.765	221.81
250.998	237.81
251.231	238.81
251.465	246.81
251.698	222.81
251.931	222.81
252.164	203.81
252.397	195.81
252.63	228.81
252.863	226.81
253.096	237.81
253.329	243.81
253.562	245.81
253.795	229.81
254.028	240.81
254.261	233.81
254.494	259.81
254.727	257.81
254.96	287.81
255.193	258.81
255.426	261.81
255.659	261.81
255.892	238.81
256.124	251.81
256.357	254.81
256.59	239.81
256.823	228.81
257.056	237.81
257.289	242.81
257.521	237.81
257.754	206.81
257.987	217.81
258.22	237.81
258.452	237.81
258.685	218.81
258.918	238.81
259.151	237.81
259.383	224.81
259.616	247.81
259.849	242.81
260.081	277.81
260.314	263.81
260.547	271.81
260.779	266.81
261.012	246.81
261.244	230.81
261.477	262.81
261.71	241.81
261.942	241.81
262.175	261.81
262.407	264.81
262.64	240.81
262.872	244.81
263.105	228.81
263.337	231.81
263.57	252.81
263.802	251.81
264.035	233.81
264.267	271.81
264.499	241.81
264.732	243.81
264.964	250.81
265.197	256.81
265.429	259.81
265.661	253.81
265.894	253.81
266.126	274.81
266.358	251.81
266.591	267.81
266.823	263.81
267.055	261.81
267.287	267.81
267.52	270.81
267.752	257.81
267.984	263.81
268.216	278.81
268.448	280.81
268.681	264.81
268.913	262.81
269.145	307.81
269.377	300.81
269.609	314.81
269.841	293.81
270.073	298.81
270.306	303.81
270.538	333.81
270.77	343.81
271.002	336.81
271.234	328.81
271.466	324.81
271.698	317.81
271.93	342.81
272.162	339.81
272.394	341.81
272.626	346.81
272.858	319.81
273.09	318.81
273.322	313.81
273.553	283.81
273.785	306.81
274.017	295.81
274.249	311.81
274.481	293.81
274.713	316.81
274.945	312.81
275.176	325.81
275.408	301.81
275.64	302.81
275.872	323.81
276.104	311.81
276.335	291.81
276.567	308.81
276.799	319.81
277.031	341.81
277.262	344.81
277.494	355.81
277.726	337.81
277.957	314.81
278.189	337.81
278.421	301.81
278.652	315.81
278.884	322.81
279.115	313.81
279.347	310.81
279.579	330.81
279.81	327.81
280.042	313.81
280.273	316.81
280.505	300.81
280.736	318.81
280.968	316.81
281.199	305.81
281.431	319.81
281.662	325.81
281.894	336.81
282.125	330.81
282.356	349.81
282.588	371.81
282.819	359.81
283.051	341.81
283.282	329.81
283.513	352.81
283.745	336.81
283.976	341.81
284.207	344.81
284.439	339.81
284.67	337.81
284.901	343.81
285.132	344.81
285.364	342.81
285.595	345.81
285.826	336.81
286.057	337.81
286.288	357.81
286.52	336.81
286.751	355.81
286.982	323.81
287.213	330.81
287.444	347.81
287.675	365.81
287.906	355.81
288.138	354.81
288.369	351.81
288.6	359.81
288.831	341.81
289.062	365.81
289.293	350.81
289.524	345.81
289.755	353.81
289.986	345.81
290.217	353.81
290.448	365.81
290.679	368.81
290.91	369.81
291.141	371.81
291.371	361.81
291.602	381.81
291.833	369.81
292.064	375.81
292.295	372.81
292.526	354.81
292.757	359.81
292.987	356.81
293.218	354.81
293.449	375.81
293.68	365.81
293.91	362.81
294.141	377.81
294.372	359.81
294.603	376.81
294.833	359.81
295.064	358.81
295.295	386.81
295.525	372.81
295.756	383.81
295.987	377.81
296.217	381.81
296.448	400.81
296.679	401.81
296.909	373.81
297.14	377.81
297.37	401.81
297.601	401.81
297.831	380.81
298.062	377.81
298.292	374.81
298.523	373.81
298.753	385.81
298.984	387.81
299.214	388.81
299.445	393.81
299.675	402.81
299.905	410.81
300.136	403.81
300.366	400.81
300.597	401.81
300.827	392.81
301.057	397.81
301.288	431.81
301.518	421.81
301.748	421.81
301.979	395.81
302.209	403.81
302.439	427.81
302.669	432.81
302.9	421.81
303.13	391.81
303.36	413.81
303.59	424.81
303.82	419.81
304.051	406.81
304.281	416.81
304.511	420.81
304.741	415.81
304.971	418.81
305.201	403.81
305.431	410.81
305.661	403.81
305.891	417.81
306.121	419.81
306.352	419.81
306.582	433.81
306.812	401.81
307.042	401.81
307.272	416.81
307.502	424.81
307.731	433.81
307.961	421.81
308.191	400.81
308.421	412.81
308.651	412.81
308.881	420.81
309.111	421.81
309.341	415.81
309.571	414.81
309.8	431.81
310.03	447.81
310.26	438.81
310.49	439.81
310.72	445.81
310.949	454.81
311.179	454.81
311.409	463.81
311.639	431.81
311.868	452.81
312.098	447.81
312.328	456.81
312.557	452.81
312.787	454.81
313.017	474.81
313.246	465.81
313.476	457.81
313.706	454.81
313.935	463.81
314.165	485.81
314.394	488.81
314.624	484.81
314.853	474.81
315.083	453.81
315.312	473.81
315.542	453.81
315.771	433.81
316.001	451.81
316.23	468.81
316.46	465.81
316.689	443.81
316.919	453.81
317.148	472.81
317.377	450.81
317.607	470.81
317.836	488.81
318.065	459.81
318.295	461.81
318.524	478.81
318.753	454.81
318.983	456.81
319.212	464.81
319.441	459.81
319.67	459.81
319.9	465.81
320.129	454.81
320.358	463.81
320.587	460.81
320.816	461.81
321.046	496.81
321.275	475.81
321.504	453.81
321.733	470.81
321.962	477.81
322.191	497.81
322.42	482.81
322.649	506.81
322.878	518.81
323.108	513.81
323.337	536.81
323.566	563.81
323.795	548.81
324.024	588.81
324.253	685.81
324.482	863.81
324.71	1237.81
324.939	1789.81
325.168	1556.81
325.397	847.81
325.626	667.81
325.855	588.81
326.084	557.81
326.313	567.81
326.542	570.81
326.77	595.81
326.999	670.81
327.228	826.81
327.457	1160.81
327.686	1441.81
327.914	977.81
328.143	724.81
328.372	661.81
328.6	631.81
328.829	601.81
329.058	604.81
329.287	593.81
329.515	592.81
329.744	573.81
329.972	576.81
330.201	603.81
330.43	609.81
330.658	623.81
330.887	639.81
331.115	660.81
331.344	569.81
331.572	579.81
331.801	586.81
332.03	590.81
332.258	584.81
332.486	565.81
332.715	589.81
332.943	590.81
333.172	602.81
333.4	624.81
333.629	637.81
333.857	613.81
334.085	664.81
334.314	678.81
334.542	657.81
334.771	672.81
334.999	696.81
335.227	630.81
335.455	615.81
335.684	598.81
335.912	601.81
336.14	600.81
336.369	593.81
336.597	564.81
336.825	585.81
337.053	580.81
337.281	568.81
337.51	568.81
337.738	573.81
337.966	567.81
338.194	575.81
338.422	545.81
338.65	559.81
338.878	553.81
339.106	544.81
339.334	546.81
339.562	545.81
339.79	522.81
340.018	552.81
340.246	541.81
340.474	557.81
340.702	536.81
340.93	515.81
341.158	515.81
341.386	519.81
341.614	529.81
341.842	548.81
342.07	554.81
342.298	526.81
342.526	525.81
342.754	513.81
342.981	522.81
343.209	530.81
343.437	557.81
343.665	559.81
343.893	597.81
344.12	613.81
344.348	593.81
344.576	584.81
344.804	586.81
345.031	565.81
345.259	565.81
345.487	541.81
345.714	542.81
345.942	545.81
346.17	522.81
346.397	540.81
346.625	533.81
346.853	507.81
347.08	499.81
347.308	512.81
347.535	527.81
347.763	512.81
347.99	514.81
348.218	522.81
348.445	538.81
348.673	531.81
348.9	516.81
349.128	493.81
349.355	517.81
349.583	495.81
349.81	498.81
350.037	513.81
350.265	509.81
350.492	515.81
350.72	512.81
350.947	514.81
351.174	513.81
351.402	523.81
351.629	484.81
351.856	498.81
352.083	500.81
352.311	513.81
352.538	533.81
352.765	533.81
352.992	515.81
353.22	507.81
353.447	489.81
353.674	509.81
353.901	488.81
354.128	499.81
354.355	487.81
354.583	521.81
354.81	513.81
355.037	491.81
355.264	504.81
355.491	466.81
355.718	477.81
355.945	510.81
356.172	501.81
356.399	501.81
356.626	469.81
356.853	501.81
357.08	482.81
357.307	471.81
357.534	492.81
357.761	475.81
357.988	493.81
358.215	471.81
358.441	485.81
358.668	472.81
358.895	494.81
359.122	487.81
359.349	511.81
359.576	529.81
359.802	521.81
360.029	522.81
360.256	558.81
360.483	541.81
360.709	505.81
360.936	521.81
361.163	516.81
361.39	520.81
361.616	542.81
361.843	527.81
362.07	520.81
362.296	488.81
362.523	509.81
362.749	506.81
362.976	505.81
363.203	502.81
363.429	494.81
363.656	494.81
363.882	508.81
364.109	498.81
364.335	488.81
364.562	515.81
364.788	490.81
365.015	514.81
365.241	477.81
365.468	497.81
365.694	521.81
365.92	499.81
366.147	500.81
366.373	486.81
366.599	493.81
366.826	485.81
367.052	494.81
367.278	500.81
367.505	517.81
367.731	508.81
367.957	511.81
368.184	485.81
368.41	509.81
368.636	497.81
368.862	530.81
369.089	523.81
369.315	504.81
369.541	519.81
369.767	506.81
369.993	502.81
370.219	510.81
370.445	502.81
370.672	517.81
370.898	491.81
371.124	508.81
371.35	504.81
371.576	543.81
371.802	525.81
372.028	501.81
372.254	515.81
372.48	530.81
372.706	523.81
372.932	553.81
373.158	549.81
373.384	523.81
373.61	537.81
373.835	527.81
374.061	523.81
374.287	537.81
374.513	536.81
374.739	564.81
374.965	547.81
375.191	544.81
375.416	547.81
375.642	565.81
375.868	541.81
376.094	538.81
376.319	531.81
376.545	506.81
376.771	531.81
376.997	527.81
377.222	537.81
377.448	512.81
377.674	509.81
377.899	506.81
378.125	514.81
378.35	528.81
378.576	516.81
378.802	511.81
379.027	536.81
379.253	524.81
379.478	498.81
379.704	527.81
379.929	540.81
380.155	514.81
380.38	523.81
380.606	521.81
380.831	524.81
381.057	508.81
381.282	532.81
381.507	519.81
381.733	517.81
381.958	525.81
382.184	535.81
382.409	529.81
382.634	527.81
382.86	541.81
383.085	539.81
383.31	560.81
383.535	553.81
383.761	557.81
383.986	568.81
384.211	563.81
384.436	551.81
384.662	593.81
384.887	569.81
385.112	616.81
385.337	591.81
385.562	585.81
385.787	611.81
386.013	632.81
386.238	625.81
386.463	616.81
386.688	619.81
386.913	598.81
387.138	610.81
387.363	595.81
387.588	614.81
387.813	614.81
388.038	583.81
388.263	601.81
388.488	610.81
388.713	585.81
388.938	598.81
389.163	610.81
389.387	570.81
389.612	594.81
389.837	599.81
390.062	592.81
390.287	598.81
390.512	584.81
390.736	597.81
390.961	617.81
391.186	612.81
391.411	615.81
391.636	612.81
391.86	660.81
392.085	672.81
392.31	647.81
392.534	630.81
392.759	610.81
392.984	618.81
393.208	596.81
393.433	606.81
393.658	632.81
393.882	603.81
394.107	623.81
394.331	633.81
394.556	619.81
394.78	618.81
395.005	631.81
395.229	632.81
395.454	648.81
395.678	656.81
395.903	666.81
396.127	654.81
396.352	651.81
396.576	644.81
396.801	626.81
397.025	621.81
397.249	659.81
397.474	634.81
397.698	649.81
397.922	670.81
398.147	693.81
398.371	697.81
398.595	704.81
398.82	723.81
399.044	734.81
399.268	783.81
399.492	866.81
399.717	945.81
399.941	937.81
400.165	920.81
400.389	872.81
400.613	828.81
400.837	797.81
401.062	726.81
401.286	704.81
401.51	725.81
401.734	708.81
401.958	724.81
402.182	721.81
402.406	734.81
402.63	735.81
402.854	755.81
403.078	777.81
403.302	771.81
403.526	774.81
403.75	791.81
403.974	769.81
404.198	792.81
404.422	781.81
404.645	802.81
404.869	788.81
405.093	821.81
405.317	837.81
405.541	863.81
405.765	817.81
405.988	791.81
406.212	783.81
406.436	791.81
406.66	859.81
406.883	826.81
407.107	835.81
407.331	903.81
407.555	985.81
407.778	942.81
408.002	913.81
408.226	871.81
408.449	851.81
408.673	811.81
408.896	848.81
409.12	883.81
409.344	826.81
409.567	816.81
409.791	801.81
410.014	752.81
410.238	757.81
410.461	793.81
410.685	783.81
410.908	762.81
411.132	782.81
411.355	819.81
411.578	793.81
411.802	752.81
412.025	753.81
412.249	766.81
412.472	787.81
412.695	810.81
412.919	821.81
413.142	743.81
413.365	716.81
413.589	711.81
413.812	735.81
414.035	700.81
414.258	712.81
414.482	725.81
414.705	738.81
414.928	720.81
415.151	701.81
415.374	692.81
415.597	698.81
415.821	668.81
416.044	690.81
416.267	693.81
416.49	689.81
416.713	686.81
416.936	719.81
417.159	685.81
417.382	685.81
417.605	695.81
417.828	693.81
418.051	721.81
418.274	734.81
418.497	721.81
418.72	739.81
418.943	710.81
419.166	769.81
419.389	797.81
419.611	777.81
419.834	765.81
420.057	791.81
420.28	747.81
420.503	731.81
420.726	706.81
420.948	730.81
421.171	767.81
421.394	769.81
421.617	711.81
421.839	718.81
422.062	719.81
422.285	728.81
422.507	769.81
422.73	864.81
422.953	833.81
423.175	770.81
423.398	743.81
423.621	763.81
423.843	784.81
424.066	789.81
424.288	760.81
424.511	783.81
424.733	839.81
424.956	893.81
425.178	855.81
425.401	827.81
425.623	848.81
425.846	792.81
426.068	753.81
426.291	738.81
426.513	742.81
426.735	741.81
426.958	774.81
427.18	807.81
427.402	952.81
427.625	994.81
427.847	896.81
428.069	822.81
428.292	763.81
428.514	685.81
428.736	695.81
428.958	681.81
429.181	678.81
429.403	649.81
429.625	660.81
429.847	687.81
430.069	797.81
430.292	764.81
430.514	685.81
430.736	667.81
430.958	658.81
431.18	651.81
431.402	655.81
431.624	650.81
431.846	649.81
432.068	654.81
432.29	678.81
432.512	670.81
432.734	661.81
432.956	649.81
433.178	690.81
433.4	657.81
433.622	655.81
433.844	667.81
434.066	644.81
434.287	651.81
434.509	687.81
434.731	708.81
434.953	706.81
435.175	721.81
435.397	733.81
435.618	733.81
435.84	750.81
436.062	808.81
436.284	871.81
436.505	758.81
436.727	725.81
436.949	697.81
437.17	690.81
437.392	678.81
437.614	664.81
437.835	678.81
438.057	773.81
438.278	861.81
438.5	834.81
438.721	913.81
438.943	897.81
439.165	759.81
439.386	727.81
439.608	706.81
439.829	703.81
440.05	730.81
440.272	741.81
440.493	738.81
440.715	723.81
440.936	686.81
441.158	676.81
441.379	701.81
441.6	730.81
441.822	751.81
442.043	797.81
442.264	835.81
442.486	864.81
442.707	787.81
442.928	782.81
443.149	740.81
443.371	788.81
443.592	806.81
443.813	881.81
444.034	937.81
444.255	827.81
444.476	795.81
444.698	801.81
444.919	821.81
445.14	911.81
445.361	825.81
445.582	804.81
445.803	778.81
446.024	888.81
446.245	876.81
446.466	843.81
446.687	757.81
446.908	718.81
447.129	675.81
447.35	662.81
447.571	669.81
447.792	634.81
448.013	662.81
448.234	662.81
448.455	689.81
448.675	783.81
448.896	896.81
449.117	791.81
449.338	739.81
449.559	831.81
449.779	928.81
450	742.81
450.221	682.81
450.442	659.81
450.662	641.81
450.883	636.81
451.104	651.81
451.324	674.81
451.545	637.81
451.766	632.81
451.986	598.81
452.207	595.81
452.428	594.81
452.648	610.81
452.869	593.81
453.089	607.81
453.31	602.81
453.53	617.81
453.751	606.81
453.971	607.81
454.192	611.81
454.412	597.81
454.633	582.81
454.853	595.81
455.073	587.81
455.294	621.81
455.514	665.81
455.734	643.81
455.955	574.81
456.175	576.81
456.395	574.81
456.616	576.81
456.836	568.81
457.056	552.81
457.276	541.81
457.497	577.81
457.717	578.81
457.937	593.81
458.157	587.81
458.377	600.81
458.598	624.81
458.818	665.81
459.038	751.81
459.258	777.81
459.478	710.81
459.698	671.81
459.918	675.81
460.138	694.81
460.358	719.81
460.578	710.81
460.798	719.81
461.018	752.81
461.238	712.81
461.458	724.81
461.678	729.81
461.898	722.81
462.118	696.81
462.338	751.81
462.558	742.81
462.777	797.81
462.997	845.81
463.217	878.81
463.437	908.81
463.657	844.81
463.876	809.81
464.096	809.81
464.316	792.81
464.536	819.81
464.755	791.81
464.975	787.81
465.195	800.81
465.414	835.81
465.634	763.81
465.854	714.81
466.073	655.81
466.293	671.81
466.512	627.81
466.732	629.81
466.951	650.81
467.171	643.81
467.391	650.81
467.61	632.81
467.829	658.81
468.049	631.81
468.268	626.81
468.488	613.81
468.707	614.81
468.927	606.81
469.146	614.81
469.365	621.81
469.585	609.81
469.804	628.81
470.023	645.81
470.243	638.81
470.462	637.81
470.681	682.81
470.901	641.81
471.12	613.81
471.339	629.81
471.558	644.81
471.777	629.81
471.997	631.81
472.216	614.81
472.435	649.81
472.654	629.81
472.873	622.81
473.092	614.81
473.311	617.81
473.53	607.81
473.749	630.81
473.968	656.81
474.187	717.81
474.406	761.81
474.625	670.81
474.844	616.81
475.063	631.81
475.282	625.81
475.501	601.81
475.72	618.81
475.939	623.81
476.158	637.81
476.377	667.81
476.596	629.81
476.814	643.81
477.033	651.81
477.252	633.81
477.471	652.81
477.69	691.81
477.908	708.81
478.127	731.81
478.346	736.81
478.564	713.81
478.783	720.81
479.002	755.81
479.22	751.81
479.439	760.81
479.658	762.81
479.876	762.81
480.095	758.81
480.313	815.81
480.532	803.81
480.751	789.81
480.969	815.81
481.188	819.81
481.406	853.81
481.624	771.81
481.843	761.81
482.061	750.81
482.28	713.81
482.498	735.81
482.717	730.81
482.935	712.81
483.153	709.81
483.372	711.81
483.59	754.81
483.808	710.81
484.027	731.81
484.245	720.81
484.463	725.81
484.681	732.81
484.9	743.81
485.118	749.81
485.336	751.81
485.554	754.81
485.772	784.81
485.99	750.81
486.209	771.81
486.427	769.81
486.645	765.81
486.863	813.81
487.081	781.81
487.299	778.81
487.517	777.81
487.735	785.81
487.953	779.81
488.171	795.81
488.389	774.81
488.607	768.81
488.825	785.81
489.043	788.81
489.261	813.81
489.479	814.81
489.696	802.81
489.914	802.81
490.132	808.81
490.35	811.81
490.568	808.81
490.786	800.81
491.003	827.81
491.221	840.81
491.439	839.81
491.657	836.81
491.874	871.81
492.092	862.81
492.31	850.81
492.527	840.81
492.745	901.81
492.963	909.81
493.18	887.81
493.398	908.81
493.615	888.81
493.833	922.81
494.05	927.81
494.268	890.81
494.485	887.81
494.703	905.81
494.92	912.81
495.138	909.81
495.355	906.81
495.573	891.81
495.79	904.81
496.008	911.81
496.225	890.81
496.442	903.81
496.66	914.81
496.877	930.81
497.094	939.81
497.312	963.81
497.529	949.81
497.746	1005.81
497.963	1008.81
498.181	1044.81
498.398	1073.81
498.615	1085.81
498.832	1133.81
499.049	1206.81
499.267	1279.81
499.484	1329.81
499.701	1434.81
499.918	1496.81
500.135	1648.81
500.352	1752.81
500.569	1846.81
500.786	1829.81
501.003	1766.81
501.22	1665.81
501.437	1541.81
501.654	1425.81
