Data from 1963.PennyLincolnUp.Lamp.En5.5.200Scan.071719.P1._HRD10591_13-58-18-062.txt Node
Date: Thu Jul 18 13:58:18 EDT 2019
User: cochatt
Spectrometer: HR+D1059
Trigger mode: 1
Integration Time (sec): 1.000000E-1
Scans to average: 1
Electric dark correction enabled: true
Nonlinearity correction enabled: false
Boxcar width: 0
XAxis mode: Wavelengths
Number of Pixels in Spectrum: 2048
>>>>>Begin Spectral Data<<<<<
223.165	-9.44
223.4	-9.44
223.635	-9.44
223.869	-14.44
224.104	-19.44
224.338	-10.44
224.573	-21.44
224.808	-26.44
225.042	-5.44
225.277	-11.44
225.511	-9.44
225.746	-1.44
225.98	15.56
226.215	5.56
226.449	21.56
226.683	26.56
226.918	32.56
227.152	27.56
227.387	30.56
227.621	33.56
227.856	40.56
228.09	51.56
228.324	56.56
228.559	58.56
228.793	65.56
229.027	75.56
229.262	102.56
229.496	94.56
229.73	105.56
229.964	133.56
230.199	121.56
230.433	114.56
230.667	112.56
230.901	115.56
231.136	114.56
231.37	114.56
231.604	119.56
231.838	113.56
232.072	110.56
232.306	103.56
232.541	112.56
232.775	121.56
233.009	109.56
233.243	116.56
233.477	118.56
233.711	106.56
233.945	124.56
234.179	112.56
234.413	114.56
234.647	119.56
234.881	125.56
235.115	105.56
235.349	118.56
235.583	118.56
235.817	119.56
236.051	129.56
236.285	115.56
236.519	118.56
236.753	132.56
236.987	130.56
237.221	150.56
237.455	195.56
237.689	172.56
237.922	134.56
238.156	135.56
238.39	135.56
238.624	129.56
238.858	125.56
239.091	131.56
239.325	118.56
239.559	133.56
239.793	137.56
240.027	146.56
240.26	142.56
240.494	151.56
240.728	148.56
240.961	142.56
241.195	145.56
241.429	143.56
241.662	151.56
241.896	131.56
242.13	138.56
242.363	148.56
242.597	141.56
242.83	157.56
243.064	167.56
243.298	144.56
243.531	147.56
243.765	131.56
243.998	146.56
244.232	128.56
244.465	142.56
244.699	164.56
244.932	162.56
245.166	156.56
245.399	153.56
245.633	149.56
245.866	153.56
246.099	149.56
246.333	161.56
246.566	154.56
246.8	161.56
247.033	183.56
247.266	171.56
247.5	195.56
247.733	180.56
247.966	185.56
248.2	190.56
248.433	181.56
248.666	176.56
248.899	180.56
249.133	194.56
249.366	202.56
249.599	213.56
249.832	194.56
250.066	192.56
250.299	179.56
250.532	204.56
250.765	205.56
250.998	225.56
251.231	217.56
251.465	211.56
251.698	206.56
251.931	205.56
252.164	197.56
252.397	194.56
252.63	208.56
252.863	218.56
253.096	217.56
253.329	235.56
253.562	218.56
253.795	217.56
254.028	215.56
254.261	218.56
254.494	237.56
254.727	245.56
254.96	275.56
255.193	251.56
255.426	248.56
255.659	224.56
255.892	227.56
256.124	231.56
256.357	233.56
256.59	221.56
256.823	214.56
257.056	222.56
257.289	212.56
257.521	229.56
257.754	219.56
257.987	225.56
258.22	213.56
258.452	221.56
258.685	235.56
258.918	226.56
259.151	219.56
259.383	227.56
259.616	231.56
259.849	223.56
260.081	246.56
260.314	251.56
260.547	251.56
260.779	248.56
261.012	232.56
261.244	222.56
261.477	249.56
261.71	217.56
261.942	227.56
262.175	240.56
262.407	237.56
262.64	233.56
262.872	230.56
263.105	240.56
263.337	245.56
263.57	228.56
263.802	239.56
264.035	241.56
264.267	231.56
264.499	218.56
264.732	241.56
264.964	249.56
265.197	241.56
265.429	237.56
265.661	238.56
265.894	242.56
266.126	244.56
266.358	234.56
266.591	261.56
266.823	222.56
267.055	236.56
267.287	280.56
267.52	254.56
267.752	238.56
267.984	251.56
268.216	241.56
268.448	259.56
268.681	269.56
268.913	243.56
269.145	271.56
269.377	270.56
269.609	280.56
269.841	264.56
270.073	285.56
270.306	289.56
270.538	286.56
270.77	309.56
271.002	292.56
271.234	318.56
271.466	313.56
271.698	300.56
271.93	294.56
272.162	322.56
272.394	294.56
272.626	313.56
272.858	285.56
273.09	293.56
273.322	291.56
273.553	299.56
273.785	280.56
274.017	280.56
274.249	291.56
274.481	296.56
274.713	288.56
274.945	288.56
275.176	290.56
275.408	286.56
275.64	295.56
275.872	281.56
276.104	288.56
276.335	283.56
276.567	310.56
276.799	314.56
277.031	323.56
277.262	318.56
277.494	321.56
277.726	296.56
277.957	311.56
278.189	320.56
278.421	277.56
278.652	301.56
278.884	309.56
279.115	292.56
279.347	298.56
279.579	316.56
279.81	313.56
280.042	302.56
280.273	309.56
280.505	296.56
280.736	284.56
280.968	309.56
281.199	296.56
281.431	316.56
281.662	318.56
281.894	286.56
282.125	302.56
282.356	316.56
282.588	340.56
282.819	335.56
283.051	308.56
283.282	315.56
283.513	342.56
283.745	330.56
283.976	332.56
284.207	334.56
284.439	306.56
284.67	323.56
284.901	337.56
285.132	306.56
285.364	343.56
285.595	330.56
285.826	325.56
286.057	333.56
286.288	307.56
286.52	316.56
286.751	316.56
286.982	356.56
287.213	334.56
287.444	341.56
287.675	345.56
287.906	359.56
288.138	325.56
288.369	351.56
288.6	347.56
288.831	344.56
289.062	341.56
289.293	344.56
289.524	327.56
289.755	346.56
289.986	328.56
290.217	350.56
290.448	349.56
290.679	345.56
290.91	338.56
291.141	340.56
291.371	346.56
291.602	325.56
291.833	345.56
292.064	345.56
292.295	359.56
292.526	327.56
292.757	348.56
292.987	359.56
293.218	356.56
293.449	353.56
293.68	350.56
293.91	340.56
294.141	346.56
294.372	326.56
294.603	368.56
294.833	338.56
295.064	346.56
295.295	362.56
295.525	350.56
295.756	350.56
295.987	366.56
296.217	377.56
296.448	373.56
296.679	368.56
296.909	356.56
297.14	360.56
297.37	358.56
297.601	357.56
297.831	361.56
298.062	366.56
298.292	370.56
298.523	382.56
298.753	373.56
298.984	363.56
299.214	360.56
299.445	368.56
299.675	377.56
299.905	369.56
300.136	376.56
300.366	389.56
300.597	381.56
300.827	370.56
301.057	382.56
301.288	404.56
301.518	396.56
301.748	409.56
301.979	396.56
302.209	396.56
302.439	393.56
302.669	388.56
302.9	380.56
303.13	402.56
303.36	421.56
303.59	397.56
303.82	397.56
304.051	395.56
304.281	426.56
304.511	392.56
304.741	398.56
304.971	401.56
305.201	411.56
305.431	391.56
305.661	395.56
305.891	396.56
306.121	391.56
306.352	404.56
306.582	406.56
306.812	410.56
307.042	397.56
307.272	403.56
307.502	408.56
307.731	386.56
307.961	381.56
308.191	388.56
308.421	399.56
308.651	408.56
308.881	405.56
309.111	398.56
309.341	387.56
309.571	424.56
309.8	402.56
310.03	413.56
310.26	399.56
310.49	405.56
310.72	404.56
310.949	405.56
311.179	435.56
311.409	433.56
311.639	422.56
311.868	424.56
312.098	421.56
312.328	416.56
312.557	462.56
312.787	419.56
313.017	438.56
313.246	448.56
313.476	421.56
313.706	453.56
313.935	437.56
314.165	441.56
314.394	445.56
314.624	448.56
314.853	444.56
315.083	452.56
315.312	433.56
315.542	434.56
315.771	451.56
316.001	428.56
316.23	437.56
316.46	436.56
316.689	436.56
316.919	436.56
317.148	443.56
317.377	447.56
317.607	448.56
317.836	438.56
318.065	426.56
318.295	432.56
318.524	437.56
318.753	441.56
318.983	439.56
319.212	445.56
319.441	432.56
319.67	429.56
319.9	437.56
320.129	422.56
320.358	432.56
320.587	446.56
320.816	455.56
321.046	428.56
321.275	451.56
321.504	440.56
321.733	443.56
321.962	447.56
322.191	444.56
322.42	462.56
322.649	448.56
322.878	475.56
323.108	489.56
323.337	476.56
323.566	488.56
323.795	500.56
324.024	528.56
324.253	572.56
324.482	756.56
324.71	1015.56
324.939	1432.56
325.168	1279.56
325.397	737.56
325.626	576.56
325.855	523.56
326.084	489.56
326.313	513.56
326.542	506.56
326.77	544.56
326.999	565.56
327.228	704.56
327.457	997.56
327.686	1170.56
327.914	826.56
328.143	609.56
328.372	571.56
328.6	560.56
328.829	565.56
329.058	564.56
329.287	550.56
329.515	535.56
329.744	536.56
329.972	522.56
330.201	539.56
330.43	532.56
330.658	587.56
330.887	569.56
331.115	566.56
331.344	514.56
331.572	519.56
331.801	553.56
332.03	513.56
332.258	538.56
332.486	538.56
332.715	533.56
332.943	556.56
333.172	562.56
333.4	582.56
333.629	589.56
333.857	589.56
334.085	593.56
334.314	602.56
334.542	646.56
334.771	624.56
334.999	582.56
335.227	590.56
335.455	587.56
335.684	578.56
335.912	562.56
336.14	552.56
336.369	554.56
336.597	554.56
336.825	550.56
337.053	572.56
337.281	530.56
337.51	536.56
337.738	545.56
337.966	529.56
338.194	531.56
338.422	531.56
338.65	528.56
338.878	525.56
339.106	533.56
339.334	511.56
339.562	527.56
339.79	511.56
340.018	523.56
340.246	496.56
340.474	506.56
340.702	505.56
340.93	522.56
341.158	492.56
341.386	500.56
341.614	523.56
341.842	499.56
342.07	504.56
342.298	511.56
342.526	493.56
342.754	486.56
342.981	466.56
343.209	485.56
343.437	514.56
343.665	539.56
343.893	573.56
344.12	579.56
344.348	563.56
344.576	534.56
344.804	541.56
345.031	536.56
345.259	529.56
345.487	532.56
345.714	487.56
345.942	490.56
346.17	498.56
346.397	493.56
346.625	485.56
346.853	490.56
347.08	470.56
347.308	489.56
347.535	474.56
347.763	480.56
347.99	486.56
348.218	468.56
348.445	491.56
348.673	501.56
348.9	483.56
349.128	482.56
349.355	482.56
349.583	481.56
349.81	493.56
350.037	473.56
350.265	465.56
350.492	468.56
350.72	494.56
350.947	476.56
351.174	489.56
351.402	475.56
351.629	496.56
351.856	478.56
352.083	480.56
352.311	496.56
352.538	500.56
352.765	482.56
352.992	485.56
353.22	478.56
353.447	470.56
353.674	477.56
353.901	468.56
354.128	474.56
354.355	456.56
354.583	489.56
354.81	458.56
355.037	457.56
355.264	469.56
355.491	476.56
355.718	462.56
355.945	461.56
356.172	459.56
356.399	456.56
356.626	450.56
356.853	463.56
357.08	460.56
357.307	493.56
357.534	473.56
357.761	456.56
357.988	461.56
358.215	455.56
358.441	459.56
358.668	461.56
358.895	471.56
359.122	491.56
359.349	479.56
359.576	477.56
359.802	484.56
360.029	498.56
360.256	529.56
360.483	487.56
360.709	459.56
360.936	467.56
361.163	494.56
361.39	483.56
361.616	498.56
361.843	484.56
362.07	486.56
362.296	493.56
362.523	486.56
362.749	480.56
362.976	466.56
363.203	459.56
363.429	464.56
363.656	485.56
363.882	475.56
364.109	474.56
364.335	497.56
364.562	470.56
364.788	452.56
365.015	461.56
365.241	474.56
365.468	497.56
365.694	466.56
365.92	472.56
366.147	458.56
366.373	489.56
366.599	463.56
366.826	473.56
367.052	464.56
367.278	457.56
367.505	475.56
367.731	457.56
367.957	460.56
368.184	470.56
368.41	468.56
368.636	473.56
368.862	482.56
369.089	508.56
369.315	476.56
369.541	474.56
369.767	482.56
369.993	483.56
370.219	475.56
370.445	482.56
370.672	498.56
370.898	508.56
371.124	493.56
371.35	488.56
371.576	498.56
371.802	490.56
372.028	500.56
372.254	522.56
372.48	508.56
372.706	505.56
372.932	508.56
373.158	512.56
373.384	502.56
373.61	498.56
373.835	509.56
374.061	478.56
374.287	508.56
374.513	507.56
374.739	500.56
374.965	538.56
375.191	520.56
375.416	527.56
375.642	528.56
375.868	522.56
376.094	504.56
376.319	497.56
376.545	508.56
376.771	500.56
376.997	486.56
377.222	481.56
377.448	493.56
377.674	505.56
377.899	480.56
378.125	492.56
378.35	509.56
378.576	493.56
378.802	484.56
379.027	500.56
379.253	483.56
379.478	489.56
379.704	474.56
379.929	472.56
380.155	485.56
380.38	494.56
380.606	490.56
380.831	487.56
381.057	515.56
381.282	490.56
381.507	528.56
381.733	493.56
381.958	482.56
382.184	496.56
382.409	515.56
382.634	509.56
382.86	526.56
383.085	529.56
383.31	544.56
383.535	530.56
383.761	534.56
383.986	555.56
384.211	549.56
384.436	556.56
384.662	552.56
384.887	568.56
385.112	570.56
385.337	561.56
385.562	569.56
385.787	577.56
386.013	600.56
386.238	564.56
386.463	600.56
386.688	572.56
386.913	585.56
387.138	589.56
387.363	568.56
387.588	553.56
387.813	603.56
388.038	585.56
388.263	583.56
388.488	595.56
388.713	573.56
388.938	583.56
389.163	569.56
389.387	569.56
389.612	566.56
389.837	542.56
390.062	561.56
390.287	576.56
390.512	555.56
390.736	556.56
390.961	581.56
391.186	571.56
391.411	589.56
391.636	590.56
391.86	611.56
392.085	617.56
392.31	604.56
392.534	609.56
392.759	597.56
392.984	621.56
393.208	586.56
393.433	584.56
393.658	597.56
393.882	577.56
394.107	592.56
394.331	590.56
394.556	603.56
394.78	593.56
395.005	616.56
395.229	587.56
395.454	601.56
395.678	605.56
395.903	621.56
396.127	652.56
396.352	623.56
396.576	602.56
396.801	614.56
397.025	625.56
397.249	646.56
397.474	642.56
397.698	607.56
397.922	646.56
398.147	640.56
398.371	670.56
398.595	666.56
398.82	688.56
399.044	734.56
399.268	777.56
399.492	854.56
399.717	900.56
399.941	899.56
400.165	870.56
400.389	846.56
400.613	782.56
400.837	731.56
401.062	686.56
401.286	686.56
401.51	681.56
401.734	682.56
401.958	693.56
402.182	707.56
402.406	706.56
402.63	702.56
402.854	733.56
403.078	736.56
403.302	718.56
403.526	748.56
403.75	743.56
403.974	726.56
404.198	749.56
404.422	787.56
404.645	733.56
404.869	748.56
405.093	789.56
405.317	795.56
405.541	834.56
405.765	746.56
405.988	728.56
406.212	756.56
406.436	761.56
406.66	781.56
406.883	779.56
407.107	818.56
407.331	850.56
407.555	925.56
407.778	894.56
408.002	851.56
408.226	826.56
408.449	808.56
408.673	779.56
408.896	789.56
409.12	776.56
409.344	775.56
409.567	758.56
409.791	724.56
410.014	737.56
410.238	713.56
410.461	720.56
410.685	737.56
410.908	740.56
411.132	715.56
411.355	758.56
411.578	733.56
411.802	724.56
412.025	692.56
412.249	708.56
412.472	719.56
412.695	758.56
412.919	728.56
413.142	685.56
413.365	663.56
413.589	690.56
413.812	668.56
414.035	664.56
414.258	676.56
414.482	689.56
414.705	670.56
414.928	670.56
415.151	689.56
415.374	672.56
415.597	675.56
415.821	662.56
416.044	668.56
416.267	671.56
416.49	665.56
416.713	677.56
416.936	659.56
417.159	638.56
417.382	680.56
417.605	688.56
417.828	681.56
418.051	702.56
418.274	705.56
418.497	650.56
418.72	705.56
418.943	684.56
419.166	728.56
419.389	749.56
419.611	756.56
419.834	717.56
420.057	708.56
420.28	696.56
420.503	700.56
420.726	699.56
420.948	685.56
421.171	726.56
421.394	738.56
421.617	717.56
421.839	699.56
422.062	674.56
422.285	686.56
422.507	738.56
422.73	797.56
422.953	757.56
423.175	734.56
423.398	711.56
423.621	717.56
423.843	742.56
424.066	731.56
424.288	738.56
424.511	737.56
424.733	752.56
424.956	786.56
425.178	791.56
425.401	776.56
425.623	787.56
425.846	724.56
426.068	684.56
426.291	690.56
426.513	681.56
426.735	718.56
426.958	722.56
427.18	780.56
427.402	874.56
427.625	909.56
427.847	827.56
428.069	744.56
428.292	705.56
428.514	695.56
428.736	661.56
428.958	644.56
429.181	637.56
429.403	633.56
429.625	636.56
429.847	648.56
430.069	701.56
430.292	694.56
430.514	654.56
430.736	605.56
430.958	604.56
431.18	618.56
431.402	618.56
431.624	630.56
431.846	640.56
432.068	618.56
432.29	620.56
432.512	649.56
432.734	642.56
432.956	626.56
433.178	618.56
433.4	630.56
433.622	622.56
433.844	644.56
434.066	640.56
434.287	630.56
434.509	648.56
434.731	678.56
434.953	710.56
435.175	696.56
435.397	700.56
435.618	702.56
435.84	704.56
436.062	739.56
436.284	796.56
436.505	717.56
436.727	678.56
436.949	642.56
437.17	633.56
437.392	629.56
437.614	649.56
437.835	665.56
438.057	716.56
438.278	778.56
438.5	772.56
438.721	829.56
438.943	805.56
439.165	694.56
439.386	661.56
439.608	677.56
439.829	671.56
440.05	698.56
440.272	713.56
440.493	666.56
440.715	664.56
440.936	633.56
441.158	626.56
441.379	656.56
441.6	697.56
441.822	718.56
442.043	732.56
442.264	768.56
442.486	786.56
442.707	729.56
442.928	693.56
443.149	721.56
443.371	730.56
443.592	740.56
443.813	816.56
444.034	835.56
444.255	759.56
444.476	745.56
444.698	771.56
444.919	754.56
445.14	867.56
445.361	828.56
445.582	744.56
445.803	752.56
446.024	794.56
446.245	826.56
446.466	766.56
446.687	681.56
446.908	657.56
447.129	659.56
447.35	643.56
447.571	621.56
447.792	595.56
448.013	633.56
448.234	628.56
448.455	645.56
448.675	700.56
448.896	786.56
449.117	695.56
449.338	684.56
449.559	756.56
449.779	850.56
450	718.56
450.221	636.56
450.442	630.56
450.662	580.56
450.883	594.56
451.104	621.56
451.324	612.56
451.545	579.56
451.766	582.56
451.986	553.56
452.207	568.56
452.428	555.56
452.648	563.56
452.869	573.56
453.089	589.56
453.31	586.56
453.53	587.56
453.751	551.56
453.971	555.56
454.192	557.56
454.412	547.56
454.633	565.56
454.853	560.56
455.073	566.56
455.294	579.56
455.514	612.56
455.734	602.56
455.955	555.56
456.175	555.56
456.395	532.56
456.616	533.56
456.836	528.56
457.056	523.56
457.276	546.56
457.497	533.56
457.717	543.56
457.937	545.56
458.157	568.56
458.377	569.56
458.598	584.56
458.818	627.56
459.038	669.56
459.258	725.56
459.478	675.56
459.698	649.56
459.918	645.56
460.138	690.56
460.358	672.56
460.578	710.56
460.798	671.56
461.018	707.56
461.238	704.56
461.458	683.56
461.678	675.56
461.898	698.56
462.118	681.56
462.338	727.56
462.558	733.56
462.777	745.56
462.997	782.56
463.217	829.56
463.437	825.56
463.657	806.56
463.876	776.56
464.096	787.56
464.316	768.56
464.536	775.56
464.755	777.56
464.975	727.56
465.195	745.56
465.414	750.56
465.634	700.56
465.854	678.56
466.073	636.56
466.293	632.56
466.512	624.56
466.732	603.56
466.951	604.56
467.171	588.56
467.391	647.56
467.61	579.56
467.829	584.56
468.049	588.56
468.268	588.56
468.488	575.56
468.707	588.56
468.927	588.56
469.146	580.56
469.365	585.56
469.585	601.56
469.804	605.56
470.023	602.56
470.243	582.56
470.462	636.56
470.681	610.56
470.901	636.56
471.12	619.56
471.339	612.56
471.558	611.56
471.777	621.56
471.997	616.56
472.216	597.56
472.435	614.56
472.654	611.56
472.873	589.56
473.092	596.56
473.311	580.56
473.53	586.56
473.749	602.56
473.968	609.56
474.187	677.56
474.406	690.56
474.625	614.56
474.844	591.56
475.063	590.56
475.282	606.56
475.501	624.56
475.72	610.56
475.939	584.56
476.158	602.56
476.377	628.56
476.596	605.56
476.814	620.56
477.033	614.56
477.252	649.56
477.471	630.56
477.69	651.56
477.908	654.56
478.127	659.56
478.346	694.56
478.564	708.56
478.783	693.56
479.002	715.56
479.22	695.56
479.439	720.56
479.658	719.56
479.876	716.56
480.095	721.56
480.313	768.56
480.532	772.56
480.751	773.56
480.969	776.56
481.188	770.56
481.406	799.56
481.624	762.56
481.843	719.56
482.061	703.56
482.28	695.56
482.498	699.56
482.717	684.56
482.935	666.56
483.153	701.56
483.372	681.56
483.59	699.56
483.808	699.56
484.027	697.56
484.245	713.56
484.463	716.56
484.681	720.56
484.9	698.56
485.118	706.56
485.336	680.56
485.554	722.56
485.772	705.56
485.99	720.56
486.209	716.56
486.427	717.56
486.645	746.56
486.863	739.56
487.081	752.56
487.299	742.56
487.517	728.56
487.735	725.56
487.953	718.56
488.171	756.56
488.389	726.56
488.607	717.56
488.825	727.56
489.043	741.56
489.261	738.56
489.479	742.56
489.696	746.56
489.914	728.56
490.132	738.56
490.35	764.56
490.568	759.56
490.786	793.56
491.003	774.56
491.221	778.56
491.439	769.56
491.657	763.56
491.874	793.56
492.092	816.56
492.31	801.56
492.527	812.56
492.745	822.56
492.963	812.56
493.18	802.56
493.398	827.56
493.615	834.56
493.833	835.56
494.05	829.56
494.268	846.56
494.485	833.56
494.703	812.56
494.92	836.56
495.138	862.56
495.355	857.56
495.573	847.56
495.79	840.56
496.008	850.56
496.225	854.56
496.442	862.56
496.66	869.56
496.877	878.56
497.094	894.56
497.312	910.56
497.529	918.56
497.746	926.56
497.963	954.56
498.181	952.56
498.398	1001.56
498.615	1018.56
498.832	1090.56
499.049	1170.56
499.267	1186.56
499.484	1240.56
499.701	1379.56
499.918	1450.56
500.135	1566.56
500.352	1678.56
500.569	1758.56
500.786	1768.56
501.003	1682.56
501.22	1550.56
501.437	1408.56
501.654	1343.56
