Data from 1963.PennyLincolnUp.Lamp.En5.5.200Scan.071719.P1._HRD10591_13-58-17-063.txt Node
Date: Thu Jul 18 13:58:17 EDT 2019
User: cochatt
Spectrometer: HR+D1059
Trigger mode: 1
Integration Time (sec): 1.000000E-1
Scans to average: 1
Electric dark correction enabled: true
Nonlinearity correction enabled: false
Boxcar width: 0
XAxis mode: Wavelengths
Number of Pixels in Spectrum: 2048
>>>>>Begin Spectral Data<<<<<
223.165	-3.44
223.4	-3.44
223.635	-3.44
223.869	-20.44
224.104	-22.44
224.338	-9.44
224.573	-15.44
224.808	-19.44
225.042	-23.44
225.277	8.56
225.511	-9.44
225.746	14.56
225.98	13.56
226.215	3.56
226.449	9.56
226.683	26.56
226.918	23.56
227.152	23.56
227.387	38.56
227.621	29.56
227.856	49.56
228.09	55.56
228.324	57.56
228.559	48.56
228.793	64.56
229.027	97.56
229.262	103.56
229.496	123.56
229.73	125.56
229.964	126.56
230.199	124.56
230.433	108.56
230.667	103.56
230.901	108.56
231.136	106.56
231.37	103.56
231.604	108.56
231.838	106.56
232.072	118.56
232.306	119.56
232.541	125.56
232.775	115.56
233.009	128.56
233.243	122.56
233.477	119.56
233.711	122.56
233.945	123.56
234.179	123.56
234.413	113.56
234.647	125.56
234.881	116.56
235.115	106.56
235.349	119.56
235.583	140.56
235.817	124.56
236.051	128.56
236.285	125.56
236.519	125.56
236.753	119.56
236.987	133.56
237.221	163.56
237.455	172.56
237.689	167.56
237.922	134.56
238.156	136.56
238.39	127.56
238.624	129.56
238.858	129.56
239.091	119.56
239.325	143.56
239.559	126.56
239.793	130.56
240.027	162.56
240.26	139.56
240.494	157.56
240.728	153.56
240.961	147.56
241.195	149.56
241.429	149.56
241.662	151.56
241.896	140.56
242.13	138.56
242.363	152.56
242.597	145.56
242.83	161.56
243.064	149.56
243.298	147.56
243.531	139.56
243.765	169.56
243.998	153.56
244.232	146.56
244.465	159.56
244.699	150.56
244.932	169.56
245.166	155.56
245.399	162.56
245.633	171.56
245.866	169.56
246.099	152.56
246.333	153.56
246.566	161.56
246.8	159.56
247.033	157.56
247.266	168.56
247.5	172.56
247.733	187.56
247.966	166.56
248.2	183.56
248.433	183.56
248.666	194.56
248.899	195.56
249.133	204.56
249.366	198.56
249.599	207.56
249.832	198.56
250.066	190.56
250.299	195.56
250.532	195.56
250.765	215.56
250.998	202.56
251.231	215.56
251.465	203.56
251.698	203.56
251.931	222.56
252.164	193.56
252.397	195.56
252.63	202.56
252.863	195.56
253.096	219.56
253.329	208.56
253.562	235.56
253.795	225.56
254.028	210.56
254.261	212.56
254.494	236.56
254.727	254.56
254.96	260.56
255.193	257.56
255.426	243.56
255.659	223.56
255.892	234.56
256.124	240.56
256.357	240.56
256.59	224.56
256.823	216.56
257.056	225.56
257.289	218.56
257.521	228.56
257.754	224.56
257.987	200.56
258.22	219.56
258.452	213.56
258.685	212.56
258.918	228.56
259.151	228.56
259.383	242.56
259.616	232.56
259.849	233.56
260.081	237.56
260.314	268.56
260.547	263.56
260.779	254.56
261.012	236.56
261.244	255.56
261.477	255.56
261.71	243.56
261.942	244.56
262.175	248.56
262.407	248.56
262.64	222.56
262.872	237.56
263.105	228.56
263.337	240.56
263.57	213.56
263.802	236.56
264.035	232.56
264.267	244.56
264.499	233.56
264.732	256.56
264.964	263.56
265.197	234.56
265.429	246.56
265.661	252.56
265.894	257.56
266.126	245.56
266.358	249.56
266.591	242.56
266.823	257.56
267.055	253.56
267.287	251.56
267.52	255.56
267.752	249.56
267.984	242.56
268.216	252.56
268.448	273.56
268.681	266.56
268.913	265.56
269.145	284.56
269.377	303.56
269.609	301.56
269.841	281.56
270.073	288.56
270.306	287.56
270.538	315.56
270.77	317.56
271.002	325.56
271.234	298.56
271.466	283.56
271.698	312.56
271.93	333.56
272.162	311.56
272.394	307.56
272.626	315.56
272.858	314.56
273.09	300.56
273.322	298.56
273.553	297.56
273.785	289.56
274.017	293.56
274.249	284.56
274.481	284.56
274.713	287.56
274.945	295.56
275.176	320.56
275.408	288.56
275.64	285.56
275.872	304.56
276.104	288.56
276.335	291.56
276.567	300.56
276.799	296.56
277.031	312.56
277.262	316.56
277.494	322.56
277.726	330.56
277.957	324.56
278.189	313.56
278.421	290.56
278.652	309.56
278.884	321.56
279.115	309.56
279.347	298.56
279.579	312.56
279.81	308.56
280.042	306.56
280.273	315.56
280.505	320.56
280.736	299.56
280.968	297.56
281.199	300.56
281.431	316.56
281.662	298.56
281.894	322.56
282.125	305.56
282.356	304.56
282.588	342.56
282.819	350.56
283.051	327.56
283.282	333.56
283.513	308.56
283.745	330.56
283.976	307.56
284.207	327.56
284.439	318.56
284.67	337.56
284.901	323.56
285.132	323.56
285.364	334.56
285.595	328.56
285.826	325.56
286.057	312.56
286.288	329.56
286.52	325.56
286.751	319.56
286.982	330.56
287.213	332.56
287.444	344.56
287.675	335.56
287.906	333.56
288.138	344.56
288.369	355.56
288.6	365.56
288.831	341.56
289.062	365.56
289.293	344.56
289.524	366.56
289.755	340.56
289.986	352.56
290.217	343.56
290.448	353.56
290.679	354.56
290.91	340.56
291.141	357.56
291.371	352.56
291.602	351.56
291.833	351.56
292.064	352.56
292.295	349.56
292.526	331.56
292.757	360.56
292.987	334.56
293.218	373.56
293.449	359.56
293.68	346.56
293.91	341.56
294.141	332.56
294.372	350.56
294.603	338.56
294.833	349.56
295.064	369.56
295.295	367.56
295.525	344.56
295.756	351.56
295.987	377.56
296.217	377.56
296.448	376.56
296.679	368.56
296.909	348.56
297.14	349.56
297.37	347.56
297.601	359.56
297.831	364.56
298.062	370.56
298.292	363.56
298.523	372.56
298.753	376.56
298.984	378.56
299.214	368.56
299.445	362.56
299.675	360.56
299.905	366.56
300.136	381.56
300.366	402.56
300.597	381.56
300.827	375.56
301.057	412.56
301.288	404.56
301.518	399.56
301.748	404.56
301.979	394.56
302.209	409.56
302.439	412.56
302.669	401.56
302.9	397.56
303.13	393.56
303.36	394.56
303.59	385.56
303.82	403.56
304.051	386.56
304.281	398.56
304.511	399.56
304.741	396.56
304.971	377.56
305.201	381.56
305.431	390.56
305.661	402.56
305.891	379.56
306.121	376.56
306.352	385.56
306.582	395.56
306.812	402.56
307.042	415.56
307.272	390.56
307.502	411.56
307.731	400.56
307.961	396.56
308.191	401.56
308.421	399.56
308.651	409.56
308.881	398.56
309.111	403.56
309.341	396.56
309.571	412.56
309.8	404.56
310.03	418.56
310.26	420.56
310.49	414.56
310.72	407.56
310.949	456.56
311.179	425.56
311.409	417.56
311.639	419.56
311.868	444.56
312.098	420.56
312.328	440.56
312.557	441.56
312.787	448.56
313.017	450.56
313.246	432.56
313.476	432.56
313.706	433.56
313.935	417.56
314.165	423.56
314.394	434.56
314.624	457.56
314.853	442.56
315.083	437.56
315.312	460.56
315.542	445.56
315.771	438.56
316.001	423.56
316.23	442.56
316.46	440.56
316.689	433.56
316.919	428.56
317.148	427.56
317.377	433.56
317.607	441.56
317.836	418.56
318.065	443.56
318.295	431.56
318.524	442.56
318.753	453.56
318.983	441.56
319.212	407.56
319.441	438.56
319.67	451.56
319.9	424.56
320.129	461.56
320.358	425.56
320.587	453.56
320.816	439.56
321.046	452.56
321.275	469.56
321.504	456.56
321.733	477.56
321.962	462.56
322.191	457.56
322.42	463.56
322.649	485.56
322.878	490.56
323.108	472.56
323.337	496.56
323.566	497.56
323.795	520.56
324.024	529.56
324.253	571.56
324.482	752.56
324.71	1031.56
324.939	1427.56
325.168	1283.56
325.397	748.56
325.626	566.56
325.855	532.56
326.084	533.56
326.313	521.56
326.542	504.56
326.77	525.56
326.999	587.56
327.228	713.56
327.457	960.56
327.686	1157.56
327.914	834.56
328.143	648.56
328.372	592.56
328.6	566.56
328.829	525.56
329.058	556.56
329.287	563.56
329.515	560.56
329.744	527.56
329.972	544.56
330.201	540.56
330.43	573.56
330.658	590.56
330.887	596.56
331.115	584.56
331.344	550.56
331.572	538.56
331.801	554.56
332.03	546.56
332.258	565.56
332.486	528.56
332.715	556.56
332.943	573.56
333.172	563.56
333.4	576.56
333.629	611.56
333.857	583.56
334.085	608.56
334.314	624.56
334.542	651.56
334.771	659.56
334.999	611.56
335.227	589.56
335.455	568.56
335.684	588.56
335.912	561.56
336.14	543.56
336.369	558.56
336.597	547.56
336.825	523.56
337.053	537.56
337.281	533.56
337.51	543.56
337.738	527.56
337.966	540.56
338.194	538.56
338.422	528.56
338.65	551.56
338.878	519.56
339.106	544.56
339.334	527.56
339.562	520.56
339.79	514.56
340.018	515.56
340.246	516.56
340.474	537.56
340.702	491.56
340.93	502.56
341.158	504.56
341.386	515.56
341.614	516.56
341.842	498.56
342.07	503.56
342.298	490.56
342.526	499.56
342.754	497.56
342.981	508.56
343.209	523.56
343.437	520.56
343.665	551.56
343.893	572.56
344.12	588.56
344.348	559.56
344.576	543.56
344.804	549.56
345.031	534.56
345.259	545.56
345.487	498.56
345.714	511.56
345.942	501.56
346.17	507.56
346.397	495.56
346.625	462.56
346.853	478.56
347.08	472.56
347.308	496.56
347.535	501.56
347.763	497.56
347.99	470.56
348.218	477.56
348.445	493.56
348.673	468.56
348.9	475.56
349.128	459.56
349.355	473.56
349.583	469.56
349.81	495.56
350.037	471.56
350.265	487.56
350.492	478.56
350.72	483.56
350.947	475.56
351.174	489.56
351.402	482.56
351.629	490.56
351.856	476.56
352.083	488.56
352.311	486.56
352.538	469.56
352.765	490.56
352.992	477.56
353.22	468.56
353.447	489.56
353.674	486.56
353.901	478.56
354.128	445.56
354.355	483.56
354.583	482.56
354.81	455.56
355.037	486.56
355.264	457.56
355.491	463.56
355.718	447.56
355.945	457.56
356.172	459.56
356.399	453.56
356.626	469.56
356.853	476.56
357.08	461.56
357.307	473.56
357.534	499.56
357.761	442.56
357.988	463.56
358.215	473.56
358.441	482.56
358.668	482.56
358.895	438.56
359.122	486.56
359.349	504.56
359.576	477.56
359.802	494.56
360.029	495.56
360.256	506.56
360.483	500.56
360.709	493.56
360.936	492.56
361.163	463.56
361.39	480.56
361.616	490.56
361.843	470.56
362.07	495.56
362.296	483.56
362.523	503.56
362.749	505.56
362.976	462.56
363.203	478.56
363.429	498.56
363.656	469.56
363.882	488.56
364.109	456.56
364.335	475.56
364.562	473.56
364.788	472.56
365.015	460.56
365.241	478.56
365.468	485.56
365.694	495.56
365.92	490.56
366.147	468.56
366.373	471.56
366.599	488.56
366.826	464.56
367.052	481.56
367.278	474.56
367.505	475.56
367.731	477.56
367.957	476.56
368.184	472.56
368.41	475.56
368.636	483.56
368.862	497.56
369.089	481.56
369.315	475.56
369.541	468.56
369.767	474.56
369.993	487.56
370.219	497.56
370.445	474.56
370.672	473.56
370.898	492.56
371.124	475.56
371.35	487.56
371.576	492.56
371.802	490.56
372.028	469.56
372.254	482.56
372.48	527.56
372.706	496.56
372.932	510.56
373.158	511.56
373.384	508.56
373.61	495.56
373.835	515.56
374.061	502.56
374.287	511.56
374.513	529.56
374.739	524.56
374.965	528.56
375.191	539.56
375.416	535.56
375.642	522.56
375.868	524.56
376.094	460.56
376.319	489.56
376.545	509.56
376.771	498.56
376.997	501.56
377.222	515.56
377.448	485.56
377.674	495.56
377.899	485.56
378.125	515.56
378.35	481.56
378.576	509.56
378.802	518.56
379.027	500.56
379.253	499.56
379.478	504.56
379.704	488.56
379.929	499.56
380.155	479.56
380.38	498.56
380.606	491.56
380.831	509.56
381.057	504.56
381.282	477.56
381.507	517.56
381.733	500.56
381.958	498.56
382.184	523.56
382.409	515.56
382.634	515.56
382.86	552.56
383.085	505.56
383.31	530.56
383.535	543.56
383.761	528.56
383.986	523.56
384.211	545.56
384.436	518.56
384.662	544.56
384.887	551.56
385.112	562.56
385.337	579.56
385.562	569.56
385.787	570.56
386.013	575.56
386.238	595.56
386.463	573.56
386.688	603.56
386.913	586.56
387.138	563.56
387.363	563.56
387.588	575.56
387.813	557.56
388.038	598.56
388.263	594.56
388.488	563.56
388.713	578.56
388.938	591.56
389.163	568.56
389.387	567.56
389.612	561.56
389.837	580.56
390.062	577.56
390.287	554.56
390.512	559.56
390.736	536.56
390.961	568.56
391.186	566.56
391.411	597.56
391.636	627.56
391.86	614.56
392.085	609.56
392.31	626.56
392.534	583.56
392.759	601.56
392.984	615.56
393.208	592.56
393.433	598.56
393.658	624.56
393.882	613.56
394.107	576.56
394.331	575.56
394.556	596.56
394.78	612.56
395.005	600.56
395.229	616.56
395.454	615.56
395.678	630.56
395.903	627.56
396.127	632.56
396.352	649.56
396.576	626.56
396.801	611.56
397.025	613.56
397.249	620.56
397.474	643.56
397.698	602.56
397.922	641.56
398.147	661.56
398.371	662.56
398.595	645.56
398.82	682.56
399.044	709.56
399.268	754.56
399.492	842.56
399.717	899.56
399.941	927.56
400.165	869.56
400.389	854.56
400.613	777.56
400.837	715.56
401.062	709.56
401.286	704.56
401.51	664.56
401.734	662.56
401.958	689.56
402.182	692.56
402.406	717.56
402.63	711.56
402.854	745.56
403.078	709.56
403.302	764.56
403.526	752.56
403.75	748.56
403.974	733.56
404.198	748.56
404.422	749.56
404.645	748.56
404.869	752.56
405.093	794.56
405.317	795.56
405.541	800.56
405.765	767.56
405.988	735.56
406.212	767.56
406.436	767.56
406.66	795.56
406.883	796.56
407.107	818.56
407.331	892.56
407.555	902.56
407.778	906.56
408.002	866.56
408.226	796.56
408.449	803.56
408.673	802.56
408.896	811.56
409.12	804.56
409.344	771.56
409.567	758.56
409.791	743.56
410.014	741.56
410.238	708.56
410.461	755.56
410.685	729.56
410.908	703.56
411.132	735.56
411.355	761.56
411.578	763.56
411.802	708.56
412.025	708.56
412.249	725.56
412.472	733.56
412.695	759.56
412.919	746.56
413.142	727.56
413.365	706.56
413.589	695.56
413.812	685.56
414.035	680.56
414.258	694.56
414.482	681.56
414.705	687.56
414.928	689.56
415.151	710.56
415.374	712.56
415.597	701.56
415.821	672.56
416.044	687.56
416.267	664.56
416.49	671.56
416.713	651.56
416.936	653.56
417.159	684.56
417.382	666.56
417.605	693.56
417.828	677.56
418.051	703.56
418.274	689.56
418.497	681.56
418.72	684.56
418.943	680.56
419.166	713.56
419.389	757.56
419.611	752.56
419.834	717.56
420.057	705.56
420.28	713.56
420.503	690.56
420.726	689.56
420.948	703.56
421.171	738.56
421.394	735.56
421.617	702.56
421.839	672.56
422.062	680.56
422.285	712.56
422.507	740.56
422.73	794.56
422.953	785.56
423.175	728.56
423.398	712.56
423.621	722.56
423.843	737.56
424.066	734.56
424.288	716.56
424.511	740.56
424.733	746.56
424.956	849.56
425.178	805.56
425.401	788.56
425.623	833.56
425.846	723.56
426.068	704.56
426.291	692.56
426.513	680.56
426.735	694.56
426.958	740.56
427.18	782.56
427.402	858.56
427.625	947.56
427.847	815.56
428.069	732.56
428.292	716.56
428.514	669.56
428.736	644.56
428.958	651.56
429.181	627.56
429.403	633.56
429.625	621.56
429.847	676.56
430.069	691.56
430.292	700.56
430.514	640.56
430.736	647.56
430.958	666.56
431.18	611.56
431.402	643.56
431.624	613.56
431.846	624.56
432.068	627.56
432.29	626.56
432.512	625.56
432.734	626.56
432.956	643.56
433.178	627.56
433.4	632.56
433.622	629.56
433.844	633.56
434.066	662.56
434.287	653.56
434.509	654.56
434.731	678.56
434.953	664.56
435.175	679.56
435.397	706.56
435.618	677.56
435.84	734.56
436.062	780.56
436.284	813.56
436.505	714.56
436.727	679.56
436.949	660.56
437.17	658.56
437.392	644.56
437.614	662.56
437.835	668.56
438.057	725.56
438.278	808.56
438.5	791.56
438.721	837.56
438.943	804.56
439.165	707.56
439.386	674.56
439.608	655.56
439.829	658.56
440.05	697.56
440.272	715.56
440.493	692.56
440.715	692.56
440.936	682.56
441.158	661.56
441.379	663.56
441.6	676.56
441.822	689.56
442.043	719.56
442.264	778.56
442.486	821.56
442.707	725.56
442.928	701.56
443.149	723.56
443.371	745.56
443.592	760.56
443.813	835.56
444.034	857.56
444.255	780.56
444.476	753.56
444.698	770.56
444.919	784.56
445.14	887.56
445.361	791.56
445.582	740.56
445.803	786.56
446.024	823.56
446.245	834.56
446.466	775.56
446.687	680.56
446.908	663.56
447.129	644.56
447.35	645.56
447.571	633.56
447.792	623.56
448.013	630.56
448.234	608.56
448.455	643.56
448.675	706.56
448.896	820.56
449.117	715.56
449.338	703.56
449.559	747.56
449.779	840.56
450	713.56
450.221	647.56
450.442	614.56
450.662	603.56
450.883	615.56
451.104	605.56
451.324	613.56
451.545	605.56
451.766	591.56
451.986	583.56
452.207	573.56
452.428	562.56
452.648	563.56
452.869	596.56
453.089	584.56
453.31	596.56
453.53	575.56
453.751	569.56
453.971	570.56
454.192	580.56
454.412	565.56
454.633	565.56
454.853	560.56
455.073	555.56
455.294	601.56
455.514	603.56
455.734	611.56
455.955	576.56
456.175	536.56
456.395	531.56
456.616	531.56
456.836	541.56
457.056	533.56
457.276	514.56
457.497	537.56
457.717	533.56
457.937	536.56
458.157	548.56
458.377	539.56
458.598	562.56
458.818	626.56
459.038	658.56
459.258	685.56
459.478	654.56
459.698	642.56
459.918	656.56
460.138	681.56
460.358	683.56
460.578	675.56
460.798	700.56
461.018	698.56
461.238	680.56
461.458	702.56
461.678	683.56
461.898	712.56
462.118	717.56
462.338	727.56
462.558	723.56
462.777	756.56
462.997	815.56
463.217	846.56
463.437	829.56
463.657	810.56
463.876	757.56
464.096	769.56
464.316	754.56
464.536	777.56
464.755	777.56
464.975	785.56
465.195	766.56
465.414	745.56
465.634	669.56
465.854	651.56
466.073	638.56
466.293	628.56
466.512	620.56
466.732	580.56
466.951	607.56
467.171	593.56
467.391	616.56
467.61	596.56
467.829	603.56
468.049	609.56
468.268	609.56
468.488	579.56
468.707	587.56
468.927	608.56
469.146	595.56
469.365	606.56
469.585	594.56
469.804	627.56
470.023	639.56
470.243	628.56
470.462	638.56
470.681	645.56
470.901	619.56
471.12	618.56
471.339	605.56
471.558	597.56
471.777	618.56
471.997	603.56
472.216	621.56
472.435	620.56
472.654	593.56
472.873	600.56
473.092	583.56
473.311	591.56
473.53	566.56
473.749	593.56
473.968	610.56
474.187	667.56
474.406	696.56
474.625	624.56
474.844	593.56
475.063	562.56
475.282	591.56
475.501	584.56
475.72	587.56
475.939	607.56
476.158	620.56
476.377	593.56
476.596	605.56
476.814	659.56
477.033	618.56
477.252	641.56
477.471	631.56
477.69	662.56
477.908	681.56
478.127	685.56
478.346	682.56
478.564	693.56
478.783	695.56
479.002	704.56
479.22	713.56
479.439	724.56
479.658	723.56
479.876	705.56
480.095	756.56
480.313	769.56
480.532	783.56
480.751	757.56
480.969	769.56
481.188	817.56
481.406	830.56
481.624	737.56
481.843	734.56
482.061	712.56
482.28	711.56
482.498	695.56
482.717	700.56
482.935	684.56
483.153	673.56
483.372	668.56
483.59	696.56
483.808	699.56
484.027	673.56
484.245	690.56
484.463	719.56
484.681	709.56
484.9	729.56
485.118	725.56
485.336	721.56
485.554	711.56
485.772	723.56
485.99	730.56
486.209	727.56
486.427	729.56
486.645	715.56
486.863	727.56
487.081	747.56
487.299	739.56
487.517	728.56
487.735	716.56
487.953	738.56
488.171	726.56
488.389	719.56
488.607	739.56
488.825	731.56
489.043	722.56
489.261	739.56
489.479	731.56
489.696	766.56
489.914	731.56
490.132	735.56
490.35	772.56
490.568	736.56
490.786	771.56
491.003	796.56
491.221	786.56
491.439	806.56
491.657	826.56
491.874	795.56
492.092	804.56
492.31	799.56
492.527	834.56
492.745	819.56
492.963	815.56
493.18	818.56
493.398	837.56
493.615	851.56
493.833	848.56
494.05	832.56
494.268	866.56
494.485	866.56
494.703	829.56
494.92	842.56
495.138	870.56
495.355	857.56
495.573	817.56
495.79	845.56
496.008	854.56
496.225	855.56
496.442	850.56
496.66	870.56
496.877	864.56
497.094	877.56
497.312	893.56
497.529	909.56
497.746	910.56
497.963	951.56
498.181	989.56
498.398	1021.56
498.615	1023.56
498.832	1076.56
499.049	1161.56
499.267	1209.56
499.484	1267.56
499.701	1371.56
499.918	1432.56
500.135	1564.56
500.352	1731.56
500.569	1779.56
500.786	1747.56
501.003	1646.56
501.22	1570.56
501.437	1421.56
501.654	1347.56
501.871	1257.56
