Data from 1963.PennyLincolnUp.Lamp.En5.5.200Scan.071719.P1._HRD10591_13-59-07-062.txt Node
Date: Thu Jul 18 13:59:07 EDT 2019
User: cochatt
Spectrometer: HR+D1059
Trigger mode: 1
Integration Time (sec): 1.000000E-1
Scans to average: 1
Electric dark correction enabled: true
Nonlinearity correction enabled: false
Boxcar width: 0
XAxis mode: Wavelengths
Number of Pixels in Spectrum: 2048
>>>>>Begin Spectral Data<<<<<
223.165	8.19
223.4	8.19
223.635	8.19
223.869	-21.81
224.104	-10.81
224.338	-16.81
224.573	-15.81
224.808	-12.81
225.042	2.19
225.277	-1.81
225.511	-1.81
225.746	-7.81
225.98	-7.81
226.215	12.19
226.449	12.19
226.683	5.19
226.918	24.19
227.152	33.19
227.387	28.19
227.621	22.19
227.856	41.19
228.09	42.19
228.324	60.19
228.559	57.19
228.793	73.19
229.027	96.19
229.262	113.19
229.496	115.19
229.73	119.19
229.964	119.19
230.199	122.19
230.433	110.19
230.667	106.19
230.901	117.19
231.136	118.19
231.37	107.19
231.604	113.19
231.838	125.19
232.072	119.19
232.306	124.19
232.541	136.19
232.775	130.19
233.009	120.19
233.243	131.19
233.477	119.19
233.711	132.19
233.945	117.19
234.179	120.19
234.413	126.19
234.647	124.19
234.881	125.19
235.115	125.19
235.349	116.19
235.583	134.19
235.817	116.19
236.051	127.19
236.285	129.19
236.519	123.19
236.753	127.19
236.987	147.19
237.221	163.19
237.455	222.19
237.689	182.19
237.922	136.19
238.156	141.19
238.39	148.19
238.624	128.19
238.858	130.19
239.091	129.19
239.325	144.19
239.559	125.19
239.793	149.19
240.027	148.19
240.26	143.19
240.494	169.19
240.728	166.19
240.961	166.19
241.195	152.19
241.429	148.19
241.662	151.19
241.896	144.19
242.13	144.19
242.363	141.19
242.597	146.19
242.83	155.19
243.064	176.19
243.298	160.19
243.531	146.19
243.765	159.19
243.998	162.19
244.232	136.19
244.465	140.19
244.699	153.19
244.932	165.19
245.166	161.19
245.399	154.19
245.633	179.19
245.866	167.19
246.099	155.19
246.333	165.19
246.566	169.19
246.8	164.19
247.033	185.19
247.266	182.19
247.5	162.19
247.733	175.19
247.966	180.19
248.2	176.19
248.433	173.19
248.666	189.19
248.899	186.19
249.133	199.19
249.366	201.19
249.599	200.19
249.832	214.19
250.066	196.19
250.299	203.19
250.532	206.19
250.765	212.19
250.998	219.19
251.231	222.19
251.465	227.19
251.698	222.19
251.931	206.19
252.164	211.19
252.397	211.19
252.63	224.19
252.863	212.19
253.096	230.19
253.329	230.19
253.562	267.19
253.795	237.19
254.028	236.19
254.261	222.19
254.494	229.19
254.727	233.19
254.96	262.19
255.193	252.19
255.426	246.19
255.659	224.19
255.892	252.19
256.124	243.19
256.357	235.19
256.59	239.19
256.823	235.19
257.056	230.19
257.289	233.19
257.521	254.19
257.754	214.19
257.987	228.19
258.22	210.19
258.452	215.19
258.685	238.19
258.918	248.19
259.151	236.19
259.383	231.19
259.616	214.19
259.849	250.19
260.081	255.19
260.314	261.19
260.547	285.19
260.779	243.19
261.012	250.19
261.244	237.19
261.477	258.19
261.71	238.19
261.942	258.19
262.175	248.19
262.407	248.19
262.64	240.19
262.872	243.19
263.105	230.19
263.337	235.19
263.57	262.19
263.802	258.19
264.035	237.19
264.267	236.19
264.499	250.19
264.732	232.19
264.964	253.19
265.197	245.19
265.429	235.19
265.661	251.19
265.894	237.19
266.126	252.19
266.358	252.19
266.591	252.19
266.823	248.19
267.055	238.19
267.287	254.19
267.52	244.19
267.752	270.19
267.984	261.19
268.216	245.19
268.448	258.19
268.681	259.19
268.913	265.19
269.145	277.19
269.377	290.19
269.609	291.19
269.841	294.19
270.073	282.19
270.306	291.19
270.538	337.19
270.77	320.19
271.002	314.19
271.234	304.19
271.466	310.19
271.698	312.19
271.93	340.19
272.162	341.19
272.394	345.19
272.626	319.19
272.858	306.19
273.09	303.19
273.322	302.19
273.553	295.19
273.785	300.19
274.017	286.19
274.249	290.19
274.481	310.19
274.713	309.19
274.945	293.19
275.176	292.19
275.408	290.19
275.64	300.19
275.872	283.19
276.104	298.19
276.335	323.19
276.567	308.19
276.799	295.19
277.031	329.19
277.262	355.19
277.494	355.19
277.726	334.19
277.957	313.19
278.189	314.19
278.421	328.19
278.652	306.19
278.884	323.19
279.115	318.19
279.347	314.19
279.579	299.19
279.81	320.19
280.042	315.19
280.273	316.19
280.505	318.19
280.736	318.19
280.968	295.19
281.199	317.19
281.431	319.19
281.662	330.19
281.894	318.19
282.125	331.19
282.356	323.19
282.588	338.19
282.819	349.19
283.051	331.19
283.282	328.19
283.513	328.19
283.745	324.19
283.976	332.19
284.207	335.19
284.439	338.19
284.67	331.19
284.901	319.19
285.132	323.19
285.364	323.19
285.595	319.19
285.826	322.19
286.057	335.19
286.288	345.19
286.52	333.19
286.751	338.19
286.982	329.19
287.213	345.19
287.444	351.19
287.675	346.19
287.906	362.19
288.138	354.19
288.369	371.19
288.6	370.19
288.831	354.19
289.062	363.19
289.293	363.19
289.524	357.19
289.755	380.19
289.986	358.19
290.217	352.19
290.448	354.19
290.679	359.19
290.91	363.19
291.141	329.19
291.371	345.19
291.602	340.19
291.833	374.19
292.064	365.19
292.295	344.19
292.526	360.19
292.757	342.19
292.987	363.19
293.218	363.19
293.449	360.19
293.68	352.19
293.91	355.19
294.141	360.19
294.372	349.19
294.603	370.19
294.833	374.19
295.064	347.19
295.295	374.19
295.525	356.19
295.756	388.19
295.987	372.19
296.217	383.19
296.448	391.19
296.679	383.19
296.909	363.19
297.14	370.19
297.37	362.19
297.601	368.19
297.831	396.19
298.062	383.19
298.292	391.19
298.523	394.19
298.753	398.19
298.984	362.19
299.214	378.19
299.445	379.19
299.675	394.19
299.905	392.19
300.136	372.19
300.366	388.19
300.597	388.19
300.827	405.19
301.057	393.19
301.288	402.19
301.518	402.19
301.748	400.19
301.979	396.19
302.209	425.19
302.439	400.19
302.669	412.19
302.9	399.19
303.13	397.19
303.36	408.19
303.59	410.19
303.82	418.19
304.051	412.19
304.281	424.19
304.511	387.19
304.741	394.19
304.971	406.19
305.201	401.19
305.431	412.19
305.661	420.19
305.891	406.19
306.121	402.19
306.352	418.19
306.582	404.19
306.812	406.19
307.042	416.19
307.272	424.19
307.502	381.19
307.731	420.19
307.961	412.19
308.191	405.19
308.421	399.19
308.651	392.19
308.881	412.19
309.111	390.19
309.341	392.19
309.571	428.19
309.8	397.19
310.03	433.19
310.26	400.19
310.49	443.19
310.72	428.19
310.949	444.19
311.179	436.19
311.409	447.19
311.639	437.19
311.868	452.19
312.098	440.19
312.328	437.19
312.557	453.19
312.787	474.19
313.017	463.19
313.246	446.19
313.476	465.19
313.706	436.19
313.935	456.19
314.165	437.19
314.394	449.19
314.624	453.19
314.853	470.19
315.083	459.19
315.312	447.19
315.542	445.19
315.771	457.19
316.001	458.19
316.23	437.19
316.46	436.19
316.689	464.19
316.919	476.19
317.148	456.19
317.377	466.19
317.607	443.19
317.836	457.19
318.065	431.19
318.295	459.19
318.524	454.19
318.753	465.19
318.983	462.19
319.212	433.19
319.441	432.19
319.67	470.19
319.9	449.19
320.129	436.19
320.358	444.19
320.587	461.19
320.816	464.19
321.046	452.19
321.275	456.19
321.504	449.19
321.733	454.19
321.962	449.19
322.191	495.19
322.42	498.19
322.649	489.19
322.878	478.19
323.108	489.19
323.337	512.19
323.566	512.19
323.795	535.19
324.024	571.19
324.253	620.19
324.482	804.19
324.71	1124.19
324.939	1561.19
325.168	1412.19
325.397	823.19
325.626	610.19
325.855	547.19
326.084	544.19
326.313	529.19
326.542	522.19
326.77	562.19
326.999	597.19
327.228	746.19
327.457	1046.19
327.686	1250.19
327.914	891.19
328.143	662.19
328.372	608.19
328.6	586.19
328.829	560.19
329.058	566.19
329.287	567.19
329.515	558.19
329.744	549.19
329.972	568.19
330.201	588.19
330.43	568.19
330.658	576.19
330.887	620.19
331.115	597.19
331.344	588.19
331.572	570.19
331.801	572.19
332.03	575.19
332.258	562.19
332.486	552.19
332.715	557.19
332.943	565.19
333.172	586.19
333.4	616.19
333.629	620.19
333.857	642.19
334.085	650.19
334.314	639.19
334.542	661.19
334.771	654.19
334.999	601.19
335.227	599.19
335.455	604.19
335.684	574.19
335.912	583.19
336.14	542.19
336.369	564.19
336.597	567.19
336.825	577.19
337.053	561.19
337.281	542.19
337.51	559.19
337.738	574.19
337.966	549.19
338.194	547.19
338.422	552.19
338.65	531.19
338.878	532.19
339.106	562.19
339.334	557.19
339.562	511.19
339.79	545.19
340.018	522.19
340.246	520.19
340.474	525.19
340.702	528.19
340.93	514.19
341.158	528.19
341.386	532.19
341.614	535.19
341.842	516.19
342.07	519.19
342.298	509.19
342.526	506.19
342.754	517.19
342.981	528.19
343.209	517.19
343.437	532.19
343.665	564.19
343.893	567.19
344.12	604.19
344.348	558.19
344.576	544.19
344.804	562.19
345.031	541.19
345.259	562.19
345.487	523.19
345.714	526.19
345.942	495.19
346.17	499.19
346.397	516.19
346.625	511.19
346.853	483.19
347.08	505.19
347.308	510.19
347.535	505.19
347.763	503.19
347.99	491.19
348.218	512.19
348.445	508.19
348.673	503.19
348.9	479.19
349.128	505.19
349.355	490.19
349.583	492.19
349.81	474.19
350.037	483.19
350.265	493.19
350.492	491.19
350.72	476.19
350.947	474.19
351.174	494.19
351.402	487.19
351.629	517.19
351.856	488.19
352.083	525.19
352.311	526.19
352.538	488.19
352.765	486.19
352.992	495.19
353.22	501.19
353.447	488.19
353.674	476.19
353.901	488.19
354.128	476.19
354.355	465.19
354.583	505.19
354.81	460.19
355.037	486.19
355.264	472.19
355.491	490.19
355.718	503.19
355.945	484.19
356.172	496.19
356.399	475.19
356.626	499.19
356.853	471.19
357.08	475.19
357.307	466.19
357.534	479.19
357.761	463.19
357.988	470.19
358.215	486.19
358.441	477.19
358.668	481.19
358.895	487.19
359.122	504.19
359.349	480.19
359.576	508.19
359.802	494.19
360.029	534.19
360.256	530.19
360.483	516.19
360.709	505.19
360.936	499.19
361.163	501.19
361.39	472.19
361.616	508.19
361.843	482.19
362.07	482.19
362.296	491.19
362.523	500.19
362.749	489.19
362.976	498.19
363.203	482.19
363.429	479.19
363.656	496.19
363.882	484.19
364.109	476.19
364.335	490.19
364.562	479.19
364.788	484.19
365.015	481.19
365.241	480.19
365.468	503.19
365.694	501.19
365.92	483.19
366.147	489.19
366.373	490.19
366.599	495.19
366.826	459.19
367.052	474.19
367.278	485.19
367.505	493.19
367.731	517.19
367.957	486.19
368.184	485.19
368.41	483.19
368.636	514.19
368.862	518.19
369.089	500.19
369.315	488.19
369.541	474.19
369.767	491.19
369.993	498.19
370.219	501.19
370.445	501.19
370.672	517.19
370.898	500.19
371.124	508.19
371.35	486.19
371.576	500.19
371.802	511.19
372.028	511.19
372.254	494.19
372.48	520.19
372.706	524.19
372.932	515.19
373.158	518.19
373.384	492.19
373.61	511.19
373.835	502.19
374.061	519.19
374.287	510.19
374.513	537.19
374.739	544.19
374.965	536.19
375.191	568.19
375.416	559.19
375.642	531.19
375.868	527.19
376.094	515.19
376.319	507.19
376.545	518.19
376.771	538.19
376.997	494.19
377.222	526.19
377.448	511.19
377.674	520.19
377.899	513.19
378.125	507.19
378.35	479.19
378.576	496.19
378.802	506.19
379.027	527.19
379.253	496.19
379.478	502.19
379.704	509.19
379.929	510.19
380.155	500.19
380.38	511.19
380.606	488.19
380.831	523.19
381.057	521.19
381.282	521.19
381.507	493.19
381.733	507.19
381.958	500.19
382.184	518.19
382.409	516.19
382.634	540.19
382.86	538.19
383.085	551.19
383.31	545.19
383.535	559.19
383.761	553.19
383.986	547.19
384.211	579.19
384.436	525.19
384.662	574.19
384.887	568.19
385.112	559.19
385.337	579.19
385.562	574.19
385.787	604.19
386.013	615.19
386.238	628.19
386.463	599.19
386.688	575.19
386.913	586.19
387.138	569.19
387.363	589.19
387.588	586.19
387.813	585.19
388.038	584.19
388.263	572.19
388.488	580.19
388.713	576.19
388.938	572.19
389.163	574.19
389.387	567.19
389.612	572.19
389.837	586.19
390.062	591.19
390.287	580.19
390.512	562.19
390.736	589.19
390.961	592.19
391.186	598.19
391.411	624.19
391.636	602.19
391.86	644.19
392.085	632.19
392.31	652.19
392.534	627.19
392.759	621.19
392.984	616.19
393.208	617.19
393.433	603.19
393.658	619.19
393.882	606.19
394.107	599.19
394.331	609.19
394.556	595.19
394.78	623.19
395.005	607.19
395.229	612.19
395.454	610.19
395.678	625.19
395.903	635.19
396.127	631.19
396.352	647.19
396.576	626.19
396.801	628.19
397.025	636.19
397.249	639.19
397.474	624.19
397.698	632.19
397.922	653.19
398.147	661.19
398.371	666.19
398.595	668.19
398.82	683.19
399.044	716.19
399.268	767.19
399.492	851.19
399.717	939.19
399.941	954.19
400.165	904.19
400.389	860.19
400.613	782.19
400.837	740.19
401.062	714.19
401.286	686.19
401.51	708.19
401.734	687.19
401.958	703.19
402.182	702.19
402.406	740.19
402.63	730.19
402.854	720.19
403.078	758.19
403.302	746.19
403.526	763.19
403.75	758.19
403.974	792.19
404.198	779.19
404.422	781.19
404.645	784.19
404.869	793.19
405.093	788.19
405.317	799.19
405.541	859.19
405.765	782.19
405.988	786.19
406.212	795.19
406.436	800.19
406.66	795.19
406.883	823.19
407.107	863.19
407.331	885.19
407.555	920.19
407.778	938.19
408.002	869.19
408.226	850.19
408.449	826.19
408.673	825.19
408.896	821.19
409.12	842.19
409.344	822.19
409.567	768.19
409.791	770.19
410.014	747.19
410.238	745.19
410.461	713.19
410.685	726.19
410.908	740.19
411.132	785.19
411.355	779.19
411.578	758.19
411.802	738.19
412.025	738.19
412.249	723.19
412.472	748.19
412.695	792.19
412.919	762.19
413.142	733.19
413.365	724.19
413.589	712.19
413.812	707.19
414.035	716.19
414.258	684.19
414.482	687.19
414.705	688.19
414.928	691.19
415.151	700.19
415.374	711.19
415.597	677.19
415.821	669.19
416.044	685.19
416.267	695.19
416.49	662.19
416.713	697.19
416.936	710.19
417.159	698.19
417.382	694.19
417.605	670.19
417.828	679.19
418.051	716.19
418.274	700.19
418.497	700.19
418.72	709.19
418.943	699.19
419.166	718.19
419.389	807.19
419.611	753.19
419.834	716.19
420.057	750.19
420.28	726.19
420.503	715.19
420.726	705.19
420.948	733.19
421.171	729.19
421.394	767.19
421.617	747.19
421.839	725.19
422.062	726.19
422.285	692.19
422.507	754.19
422.73	840.19
422.953	790.19
423.175	756.19
423.398	722.19
423.621	750.19
423.843	769.19
424.066	751.19
424.288	735.19
424.511	778.19
424.733	796.19
424.956	833.19
425.178	824.19
425.401	818.19
425.623	840.19
425.846	781.19
426.068	722.19
426.291	692.19
426.513	717.19
426.735	727.19
426.958	758.19
427.18	820.19
427.402	915.19
427.625	975.19
427.847	822.19
428.069	758.19
428.292	752.19
428.514	675.19
428.736	657.19
428.958	668.19
429.181	648.19
429.403	639.19
429.625	660.19
429.847	679.19
430.069	758.19
430.292	734.19
430.514	680.19
430.736	668.19
430.958	646.19
431.18	635.19
431.402	639.19
431.624	652.19
431.846	648.19
432.068	652.19
432.29	642.19
432.512	660.19
432.734	652.19
432.956	642.19
433.178	630.19
433.4	650.19
433.622	658.19
433.844	638.19
434.066	647.19
434.287	667.19
434.509	654.19
434.731	686.19
434.953	673.19
435.175	747.19
435.397	719.19
435.618	707.19
435.84	739.19
436.062	798.19
436.284	854.19
436.505	739.19
436.727	685.19
436.949	676.19
437.17	651.19
437.392	662.19
437.614	669.19
437.835	685.19
438.057	742.19
438.278	810.19
438.5	812.19
438.721	884.19
438.943	865.19
439.165	724.19
439.386	681.19
439.608	698.19
439.829	698.19
440.05	690.19
440.272	730.19
440.493	696.19
440.715	705.19
440.936	699.19
441.158	692.19
441.379	697.19
441.6	710.19
441.822	686.19
442.043	757.19
442.264	805.19
442.486	848.19
442.707	765.19
442.928	738.19
443.149	729.19
443.371	781.19
443.592	788.19
443.813	857.19
444.034	897.19
444.255	807.19
444.476	785.19
444.698	788.19
444.919	799.19
445.14	909.19
445.361	824.19
445.582	775.19
445.803	798.19
446.024	862.19
446.245	842.19
446.466	781.19
446.687	703.19
446.908	676.19
447.129	653.19
447.35	642.19
447.571	635.19
447.792	622.19
448.013	630.19
448.234	639.19
448.455	681.19
448.675	739.19
448.896	867.19
449.117	757.19
449.338	707.19
449.559	797.19
449.779	894.19
450	735.19
450.221	656.19
450.442	628.19
450.662	594.19
450.883	595.19
451.104	616.19
451.324	608.19
451.545	613.19
451.766	615.19
451.986	589.19
452.207	602.19
452.428	603.19
452.648	580.19
452.869	591.19
453.089	612.19
453.31	599.19
453.53	583.19
453.751	570.19
453.971	586.19
454.192	603.19
454.412	595.19
454.633	578.19
454.853	565.19
455.073	597.19
455.294	613.19
455.514	649.19
455.734	612.19
455.955	594.19
456.175	557.19
456.395	556.19
456.616	567.19
456.836	557.19
457.056	562.19
457.276	529.19
457.497	556.19
457.717	558.19
457.937	569.19
458.157	570.19
458.377	579.19
458.598	618.19
458.818	655.19
459.038	695.19
459.258	736.19
459.478	646.19
459.698	664.19
459.918	702.19
460.138	640.19
460.358	686.19
460.578	716.19
460.798	724.19
461.018	699.19
461.238	702.19
461.458	704.19
461.678	711.19
461.898	702.19
462.118	719.19
462.338	724.19
462.558	750.19
462.777	758.19
462.997	799.19
463.217	859.19
463.437	862.19
463.657	830.19
463.876	785.19
464.096	793.19
464.316	777.19
464.536	784.19
464.755	754.19
464.975	755.19
465.195	737.19
465.414	790.19
465.634	719.19
465.854	660.19
466.073	662.19
466.293	626.19
466.512	612.19
466.732	611.19
466.951	606.19
467.171	592.19
467.391	617.19
467.61	628.19
467.829	631.19
468.049	597.19
468.268	629.19
468.488	608.19
468.707	582.19
468.927	587.19
469.146	586.19
469.365	605.19
469.585	612.19
469.804	613.19
470.023	639.19
470.243	639.19
470.462	630.19
470.681	661.19
470.901	661.19
471.12	648.19
471.339	626.19
471.558	630.19
471.777	640.19
471.997	638.19
472.216	590.19
472.435	624.19
472.654	637.19
472.873	615.19
473.092	584.19
473.311	613.19
473.53	634.19
473.749	612.19
473.968	636.19
474.187	718.19
474.406	720.19
474.625	682.19
474.844	606.19
475.063	624.19
475.282	613.19
475.501	600.19
475.72	633.19
475.939	605.19
476.158	624.19
476.377	631.19
476.596	611.19
476.814	640.19
477.033	651.19
477.252	642.19
477.471	660.19
477.69	671.19
477.908	664.19
478.127	690.19
478.346	711.19
478.564	719.19
478.783	705.19
479.002	722.19
479.22	701.19
479.439	713.19
479.658	731.19
479.876	737.19
480.095	739.19
480.313	797.19
480.532	795.19
480.751	790.19
480.969	794.19
481.188	829.19
481.406	835.19
481.624	764.19
481.843	751.19
482.061	702.19
482.28	691.19
482.498	713.19
482.717	712.19
482.935	728.19
483.153	706.19
483.372	702.19
483.59	684.19
483.808	711.19
484.027	701.19
484.245	727.19
484.463	709.19
484.681	741.19
484.9	730.19
485.118	725.19
485.336	744.19
485.554	719.19
485.772	735.19
485.99	731.19
486.209	729.19
486.427	752.19
486.645	754.19
486.863	742.19
487.081	784.19
487.299	750.19
487.517	758.19
487.735	726.19
487.953	739.19
488.171	752.19
488.389	733.19
488.607	762.19
488.825	768.19
489.043	760.19
489.261	752.19
489.479	776.19
489.696	787.19
489.914	780.19
490.132	783.19
490.35	778.19
490.568	777.19
490.786	829.19
491.003	764.19
491.221	761.19
491.439	822.19
491.657	844.19
491.874	822.19
492.092	842.19
492.31	841.19
492.527	842.19
492.745	850.19
492.963	842.19
493.18	859.19
493.398	862.19
493.615	888.19
493.833	884.19
494.05	872.19
494.268	875.19
494.485	875.19
494.703	872.19
494.92	890.19
495.138	858.19
495.355	855.19
495.573	888.19
495.79	912.19
496.008	886.19
496.225	882.19
496.442	871.19
496.66	895.19
496.877	898.19
497.094	911.19
497.312	923.19
497.529	933.19
497.746	948.19
497.963	943.19
498.181	1018.19
498.398	1023.19
498.615	1096.19
498.832	1104.19
499.049	1157.19
499.267	1227.19
499.484	1292.19
499.701	1359.19
499.918	1470.19
500.135	1610.19
500.352	1739.19
500.569	1830.19
500.786	1808.19
501.003	1742.19
501.22	1625.19
501.437	1512.19
501.654	1383.19
501.871	1323.19
