Data from 1963.PennyLincolnUp.Lamp.En5.5.200Scan.071719.P1._HRD10591_13-58-38-063.txt Node
Date: Thu Jul 18 13:58:38 EDT 2019
User: cochatt
Spectrometer: HR+D1059
Trigger mode: 1
Integration Time (sec): 1.000000E-1
Scans to average: 1
Electric dark correction enabled: true
Nonlinearity correction enabled: false
Boxcar width: 0
XAxis mode: Wavelengths
Number of Pixels in Spectrum: 2048
>>>>>Begin Spectral Data<<<<<
223.165	-23.44
223.4	-23.44
223.635	-23.44
223.869	-13.44
224.104	-10.44
224.338	-17.44
224.573	-9.44
224.808	-28.44
225.042	-11.44
225.277	-14.44
225.511	5.56
225.746	-7.44
225.98	4.56
226.215	20.56
226.449	24.56
226.683	7.56
226.918	40.56
227.152	32.56
227.387	20.56
227.621	36.56
227.856	42.56
228.09	34.56
228.324	40.56
228.559	53.56
228.793	56.56
229.027	88.56
229.262	93.56
229.496	111.56
229.73	117.56
229.964	142.56
230.199	122.56
230.433	108.56
230.667	119.56
230.901	112.56
231.136	123.56
231.37	103.56
231.604	120.56
231.838	118.56
232.072	117.56
232.306	116.56
232.541	107.56
232.775	114.56
233.009	122.56
233.243	132.56
233.477	118.56
233.711	132.56
233.945	125.56
234.179	120.56
234.413	134.56
234.647	117.56
234.881	136.56
235.115	136.56
235.349	143.56
235.583	121.56
235.817	130.56
236.051	136.56
236.285	128.56
236.519	139.56
236.753	114.56
236.987	132.56
237.221	164.56
237.455	194.56
237.689	164.56
237.922	137.56
238.156	131.56
238.39	142.56
238.624	139.56
238.858	140.56
239.091	148.56
239.325	136.56
239.559	130.56
239.793	132.56
240.027	145.56
240.26	152.56
240.494	151.56
240.728	148.56
240.961	171.56
241.195	164.56
241.429	147.56
241.662	137.56
241.896	154.56
242.13	129.56
242.363	142.56
242.597	133.56
242.83	147.56
243.064	146.56
243.298	148.56
243.531	162.56
243.765	156.56
243.998	147.56
244.232	145.56
244.465	154.56
244.699	161.56
244.932	152.56
245.166	157.56
245.399	176.56
245.633	169.56
245.866	170.56
246.099	160.56
246.333	140.56
246.566	155.56
246.8	141.56
247.033	173.56
247.266	162.56
247.5	169.56
247.733	184.56
247.966	185.56
248.2	180.56
248.433	181.56
248.666	188.56
248.899	183.56
249.133	203.56
249.366	206.56
249.599	200.56
249.832	182.56
250.066	198.56
250.299	188.56
250.532	199.56
250.765	214.56
250.998	212.56
251.231	220.56
251.465	204.56
251.698	210.56
251.931	207.56
252.164	208.56
252.397	209.56
252.63	209.56
252.863	231.56
253.096	209.56
253.329	227.56
253.562	221.56
253.795	215.56
254.028	218.56
254.261	216.56
254.494	241.56
254.727	237.56
254.96	264.56
255.193	256.56
255.426	249.56
255.659	212.56
255.892	252.56
256.124	251.56
256.357	248.56
256.59	216.56
256.823	218.56
257.056	212.56
257.289	231.56
257.521	218.56
257.754	241.56
257.987	220.56
258.22	216.56
258.452	237.56
258.685	216.56
258.918	219.56
259.151	222.56
259.383	232.56
259.616	232.56
259.849	236.56
260.081	249.56
260.314	260.56
260.547	256.56
260.779	249.56
261.012	258.56
261.244	240.56
261.477	239.56
261.71	232.56
261.942	245.56
262.175	258.56
262.407	242.56
262.64	237.56
262.872	245.56
263.105	244.56
263.337	245.56
263.57	234.56
263.802	230.56
264.035	235.56
264.267	248.56
264.499	229.56
264.732	243.56
264.964	236.56
265.197	234.56
265.429	235.56
265.661	230.56
265.894	262.56
266.126	246.56
266.358	257.56
266.591	248.56
266.823	260.56
267.055	261.56
267.287	261.56
267.52	266.56
267.752	244.56
267.984	263.56
268.216	277.56
268.448	252.56
268.681	251.56
268.913	276.56
269.145	301.56
269.377	294.56
269.609	284.56
269.841	290.56
270.073	297.56
270.306	288.56
270.538	312.56
270.77	338.56
271.002	315.56
271.234	310.56
271.466	317.56
271.698	308.56
271.93	323.56
272.162	322.56
272.394	336.56
272.626	326.56
272.858	312.56
273.09	281.56
273.322	292.56
273.553	282.56
273.785	285.56
274.017	302.56
274.249	300.56
274.481	294.56
274.713	301.56
274.945	289.56
275.176	289.56
275.408	290.56
275.64	296.56
275.872	303.56
276.104	306.56
276.335	282.56
276.567	296.56
276.799	318.56
277.031	329.56
277.262	326.56
277.494	340.56
277.726	323.56
277.957	299.56
278.189	310.56
278.421	297.56
278.652	307.56
278.884	308.56
279.115	319.56
279.347	307.56
279.579	328.56
279.81	305.56
280.042	306.56
280.273	316.56
280.505	309.56
280.736	298.56
280.968	304.56
281.199	312.56
281.431	303.56
281.662	318.56
281.894	301.56
282.125	312.56
282.356	329.56
282.588	340.56
282.819	346.56
283.051	339.56
283.282	320.56
283.513	310.56
283.745	326.56
283.976	341.56
284.207	328.56
284.439	325.56
284.67	327.56
284.901	332.56
285.132	331.56
285.364	333.56
285.595	328.56
285.826	341.56
286.057	359.56
286.288	348.56
286.52	332.56
286.751	350.56
286.982	341.56
287.213	335.56
287.444	336.56
287.675	353.56
287.906	358.56
288.138	351.56
288.369	362.56
288.6	354.56
288.831	347.56
289.062	349.56
289.293	341.56
289.524	340.56
289.755	343.56
289.986	352.56
290.217	354.56
290.448	349.56
290.679	360.56
290.91	345.56
291.141	352.56
291.371	360.56
291.602	374.56
291.833	348.56
292.064	351.56
292.295	357.56
292.526	347.56
292.757	360.56
292.987	338.56
293.218	346.56
293.449	368.56
293.68	340.56
293.91	346.56
294.141	328.56
294.372	371.56
294.603	368.56
294.833	357.56
295.064	374.56
295.295	371.56
295.525	373.56
295.756	379.56
295.987	376.56
296.217	397.56
296.448	389.56
296.679	382.56
296.909	386.56
297.14	382.56
297.37	369.56
297.601	372.56
297.831	372.56
298.062	383.56
298.292	379.56
298.523	394.56
298.753	380.56
298.984	378.56
299.214	391.56
299.445	390.56
299.675	398.56
299.905	397.56
300.136	379.56
300.366	401.56
300.597	396.56
300.827	380.56
301.057	396.56
301.288	416.56
301.518	400.56
301.748	413.56
301.979	398.56
302.209	411.56
302.439	410.56
302.669	407.56
302.9	421.56
303.13	406.56
303.36	407.56
303.59	412.56
303.82	396.56
304.051	410.56
304.281	424.56
304.511	413.56
304.741	397.56
304.971	404.56
305.201	410.56
305.431	393.56
305.661	421.56
305.891	418.56
306.121	389.56
306.352	413.56
306.582	394.56
306.812	396.56
307.042	406.56
307.272	408.56
307.502	421.56
307.731	418.56
307.961	417.56
308.191	399.56
308.421	421.56
308.651	401.56
308.881	386.56
309.111	431.56
309.341	402.56
309.571	430.56
309.8	408.56
310.03	416.56
310.26	423.56
310.49	421.56
310.72	438.56
310.949	456.56
311.179	454.56
311.409	443.56
311.639	450.56
311.868	440.56
312.098	474.56
312.328	450.56
312.557	455.56
312.787	469.56
313.017	465.56
313.246	453.56
313.476	448.56
313.706	438.56
313.935	465.56
314.165	448.56
314.394	468.56
314.624	443.56
314.853	457.56
315.083	468.56
315.312	429.56
315.542	438.56
315.771	452.56
316.001	441.56
316.23	445.56
316.46	433.56
316.689	462.56
316.919	445.56
317.148	447.56
317.377	456.56
317.607	467.56
317.836	437.56
318.065	456.56
318.295	466.56
318.524	454.56
318.753	456.56
318.983	428.56
319.212	455.56
319.441	449.56
319.67	461.56
319.9	444.56
320.129	449.56
320.358	453.56
320.587	455.56
320.816	432.56
321.046	455.56
321.275	449.56
321.504	474.56
321.733	453.56
321.962	446.56
322.191	483.56
322.42	466.56
322.649	496.56
322.878	499.56
323.108	486.56
323.337	498.56
323.566	530.56
323.795	529.56
324.024	548.56
324.253	594.56
324.482	797.56
324.71	1091.56
324.939	1538.56
325.168	1388.56
325.397	784.56
325.626	604.56
325.855	556.56
326.084	549.56
326.313	541.56
326.542	530.56
326.77	548.56
326.999	589.56
327.228	740.56
327.457	1038.56
327.686	1254.56
327.914	899.56
328.143	673.56
328.372	613.56
328.6	585.56
328.829	572.56
329.058	551.56
329.287	590.56
329.515	576.56
329.744	549.56
329.972	537.56
330.201	551.56
330.43	568.56
330.658	576.56
330.887	604.56
331.115	584.56
331.344	549.56
331.572	549.56
331.801	543.56
332.03	555.56
332.258	564.56
332.486	560.56
332.715	554.56
332.943	580.56
333.172	585.56
333.4	588.56
333.629	607.56
333.857	629.56
334.085	611.56
334.314	629.56
334.542	648.56
334.771	651.56
334.999	611.56
335.227	572.56
335.455	583.56
335.684	579.56
335.912	572.56
336.14	553.56
336.369	578.56
336.597	573.56
336.825	569.56
337.053	564.56
337.281	539.56
337.51	541.56
337.738	554.56
337.966	546.56
338.194	545.56
338.422	541.56
338.65	540.56
338.878	542.56
339.106	544.56
339.334	549.56
339.562	525.56
339.79	521.56
340.018	509.56
340.246	499.56
340.474	533.56
340.702	498.56
340.93	505.56
341.158	523.56
341.386	538.56
341.614	493.56
341.842	510.56
342.07	517.56
342.298	524.56
342.526	510.56
342.754	490.56
342.981	501.56
343.209	513.56
343.437	534.56
343.665	556.56
343.893	573.56
344.12	587.56
344.348	580.56
344.576	558.56
344.804	525.56
345.031	523.56
345.259	548.56
345.487	522.56
345.714	508.56
345.942	485.56
346.17	499.56
346.397	490.56
346.625	496.56
346.853	489.56
347.08	509.56
347.308	493.56
347.535	490.56
347.763	485.56
347.99	512.56
348.218	473.56
348.445	493.56
348.673	503.56
348.9	485.56
349.128	505.56
349.355	488.56
349.583	496.56
349.81	490.56
350.037	486.56
350.265	477.56
350.492	487.56
350.72	473.56
350.947	501.56
351.174	471.56
351.402	485.56
351.629	498.56
351.856	476.56
352.083	506.56
352.311	497.56
352.538	499.56
352.765	476.56
352.992	463.56
353.22	481.56
353.447	472.56
353.674	489.56
353.901	486.56
354.128	472.56
354.355	443.56
354.583	489.56
354.81	468.56
355.037	473.56
355.264	462.56
355.491	475.56
355.718	468.56
355.945	452.56
356.172	479.56
356.399	491.56
356.626	456.56
356.853	484.56
357.08	471.56
357.307	491.56
357.534	467.56
357.761	474.56
357.988	466.56
358.215	486.56
358.441	477.56
358.668	468.56
358.895	482.56
359.122	468.56
359.349	478.56
359.576	481.56
359.802	504.56
360.029	530.56
360.256	529.56
360.483	502.56
360.709	504.56
360.936	499.56
361.163	500.56
361.39	485.56
361.616	491.56
361.843	508.56
362.07	493.56
362.296	482.56
362.523	469.56
362.749	500.56
362.976	498.56
363.203	492.56
363.429	478.56
363.656	465.56
363.882	496.56
364.109	469.56
364.335	464.56
364.562	489.56
364.788	505.56
365.015	505.56
365.241	488.56
365.468	494.56
365.694	477.56
365.92	471.56
366.147	493.56
366.373	501.56
366.599	486.56
366.826	466.56
367.052	469.56
367.278	474.56
367.505	512.56
367.731	482.56
367.957	502.56
368.184	483.56
368.41	496.56
368.636	500.56
368.862	492.56
369.089	502.56
369.315	506.56
369.541	504.56
369.767	494.56
369.993	488.56
370.219	500.56
370.445	489.56
370.672	502.56
370.898	510.56
371.124	516.56
371.35	516.56
371.576	493.56
371.802	505.56
372.028	500.56
372.254	504.56
372.48	509.56
372.706	498.56
372.932	522.56
373.158	531.56
373.384	506.56
373.61	499.56
373.835	518.56
374.061	512.56
374.287	522.56
374.513	516.56
374.739	531.56
374.965	527.56
375.191	529.56
375.416	531.56
375.642	536.56
375.868	506.56
376.094	530.56
376.319	517.56
376.545	506.56
376.771	507.56
376.997	506.56
377.222	519.56
377.448	510.56
377.674	527.56
377.899	501.56
378.125	496.56
378.35	512.56
378.576	510.56
378.802	483.56
379.027	494.56
379.253	499.56
379.478	502.56
379.704	496.56
379.929	506.56
380.155	517.56
380.38	501.56
380.606	498.56
380.831	497.56
381.057	521.56
381.282	499.56
381.507	514.56
381.733	524.56
381.958	499.56
382.184	516.56
382.409	530.56
382.634	510.56
382.86	527.56
383.085	550.56
383.31	530.56
383.535	556.56
383.761	537.56
383.986	562.56
384.211	555.56
384.436	572.56
384.662	557.56
384.887	558.56
385.112	574.56
385.337	572.56
385.562	586.56
385.787	568.56
386.013	594.56
386.238	597.56
386.463	597.56
386.688	579.56
386.913	570.56
387.138	571.56
387.363	583.56
387.588	581.56
387.813	585.56
388.038	583.56
388.263	577.56
388.488	607.56
388.713	573.56
388.938	568.56
389.163	558.56
389.387	579.56
389.612	558.56
389.837	560.56
390.062	570.56
390.287	586.56
390.512	586.56
390.736	579.56
390.961	585.56
391.186	595.56
391.411	587.56
391.636	608.56
391.86	615.56
392.085	636.56
392.31	640.56
392.534	620.56
392.759	625.56
392.984	584.56
393.208	597.56
393.433	591.56
393.658	588.56
393.882	595.56
394.107	610.56
394.331	580.56
394.556	611.56
394.78	608.56
395.005	616.56
395.229	612.56
395.454	611.56
395.678	651.56
395.903	652.56
396.127	650.56
396.352	655.56
396.576	623.56
396.801	633.56
397.025	632.56
397.249	625.56
397.474	615.56
397.698	658.56
397.922	644.56
398.147	681.56
398.371	682.56
398.595	686.56
398.82	697.56
399.044	726.56
399.268	760.56
399.492	867.56
399.717	937.56
399.941	944.56
400.165	890.56
400.389	854.56
400.613	794.56
400.837	743.56
401.062	722.56
401.286	720.56
401.51	710.56
401.734	689.56
401.958	699.56
402.182	693.56
402.406	696.56
402.63	719.56
402.854	742.56
403.078	736.56
403.302	755.56
403.526	759.56
403.75	764.56
403.974	768.56
404.198	773.56
404.422	785.56
404.645	797.56
404.869	770.56
405.093	783.56
405.317	793.56
405.541	836.56
405.765	800.56
405.988	761.56
406.212	781.56
406.436	781.56
406.66	797.56
406.883	784.56
407.107	829.56
407.331	866.56
407.555	912.56
407.778	908.56
408.002	850.56
408.226	830.56
408.449	793.56
408.673	826.56
408.896	818.56
409.12	843.56
409.344	770.56
409.567	782.56
409.791	783.56
410.014	748.56
410.238	714.56
410.461	721.56
410.685	747.56
410.908	725.56
411.132	745.56
411.355	781.56
411.578	764.56
411.802	725.56
412.025	733.56
412.249	728.56
412.472	764.56
412.695	769.56
412.919	774.56
413.142	724.56
413.365	711.56
413.589	700.56
413.812	693.56
414.035	700.56
414.258	684.56
414.482	692.56
414.705	679.56
414.928	705.56
415.151	711.56
415.374	706.56
415.597	688.56
415.821	669.56
416.044	677.56
416.267	697.56
416.49	679.56
416.713	686.56
416.936	672.56
417.159	674.56
417.382	697.56
417.605	676.56
417.828	678.56
418.051	722.56
418.274	713.56
418.497	702.56
418.72	675.56
418.943	685.56
419.166	733.56
419.389	758.56
419.611	755.56
419.834	708.56
420.057	723.56
420.28	710.56
420.503	702.56
420.726	700.56
420.948	710.56
421.171	738.56
421.394	775.56
421.617	708.56
421.839	691.56
422.062	694.56
422.285	694.56
422.507	730.56
422.73	809.56
422.953	800.56
423.175	749.56
423.398	749.56
423.621	745.56
423.843	748.56
424.066	754.56
424.288	739.56
424.511	756.56
424.733	808.56
424.956	840.56
425.178	833.56
425.401	805.56
425.623	826.56
425.846	745.56
426.068	709.56
426.291	702.56
426.513	677.56
426.735	726.56
426.958	727.56
427.18	795.56
427.402	891.56
427.625	946.56
427.847	850.56
428.069	772.56
428.292	752.56
428.514	677.56
428.736	633.56
428.958	652.56
429.181	669.56
429.403	640.56
429.625	648.56
429.847	681.56
430.069	695.56
430.292	711.56
430.514	669.56
430.736	661.56
430.958	641.56
431.18	621.56
431.402	647.56
431.624	654.56
431.846	623.56
432.068	653.56
432.29	656.56
432.512	644.56
432.734	663.56
432.956	634.56
433.178	652.56
433.4	640.56
433.622	657.56
433.844	640.56
434.066	647.56
434.287	648.56
434.509	666.56
434.731	665.56
434.953	707.56
435.175	691.56
435.397	701.56
435.618	716.56
435.84	755.56
436.062	789.56
436.284	840.56
436.505	749.56
436.727	670.56
436.949	655.56
437.17	662.56
437.392	652.56
437.614	666.56
437.835	681.56
438.057	754.56
438.278	795.56
438.5	802.56
438.721	853.56
438.943	819.56
439.165	703.56
439.386	682.56
439.608	690.56
439.829	670.56
440.05	684.56
440.272	728.56
440.493	713.56
440.715	688.56
440.936	660.56
441.158	677.56
441.379	705.56
441.6	713.56
441.822	700.56
442.043	735.56
442.264	806.56
442.486	809.56
442.707	760.56
442.928	725.56
443.149	730.56
443.371	743.56
443.592	778.56
443.813	842.56
444.034	873.56
444.255	806.56
444.476	774.56
444.698	792.56
444.919	781.56
445.14	924.56
445.361	808.56
445.582	773.56
445.803	793.56
446.024	829.56
446.245	810.56
446.466	808.56
446.687	724.56
446.908	694.56
447.129	663.56
447.35	623.56
447.571	649.56
447.792	613.56
448.013	636.56
448.234	638.56
448.455	653.56
448.675	732.56
448.896	849.56
449.117	728.56
449.338	700.56
449.559	802.56
449.779	873.56
450	724.56
450.221	657.56
450.442	624.56
450.662	628.56
450.883	603.56
451.104	620.56
451.324	611.56
451.545	593.56
451.766	615.56
451.986	596.56
452.207	595.56
452.428	590.56
452.648	609.56
452.869	569.56
453.089	594.56
453.31	576.56
453.53	578.56
453.751	557.56
453.971	584.56
454.192	572.56
454.412	557.56
454.633	577.56
454.853	560.56
455.073	575.56
455.294	584.56
455.514	617.56
455.734	606.56
455.955	576.56
456.175	544.56
456.395	552.56
456.616	547.56
456.836	541.56
457.056	562.56
457.276	530.56
457.497	540.56
457.717	560.56
457.937	531.56
458.157	575.56
458.377	580.56
458.598	569.56
458.818	653.56
459.038	691.56
459.258	719.56
459.478	674.56
459.698	668.56
459.918	658.56
460.138	660.56
460.358	676.56
460.578	707.56
460.798	736.56
461.018	694.56
461.238	709.56
461.458	707.56
461.678	688.56
461.898	688.56
462.118	716.56
462.338	731.56
462.558	778.56
462.777	778.56
462.997	793.56
463.217	853.56
463.437	889.56
463.657	840.56
463.876	767.56
464.096	774.56
464.316	773.56
464.536	788.56
464.755	782.56
464.975	760.56
465.195	718.56
465.414	746.56
465.634	739.56
465.854	654.56
466.073	663.56
466.293	616.56
466.512	613.56
466.732	594.56
466.951	607.56
467.171	597.56
467.391	611.56
467.61	620.56
467.829	619.56
468.049	612.56
468.268	621.56
468.488	595.56
468.707	602.56
468.927	599.56
469.146	569.56
469.365	591.56
469.585	610.56
469.804	593.56
470.023	630.56
470.243	651.56
470.462	660.56
470.681	650.56
470.901	634.56
471.12	628.56
471.339	608.56
471.558	621.56
471.777	619.56
471.997	604.56
472.216	604.56
472.435	640.56
472.654	588.56
472.873	579.56
473.092	593.56
473.311	586.56
473.53	600.56
473.749	614.56
473.968	627.56
474.187	692.56
474.406	704.56
474.625	657.56
474.844	613.56
475.063	616.56
475.282	612.56
475.501	612.56
475.72	630.56
475.939	608.56
476.158	617.56
476.377	627.56
476.596	630.56
476.814	596.56
477.033	640.56
477.252	665.56
477.471	661.56
477.69	665.56
477.908	683.56
478.127	698.56
478.346	704.56
478.564	710.56
478.783	709.56
479.002	711.56
479.22	723.56
479.439	719.56
479.658	743.56
479.876	758.56
480.095	759.56
480.313	799.56
480.532	808.56
480.751	775.56
480.969	774.56
481.188	807.56
481.406	802.56
481.624	754.56
481.843	747.56
482.061	718.56
482.28	712.56
482.498	701.56
482.717	685.56
482.935	680.56
483.153	699.56
483.372	689.56
483.59	708.56
483.808	698.56
484.027	693.56
484.245	705.56
484.463	724.56
484.681	706.56
484.9	724.56
485.118	722.56
485.336	709.56
485.554	738.56
485.772	741.56
485.99	728.56
486.209	754.56
486.427	730.56
486.645	760.56
486.863	772.56
487.081	758.56
487.299	749.56
487.517	749.56
487.735	721.56
487.953	741.56
488.171	734.56
488.389	758.56
488.607	754.56
488.825	761.56
489.043	752.56
489.261	781.56
489.479	758.56
489.696	765.56
489.914	768.56
490.132	777.56
490.35	796.56
490.568	782.56
490.786	791.56
491.003	814.56
491.221	819.56
491.439	799.56
491.657	799.56
491.874	803.56
492.092	811.56
492.31	817.56
492.527	818.56
492.745	833.56
492.963	844.56
493.18	875.56
493.398	838.56
493.615	858.56
493.833	842.56
494.05	826.56
494.268	863.56
494.485	885.56
494.703	852.56
494.92	869.56
495.138	840.56
495.355	867.56
495.573	899.56
495.79	842.56
496.008	877.56
496.225	876.56
496.442	875.56
496.66	892.56
496.877	874.56
497.094	894.56
497.312	924.56
497.529	938.56
497.746	953.56
497.963	931.56
498.181	980.56
498.398	1037.56
498.615	1068.56
498.832	1098.56
499.049	1146.56
499.267	1188.56
499.484	1256.56
499.701	1358.56
499.918	1479.56
500.135	1608.56
500.352	1728.56
500.569	1816.56
500.786	1796.56
501.003	1718.56
501.22	1577.56
501.437	1462.56
501.654	1385.56
