Data from 1963.PennyLincolnUp.Lamp.En5.5.200Scan.071719.P1._HRD10591_13-57-30-062.txt Node
Date: Thu Jul 18 13:57:30 EDT 2019
User: cochatt
Spectrometer: HR+D1059
Trigger mode: 1
Integration Time (sec): 1.000000E-1
Scans to average: 1
Electric dark correction enabled: true
Nonlinearity correction enabled: false
Boxcar width: 0
XAxis mode: Wavelengths
Number of Pixels in Spectrum: 2048
>>>>>Begin Spectral Data<<<<<
223.165	-9.25
223.4	-9.25
223.635	-9.25
223.869	-10.25
224.104	-0.25
224.338	-24.25
224.573	-14.25
224.808	3.75
225.042	-10.25
225.277	-15.25
225.511	-13.25
225.746	-8.25
225.98	0.75
226.215	16.75
226.449	16.75
226.683	17.75
226.918	23.75
227.152	25.75
227.387	32.75
227.621	28.75
227.856	29.75
228.09	55.75
228.324	66.75
228.559	47.75
228.793	66.75
229.027	94.75
229.262	103.75
229.496	93.75
229.73	110.75
229.964	129.75
230.199	105.75
230.433	104.75
230.667	100.75
230.901	103.75
231.136	94.75
231.37	112.75
231.604	104.75
231.838	105.75
232.072	98.75
232.306	107.75
232.541	111.75
232.775	112.75
233.009	105.75
233.243	100.75
233.477	120.75
233.711	126.75
233.945	104.75
234.179	120.75
234.413	116.75
234.647	113.75
234.881	109.75
235.115	112.75
235.349	105.75
235.583	108.75
235.817	105.75
236.051	116.75
236.285	130.75
236.519	112.75
236.753	119.75
236.987	122.75
237.221	137.75
237.455	173.75
237.689	137.75
237.922	126.75
238.156	117.75
238.39	123.75
238.624	122.75
238.858	112.75
239.091	120.75
239.325	108.75
239.559	130.75
239.793	131.75
240.027	142.75
240.26	140.75
240.494	146.75
240.728	135.75
240.961	143.75
241.195	146.75
241.429	132.75
241.662	131.75
241.896	142.75
242.13	133.75
242.363	131.75
242.597	130.75
242.83	146.75
243.064	132.75
243.298	124.75
243.531	134.75
243.765	159.75
243.998	146.75
244.232	156.75
244.465	162.75
244.699	155.75
244.932	161.75
245.166	141.75
245.399	140.75
245.633	147.75
245.866	148.75
246.099	135.75
246.333	160.75
246.566	144.75
246.8	157.75
247.033	158.75
247.266	148.75
247.5	157.75
247.733	169.75
247.966	181.75
248.2	173.75
248.433	164.75
248.666	167.75
248.899	183.75
249.133	179.75
249.366	192.75
249.599	186.75
249.832	173.75
250.066	191.75
250.299	175.75
250.532	184.75
250.765	184.75
250.998	180.75
251.231	202.75
251.465	179.75
251.698	180.75
251.931	190.75
252.164	184.75
252.397	170.75
252.63	185.75
252.863	199.75
253.096	206.75
253.329	204.75
253.562	207.75
253.795	195.75
254.028	215.75
254.261	195.75
254.494	205.75
254.727	222.75
254.96	237.75
255.193	212.75
255.426	209.75
255.659	205.75
255.892	213.75
256.124	198.75
256.357	212.75
256.59	208.75
256.823	206.75
257.056	222.75
257.289	182.75
257.521	217.75
257.754	205.75
257.987	215.75
258.22	190.75
258.452	200.75
258.685	207.75
258.918	203.75
259.151	214.75
259.383	198.75
259.616	230.75
259.849	214.75
260.081	221.75
260.314	228.75
260.547	232.75
260.779	221.75
261.012	224.75
261.244	230.75
261.477	227.75
261.71	225.75
261.942	220.75
262.175	203.75
262.407	216.75
262.64	214.75
262.872	206.75
263.105	224.75
263.337	222.75
263.57	206.75
263.802	235.75
264.035	220.75
264.267	229.75
264.499	213.75
264.732	214.75
264.964	220.75
265.197	232.75
265.429	203.75
265.661	240.75
265.894	228.75
266.126	221.75
266.358	218.75
266.591	213.75
266.823	240.75
267.055	216.75
267.287	233.75
267.52	247.75
267.752	222.75
267.984	217.75
268.216	234.75
268.448	244.75
268.681	235.75
268.913	248.75
269.145	260.75
269.377	255.75
269.609	289.75
269.841	266.75
270.073	257.75
270.306	275.75
270.538	276.75
270.77	265.75
271.002	286.75
271.234	264.75
271.466	275.75
271.698	284.75
271.93	294.75
272.162	292.75
272.394	294.75
272.626	276.75
272.858	264.75
273.09	273.75
273.322	281.75
273.553	262.75
273.785	260.75
274.017	277.75
274.249	265.75
274.481	264.75
274.713	280.75
274.945	285.75
275.176	279.75
275.408	272.75
275.64	277.75
275.872	266.75
276.104	269.75
276.335	281.75
276.567	262.75
276.799	280.75
277.031	314.75
277.262	287.75
277.494	322.75
277.726	308.75
277.957	282.75
278.189	296.75
278.421	290.75
278.652	285.75
278.884	294.75
279.115	292.75
279.347	297.75
279.579	284.75
279.81	286.75
280.042	297.75
280.273	270.75
280.505	290.75
280.736	280.75
280.968	287.75
281.199	280.75
281.431	315.75
281.662	295.75
281.894	291.75
282.125	312.75
282.356	295.75
282.588	321.75
282.819	306.75
283.051	303.75
283.282	299.75
283.513	313.75
283.745	322.75
283.976	312.75
284.207	320.75
284.439	283.75
284.67	322.75
284.901	311.75
285.132	306.75
285.364	292.75
285.595	313.75
285.826	319.75
286.057	295.75
286.288	333.75
286.52	307.75
286.751	312.75
286.982	304.75
287.213	291.75
287.444	315.75
287.675	315.75
287.906	302.75
288.138	333.75
288.369	348.75
288.6	349.75
288.831	331.75
289.062	340.75
289.293	344.75
289.524	329.75
289.755	330.75
289.986	311.75
290.217	321.75
290.448	352.75
290.679	334.75
290.91	323.75
291.141	349.75
291.371	345.75
291.602	332.75
291.833	323.75
292.064	331.75
292.295	340.75
292.526	330.75
292.757	342.75
292.987	342.75
293.218	337.75
293.449	333.75
293.68	344.75
293.91	326.75
294.141	352.75
294.372	328.75
294.603	324.75
294.833	328.75
295.064	328.75
295.295	337.75
295.525	341.75
295.756	343.75
295.987	353.75
296.217	352.75
296.448	342.75
296.679	343.75
296.909	333.75
297.14	353.75
297.37	354.75
297.601	366.75
297.831	345.75
298.062	349.75
298.292	362.75
298.523	364.75
298.753	344.75
298.984	348.75
299.214	334.75
299.445	367.75
299.675	352.75
299.905	346.75
300.136	349.75
300.366	366.75
300.597	354.75
300.827	357.75
301.057	380.75
301.288	389.75
301.518	363.75
301.748	386.75
301.979	380.75
302.209	392.75
302.439	372.75
302.669	400.75
302.9	387.75
303.13	395.75
303.36	379.75
303.59	372.75
303.82	360.75
304.051	364.75
304.281	396.75
304.511	387.75
304.741	375.75
304.971	383.75
305.201	410.75
305.431	376.75
305.661	384.75
305.891	366.75
306.121	356.75
306.352	376.75
306.582	388.75
306.812	374.75
307.042	366.75
307.272	388.75
307.502	370.75
307.731	378.75
307.961	375.75
308.191	369.75
308.421	376.75
308.651	394.75
308.881	364.75
309.111	378.75
309.341	401.75
309.571	394.75
309.8	388.75
310.03	387.75
310.26	389.75
310.49	399.75
310.72	372.75
310.949	394.75
311.179	413.75
311.409	401.75
311.639	404.75
311.868	386.75
312.098	420.75
312.328	398.75
312.557	390.75
312.787	399.75
313.017	402.75
313.246	406.75
313.476	398.75
313.706	436.75
313.935	428.75
314.165	439.75
314.394	430.75
314.624	418.75
314.853	432.75
315.083	405.75
315.312	410.75
315.542	388.75
315.771	414.75
316.001	398.75
316.23	414.75
316.46	414.75
316.689	390.75
316.919	428.75
317.148	439.75
317.377	399.75
317.607	402.75
317.836	404.75
318.065	407.75
318.295	439.75
318.524	408.75
318.753	412.75
318.983	421.75
319.212	407.75
319.441	421.75
319.67	407.75
319.9	407.75
320.129	420.75
320.358	425.75
320.587	412.75
320.816	410.75
321.046	414.75
321.275	436.75
321.504	422.75
321.733	417.75
321.962	446.75
322.191	438.75
322.42	401.75
322.649	431.75
322.878	422.75
323.108	455.75
323.337	446.75
323.566	466.75
323.795	480.75
324.024	488.75
324.253	521.75
324.482	640.75
324.71	881.75
324.939	1216.75
325.168	1083.75
325.397	658.75
325.626	528.75
325.855	485.75
326.084	458.75
326.313	467.75
326.542	458.75
326.77	485.75
326.999	519.75
327.228	623.75
327.457	809.75
327.686	965.75
327.914	698.75
328.143	546.75
328.372	523.75
328.6	516.75
328.829	487.75
329.058	502.75
329.287	502.75
329.515	505.75
329.744	486.75
329.972	498.75
330.201	519.75
330.43	499.75
330.658	516.75
330.887	516.75
331.115	507.75
331.344	506.75
331.572	507.75
331.801	512.75
332.03	520.75
332.258	518.75
332.486	520.75
332.715	506.75
332.943	515.75
333.172	516.75
333.4	535.75
333.629	555.75
333.857	588.75
334.085	592.75
334.314	575.75
334.542	606.75
334.771	587.75
334.999	568.75
335.227	535.75
335.455	526.75
335.684	541.75
335.912	534.75
336.14	516.75
336.369	528.75
336.597	522.75
336.825	526.75
337.053	519.75
337.281	517.75
337.51	516.75
337.738	498.75
337.966	493.75
338.194	515.75
338.422	499.75
338.65	515.75
338.878	494.75
339.106	493.75
339.334	500.75
339.562	493.75
339.79	487.75
340.018	490.75
340.246	471.75
340.474	480.75
340.702	467.75
340.93	496.75
341.158	490.75
341.386	481.75
341.614	481.75
341.842	462.75
342.07	468.75
342.298	481.75
342.526	483.75
342.754	474.75
342.981	482.75
343.209	459.75
343.437	485.75
343.665	496.75
343.893	535.75
344.12	543.75
344.348	543.75
344.576	534.75
344.804	513.75
345.031	514.75
345.259	481.75
345.487	478.75
345.714	482.75
345.942	476.75
346.17	462.75
346.397	477.75
346.625	460.75
346.853	448.75
347.08	471.75
347.308	456.75
347.535	462.75
347.763	468.75
347.99	476.75
348.218	456.75
348.445	460.75
348.673	434.75
348.9	462.75
349.128	457.75
349.355	436.75
349.583	443.75
349.81	448.75
350.037	456.75
350.265	446.75
350.492	450.75
350.72	441.75
350.947	448.75
351.174	461.75
351.402	447.75
351.629	462.75
351.856	447.75
352.083	463.75
352.311	442.75
352.538	456.75
352.765	453.75
352.992	456.75
353.22	447.75
353.447	447.75
353.674	445.75
353.901	440.75
354.128	446.75
354.355	435.75
354.583	452.75
354.81	447.75
355.037	457.75
355.264	425.75
355.491	453.75
355.718	432.75
355.945	455.75
356.172	461.75
356.399	448.75
356.626	463.75
356.853	444.75
357.08	465.75
357.307	436.75
357.534	444.75
357.761	436.75
357.988	433.75
358.215	449.75
358.441	434.75
358.668	460.75
358.895	464.75
359.122	440.75
359.349	445.75
359.576	451.75
359.802	460.75
360.029	461.75
360.256	464.75
360.483	470.75
360.709	454.75
360.936	470.75
361.163	480.75
361.39	465.75
361.616	456.75
361.843	442.75
362.07	447.75
362.296	456.75
362.523	473.75
362.749	471.75
362.976	449.75
363.203	459.75
363.429	462.75
363.656	450.75
363.882	460.75
364.109	463.75
364.335	455.75
364.562	441.75
364.788	437.75
365.015	456.75
365.241	458.75
365.468	457.75
365.694	441.75
365.92	461.75
366.147	435.75
366.373	444.75
366.599	462.75
366.826	430.75
367.052	452.75
367.278	463.75
367.505	446.75
367.731	464.75
367.957	460.75
368.184	422.75
368.41	460.75
368.636	437.75
368.862	447.75
369.089	462.75
369.315	457.75
369.541	457.75
369.767	449.75
369.993	477.75
370.219	466.75
370.445	455.75
370.672	466.75
370.898	475.75
371.124	456.75
371.35	470.75
371.576	460.75
371.802	465.75
372.028	474.75
372.254	459.75
372.48	484.75
372.706	489.75
372.932	497.75
373.158	489.75
373.384	499.75
373.61	481.75
373.835	476.75
374.061	473.75
374.287	471.75
374.513	485.75
374.739	495.75
374.965	516.75
375.191	493.75
375.416	489.75
375.642	494.75
375.868	481.75
376.094	470.75
376.319	479.75
376.545	487.75
376.771	489.75
376.997	483.75
377.222	481.75
377.448	469.75
377.674	470.75
377.899	461.75
378.125	462.75
378.35	477.75
378.576	481.75
378.802	478.75
379.027	485.75
379.253	478.75
379.478	467.75
379.704	461.75
379.929	462.75
380.155	474.75
380.38	479.75
380.606	472.75
380.831	462.75
381.057	482.75
381.282	482.75
381.507	487.75
381.733	469.75
381.958	473.75
382.184	496.75
382.409	487.75
382.634	488.75
382.86	496.75
383.085	481.75
383.31	492.75
383.535	513.75
383.761	518.75
383.986	497.75
384.211	520.75
384.436	526.75
384.662	545.75
384.887	521.75
385.112	544.75
385.337	568.75
385.562	550.75
385.787	532.75
386.013	576.75
386.238	579.75
386.463	560.75
386.688	552.75
386.913	557.75
387.138	558.75
387.363	562.75
387.588	557.75
387.813	556.75
388.038	551.75
388.263	541.75
388.488	545.75
388.713	548.75
388.938	558.75
389.163	548.75
389.387	552.75
389.612	541.75
389.837	551.75
390.062	559.75
390.287	562.75
390.512	551.75
390.736	550.75
390.961	540.75
391.186	561.75
391.411	576.75
391.636	580.75
391.86	594.75
392.085	612.75
392.31	596.75
392.534	609.75
392.759	578.75
392.984	564.75
393.208	563.75
393.433	569.75
393.658	557.75
393.882	565.75
394.107	528.75
394.331	548.75
394.556	554.75
394.78	584.75
395.005	577.75
395.229	592.75
395.454	589.75
395.678	601.75
395.903	611.75
396.127	606.75
396.352	608.75
396.576	580.75
396.801	583.75
397.025	582.75
397.249	609.75
397.474	579.75
397.698	591.75
397.922	630.75
398.147	607.75
398.371	654.75
398.595	630.75
398.82	659.75
399.044	684.75
399.268	756.75
399.492	800.75
399.717	873.75
399.941	908.75
400.165	854.75
400.389	814.75
400.613	734.75
400.837	662.75
401.062	673.75
401.286	685.75
401.51	662.75
401.734	663.75
401.958	676.75
402.182	683.75
402.406	688.75
402.63	676.75
402.854	680.75
403.078	697.75
403.302	700.75
403.526	724.75
403.75	695.75
403.974	743.75
404.198	725.75
404.422	710.75
404.645	741.75
404.869	741.75
405.093	730.75
405.317	751.75
405.541	772.75
405.765	743.75
405.988	714.75
406.212	744.75
406.436	725.75
406.66	732.75
406.883	709.75
407.107	778.75
407.331	824.75
407.555	872.75
407.778	847.75
408.002	819.75
408.226	774.75
408.449	790.75
408.673	752.75
408.896	751.75
409.12	768.75
409.344	736.75
409.567	709.75
409.791	733.75
410.014	726.75
410.238	676.75
410.461	688.75
410.685	715.75
410.908	694.75
411.132	721.75
411.355	716.75
411.578	716.75
411.802	688.75
412.025	672.75
412.249	701.75
412.472	723.75
412.695	696.75
412.919	689.75
413.142	702.75
413.365	666.75
413.589	661.75
413.812	649.75
414.035	667.75
414.258	671.75
414.482	676.75
414.705	631.75
414.928	662.75
415.151	645.75
415.374	624.75
415.597	665.75
415.821	644.75
416.044	651.75
416.267	622.75
416.49	642.75
416.713	614.75
416.936	648.75
417.159	635.75
417.382	653.75
417.605	641.75
417.828	626.75
418.051	653.75
418.274	674.75
418.497	658.75
418.72	629.75
418.943	652.75
419.166	678.75
419.389	709.75
419.611	700.75
419.834	665.75
420.057	695.75
420.28	681.75
420.503	671.75
420.726	660.75
420.948	660.75
421.171	687.75
421.394	703.75
421.617	665.75
421.839	654.75
422.062	647.75
422.285	664.75
422.507	681.75
422.73	741.75
422.953	726.75
423.175	675.75
423.398	674.75
423.621	681.75
423.843	702.75
424.066	700.75
424.288	673.75
424.511	703.75
424.733	709.75
424.956	756.75
425.178	753.75
425.401	761.75
425.623	767.75
425.846	696.75
426.068	642.75
426.291	631.75
426.513	636.75
426.735	648.75
426.958	672.75
427.18	715.75
427.402	783.75
427.625	842.75
427.847	758.75
428.069	679.75
428.292	656.75
428.514	608.75
428.736	621.75
428.958	628.75
429.181	595.75
429.403	600.75
429.625	623.75
429.847	615.75
430.069	670.75
430.292	683.75
430.514	605.75
430.736	610.75
430.958	604.75
431.18	571.75
431.402	593.75
431.624	600.75
431.846	571.75
432.068	596.75
432.29	608.75
432.512	593.75
432.734	573.75
432.956	608.75
433.178	607.75
433.4	602.75
433.622	613.75
433.844	594.75
434.066	617.75
434.287	618.75
434.509	613.75
434.731	630.75
434.953	676.75
435.175	672.75
435.397	675.75
435.618	649.75
435.84	658.75
436.062	702.75
436.284	739.75
436.505	676.75
436.727	629.75
436.949	616.75
437.17	598.75
437.392	607.75
437.614	608.75
437.835	620.75
438.057	672.75
438.278	737.75
438.5	718.75
438.721	778.75
438.943	766.75
439.165	654.75
439.386	635.75
439.608	624.75
439.829	631.75
440.05	630.75
440.272	657.75
440.493	655.75
440.715	634.75
440.936	634.75
441.158	648.75
441.379	621.75
441.6	648.75
441.822	670.75
442.043	680.75
442.264	718.75
442.486	756.75
442.707	696.75
442.928	686.75
443.149	659.75
443.371	671.75
443.592	711.75
443.813	773.75
444.034	808.75
444.255	752.75
444.476	728.75
444.698	749.75
444.919	742.75
445.14	872.75
445.361	749.75
445.582	706.75
445.803	738.75
446.024	757.75
446.245	748.75
446.466	718.75
446.687	643.75
446.908	613.75
447.129	632.75
447.35	594.75
447.571	615.75
447.792	593.75
448.013	560.75
448.234	572.75
448.455	620.75
448.675	679.75
448.896	775.75
449.117	661.75
449.338	657.75
449.559	704.75
449.779	770.75
450	660.75
450.221	600.75
450.442	576.75
450.662	549.75
450.883	553.75
451.104	588.75
451.324	556.75
451.545	574.75
451.766	562.75
451.986	539.75
452.207	530.75
452.428	548.75
452.648	551.75
452.869	532.75
453.089	528.75
453.31	536.75
453.53	545.75
453.751	549.75
453.971	556.75
454.192	558.75
454.412	512.75
454.633	521.75
454.853	500.75
455.073	504.75
455.294	561.75
455.514	584.75
455.734	564.75
455.955	530.75
456.175	516.75
456.395	510.75
456.616	532.75
456.836	526.75
457.056	518.75
457.276	520.75
457.497	535.75
457.717	551.75
457.937	522.75
458.157	537.75
458.377	533.75
458.598	552.75
458.818	557.75
459.038	630.75
459.258	648.75
459.478	612.75
459.698	616.75
459.918	628.75
460.138	640.75
460.358	669.75
460.578	645.75
460.798	672.75
461.018	667.75
461.238	666.75
461.458	654.75
461.678	657.75
461.898	648.75
462.118	661.75
462.338	678.75
462.558	685.75
462.777	740.75
462.997	762.75
463.217	800.75
463.437	788.75
463.657	768.75
463.876	732.75
464.096	750.75
464.316	770.75
464.536	770.75
464.755	729.75
464.975	719.75
465.195	694.75
465.414	720.75
465.634	629.75
465.854	609.75
466.073	630.75
466.293	602.75
466.512	584.75
466.732	562.75
466.951	567.75
467.171	562.75
467.391	544.75
467.61	570.75
467.829	573.75
468.049	566.75
468.268	560.75
468.488	560.75
468.707	533.75
468.927	548.75
469.146	557.75
469.365	585.75
469.585	552.75
469.804	579.75
470.023	556.75
470.243	585.75
470.462	584.75
470.681	611.75
470.901	600.75
471.12	601.75
471.339	588.75
471.558	584.75
471.777	558.75
471.997	593.75
472.216	587.75
472.435	578.75
472.654	580.75
472.873	543.75
473.092	572.75
473.311	567.75
473.53	551.75
473.749	580.75
473.968	594.75
474.187	615.75
474.406	628.75
474.625	588.75
474.844	566.75
475.063	569.75
475.282	554.75
475.501	577.75
475.72	599.75
475.939	593.75
476.158	573.75
476.377	591.75
476.596	597.75
476.814	584.75
477.033	572.75
477.252	582.75
477.471	615.75
477.69	627.75
477.908	630.75
478.127	658.75
478.346	636.75
478.564	691.75
478.783	661.75
479.002	684.75
479.22	660.75
479.439	682.75
479.658	684.75
479.876	695.75
480.095	685.75
480.313	740.75
480.532	724.75
480.751	740.75
480.969	732.75
481.188	738.75
481.406	760.75
481.624	688.75
481.843	672.75
482.061	660.75
482.28	676.75
482.498	638.75
482.717	669.75
482.935	645.75
483.153	663.75
483.372	646.75
483.59	668.75
483.808	658.75
484.027	685.75
484.245	670.75
484.463	679.75
484.681	688.75
484.9	668.75
485.118	640.75
485.336	686.75
485.554	659.75
485.772	686.75
485.99	681.75
486.209	688.75
486.427	694.75
486.645	693.75
486.863	676.75
487.081	680.75
487.299	718.75
487.517	708.75
487.735	675.75
487.953	685.75
488.171	698.75
488.389	706.75
488.607	688.75
488.825	681.75
489.043	720.75
489.261	698.75
489.479	697.75
489.696	712.75
489.914	694.75
490.132	726.75
490.35	733.75
490.568	738.75
490.786	743.75
491.003	728.75
491.221	735.75
491.439	750.75
491.657	732.75
491.874	755.75
492.092	752.75
492.31	772.75
492.527	744.75
492.745	751.75
492.963	758.75
493.18	796.75
493.398	758.75
493.615	777.75
493.833	785.75
494.05	790.75
494.268	792.75
494.485	797.75
494.703	812.75
494.92	792.75
495.138	789.75
495.355	812.75
495.573	782.75
495.79	807.75
496.008	815.75
496.225	820.75
496.442	816.75
496.66	842.75
496.877	833.75
497.094	843.75
497.312	865.75
497.529	849.75
497.746	871.75
497.963	898.75
498.181	936.75
498.398	960.75
498.615	984.75
498.832	1040.75
499.049	1086.75
499.267	1137.75
499.484	1229.75
499.701	1295.75
499.918	1392.75
500.135	1502.75
500.352	1603.75
500.569	1679.75
500.786	1668.75
501.003	1609.75
501.22	1502.75
501.437	1361.75
501.654	1258.75
501.871	1208.75
