Data from 1963.PennyLincolnUp.Lamp.En5.5.200Scan.071719.P1._HRD10591_13-58-19-063.txt Node
Date: Thu Jul 18 13:58:19 EDT 2019
User: cochatt
Spectrometer: HR+D1059
Trigger mode: 1
Integration Time (sec): 1.000000E-1
Scans to average: 1
Electric dark correction enabled: true
Nonlinearity correction enabled: false
Boxcar width: 0
XAxis mode: Wavelengths
Number of Pixels in Spectrum: 2048
>>>>>Begin Spectral Data<<<<<
223.165	-8.38
223.4	-8.38
223.635	-8.38
223.869	-13.38
224.104	-22.38
224.338	-22.38
224.573	-23.38
224.808	-14.38
225.042	-14.38
225.277	-9.38
225.511	-7.38
225.746	16.62
225.98	12.62
226.215	-0.38
226.449	12.62
226.683	25.62
226.918	33.62
227.152	34.62
227.387	42.62
227.621	31.62
227.856	41.62
228.09	47.62
228.324	55.62
228.559	49.62
228.793	62.62
229.027	101.62
229.262	93.62
229.496	103.62
229.73	132.62
229.964	144.62
230.199	111.62
230.433	126.62
230.667	110.62
230.901	104.62
231.136	95.62
231.37	117.62
231.604	114.62
231.838	116.62
232.072	116.62
232.306	114.62
232.541	117.62
232.775	132.62
233.009	118.62
233.243	119.62
233.477	115.62
233.711	116.62
233.945	113.62
234.179	124.62
234.413	108.62
234.647	138.62
234.881	134.62
235.115	105.62
235.349	126.62
235.583	114.62
235.817	123.62
236.051	132.62
236.285	140.62
236.519	121.62
236.753	123.62
236.987	120.62
237.221	176.62
237.455	174.62
237.689	160.62
237.922	138.62
238.156	122.62
238.39	139.62
238.624	127.62
238.858	133.62
239.091	129.62
239.325	120.62
239.559	131.62
239.793	122.62
240.027	137.62
240.26	131.62
240.494	154.62
240.728	159.62
240.961	155.62
241.195	143.62
241.429	144.62
241.662	135.62
241.896	150.62
242.13	146.62
242.363	141.62
242.597	147.62
242.83	142.62
243.064	142.62
243.298	150.62
243.531	142.62
243.765	141.62
243.998	137.62
244.232	155.62
244.465	158.62
244.699	156.62
244.932	140.62
245.166	161.62
245.399	151.62
245.633	159.62
245.866	158.62
246.099	156.62
246.333	165.62
246.566	164.62
246.8	181.62
247.033	158.62
247.266	160.62
247.5	178.62
247.733	180.62
247.966	179.62
248.2	181.62
248.433	191.62
248.666	184.62
248.899	188.62
249.133	203.62
249.366	206.62
249.599	204.62
249.832	186.62
250.066	177.62
250.299	192.62
250.532	189.62
250.765	199.62
250.998	238.62
251.231	236.62
251.465	230.62
251.698	205.62
251.931	209.62
252.164	210.62
252.397	218.62
252.63	204.62
252.863	212.62
253.096	218.62
253.329	248.62
253.562	225.62
253.795	224.62
254.028	218.62
254.261	239.62
254.494	245.62
254.727	249.62
254.96	267.62
255.193	274.62
255.426	248.62
255.659	243.62
255.892	248.62
256.124	234.62
256.357	232.62
256.59	242.62
256.823	217.62
257.056	215.62
257.289	230.62
257.521	218.62
257.754	223.62
257.987	220.62
258.22	224.62
258.452	218.62
258.685	236.62
258.918	216.62
259.151	221.62
259.383	232.62
259.616	235.62
259.849	247.62
260.081	234.62
260.314	254.62
260.547	264.62
260.779	241.62
261.012	209.62
261.244	244.62
261.477	246.62
261.71	232.62
261.942	225.62
262.175	246.62
262.407	238.62
262.64	224.62
262.872	233.62
263.105	238.62
263.337	220.62
263.57	233.62
263.802	245.62
264.035	230.62
264.267	237.62
264.499	226.62
264.732	250.62
264.964	244.62
265.197	260.62
265.429	225.62
265.661	229.62
265.894	241.62
266.126	242.62
266.358	225.62
266.591	238.62
266.823	236.62
267.055	262.62
267.287	246.62
267.52	251.62
267.752	230.62
267.984	264.62
268.216	268.62
268.448	258.62
268.681	270.62
268.913	258.62
269.145	286.62
269.377	283.62
269.609	286.62
269.841	284.62
270.073	274.62
270.306	282.62
270.538	313.62
270.77	329.62
271.002	301.62
271.234	302.62
271.466	300.62
271.698	313.62
271.93	325.62
272.162	312.62
272.394	317.62
272.626	304.62
272.858	304.62
273.09	283.62
273.322	306.62
273.553	288.62
273.785	302.62
274.017	299.62
274.249	289.62
274.481	282.62
274.713	295.62
274.945	292.62
275.176	310.62
275.408	306.62
275.64	295.62
275.872	301.62
276.104	310.62
276.335	296.62
276.567	309.62
276.799	302.62
277.031	322.62
277.262	335.62
277.494	334.62
277.726	323.62
277.957	319.62
278.189	320.62
278.421	282.62
278.652	314.62
278.884	293.62
279.115	313.62
279.347	308.62
279.579	305.62
279.81	310.62
280.042	312.62
280.273	300.62
280.505	315.62
280.736	308.62
280.968	319.62
281.199	288.62
281.431	313.62
281.662	318.62
281.894	329.62
282.125	310.62
282.356	324.62
282.588	345.62
282.819	330.62
283.051	317.62
283.282	308.62
283.513	334.62
283.745	331.62
283.976	337.62
284.207	353.62
284.439	332.62
284.67	339.62
284.901	343.62
285.132	322.62
285.364	327.62
285.595	329.62
285.826	325.62
286.057	319.62
286.288	346.62
286.52	330.62
286.751	326.62
286.982	336.62
287.213	320.62
287.444	332.62
287.675	344.62
287.906	362.62
288.138	347.62
288.369	342.62
288.6	351.62
288.831	353.62
289.062	364.62
289.293	361.62
289.524	361.62
289.755	340.62
289.986	345.62
290.217	338.62
290.448	346.62
290.679	344.62
290.91	358.62
291.141	360.62
291.371	383.62
291.602	355.62
291.833	332.62
292.064	358.62
292.295	346.62
292.526	376.62
292.757	366.62
292.987	361.62
293.218	353.62
293.449	358.62
293.68	366.62
293.91	354.62
294.141	362.62
294.372	355.62
294.603	353.62
294.833	341.62
295.064	350.62
295.295	358.62
295.525	368.62
295.756	378.62
295.987	372.62
296.217	372.62
296.448	377.62
296.679	368.62
296.909	371.62
297.14	379.62
297.37	374.62
297.601	374.62
297.831	359.62
298.062	379.62
298.292	366.62
298.523	382.62
298.753	392.62
298.984	380.62
299.214	382.62
299.445	379.62
299.675	379.62
299.905	390.62
300.136	387.62
300.366	375.62
300.597	378.62
300.827	382.62
301.057	403.62
301.288	401.62
301.518	404.62
301.748	410.62
301.979	414.62
302.209	374.62
302.439	408.62
302.669	389.62
302.9	395.62
303.13	408.62
303.36	394.62
303.59	382.62
303.82	413.62
304.051	408.62
304.281	415.62
304.511	412.62
304.741	409.62
304.971	412.62
305.201	403.62
305.431	411.62
305.661	401.62
305.891	388.62
306.121	391.62
306.352	398.62
306.582	391.62
306.812	389.62
307.042	399.62
307.272	395.62
307.502	390.62
307.731	411.62
307.961	420.62
308.191	392.62
308.421	403.62
308.651	422.62
308.881	412.62
309.111	405.62
309.341	407.62
309.571	409.62
309.8	424.62
310.03	414.62
310.26	423.62
310.49	431.62
310.72	430.62
310.949	432.62
311.179	449.62
311.409	424.62
311.639	418.62
311.868	443.62
312.098	443.62
312.328	434.62
312.557	438.62
312.787	441.62
313.017	457.62
313.246	447.62
313.476	455.62
313.706	442.62
313.935	455.62
314.165	460.62
314.394	450.62
314.624	473.62
314.853	461.62
315.083	454.62
315.312	445.62
315.542	435.62
315.771	432.62
316.001	440.62
316.23	437.62
316.46	448.62
316.689	437.62
316.919	445.62
317.148	454.62
317.377	436.62
317.607	450.62
317.836	436.62
318.065	420.62
318.295	438.62
318.524	427.62
318.753	422.62
318.983	452.62
319.212	424.62
319.441	442.62
319.67	444.62
319.9	420.62
320.129	422.62
320.358	447.62
320.587	446.62
320.816	443.62
321.046	435.62
321.275	453.62
321.504	467.62
321.733	458.62
321.962	452.62
322.191	471.62
322.42	479.62
322.649	476.62
322.878	480.62
323.108	475.62
323.337	504.62
323.566	514.62
323.795	538.62
324.024	577.62
324.253	587.62
324.482	760.62
324.71	1076.62
324.939	1531.62
325.168	1346.62
325.397	731.62
325.626	579.62
325.855	537.62
326.084	536.62
326.313	526.62
326.542	497.62
326.77	555.62
326.999	602.62
327.228	724.62
327.457	1018.62
327.686	1150.62
327.914	862.62
328.143	626.62
328.372	606.62
328.6	582.62
328.829	546.62
329.058	560.62
329.287	573.62
329.515	551.62
329.744	533.62
329.972	542.62
330.201	546.62
330.43	586.62
330.658	601.62
330.887	604.62
331.115	607.62
331.344	565.62
331.572	552.62
331.801	552.62
332.03	552.62
332.258	565.62
332.486	530.62
332.715	555.62
332.943	582.62
333.172	589.62
333.4	613.62
333.629	615.62
333.857	602.62
334.085	594.62
334.314	606.62
334.542	631.62
334.771	653.62
334.999	619.62
335.227	602.62
335.455	588.62
335.684	580.62
335.912	572.62
336.14	567.62
336.369	562.62
336.597	559.62
336.825	569.62
337.053	562.62
337.281	535.62
337.51	524.62
337.738	550.62
337.966	530.62
338.194	534.62
338.422	546.62
338.65	533.62
338.878	534.62
339.106	532.62
339.334	550.62
339.562	516.62
339.79	509.62
340.018	510.62
340.246	511.62
340.474	514.62
340.702	517.62
340.93	523.62
341.158	512.62
341.386	524.62
341.614	516.62
341.842	481.62
342.07	510.62
342.298	519.62
342.526	516.62
342.754	506.62
342.981	495.62
343.209	512.62
343.437	532.62
343.665	553.62
343.893	589.62
344.12	589.62
344.348	556.62
344.576	547.62
344.804	524.62
345.031	534.62
345.259	538.62
345.487	516.62
345.714	524.62
345.942	491.62
346.17	502.62
346.397	492.62
346.625	503.62
346.853	483.62
347.08	494.62
347.308	502.62
347.535	489.62
347.763	482.62
347.99	512.62
348.218	514.62
348.445	502.62
348.673	519.62
348.9	482.62
349.128	487.62
349.355	478.62
349.583	505.62
349.81	488.62
350.037	476.62
350.265	451.62
350.492	487.62
350.72	489.62
350.947	473.62
351.174	489.62
351.402	486.62
351.629	492.62
351.856	488.62
352.083	496.62
352.311	481.62
352.538	484.62
352.765	510.62
352.992	464.62
353.22	478.62
353.447	494.62
353.674	482.62
353.901	481.62
354.128	489.62
354.355	469.62
354.583	494.62
354.81	465.62
355.037	487.62
355.264	468.62
355.491	478.62
355.718	474.62
355.945	481.62
356.172	466.62
356.399	480.62
356.626	475.62
356.853	482.62
357.08	459.62
357.307	478.62
357.534	472.62
357.761	460.62
357.988	481.62
358.215	472.62
358.441	481.62
358.668	474.62
358.895	462.62
359.122	463.62
359.349	491.62
359.576	471.62
359.802	506.62
360.029	516.62
360.256	510.62
360.483	521.62
360.709	497.62
360.936	484.62
361.163	503.62
361.39	481.62
361.616	491.62
361.843	471.62
362.07	487.62
362.296	494.62
362.523	493.62
362.749	483.62
362.976	477.62
363.203	486.62
363.429	473.62
363.656	488.62
363.882	486.62
364.109	460.62
364.335	483.62
364.562	474.62
364.788	456.62
365.015	488.62
365.241	471.62
365.468	485.62
365.694	498.62
365.92	503.62
366.147	487.62
366.373	466.62
366.599	488.62
366.826	468.62
367.052	486.62
367.278	476.62
367.505	469.62
367.731	480.62
367.957	480.62
368.184	476.62
368.41	479.62
368.636	500.62
368.862	492.62
369.089	490.62
369.315	493.62
369.541	500.62
369.767	495.62
369.993	524.62
370.219	488.62
370.445	499.62
370.672	510.62
370.898	491.62
371.124	514.62
371.35	527.62
371.576	503.62
371.802	522.62
372.028	495.62
372.254	519.62
372.48	509.62
372.706	505.62
372.932	536.62
373.158	516.62
373.384	516.62
373.61	490.62
373.835	520.62
374.061	516.62
374.287	479.62
374.513	529.62
374.739	555.62
374.965	550.62
375.191	555.62
375.416	528.62
375.642	518.62
375.868	517.62
376.094	488.62
376.319	511.62
376.545	512.62
376.771	499.62
376.997	499.62
377.222	521.62
377.448	498.62
377.674	511.62
377.899	517.62
378.125	511.62
378.35	499.62
378.576	484.62
378.802	498.62
379.027	518.62
379.253	515.62
379.478	494.62
379.704	501.62
379.929	496.62
380.155	474.62
380.38	496.62
380.606	496.62
380.831	503.62
381.057	497.62
381.282	499.62
381.507	504.62
381.733	489.62
381.958	507.62
382.184	502.62
382.409	545.62
382.634	534.62
382.86	528.62
383.085	530.62
383.31	529.62
383.535	542.62
383.761	543.62
383.986	532.62
384.211	549.62
384.436	571.62
384.662	561.62
384.887	573.62
385.112	566.62
385.337	555.62
385.562	583.62
385.787	574.62
386.013	592.62
386.238	593.62
386.463	586.62
386.688	571.62
386.913	572.62
387.138	581.62
387.363	577.62
387.588	587.62
387.813	592.62
388.038	568.62
388.263	561.62
388.488	580.62
388.713	603.62
388.938	580.62
389.163	599.62
389.387	554.62
389.612	553.62
389.837	578.62
390.062	561.62
390.287	566.62
390.512	568.62
390.736	575.62
390.961	589.62
391.186	609.62
391.411	596.62
391.636	610.62
391.86	635.62
392.085	614.62
392.31	642.62
392.534	607.62
392.759	624.62
392.984	601.62
393.208	601.62
393.433	627.62
393.658	606.62
393.882	594.62
394.107	607.62
394.331	596.62
394.556	597.62
394.78	595.62
395.005	610.62
395.229	617.62
395.454	614.62
395.678	641.62
395.903	647.62
396.127	645.62
396.352	629.62
396.576	599.62
396.801	608.62
397.025	619.62
397.249	632.62
397.474	619.62
397.698	636.62
397.922	650.62
398.147	664.62
398.371	650.62
398.595	635.62
398.82	671.62
399.044	715.62
399.268	799.62
399.492	808.62
399.717	924.62
399.941	966.62
400.165	912.62
400.389	867.62
400.613	800.62
400.837	726.62
401.062	730.62
401.286	706.62
401.51	675.62
401.734	700.62
401.958	670.62
402.182	706.62
402.406	737.62
402.63	727.62
402.854	711.62
403.078	733.62
403.302	756.62
403.526	772.62
403.75	779.62
403.974	778.62
404.198	794.62
404.422	778.62
404.645	757.62
404.869	771.62
405.093	792.62
405.317	802.62
405.541	816.62
405.765	793.62
405.988	785.62
406.212	769.62
406.436	776.62
406.66	788.62
406.883	770.62
407.107	786.62
407.331	874.62
407.555	921.62
407.778	908.62
408.002	830.62
408.226	806.62
408.449	809.62
408.673	810.62
408.896	787.62
409.12	800.62
409.344	772.62
409.567	751.62
409.791	761.62
410.014	734.62
410.238	732.62
410.461	706.62
410.685	753.62
410.908	752.62
411.132	765.62
411.355	758.62
411.578	765.62
411.802	724.62
412.025	728.62
412.249	715.62
412.472	727.62
412.695	774.62
412.919	760.62
413.142	700.62
413.365	712.62
413.589	699.62
413.812	683.62
414.035	680.62
414.258	689.62
414.482	678.62
414.705	712.62
414.928	704.62
415.151	671.62
415.374	697.62
415.597	692.62
415.821	691.62
416.044	666.62
416.267	680.62
416.49	700.62
416.713	678.62
416.936	675.62
417.159	684.62
417.382	667.62
417.605	687.62
417.828	678.62
418.051	734.62
418.274	716.62
418.497	680.62
418.72	712.62
418.943	696.62
419.166	742.62
419.389	745.62
419.611	736.62
419.834	727.62
420.057	744.62
420.28	736.62
420.503	690.62
420.726	729.62
420.948	706.62
421.171	755.62
421.394	736.62
421.617	697.62
421.839	718.62
422.062	691.62
422.285	680.62
422.507	748.62
422.73	783.62
422.953	782.62
423.175	740.62
423.398	728.62
423.621	721.62
423.843	755.62
424.066	724.62
424.288	759.62
424.511	778.62
424.733	780.62
424.956	831.62
425.178	808.62
425.401	812.62
425.623	802.62
425.846	735.62
426.068	704.62
426.291	688.62
426.513	722.62
426.735	711.62
426.958	711.62
427.18	758.62
427.402	874.62
427.625	923.62
427.847	842.62
428.069	766.62
428.292	721.62
428.514	669.62
428.736	655.62
428.958	682.62
429.181	662.62
429.403	636.62
429.625	647.62
429.847	676.62
430.069	702.62
430.292	716.62
430.514	659.62
430.736	633.62
430.958	646.62
431.18	649.62
431.402	643.62
431.624	624.62
431.846	642.62
432.068	635.62
432.29	634.62
432.512	635.62
432.734	648.62
432.956	631.62
433.178	639.62
433.4	634.62
433.622	635.62
433.844	656.62
434.066	660.62
434.287	634.62
434.509	678.62
434.731	686.62
434.953	695.62
435.175	709.62
435.397	709.62
435.618	723.62
435.84	716.62
436.062	757.62
436.284	819.62
436.505	726.62
436.727	671.62
436.949	662.62
437.17	648.62
437.392	658.62
437.614	656.62
437.835	650.62
438.057	704.62
438.278	789.62
438.5	766.62
438.721	865.62
438.943	840.62
439.165	703.62
439.386	668.62
439.608	684.62
439.829	679.62
440.05	686.62
440.272	710.62
440.493	707.62
440.715	667.62
440.936	679.62
441.158	670.62
441.379	664.62
441.6	709.62
441.822	713.62
442.043	754.62
442.264	809.62
442.486	796.62
442.707	721.62
442.928	715.62
443.149	720.62
443.371	721.62
443.592	770.62
443.813	862.62
444.034	898.62
444.255	806.62
444.476	756.62
444.698	758.62
444.919	807.62
445.14	881.62
445.361	784.62
445.582	760.62
445.803	773.62
446.024	828.62
446.245	806.62
446.466	776.62
446.687	697.62
446.908	674.62
447.129	645.62
447.35	642.62
447.571	642.62
447.792	638.62
448.013	618.62
448.234	614.62
448.455	657.62
448.675	726.62
448.896	827.62
449.117	725.62
449.338	702.62
449.559	758.62
449.779	850.62
450	722.62
450.221	638.62
450.442	616.62
450.662	619.62
450.883	587.62
451.104	614.62
451.324	599.62
451.545	605.62
451.766	598.62
451.986	584.62
452.207	564.62
452.428	585.62
452.648	593.62
452.869	576.62
453.089	563.62
453.31	593.62
453.53	588.62
453.751	598.62
453.971	585.62
454.192	562.62
454.412	578.62
454.633	564.62
454.853	561.62
455.073	566.62
455.294	607.62
455.514	614.62
455.734	620.62
455.955	554.62
456.175	548.62
456.395	547.62
456.616	554.62
456.836	537.62
457.056	542.62
457.276	531.62
457.497	566.62
457.717	564.62
457.937	573.62
458.157	555.62
458.377	580.62
458.598	571.62
458.818	651.62
459.038	682.62
459.258	702.62
459.478	671.62
459.698	639.62
459.918	647.62
460.138	690.62
460.358	683.62
460.578	702.62
460.798	704.62
461.018	708.62
461.238	721.62
461.458	699.62
461.678	682.62
461.898	684.62
462.118	692.62
462.338	731.62
462.558	747.62
462.777	771.62
462.997	783.62
463.217	870.62
463.437	884.62
463.657	808.62
463.876	798.62
464.096	807.62
464.316	788.62
464.536	758.62
464.755	776.62
464.975	754.62
465.195	742.62
465.414	750.62
465.634	726.62
465.854	679.62
466.073	666.62
466.293	634.62
466.512	638.62
466.732	596.62
466.951	616.62
467.171	617.62
467.391	635.62
467.61	616.62
467.829	601.62
468.049	599.62
468.268	585.62
468.488	595.62
468.707	603.62
468.927	592.62
469.146	602.62
469.365	583.62
469.585	599.62
469.804	647.62
470.023	632.62
470.243	616.62
470.462	632.62
470.681	665.62
470.901	642.62
471.12	611.62
471.339	636.62
471.558	598.62
471.777	627.62
471.997	608.62
472.216	610.62
472.435	627.62
472.654	611.62
472.873	615.62
473.092	614.62
473.311	604.62
473.53	596.62
473.749	622.62
473.968	646.62
474.187	681.62
474.406	730.62
474.625	655.62
474.844	590.62
475.063	612.62
475.282	614.62
475.501	588.62
475.72	596.62
475.939	634.62
476.158	642.62
476.377	599.62
476.596	626.62
476.814	638.62
477.033	649.62
477.252	642.62
477.471	656.62
477.69	657.62
477.908	680.62
478.127	657.62
478.346	679.62
478.564	684.62
478.783	706.62
479.002	708.62
479.22	720.62
479.439	721.62
479.658	727.62
479.876	753.62
480.095	762.62
480.313	783.62
480.532	811.62
480.751	777.62
480.969	778.62
481.188	800.62
481.406	792.62
481.624	759.62
481.843	720.62
482.061	745.62
482.28	710.62
482.498	698.62
482.717	698.62
482.935	715.62
483.153	676.62
483.372	707.62
483.59	692.62
483.808	681.62
484.027	702.62
484.245	722.62
484.463	701.62
484.681	715.62
484.9	728.62
485.118	689.62
485.336	716.62
485.554	730.62
485.772	711.62
485.99	721.62
486.209	739.62
486.427	738.62
486.645	751.62
486.863	759.62
487.081	742.62
487.299	754.62
487.517	732.62
487.735	744.62
487.953	728.62
488.171	711.62
488.389	728.62
488.607	740.62
488.825	750.62
489.043	754.62
489.261	757.62
489.479	731.62
489.696	750.62
489.914	754.62
490.132	771.62
490.35	779.62
490.568	773.62
490.786	796.62
491.003	800.62
491.221	800.62
491.439	803.62
491.657	805.62
491.874	807.62
492.092	810.62
492.31	814.62
492.527	836.62
492.745	847.62
492.963	838.62
493.18	837.62
493.398	835.62
493.615	871.62
493.833	857.62
494.05	863.62
494.268	871.62
494.485	850.62
494.703	853.62
494.92	853.62
495.138	844.62
495.355	859.62
495.573	880.62
495.79	855.62
496.008	866.62
496.225	882.62
496.442	874.62
496.66	902.62
496.877	900.62
497.094	896.62
497.312	927.62
497.529	942.62
497.746	966.62
497.963	962.62
498.181	1001.62
498.398	1026.62
498.615	1030.62
498.832	1089.62
499.049	1123.62
499.267	1201.62
499.484	1299.62
499.701	1379.62
499.918	1456.62
500.135	1592.62
500.352	1695.62
500.569	1778.62
500.786	1761.62
501.003	1722.62
501.22	1546.62
501.437	1443.62
501.654	1397.62
