Data from 1964.PennyLincolnUp.Lamp.En5.5.200Scan.071719.P1._HRD10591_14-05-51-910.txt Node
Date: Thu Jul 18 14:05:51 EDT 2019
User: cochatt
Spectrometer: HR+D1059
Trigger mode: 1
Integration Time (sec): 1.000000E-1
Scans to average: 1
Electric dark correction enabled: true
Nonlinearity correction enabled: false
Boxcar width: 0
XAxis mode: Wavelengths
Number of Pixels in Spectrum: 2048
>>>>>Begin Spectral Data<<<<<
223.165	-8.88
223.4	-8.88
223.635	-8.88
223.869	-12.88
224.104	-19.88
224.338	-9.88
224.573	-10.88
224.808	-4.88
225.042	-10.88
225.277	3.12
225.511	-0.88
225.746	-5.88
225.98	-11.88
226.215	9.12
226.449	19.12
226.683	13.12
226.918	32.12
227.152	20.12
227.387	59.12
227.621	35.12
227.856	46.12
228.09	51.12
228.324	48.12
228.559	53.12
228.793	70.12
229.027	88.12
229.262	119.12
229.496	111.12
229.73	120.12
229.964	126.12
230.199	124.12
230.433	104.12
230.667	103.12
230.901	108.12
231.136	103.12
231.37	106.12
231.604	90.12
231.838	100.12
232.072	116.12
232.306	131.12
232.541	92.12
232.775	103.12
233.009	106.12
233.243	106.12
233.477	110.12
233.711	117.12
233.945	111.12
234.179	116.12
234.413	114.12
234.647	109.12
234.881	116.12
235.115	125.12
235.349	127.12
235.583	117.12
235.817	112.12
236.051	124.12
236.285	124.12
236.519	128.12
236.753	135.12
236.987	130.12
237.221	170.12
237.455	185.12
237.689	176.12
237.922	139.12
238.156	136.12
238.39	152.12
238.624	129.12
238.858	119.12
239.091	126.12
239.325	116.12
239.559	126.12
239.793	119.12
240.027	141.12
240.26	137.12
240.494	147.12
240.728	136.12
240.961	150.12
241.195	152.12
241.429	134.12
241.662	127.12
241.896	133.12
242.13	141.12
242.363	136.12
242.597	131.12
242.83	137.12
243.064	127.12
243.298	127.12
243.531	141.12
243.765	134.12
243.998	151.12
244.232	136.12
244.465	138.12
244.699	149.12
244.932	149.12
245.166	153.12
245.399	153.12
245.633	165.12
245.866	158.12
246.099	154.12
246.333	152.12
246.566	154.12
246.8	150.12
247.033	143.12
247.266	159.12
247.5	152.12
247.733	173.12
247.966	172.12
248.2	175.12
248.433	172.12
248.666	161.12
248.899	179.12
249.133	184.12
249.366	212.12
249.599	181.12
249.832	163.12
250.066	202.12
250.299	171.12
250.532	184.12
250.765	200.12
250.998	218.12
251.231	229.12
251.465	190.12
251.698	198.12
251.931	202.12
252.164	209.12
252.397	200.12
252.63	196.12
252.863	201.12
253.096	220.12
253.329	213.12
253.562	208.12
253.795	212.12
254.028	202.12
254.261	215.12
254.494	213.12
254.727	252.12
254.96	260.12
255.193	263.12
255.426	260.12
255.659	233.12
255.892	216.12
256.124	225.12
256.357	231.12
256.59	239.12
256.823	202.12
257.056	206.12
257.289	233.12
257.521	232.12
257.754	219.12
257.987	205.12
258.22	219.12
258.452	230.12
258.685	222.12
258.918	208.12
259.151	223.12
259.383	211.12
259.616	223.12
259.849	239.12
260.081	254.12
260.314	240.12
260.547	267.12
260.779	251.12
261.012	244.12
261.244	219.12
261.477	232.12
261.71	237.12
261.942	243.12
262.175	229.12
262.407	236.12
262.64	219.12
262.872	221.12
263.105	224.12
263.337	207.12
263.57	230.12
263.802	222.12
264.035	232.12
264.267	233.12
264.499	206.12
264.732	208.12
264.964	232.12
265.197	235.12
265.429	228.12
265.661	213.12
265.894	211.12
266.126	238.12
266.358	236.12
266.591	225.12
266.823	232.12
267.055	250.12
267.287	247.12
267.52	239.12
267.752	246.12
267.984	232.12
268.216	233.12
268.448	251.12
268.681	265.12
268.913	261.12
269.145	278.12
269.377	271.12
269.609	274.12
269.841	298.12
270.073	300.12
270.306	309.12
270.538	318.12
270.77	312.12
271.002	311.12
271.234	296.12
271.466	314.12
271.698	315.12
271.93	325.12
272.162	330.12
272.394	322.12
272.626	306.12
272.858	275.12
273.09	273.12
273.322	290.12
273.553	282.12
273.785	271.12
274.017	288.12
274.249	279.12
274.481	285.12
274.713	283.12
274.945	298.12
275.176	291.12
275.408	288.12
275.64	297.12
275.872	276.12
276.104	282.12
276.335	283.12
276.567	307.12
276.799	301.12
277.031	309.12
277.262	315.12
277.494	330.12
277.726	314.12
277.957	284.12
278.189	300.12
278.421	295.12
278.652	282.12
278.884	292.12
279.115	283.12
279.347	281.12
279.579	278.12
279.81	287.12
280.042	284.12
280.273	294.12
280.505	300.12
280.736	308.12
280.968	311.12
281.199	305.12
281.431	294.12
281.662	290.12
281.894	307.12
282.125	306.12
282.356	302.12
282.588	310.12
282.819	329.12
283.051	302.12
283.282	290.12
283.513	327.12
283.745	301.12
283.976	300.12
284.207	306.12
284.439	300.12
284.67	296.12
284.901	314.12
285.132	318.12
285.364	303.12
285.595	305.12
285.826	290.12
286.057	296.12
286.288	308.12
286.52	325.12
286.751	311.12
286.982	329.12
287.213	306.12
287.444	331.12
287.675	318.12
287.906	329.12
288.138	323.12
288.369	331.12
288.6	311.12
288.831	321.12
289.062	327.12
289.293	325.12
289.524	335.12
289.755	322.12
289.986	333.12
290.217	315.12
290.448	327.12
290.679	312.12
290.91	317.12
291.141	324.12
291.371	310.12
291.602	319.12
291.833	309.12
292.064	323.12
292.295	331.12
292.526	327.12
292.757	335.12
292.987	326.12
293.218	344.12
293.449	331.12
293.68	316.12
293.91	338.12
294.141	318.12
294.372	322.12
294.603	332.12
294.833	329.12
295.064	323.12
295.295	318.12
295.525	338.12
295.756	319.12
295.987	322.12
296.217	355.12
296.448	335.12
296.679	353.12
296.909	340.12
297.14	352.12
297.37	356.12
297.601	344.12
297.831	342.12
298.062	353.12
298.292	332.12
298.523	362.12
298.753	340.12
298.984	355.12
299.214	352.12
299.445	343.12
299.675	351.12
299.905	350.12
300.136	350.12
300.366	343.12
300.597	339.12
300.827	360.12
301.057	361.12
301.288	372.12
301.518	355.12
301.748	358.12
301.979	370.12
302.209	374.12
302.439	365.12
302.669	378.12
302.9	352.12
303.13	374.12
303.36	356.12
303.59	388.12
303.82	360.12
304.051	363.12
304.281	376.12
304.511	373.12
304.741	357.12
304.971	366.12
305.201	374.12
305.431	370.12
305.661	357.12
305.891	357.12
306.121	369.12
306.352	387.12
306.582	374.12
306.812	376.12
307.042	374.12
307.272	371.12
307.502	370.12
307.731	360.12
307.961	370.12
308.191	354.12
308.421	370.12
308.651	338.12
308.881	356.12
309.111	383.12
309.341	372.12
309.571	375.12
309.8	383.12
310.03	393.12
310.26	397.12
310.49	384.12
310.72	386.12
310.949	411.12
311.179	408.12
311.409	412.12
311.639	403.12
311.868	398.12
312.098	408.12
312.328	399.12
312.557	409.12
312.787	425.12
313.017	445.12
313.246	438.12
313.476	397.12
313.706	418.12
313.935	386.12
314.165	423.12
314.394	423.12
314.624	408.12
314.853	398.12
315.083	408.12
315.312	405.12
315.542	404.12
315.771	402.12
316.001	412.12
316.23	398.12
316.46	410.12
316.689	418.12
316.919	407.12
317.148	415.12
317.377	411.12
317.607	415.12
317.836	397.12
318.065	406.12
318.295	401.12
318.524	411.12
318.753	418.12
318.983	415.12
319.212	409.12
319.441	422.12
319.67	428.12
319.9	418.12
320.129	407.12
320.358	424.12
320.587	427.12
320.816	426.12
321.046	409.12
321.275	426.12
321.504	407.12
321.733	446.12
321.962	451.12
322.191	465.12
322.42	452.12
322.649	440.12
322.878	448.12
323.108	445.12
323.337	471.12
323.566	472.12
323.795	488.12
324.024	522.12
324.253	592.12
324.482	835.12
324.71	1234.12
324.939	1670.12
325.168	1410.12
325.397	789.12
325.626	582.12
325.855	517.12
326.084	479.12
326.313	502.12
326.542	503.12
326.77	526.12
326.999	608.12
327.228	777.12
327.457	1118.12
327.686	1280.12
327.914	863.12
328.143	603.12
328.372	565.12
328.6	539.12
328.829	559.12
329.058	531.12
329.287	533.12
329.515	525.12
329.744	514.12
329.972	528.12
330.201	527.12
330.43	550.12
330.658	564.12
330.887	569.12
331.115	554.12
331.344	501.12
331.572	500.12
331.801	503.12
332.03	503.12
332.258	490.12
332.486	478.12
332.715	475.12
332.943	496.12
333.172	491.12
333.4	488.12
333.629	514.12
333.857	527.12
334.085	523.12
334.314	536.12
334.542	569.12
334.771	577.12
334.999	541.12
335.227	496.12
335.455	485.12
335.684	490.12
335.912	485.12
336.14	477.12
336.369	483.12
336.597	479.12
336.825	502.12
337.053	468.12
337.281	470.12
337.51	450.12
337.738	475.12
337.966	473.12
338.194	479.12
338.422	455.12
338.65	469.12
338.878	470.12
339.106	464.12
339.334	439.12
339.562	461.12
339.79	435.12
340.018	443.12
340.246	470.12
340.474	474.12
340.702	471.12
340.93	458.12
341.158	453.12
341.386	477.12
341.614	431.12
341.842	442.12
342.07	448.12
342.298	433.12
342.526	450.12
342.754	446.12
342.981	420.12
343.209	429.12
343.437	437.12
343.665	464.12
343.893	467.12
344.12	471.12
344.348	464.12
344.576	456.12
344.804	473.12
345.031	478.12
345.259	455.12
345.487	438.12
345.714	459.12
345.942	444.12
346.17	415.12
346.397	434.12
346.625	434.12
346.853	452.12
347.08	452.12
347.308	449.12
347.535	430.12
347.763	437.12
347.99	421.12
348.218	438.12
348.445	423.12
348.673	432.12
348.9	448.12
349.128	430.12
349.355	428.12
349.583	404.12
349.81	422.12
350.037	413.12
350.265	424.12
350.492	404.12
350.72	404.12
350.947	430.12
351.174	431.12
351.402	426.12
351.629	418.12
351.856	414.12
352.083	418.12
352.311	440.12
352.538	441.12
352.765	426.12
352.992	453.12
353.22	421.12
353.447	431.12
353.674	396.12
353.901	403.12
354.128	413.12
354.355	406.12
354.583	407.12
354.81	405.12
355.037	403.12
355.264	394.12
355.491	394.12
355.718	407.12
355.945	406.12
356.172	421.12
356.399	404.12
356.626	404.12
356.853	411.12
357.08	400.12
357.307	390.12
357.534	382.12
357.761	381.12
357.988	396.12
358.215	409.12
358.441	394.12
358.668	416.12
358.895	404.12
359.122	420.12
359.349	427.12
359.576	427.12
359.802	411.12
360.029	460.12
360.256	453.12
360.483	433.12
360.709	408.12
360.936	412.12
361.163	420.12
361.39	416.12
361.616	430.12
361.843	414.12
362.07	437.12
362.296	428.12
362.523	422.12
362.749	413.12
362.976	422.12
363.203	396.12
363.429	414.12
363.656	409.12
363.882	396.12
364.109	424.12
364.335	409.12
364.562	395.12
364.788	401.12
365.015	388.12
365.241	396.12
365.468	396.12
365.694	406.12
365.92	425.12
366.147	387.12
366.373	391.12
366.599	406.12
366.826	393.12
367.052	388.12
367.278	384.12
367.505	396.12
367.731	387.12
367.957	417.12
368.184	401.12
368.41	397.12
368.636	431.12
368.862	419.12
369.089	416.12
369.315	404.12
369.541	390.12
369.767	407.12
369.993	406.12
370.219	413.12
370.445	411.12
370.672	417.12
370.898	410.12
371.124	409.12
371.35	406.12
371.576	399.12
371.802	402.12
372.028	400.12
372.254	377.12
372.48	410.12
372.706	401.12
372.932	399.12
373.158	418.12
373.384	414.12
373.61	406.12
373.835	414.12
374.061	424.12
374.287	395.12
374.513	403.12
374.739	439.12
374.965	405.12
375.191	409.12
375.416	410.12
375.642	416.12
375.868	405.12
376.094	402.12
376.319	401.12
376.545	409.12
376.771	408.12
376.997	399.12
377.222	397.12
377.448	380.12
377.674	392.12
377.899	386.12
378.125	403.12
378.35	390.12
378.576	382.12
378.802	381.12
379.027	390.12
379.253	388.12
379.478	387.12
379.704	393.12
379.929	384.12
380.155	398.12
380.38	405.12
380.606	398.12
380.831	393.12
381.057	379.12
381.282	395.12
381.507	386.12
381.733	396.12
381.958	391.12
382.184	400.12
382.409	415.12
382.634	423.12
382.86	416.12
383.085	414.12
383.31	415.12
383.535	424.12
383.761	419.12
383.986	408.12
384.211	414.12
384.436	411.12
384.662	420.12
384.887	448.12
385.112	415.12
385.337	420.12
385.562	429.12
385.787	403.12
386.013	458.12
386.238	445.12
386.463	457.12
386.688	450.12
386.913	420.12
387.138	428.12
387.363	437.12
387.588	396.12
387.813	442.12
388.038	429.12
388.263	448.12
388.488	458.12
388.713	426.12
388.938	437.12
389.163	440.12
389.387	439.12
389.612	421.12
389.837	424.12
390.062	443.12
390.287	427.12
390.512	415.12
390.736	421.12
390.961	424.12
391.186	442.12
391.411	448.12
391.636	443.12
391.86	447.12
392.085	427.12
392.31	456.12
392.534	448.12
392.759	462.12
392.984	434.12
393.208	429.12
393.433	438.12
393.658	436.12
393.882	418.12
394.107	406.12
394.331	408.12
394.556	414.12
394.78	431.12
395.005	427.12
395.229	439.12
395.454	463.12
395.678	469.12
395.903	452.12
396.127	465.12
396.352	479.12
396.576	448.12
396.801	439.12
397.025	450.12
397.249	460.12
397.474	465.12
397.698	456.12
397.922	472.12
398.147	481.12
398.371	503.12
398.595	485.12
398.82	487.12
399.044	520.12
399.268	520.12
399.492	564.12
399.717	583.12
399.941	598.12
400.165	621.12
400.389	626.12
400.613	557.12
400.837	518.12
401.062	504.12
401.286	485.12
401.51	488.12
401.734	510.12
401.958	495.12
402.182	486.12
402.406	518.12
402.63	482.12
402.854	510.12
403.078	491.12
403.302	481.12
403.526	494.12
403.75	504.12
403.974	499.12
404.198	487.12
404.422	514.12
404.645	550.12
404.869	526.12
405.093	550.12
405.317	551.12
405.541	585.12
405.765	552.12
405.988	526.12
406.212	521.12
406.436	566.12
406.66	541.12
406.883	526.12
407.107	555.12
407.331	596.12
407.555	655.12
407.778	632.12
408.002	592.12
408.226	577.12
408.449	562.12
408.673	566.12
408.896	556.12
409.12	593.12
409.344	556.12
409.567	502.12
409.791	512.12
410.014	501.12
410.238	503.12
410.461	530.12
410.685	506.12
410.908	518.12
411.132	546.12
411.355	547.12
411.578	539.12
411.802	487.12
412.025	499.12
412.249	515.12
412.472	527.12
412.695	557.12
412.919	560.12
413.142	509.12
413.365	498.12
413.589	477.12
413.812	487.12
414.035	498.12
414.258	492.12
414.482	450.12
414.705	474.12
414.928	461.12
415.151	486.12
415.374	478.12
415.597	463.12
415.821	492.12
416.044	473.12
416.267	459.12
416.49	470.12
416.713	447.12
416.936	483.12
417.159	484.12
417.382	457.12
417.605	478.12
417.828	487.12
418.051	471.12
418.274	455.12
418.497	469.12
418.72	457.12
418.943	458.12
419.166	484.12
419.389	488.12
419.611	495.12
419.834	487.12
420.057	474.12
420.28	510.12
420.503	496.12
420.726	499.12
420.948	514.12
421.171	495.12
421.394	532.12
421.617	519.12
421.839	504.12
422.062	499.12
422.285	485.12
422.507	524.12
422.73	585.12
422.953	576.12
423.175	501.12
423.398	495.12
423.621	523.12
423.843	518.12
424.066	517.12
424.288	517.12
424.511	529.12
424.733	573.12
424.956	610.12
425.178	594.12
425.401	611.12
425.623	594.12
425.846	534.12
426.068	483.12
426.291	486.12
426.513	504.12
426.735	511.12
426.958	537.12
427.18	612.12
427.402	695.12
427.625	734.12
427.847	643.12
428.069	614.12
428.292	517.12
428.514	477.12
428.736	482.12
428.958	473.12
429.181	449.12
429.403	461.12
429.625	459.12
429.847	497.12
430.069	542.12
430.292	520.12
430.514	454.12
430.736	476.12
430.958	455.12
431.18	453.12
431.402	455.12
431.624	429.12
431.846	442.12
432.068	428.12
432.29	457.12
432.512	449.12
432.734	443.12
432.956	467.12
433.178	464.12
433.4	452.12
433.622	436.12
433.844	444.12
434.066	440.12
434.287	459.12
434.509	447.12
434.731	479.12
434.953	460.12
435.175	462.12
435.397	494.12
435.618	483.12
435.84	526.12
436.062	594.12
436.284	632.12
436.505	534.12
436.727	479.12
436.949	477.12
437.17	452.12
437.392	439.12
437.614	456.12
437.835	488.12
438.057	546.12
438.278	641.12
438.5	620.12
438.721	701.12
438.943	666.12
439.165	538.12
439.386	498.12
439.608	487.12
439.829	510.12
440.05	515.12
440.272	538.12
440.493	527.12
440.715	492.12
440.936	481.12
441.158	474.12
441.379	472.12
441.6	482.12
441.822	487.12
442.043	528.12
442.264	585.12
442.486	608.12
442.707	536.12
442.928	518.12
443.149	527.12
443.371	519.12
443.592	515.12
443.813	627.12
444.034	660.12
444.255	611.12
444.476	514.12
444.698	515.12
444.919	521.12
445.14	631.12
445.361	556.12
445.582	570.12
445.803	581.12
446.024	636.12
446.245	638.12
446.466	602.12
446.687	536.12
446.908	487.12
447.129	446.12
447.35	442.12
447.571	453.12
447.792	452.12
448.013	463.12
448.234	472.12
448.455	490.12
448.675	589.12
448.896	655.12
449.117	568.12
449.338	584.12
449.559	632.12
449.779	688.12
450	575.12
450.221	478.12
450.442	443.12
450.662	428.12
450.883	449.12
451.104	431.12
451.324	444.12
451.545	416.12
451.766	407.12
451.986	421.12
452.207	395.12
452.428	393.12
452.648	394.12
452.869	424.12
453.089	414.12
453.31	426.12
453.53	391.12
453.751	414.12
453.971	402.12
454.192	407.12
454.412	410.12
454.633	407.12
454.853	415.12
455.073	413.12
455.294	405.12
455.514	467.12
455.734	468.12
455.955	396.12
456.175	391.12
456.395	390.12
456.616	392.12
456.836	394.12
457.056	398.12
457.276	384.12
457.497	402.12
457.717	403.12
457.937	383.12
458.157	382.12
458.377	381.12
458.598	413.12
458.818	439.12
459.038	518.12
459.258	517.12
459.478	461.12
459.698	446.12
459.918	428.12
460.138	415.12
460.358	439.12
460.578	447.12
460.798	464.12
461.018	468.12
461.238	445.12
461.458	454.12
461.678	458.12
461.898	456.12
462.118	448.12
462.338	470.12
462.558	479.12
462.777	494.12
462.997	488.12
463.217	491.12
463.437	518.12
463.657	493.12
463.876	480.12
464.096	467.12
464.316	496.12
464.536	477.12
464.755	502.12
464.975	479.12
465.195	496.12
465.414	533.12
465.634	488.12
465.854	442.12
466.073	432.12
466.293	428.12
466.512	434.12
466.732	413.12
466.951	405.12
467.171	396.12
467.391	394.12
467.61	402.12
467.829	426.12
468.049	446.12
468.268	408.12
468.488	427.12
468.707	420.12
468.927	437.12
469.146	397.12
469.365	403.12
469.585	416.12
469.804	409.12
470.023	407.12
470.243	413.12
470.462	429.12
470.681	432.12
470.901	420.12
471.12	404.12
471.339	411.12
471.558	435.12
471.777	428.12
471.997	417.12
472.216	431.12
472.435	450.12
472.654	424.12
472.873	427.12
473.092	413.12
473.311	414.12
473.53	415.12
473.749	441.12
473.968	453.12
474.187	555.12
474.406	544.12
474.625	416.12
474.844	434.12
475.063	419.12
475.282	410.12
475.501	423.12
475.72	440.12
475.939	410.12
476.158	411.12
476.377	452.12
476.596	425.12
476.814	432.12
477.033	434.12
477.252	454.12
477.471	443.12
477.69	424.12
477.908	448.12
478.127	454.12
478.346	470.12
478.564	463.12
478.783	462.12
479.002	485.12
479.22	489.12
479.439	498.12
479.658	501.12
479.876	516.12
480.095	504.12
480.313	527.12
480.532	528.12
480.751	526.12
480.969	531.12
481.188	547.12
481.406	592.12
481.624	520.12
481.843	508.12
482.061	499.12
482.28	504.12
482.498	472.12
482.717	489.12
482.935	477.12
483.153	482.12
483.372	461.12
483.59	468.12
483.808	473.12
484.027	476.12
484.245	499.12
484.463	482.12
484.681	509.12
484.9	483.12
485.118	516.12
485.336	494.12
485.554	496.12
485.772	534.12
485.99	486.12
486.209	492.12
486.427	490.12
486.645	528.12
486.863	508.12
487.081	518.12
487.299	524.12
487.517	502.12
487.735	482.12
487.953	518.12
488.171	519.12
488.389	522.12
488.607	535.12
488.825	520.12
489.043	529.12
489.261	522.12
489.479	513.12
489.696	522.12
489.914	522.12
490.132	533.12
490.35	531.12
490.568	521.12
490.786	538.12
491.003	558.12
491.221	536.12
491.439	571.12
491.657	573.12
491.874	589.12
492.092	589.12
492.31	579.12
492.527	555.12
492.745	573.12
492.963	583.12
493.18	582.12
493.398	587.12
493.615	584.12
493.833	609.12
494.05	584.12
494.268	598.12
494.485	609.12
494.703	607.12
494.92	610.12
495.138	591.12
495.355	606.12
495.573	582.12
495.79	614.12
496.008	614.12
496.225	577.12
496.442	607.12
496.66	607.12
496.877	576.12
497.094	601.12
497.312	614.12
497.529	614.12
497.746	634.12
497.963	640.12
498.181	663.12
498.398	684.12
498.615	692.12
498.832	709.12
499.049	732.12
499.267	749.12
499.484	748.12
499.701	818.12
499.918	856.12
500.135	876.12
500.352	906.12
500.569	912.12
500.786	937.12
501.003	933.12
501.22	902.12
501.437	829.12
501.654	833.12
501.871	772.12
502.088	733.12
