Data from 1964.PennyLincolnUp.Lamp.En5.5.200Scan.071719.P1._HRD10591_14-03-37-908.txt Node
Date: Thu Jul 18 14:03:37 EDT 2019
User: cochatt
Spectrometer: HR+D1059
Trigger mode: 1
Integration Time (sec): 1.000000E-1
Scans to average: 1
Electric dark correction enabled: true
Nonlinearity correction enabled: false
Boxcar width: 0
XAxis mode: Wavelengths
Number of Pixels in Spectrum: 2048
>>>>>Begin Spectral Data<<<<<
223.165	-18.56
223.4	-18.56
223.635	-18.56
223.869	-17.56
224.104	-15.56
224.338	-27.56
224.573	-14.56
224.808	-19.56
225.042	-16.56
225.277	-6.56
225.511	9.44
225.746	19.44
225.98	14.44
226.215	14.44
226.449	16.44
226.683	17.44
226.918	27.44
227.152	17.44
227.387	45.44
227.621	39.44
227.856	53.44
228.09	48.44
228.324	50.44
228.559	45.44
228.793	81.44
229.027	80.44
229.262	80.44
229.496	113.44
229.73	112.44
229.964	125.44
230.199	98.44
230.433	101.44
230.667	101.44
230.901	98.44
231.136	100.44
231.37	95.44
231.604	101.44
231.838	102.44
232.072	111.44
232.306	110.44
232.541	103.44
232.775	117.44
233.009	122.44
233.243	110.44
233.477	112.44
233.711	118.44
233.945	113.44
234.179	125.44
234.413	135.44
234.647	118.44
234.881	115.44
235.115	119.44
235.349	118.44
235.583	107.44
235.817	117.44
236.051	105.44
236.285	123.44
236.519	114.44
236.753	125.44
236.987	123.44
237.221	138.44
237.455	173.44
237.689	152.44
237.922	119.44
238.156	134.44
238.39	117.44
238.624	120.44
238.858	111.44
239.091	114.44
239.325	125.44
239.559	126.44
239.793	121.44
240.027	119.44
240.26	140.44
240.494	146.44
240.728	138.44
240.961	146.44
241.195	137.44
241.429	130.44
241.662	136.44
241.896	143.44
242.13	135.44
242.363	137.44
242.597	122.44
242.83	127.44
243.064	152.44
243.298	133.44
243.531	129.44
243.765	135.44
243.998	130.44
244.232	141.44
244.465	135.44
244.699	147.44
244.932	135.44
245.166	146.44
245.399	144.44
245.633	143.44
245.866	126.44
246.099	146.44
246.333	154.44
246.566	158.44
246.8	154.44
247.033	141.44
247.266	143.44
247.5	159.44
247.733	161.44
247.966	163.44
248.2	171.44
248.433	164.44
248.666	155.44
248.899	165.44
249.133	195.44
249.366	193.44
249.599	182.44
249.832	195.44
250.066	175.44
250.299	183.44
250.532	181.44
250.765	198.44
250.998	213.44
251.231	209.44
251.465	197.44
251.698	183.44
251.931	185.44
252.164	188.44
252.397	199.44
252.63	185.44
252.863	184.44
253.096	204.44
253.329	200.44
253.562	193.44
253.795	185.44
254.028	200.44
254.261	204.44
254.494	197.44
254.727	237.44
254.96	242.44
255.193	223.44
255.426	226.44
255.659	221.44
255.892	225.44
256.124	202.44
256.357	221.44
256.59	213.44
256.823	224.44
257.056	202.44
257.289	208.44
257.521	196.44
257.754	205.44
257.987	184.44
258.22	200.44
258.452	192.44
258.685	205.44
258.918	204.44
259.151	185.44
259.383	201.44
259.616	209.44
259.849	219.44
260.081	225.44
260.314	237.44
260.547	239.44
260.779	221.44
261.012	221.44
261.244	211.44
261.477	219.44
261.71	231.44
261.942	216.44
262.175	220.44
262.407	218.44
262.64	211.44
262.872	202.44
263.105	210.44
263.337	198.44
263.57	194.44
263.802	210.44
264.035	222.44
264.267	234.44
264.499	204.44
264.732	214.44
264.964	192.44
265.197	214.44
265.429	211.44
265.661	210.44
265.894	214.44
266.126	210.44
266.358	213.44
266.591	220.44
266.823	223.44
267.055	242.44
267.287	238.44
267.52	220.44
267.752	223.44
267.984	226.44
268.216	208.44
268.448	238.44
268.681	236.44
268.913	232.44
269.145	249.44
269.377	259.44
269.609	281.44
269.841	269.44
270.073	248.44
270.306	291.44
270.538	293.44
270.77	286.44
271.002	277.44
271.234	279.44
271.466	281.44
271.698	275.44
271.93	298.44
272.162	301.44
272.394	288.44
272.626	262.44
272.858	273.44
273.09	267.44
273.322	275.44
273.553	264.44
273.785	267.44
274.017	267.44
274.249	274.44
274.481	271.44
274.713	263.44
274.945	254.44
275.176	259.44
275.408	263.44
275.64	257.44
275.872	276.44
276.104	263.44
276.335	265.44
276.567	268.44
276.799	279.44
277.031	301.44
277.262	313.44
277.494	293.44
277.726	287.44
277.957	306.44
278.189	279.44
278.421	283.44
278.652	280.44
278.884	282.44
279.115	269.44
279.347	287.44
279.579	271.44
279.81	279.44
280.042	265.44
280.273	286.44
280.505	273.44
280.736	274.44
280.968	283.44
281.199	275.44
281.431	279.44
281.662	287.44
281.894	285.44
282.125	277.44
282.356	288.44
282.588	288.44
282.819	298.44
283.051	282.44
283.282	286.44
283.513	295.44
283.745	274.44
283.976	297.44
284.207	289.44
284.439	302.44
284.67	288.44
284.901	300.44
285.132	288.44
285.364	301.44
285.595	297.44
285.826	281.44
286.057	300.44
286.288	303.44
286.52	297.44
286.751	293.44
286.982	301.44
287.213	286.44
287.444	301.44
287.675	307.44
287.906	315.44
288.138	303.44
288.369	321.44
288.6	286.44
288.831	299.44
289.062	298.44
289.293	317.44
289.524	299.44
289.755	299.44
289.986	302.44
290.217	300.44
290.448	293.44
290.679	294.44
290.91	294.44
291.141	305.44
291.371	298.44
291.602	304.44
291.833	314.44
292.064	294.44
292.295	309.44
292.526	325.44
292.757	283.44
292.987	315.44
293.218	300.44
293.449	319.44
293.68	297.44
293.91	293.44
294.141	289.44
294.372	299.44
294.603	309.44
294.833	316.44
295.064	283.44
295.295	302.44
295.525	283.44
295.756	313.44
295.987	299.44
296.217	336.44
296.448	322.44
296.679	327.44
296.909	312.44
297.14	325.44
297.37	335.44
297.601	321.44
297.831	325.44
298.062	317.44
298.292	310.44
298.523	294.44
298.753	331.44
298.984	332.44
299.214	317.44
299.445	323.44
299.675	332.44
299.905	338.44
300.136	317.44
300.366	312.44
300.597	336.44
300.827	356.44
301.057	329.44
301.288	323.44
301.518	340.44
301.748	320.44
301.979	337.44
302.209	343.44
302.439	344.44
302.669	334.44
302.9	339.44
303.13	331.44
303.36	317.44
303.59	332.44
303.82	346.44
304.051	356.44
304.281	346.44
304.511	327.44
304.741	329.44
304.971	312.44
305.201	341.44
305.431	338.44
305.661	361.44
305.891	332.44
306.121	312.44
306.352	343.44
306.582	375.44
306.812	339.44
307.042	339.44
307.272	352.44
307.502	331.44
307.731	329.44
307.961	346.44
308.191	353.44
308.421	333.44
308.651	355.44
308.881	360.44
309.111	337.44
309.341	354.44
309.571	337.44
309.8	365.44
310.03	360.44
310.26	357.44
310.49	350.44
310.72	367.44
310.949	381.44
311.179	361.44
311.409	380.44
311.639	394.44
311.868	368.44
312.098	381.44
312.328	381.44
312.557	372.44
312.787	393.44
313.017	388.44
313.246	373.44
313.476	357.44
313.706	362.44
313.935	395.44
314.165	381.44
314.394	377.44
314.624	382.44
314.853	391.44
315.083	373.44
315.312	378.44
315.542	364.44
315.771	366.44
316.001	364.44
316.23	368.44
316.46	377.44
316.689	378.44
316.919	381.44
317.148	398.44
317.377	388.44
317.607	364.44
317.836	389.44
318.065	385.44
318.295	367.44
318.524	373.44
318.753	383.44
318.983	385.44
319.212	381.44
319.441	373.44
319.67	378.44
319.9	386.44
320.129	381.44
320.358	380.44
320.587	371.44
320.816	380.44
321.046	391.44
321.275	386.44
321.504	377.44
321.733	392.44
321.962	407.44
322.191	409.44
322.42	396.44
322.649	403.44
322.878	416.44
323.108	410.44
323.337	425.44
323.566	421.44
323.795	434.44
324.024	477.44
324.253	522.44
324.482	689.44
324.71	955.44
324.939	1327.44
325.168	1112.44
325.397	626.44
325.626	493.44
325.855	447.44
326.084	452.44
326.313	427.44
326.542	441.44
326.77	459.44
326.999	509.44
327.228	653.44
327.457	880.44
327.686	981.44
327.914	692.44
328.143	542.44
328.372	483.44
328.6	482.44
328.829	444.44
329.058	470.44
329.287	490.44
329.515	433.44
329.744	442.44
329.972	436.44
330.201	456.44
330.43	457.44
330.658	486.44
330.887	505.44
331.115	471.44
331.344	443.44
331.572	431.44
331.801	454.44
332.03	450.44
332.258	435.44
332.486	421.44
332.715	433.44
332.943	447.44
333.172	432.44
333.4	458.44
333.629	470.44
333.857	480.44
334.085	477.44
334.314	475.44
334.542	479.44
334.771	496.44
334.999	467.44
335.227	464.44
335.455	456.44
335.684	449.44
335.912	453.44
336.14	446.44
336.369	446.44
336.597	445.44
336.825	443.44
337.053	439.44
337.281	445.44
337.51	444.44
337.738	435.44
337.966	429.44
338.194	423.44
338.422	433.44
338.65	440.44
338.878	424.44
339.106	435.44
339.334	429.44
339.562	412.44
339.79	408.44
340.018	394.44
340.246	411.44
340.474	424.44
340.702	411.44
340.93	414.44
341.158	403.44
341.386	421.44
341.614	421.44
341.842	420.44
342.07	430.44
342.298	403.44
342.526	418.44
342.754	396.44
342.981	407.44
343.209	409.44
343.437	427.44
343.665	414.44
343.893	443.44
344.12	433.44
344.348	447.44
344.576	425.44
344.804	428.44
345.031	417.44
345.259	399.44
345.487	439.44
345.714	422.44
345.942	404.44
346.17	390.44
346.397	393.44
346.625	405.44
346.853	413.44
347.08	419.44
347.308	392.44
347.535	396.44
347.763	391.44
347.99	375.44
348.218	388.44
348.445	384.44
348.673	400.44
348.9	407.44
349.128	387.44
349.355	396.44
349.583	384.44
349.81	397.44
350.037	393.44
350.265	370.44
350.492	385.44
350.72	376.44
350.947	383.44
351.174	384.44
351.402	396.44
351.629	386.44
351.856	403.44
352.083	381.44
352.311	377.44
352.538	417.44
352.765	399.44
352.992	380.44
353.22	385.44
353.447	383.44
353.674	352.44
353.901	368.44
354.128	375.44
354.355	369.44
354.583	362.44
354.81	375.44
355.037	375.44
355.264	361.44
355.491	373.44
355.718	361.44
355.945	368.44
356.172	368.44
356.399	374.44
356.626	366.44
356.853	346.44
357.08	400.44
357.307	358.44
357.534	362.44
357.761	364.44
357.988	370.44
358.215	371.44
358.441	358.44
358.668	361.44
358.895	362.44
359.122	381.44
359.349	374.44
359.576	381.44
359.802	383.44
360.029	411.44
360.256	410.44
360.483	391.44
360.709	387.44
360.936	387.44
361.163	409.44
361.39	395.44
361.616	375.44
361.843	391.44
362.07	361.44
362.296	387.44
362.523	369.44
362.749	388.44
362.976	363.44
363.203	391.44
363.429	359.44
363.656	389.44
363.882	369.44
364.109	376.44
364.335	375.44
364.562	367.44
364.788	363.44
365.015	375.44
365.241	363.44
365.468	361.44
365.694	375.44
365.92	361.44
366.147	373.44
366.373	356.44
366.599	389.44
366.826	361.44
367.052	368.44
367.278	362.44
367.505	371.44
367.731	365.44
367.957	368.44
368.184	370.44
368.41	359.44
368.636	373.44
368.862	360.44
369.089	391.44
369.315	375.44
369.541	377.44
369.767	369.44
369.993	351.44
370.219	362.44
370.445	363.44
370.672	362.44
370.898	362.44
371.124	379.44
371.35	375.44
371.576	381.44
371.802	389.44
372.028	360.44
372.254	365.44
372.48	370.44
372.706	373.44
372.932	385.44
373.158	385.44
373.384	376.44
373.61	381.44
373.835	387.44
374.061	373.44
374.287	374.44
374.513	367.44
374.739	385.44
374.965	384.44
375.191	382.44
375.416	395.44
375.642	399.44
375.868	378.44
376.094	378.44
376.319	367.44
376.545	362.44
376.771	371.44
376.997	382.44
377.222	361.44
377.448	361.44
377.674	374.44
377.899	374.44
378.125	378.44
378.35	361.44
378.576	375.44
378.802	365.44
379.027	380.44
379.253	373.44
379.478	363.44
379.704	369.44
379.929	376.44
380.155	395.44
380.38	378.44
380.606	355.44
380.831	370.44
381.057	369.44
381.282	359.44
381.507	370.44
381.733	373.44
381.958	376.44
382.184	387.44
382.409	371.44
382.634	383.44
382.86	400.44
383.085	380.44
383.31	404.44
383.535	383.44
383.761	399.44
383.986	389.44
384.211	378.44
384.436	389.44
384.662	393.44
384.887	398.44
385.112	394.44
385.337	383.44
385.562	394.44
385.787	411.44
386.013	410.44
386.238	392.44
386.463	417.44
386.688	410.44
386.913	417.44
387.138	406.44
387.363	401.44
387.588	407.44
387.813	405.44
388.038	400.44
388.263	389.44
388.488	390.44
388.713	409.44
388.938	389.44
389.163	388.44
389.387	418.44
389.612	399.44
389.837	390.44
390.062	392.44
390.287	395.44
390.512	409.44
390.736	397.44
390.961	415.44
391.186	391.44
391.411	403.44
391.636	418.44
391.86	399.44
392.085	422.44
392.31	410.44
392.534	403.44
392.759	413.44
392.984	408.44
393.208	398.44
393.433	415.44
393.658	417.44
393.882	410.44
394.107	414.44
394.331	393.44
394.556	391.44
394.78	399.44
395.005	411.44
395.229	416.44
395.454	415.44
395.678	424.44
395.903	443.44
396.127	455.44
396.352	437.44
396.576	419.44
396.801	417.44
397.025	410.44
397.249	409.44
397.474	413.44
397.698	420.44
397.922	455.44
398.147	432.44
398.371	427.44
398.595	449.44
398.82	441.44
399.044	458.44
399.268	496.44
399.492	507.44
399.717	533.44
399.941	559.44
400.165	585.44
400.389	567.44
400.613	508.44
400.837	477.44
401.062	461.44
401.286	445.44
401.51	451.44
401.734	432.44
401.958	443.44
402.182	452.44
402.406	459.44
402.63	466.44
402.854	480.44
403.078	468.44
403.302	457.44
403.526	454.44
403.75	459.44
403.974	429.44
404.198	479.44
404.422	483.44
404.645	465.44
404.869	477.44
405.093	495.44
405.317	519.44
405.541	550.44
405.765	514.44
405.988	473.44
406.212	483.44
406.436	465.44
406.66	487.44
406.883	482.44
407.107	530.44
407.331	532.44
407.555	589.44
407.778	589.44
408.002	550.44
408.226	497.44
408.449	498.44
408.673	510.44
408.896	529.44
409.12	521.44
409.344	504.44
409.567	474.44
409.791	473.44
410.014	463.44
410.238	459.44
410.461	458.44
410.685	464.44
410.908	463.44
411.132	487.44
411.355	523.44
411.578	488.44
411.802	455.44
412.025	457.44
412.249	464.44
412.472	480.44
412.695	523.44
412.919	496.44
413.142	469.44
413.365	441.44
413.589	434.44
413.812	445.44
414.035	430.44
414.258	445.44
414.482	430.44
414.705	462.44
414.928	442.44
415.151	435.44
415.374	426.44
415.597	440.44
415.821	429.44
416.044	432.44
416.267	437.44
416.49	428.44
416.713	445.44
416.936	407.44
417.159	423.44
417.382	432.44
417.605	421.44
417.828	433.44
418.051	440.44
418.274	454.44
418.497	429.44
418.72	432.44
418.943	424.44
419.166	440.44
419.389	476.44
419.611	458.44
419.834	436.44
420.057	463.44
420.28	438.44
420.503	430.44
420.726	446.44
420.948	450.44
421.171	464.44
421.394	488.44
421.617	441.44
421.839	440.44
422.062	441.44
422.285	452.44
422.507	493.44
422.73	550.44
422.953	494.44
423.175	469.44
423.398	484.44
423.621	442.44
423.843	471.44
424.066	456.44
424.288	458.44
424.511	479.44
424.733	525.44
424.956	563.44
425.178	541.44
425.401	529.44
425.623	555.44
425.846	478.44
426.068	467.44
426.291	449.44
426.513	454.44
426.735	449.44
426.958	476.44
427.18	547.44
427.402	625.44
427.625	664.44
427.847	557.44
428.069	521.44
428.292	485.44
428.514	452.44
428.736	430.44
428.958	423.44
429.181	413.44
429.403	413.44
429.625	446.44
429.847	455.44
430.069	484.44
430.292	487.44
430.514	435.44
430.736	430.44
430.958	426.44
431.18	415.44
431.402	414.44
431.624	401.44
431.846	417.44
432.068	399.44
432.29	413.44
432.512	404.44
432.734	430.44
432.956	424.44
433.178	424.44
433.4	427.44
433.622	396.44
433.844	409.44
434.066	415.44
434.287	403.44
434.509	401.44
434.731	425.44
434.953	438.44
435.175	450.44
435.397	456.44
435.618	446.44
435.84	487.44
436.062	529.44
436.284	562.44
436.505	480.44
436.727	458.44
436.949	425.44
437.17	417.44
437.392	423.44
437.614	433.44
437.835	443.44
438.057	489.44
438.278	574.44
438.5	585.44
438.721	607.44
438.943	579.44
439.165	475.44
439.386	433.44
439.608	431.44
439.829	450.44
440.05	458.44
440.272	477.44
440.493	467.44
440.715	425.44
440.936	419.44
441.158	403.44
441.379	422.44
441.6	426.44
441.822	432.44
442.043	472.44
442.264	531.44
442.486	533.44
442.707	484.44
442.928	429.44
443.149	459.44
443.371	461.44
443.592	513.44
443.813	574.44
444.034	603.44
444.255	509.44
444.476	481.44
444.698	454.44
444.919	473.44
445.14	569.44
445.361	519.44
445.582	477.44
445.803	510.44
446.024	575.44
446.245	568.44
446.466	525.44
446.687	464.44
446.908	443.44
447.129	418.44
447.35	420.44
447.571	422.44
447.792	400.44
448.013	391.44
448.234	423.44
448.455	452.44
448.675	516.44
448.896	606.44
449.117	515.44
449.338	517.44
449.559	557.44
449.779	638.44
450	509.44
450.221	439.44
450.442	402.44
450.662	392.44
450.883	386.44
451.104	402.44
451.324	385.44
451.545	395.44
451.766	358.44
451.986	378.44
452.207	381.44
452.428	371.44
452.648	369.44
452.869	381.44
453.089	380.44
453.31	363.44
453.53	379.44
453.751	375.44
453.971	384.44
454.192	375.44
454.412	378.44
454.633	373.44
454.853	350.44
455.073	372.44
455.294	385.44
455.514	429.44
455.734	407.44
455.955	368.44
456.175	367.44
456.395	341.44
456.616	356.44
456.836	343.44
457.056	351.44
457.276	345.44
457.497	364.44
457.717	351.44
457.937	362.44
458.157	364.44
458.377	339.44
458.598	375.44
458.818	415.44
459.038	443.44
459.258	458.44
459.478	417.44
459.698	388.44
459.918	384.44
460.138	390.44
460.358	411.44
460.578	402.44
460.798	396.44
461.018	410.44
461.238	402.44
461.458	443.44
461.678	413.44
461.898	432.44
462.118	423.44
462.338	434.44
462.558	419.44
462.777	443.44
462.997	462.44
463.217	437.44
463.437	472.44
463.657	464.44
463.876	456.44
464.096	451.44
464.316	433.44
464.536	443.44
464.755	447.44
464.975	444.44
465.195	451.44
465.414	464.44
465.634	432.44
465.854	406.44
466.073	405.44
466.293	392.44
466.512	387.44
466.732	394.44
466.951	379.44
467.171	385.44
467.391	390.44
467.61	391.44
467.829	381.44
468.049	393.44
468.268	391.44
468.488	360.44
468.707	357.44
468.927	363.44
469.146	363.44
469.365	382.44
469.585	389.44
469.804	389.44
470.023	400.44
470.243	371.44
470.462	373.44
470.681	402.44
470.901	410.44
471.12	386.44
471.339	401.44
471.558	393.44
471.777	398.44
471.997	389.44
472.216	380.44
472.435	387.44
472.654	404.44
472.873	383.44
473.092	366.44
473.311	395.44
473.53	391.44
473.749	389.44
473.968	422.44
474.187	494.44
474.406	483.44
474.625	414.44
474.844	389.44
475.063	398.44
475.282	396.44
475.501	368.44
475.72	393.44
475.939	377.44
476.158	392.44
476.377	401.44
476.596	411.44
476.814	415.44
477.033	403.44
477.252	409.44
477.471	416.44
477.69	409.44
477.908	424.44
478.127	422.44
478.346	409.44
478.564	428.44
478.783	441.44
479.002	460.44
479.22	437.44
479.439	437.44
479.658	450.44
479.876	421.44
480.095	472.44
480.313	500.44
480.532	491.44
480.751	482.44
480.969	470.44
481.188	509.44
481.406	498.44
481.624	474.44
481.843	466.44
482.061	449.44
482.28	451.44
482.498	451.44
482.717	463.44
482.935	424.44
483.153	450.44
483.372	442.44
483.59	426.44
483.808	453.44
484.027	441.44
484.245	452.44
484.463	454.44
484.681	470.44
484.9	452.44
485.118	459.44
485.336	456.44
485.554	458.44
485.772	454.44
485.99	455.44
486.209	464.44
486.427	449.44
486.645	454.44
486.863	457.44
487.081	457.44
487.299	467.44
487.517	457.44
487.735	450.44
487.953	482.44
488.171	463.44
488.389	462.44
488.607	479.44
488.825	467.44
489.043	464.44
489.261	481.44
489.479	463.44
489.696	473.44
489.914	475.44
490.132	474.44
490.35	501.44
490.568	487.44
490.786	493.44
491.003	483.44
491.221	508.44
491.439	510.44
491.657	501.44
491.874	528.44
492.092	520.44
492.31	538.44
492.527	505.44
492.745	531.44
492.963	529.44
493.18	520.44
493.398	538.44
493.615	533.44
493.833	517.44
494.05	523.44
494.268	533.44
494.485	530.44
494.703	535.44
494.92	550.44
495.138	543.44
495.355	521.44
495.573	535.44
495.79	544.44
496.008	551.44
496.225	549.44
496.442	541.44
496.66	556.44
496.877	566.44
497.094	559.44
497.312	573.44
497.529	561.44
497.746	560.44
497.963	593.44
498.181	599.44
498.398	600.44
498.615	600.44
498.832	606.44
499.049	652.44
499.267	679.44
499.484	681.44
499.701	730.44
499.918	751.44
500.135	805.44
500.352	799.44
500.569	840.44
500.786	855.44
501.003	832.44
501.22	801.44
501.437	786.44
501.654	753.44
501.871	711.44
502.088	687.44
