Data from 1964.PennyLincolnUp.Lamp.En5.5.200Scan.071719.P1._HRD10591_14-05-13-909.txt Node
Date: Thu Jul 18 14:05:13 EDT 2019
User: cochatt
Spectrometer: HR+D1059
Trigger mode: 1
Integration Time (sec): 1.000000E-1
Scans to average: 1
Electric dark correction enabled: true
Nonlinearity correction enabled: false
Boxcar width: 0
XAxis mode: Wavelengths
Number of Pixels in Spectrum: 2048
>>>>>Begin Spectral Data<<<<<
223.165	-2.38
223.4	-2.38
223.635	-2.38
223.869	-20.38
224.104	-21.38
224.338	-8.38
224.573	-20.38
224.808	-5.38
225.042	-13.38
225.277	-5.38
225.511	-6.38
225.746	5.62
225.98	6.62
226.215	14.62
226.449	9.62
226.683	23.62
226.918	30.62
227.152	12.62
227.387	30.62
227.621	39.62
227.856	45.62
228.09	41.62
228.324	43.62
228.559	56.62
228.793	63.62
229.027	101.62
229.262	100.62
229.496	103.62
229.73	111.62
229.964	133.62
230.199	122.62
230.433	99.62
230.667	110.62
230.901	96.62
231.136	110.62
231.37	114.62
231.604	103.62
231.838	112.62
232.072	95.62
232.306	119.62
232.541	115.62
232.775	121.62
233.009	111.62
233.243	116.62
233.477	114.62
233.711	118.62
233.945	115.62
234.179	114.62
234.413	122.62
234.647	119.62
234.881	114.62
235.115	111.62
235.349	110.62
235.583	128.62
235.817	121.62
236.051	122.62
236.285	114.62
236.519	115.62
236.753	134.62
236.987	126.62
237.221	167.62
237.455	192.62
237.689	148.62
237.922	136.62
238.156	122.62
238.39	126.62
238.624	124.62
238.858	122.62
239.091	116.62
239.325	132.62
239.559	130.62
239.793	122.62
240.027	137.62
240.26	134.62
240.494	156.62
240.728	153.62
240.961	144.62
241.195	154.62
241.429	123.62
241.662	146.62
241.896	143.62
242.13	150.62
242.363	134.62
242.597	129.62
242.83	126.62
243.064	148.62
243.298	140.62
243.531	139.62
243.765	155.62
243.998	125.62
244.232	154.62
244.465	146.62
244.699	141.62
244.932	156.62
245.166	140.62
245.399	139.62
245.633	153.62
245.866	136.62
246.099	134.62
246.333	159.62
246.566	162.62
246.8	157.62
247.033	159.62
247.266	164.62
247.5	170.62
247.733	168.62
247.966	169.62
248.2	159.62
248.433	163.62
248.666	176.62
248.899	181.62
249.133	192.62
249.366	204.62
249.599	200.62
249.832	197.62
250.066	191.62
250.299	183.62
250.532	186.62
250.765	191.62
250.998	208.62
251.231	223.62
251.465	206.62
251.698	208.62
251.931	200.62
252.164	205.62
252.397	194.62
252.63	199.62
252.863	205.62
253.096	227.62
253.329	208.62
253.562	222.62
253.795	218.62
254.028	219.62
254.261	229.62
254.494	232.62
254.727	240.62
254.96	270.62
255.193	262.62
255.426	245.62
255.659	229.62
255.892	227.62
256.124	229.62
256.357	221.62
256.59	236.62
256.823	218.62
257.056	218.62
257.289	215.62
257.521	223.62
257.754	214.62
257.987	229.62
258.22	208.62
258.452	207.62
258.685	206.62
258.918	205.62
259.151	214.62
259.383	231.62
259.616	224.62
259.849	239.62
260.081	239.62
260.314	254.62
260.547	258.62
260.779	265.62
261.012	247.62
261.244	242.62
261.477	236.62
261.71	215.62
261.942	222.62
262.175	229.62
262.407	226.62
262.64	213.62
262.872	224.62
263.105	220.62
263.337	214.62
263.57	227.62
263.802	225.62
264.035	216.62
264.267	222.62
264.499	207.62
264.732	236.62
264.964	222.62
265.197	230.62
265.429	236.62
265.661	230.62
265.894	243.62
266.126	240.62
266.358	231.62
266.591	226.62
266.823	223.62
267.055	239.62
267.287	245.62
267.52	244.62
267.752	260.62
267.984	251.62
268.216	237.62
268.448	258.62
268.681	253.62
268.913	257.62
269.145	260.62
269.377	286.62
269.609	292.62
269.841	269.62
270.073	278.62
270.306	306.62
270.538	309.62
270.77	315.62
271.002	306.62
271.234	299.62
271.466	293.62
271.698	312.62
271.93	311.62
272.162	299.62
272.394	308.62
272.626	306.62
272.858	303.62
273.09	297.62
273.322	301.62
273.553	278.62
273.785	272.62
274.017	280.62
274.249	281.62
274.481	280.62
274.713	267.62
274.945	276.62
275.176	293.62
275.408	290.62
275.64	287.62
275.872	280.62
276.104	281.62
276.335	289.62
276.567	279.62
276.799	297.62
277.031	324.62
277.262	326.62
277.494	310.62
277.726	322.62
277.957	302.62
278.189	314.62
278.421	281.62
278.652	291.62
278.884	281.62
279.115	295.62
279.347	289.62
279.579	266.62
279.81	288.62
280.042	290.62
280.273	299.62
280.505	306.62
280.736	304.62
280.968	284.62
281.199	278.62
281.431	287.62
281.662	306.62
281.894	302.62
282.125	301.62
282.356	303.62
282.588	311.62
282.819	320.62
283.051	293.62
283.282	286.62
283.513	317.62
283.745	303.62
283.976	286.62
284.207	313.62
284.439	331.62
284.67	295.62
284.901	314.62
285.132	300.62
285.364	311.62
285.595	314.62
285.826	306.62
286.057	316.62
286.288	318.62
286.52	314.62
286.751	309.62
286.982	328.62
287.213	313.62
287.444	319.62
287.675	322.62
287.906	340.62
288.138	319.62
288.369	339.62
288.6	328.62
288.831	327.62
289.062	331.62
289.293	303.62
289.524	324.62
289.755	326.62
289.986	323.62
290.217	331.62
290.448	328.62
290.679	325.62
290.91	335.62
291.141	327.62
291.371	313.62
291.602	322.62
291.833	312.62
292.064	313.62
292.295	325.62
292.526	317.62
292.757	322.62
292.987	336.62
293.218	327.62
293.449	327.62
293.68	326.62
293.91	319.62
294.141	331.62
294.372	321.62
294.603	336.62
294.833	328.62
295.064	330.62
295.295	331.62
295.525	328.62
295.756	345.62
295.987	348.62
296.217	346.62
296.448	346.62
296.679	335.62
296.909	335.62
297.14	363.62
297.37	324.62
297.601	354.62
297.831	341.62
298.062	354.62
298.292	339.62
298.523	341.62
298.753	338.62
298.984	341.62
299.214	359.62
299.445	350.62
299.675	358.62
299.905	342.62
300.136	348.62
300.366	352.62
300.597	336.62
300.827	351.62
301.057	359.62
301.288	356.62
301.518	368.62
301.748	367.62
301.979	363.62
302.209	377.62
302.439	378.62
302.669	357.62
302.9	367.62
303.13	352.62
303.36	366.62
303.59	360.62
303.82	365.62
304.051	357.62
304.281	371.62
304.511	378.62
304.741	371.62
304.971	351.62
305.201	356.62
305.431	363.62
305.661	357.62
305.891	344.62
306.121	352.62
306.352	372.62
306.582	363.62
306.812	370.62
307.042	364.62
307.272	370.62
307.502	362.62
307.731	370.62
307.961	336.62
308.191	388.62
308.421	360.62
308.651	371.62
308.881	360.62
309.111	378.62
309.341	364.62
309.571	380.62
309.8	398.62
310.03	365.62
310.26	396.62
310.49	383.62
310.72	391.62
310.949	403.62
311.179	405.62
311.409	400.62
311.639	392.62
311.868	401.62
312.098	398.62
312.328	384.62
312.557	398.62
312.787	415.62
313.017	420.62
313.246	411.62
313.476	406.62
313.706	413.62
313.935	406.62
314.165	421.62
314.394	424.62
314.624	405.62
314.853	398.62
315.083	411.62
315.312	427.62
315.542	405.62
315.771	408.62
316.001	398.62
316.23	383.62
316.46	399.62
316.689	391.62
316.919	407.62
317.148	411.62
317.377	416.62
317.607	401.62
317.836	414.62
318.065	419.62
318.295	390.62
318.524	402.62
318.753	422.62
318.983	394.62
319.212	396.62
319.441	403.62
319.67	432.62
319.9	424.62
320.129	403.62
320.358	401.62
320.587	406.62
320.816	409.62
321.046	407.62
321.275	414.62
321.504	409.62
321.733	403.62
321.962	436.62
322.191	431.62
322.42	436.62
322.649	443.62
322.878	468.62
323.108	461.62
323.337	462.62
323.566	449.62
323.795	504.62
324.024	532.62
324.253	596.62
324.482	815.62
324.71	1162.62
324.939	1562.62
325.168	1315.62
325.397	755.62
325.626	564.62
325.855	503.62
326.084	484.62
326.313	477.62
326.542	476.62
326.77	535.62
326.999	583.62
327.228	742.62
327.457	1006.62
327.686	1180.62
327.914	860.62
328.143	605.62
328.372	547.62
328.6	525.62
328.829	500.62
329.058	522.62
329.287	528.62
329.515	524.62
329.744	495.62
329.972	502.62
330.201	515.62
330.43	536.62
330.658	531.62
330.887	548.62
331.115	520.62
331.344	511.62
331.572	481.62
331.801	491.62
332.03	494.62
332.258	491.62
332.486	485.62
332.715	482.62
332.943	479.62
333.172	498.62
333.4	499.62
333.629	515.62
333.857	520.62
334.085	529.62
334.314	546.62
334.542	570.62
334.771	562.62
334.999	539.62
335.227	490.62
335.455	482.62
335.684	505.62
335.912	475.62
336.14	486.62
336.369	486.62
336.597	480.62
336.825	485.62
337.053	488.62
337.281	446.62
337.51	466.62
337.738	480.62
337.966	478.62
338.194	478.62
338.422	486.62
338.65	471.62
338.878	469.62
339.106	481.62
339.334	457.62
339.562	453.62
339.79	470.62
340.018	451.62
340.246	445.62
340.474	450.62
340.702	434.62
340.93	428.62
341.158	437.62
341.386	422.62
341.614	451.62
341.842	452.62
342.07	426.62
342.298	442.62
342.526	410.62
342.754	428.62
342.981	463.62
343.209	446.62
343.437	466.62
343.665	454.62
343.893	467.62
344.12	468.62
344.348	465.62
344.576	458.62
344.804	460.62
345.031	467.62
345.259	461.62
345.487	464.62
345.714	417.62
345.942	439.62
346.17	434.62
346.397	423.62
346.625	432.62
346.853	414.62
347.08	429.62
347.308	412.62
347.535	422.62
347.763	424.62
347.99	436.62
348.218	442.62
348.445	413.62
348.673	409.62
348.9	416.62
349.128	416.62
349.355	411.62
349.583	430.62
349.81	406.62
350.037	414.62
350.265	429.62
350.492	428.62
350.72	416.62
350.947	427.62
351.174	418.62
351.402	418.62
351.629	422.62
351.856	426.62
352.083	444.62
352.311	426.62
352.538	411.62
352.765	429.62
352.992	424.62
353.22	418.62
353.447	417.62
353.674	419.62
353.901	409.62
354.128	417.62
354.355	404.62
354.583	398.62
354.81	410.62
355.037	425.62
355.264	378.62
355.491	383.62
355.718	396.62
355.945	406.62
356.172	407.62
356.399	410.62
356.626	399.62
356.853	399.62
357.08	382.62
357.307	392.62
357.534	379.62
357.761	395.62
357.988	393.62
358.215	391.62
358.441	390.62
358.668	408.62
358.895	411.62
359.122	398.62
359.349	399.62
359.576	400.62
359.802	419.62
360.029	436.62
360.256	419.62
360.483	454.62
360.709	430.62
360.936	403.62
361.163	412.62
361.39	408.62
361.616	412.62
361.843	439.62
362.07	421.62
362.296	395.62
362.523	416.62
362.749	401.62
362.976	408.62
363.203	396.62
363.429	397.62
363.656	397.62
363.882	377.62
364.109	389.62
364.335	390.62
364.562	390.62
364.788	392.62
365.015	386.62
365.241	388.62
365.468	395.62
365.694	403.62
365.92	384.62
366.147	402.62
366.373	408.62
366.599	390.62
366.826	404.62
367.052	381.62
367.278	382.62
367.505	383.62
367.731	408.62
367.957	384.62
368.184	405.62
368.41	408.62
368.636	416.62
368.862	408.62
369.089	414.62
369.315	397.62
369.541	410.62
369.767	406.62
369.993	389.62
370.219	398.62
370.445	394.62
370.672	399.62
370.898	391.62
371.124	387.62
371.35	410.62
371.576	394.62
371.802	399.62
372.028	420.62
372.254	403.62
372.48	399.62
372.706	398.62
372.932	413.62
373.158	421.62
373.384	399.62
373.61	402.62
373.835	414.62
374.061	398.62
374.287	407.62
374.513	407.62
374.739	417.62
374.965	391.62
375.191	430.62
375.416	402.62
375.642	398.62
375.868	414.62
376.094	386.62
376.319	404.62
376.545	409.62
376.771	398.62
376.997	422.62
377.222	392.62
377.448	403.62
377.674	398.62
377.899	398.62
378.125	399.62
378.35	368.62
378.576	397.62
378.802	383.62
379.027	412.62
379.253	384.62
379.478	390.62
379.704	382.62
379.929	404.62
380.155	386.62
380.38	386.62
380.606	404.62
380.831	400.62
381.057	408.62
381.282	398.62
381.507	393.62
381.733	400.62
381.958	390.62
382.184	398.62
382.409	400.62
382.634	401.62
382.86	376.62
383.085	398.62
383.31	410.62
383.535	416.62
383.761	398.62
383.986	424.62
384.211	410.62
384.436	427.62
384.662	435.62
384.887	418.62
385.112	421.62
385.337	427.62
385.562	432.62
385.787	409.62
386.013	423.62
386.238	443.62
386.463	434.62
386.688	424.62
386.913	412.62
387.138	426.62
387.363	418.62
387.588	435.62
387.813	443.62
388.038	439.62
388.263	441.62
388.488	411.62
388.713	421.62
388.938	426.62
389.163	435.62
389.387	438.62
389.612	424.62
389.837	420.62
390.062	426.62
390.287	409.62
390.512	405.62
390.736	417.62
390.961	427.62
391.186	451.62
391.411	421.62
391.636	450.62
391.86	439.62
392.085	455.62
392.31	447.62
392.534	442.62
392.759	414.62
392.984	445.62
393.208	442.62
393.433	445.62
393.658	422.62
393.882	437.62
394.107	436.62
394.331	460.62
394.556	431.62
394.78	430.62
395.005	438.62
395.229	430.62
395.454	444.62
395.678	458.62
395.903	455.62
396.127	459.62
396.352	467.62
396.576	446.62
396.801	461.62
397.025	448.62
397.249	425.62
397.474	470.62
397.698	456.62
397.922	469.62
398.147	490.62
398.371	485.62
398.595	480.62
398.82	477.62
399.044	504.62
399.268	526.62
399.492	551.62
399.717	590.62
399.941	608.62
400.165	623.62
400.389	603.62
400.613	547.62
400.837	527.62
401.062	501.62
401.286	510.62
401.51	495.62
401.734	461.62
401.958	494.62
402.182	492.62
402.406	464.62
402.63	499.62
402.854	502.62
403.078	488.62
403.302	468.62
403.526	488.62
403.75	505.62
403.974	492.62
404.198	500.62
404.422	521.62
404.645	512.62
404.869	511.62
405.093	538.62
405.317	554.62
405.541	583.62
405.765	554.62
405.988	528.62
406.212	545.62
406.436	542.62
406.66	521.62
406.883	541.62
407.107	550.62
407.331	598.62
407.555	638.62
407.778	618.62
408.002	575.62
408.226	568.62
408.449	538.62
408.673	535.62
408.896	568.62
409.12	596.62
409.344	565.62
409.567	506.62
409.791	503.62
410.014	481.62
410.238	475.62
410.461	503.62
410.685	493.62
410.908	476.62
411.132	528.62
411.355	518.62
411.578	516.62
411.802	488.62
412.025	475.62
412.249	526.62
412.472	518.62
412.695	540.62
412.919	528.62
413.142	495.62
413.365	479.62
413.589	486.62
413.812	482.62
414.035	473.62
414.258	470.62
414.482	447.62
414.705	466.62
414.928	473.62
415.151	474.62
415.374	462.62
415.597	445.62
415.821	453.62
416.044	469.62
416.267	454.62
416.49	466.62
416.713	461.62
416.936	473.62
417.159	461.62
417.382	485.62
417.605	459.62
417.828	472.62
418.051	483.62
418.274	462.62
418.497	460.62
418.72	463.62
418.943	460.62
419.166	487.62
419.389	489.62
419.611	504.62
419.834	469.62
420.057	498.62
420.28	481.62
420.503	472.62
420.726	482.62
420.948	489.62
421.171	511.62
421.394	526.62
421.617	478.62
421.839	492.62
422.062	467.62
422.285	493.62
422.507	528.62
422.73	598.62
422.953	564.62
423.175	521.62
423.398	500.62
423.621	480.62
423.843	495.62
424.066	504.62
424.288	503.62
424.511	512.62
424.733	560.62
424.956	604.62
425.178	577.62
425.401	586.62
425.623	604.62
425.846	519.62
426.068	493.62
426.291	500.62
426.513	475.62
426.735	485.62
426.958	524.62
427.18	596.62
427.402	680.62
427.625	733.62
427.847	624.62
428.069	563.62
428.292	500.62
428.514	481.62
428.736	470.62
428.958	472.62
429.181	452.62
429.403	449.62
429.625	461.62
429.847	490.62
430.069	540.62
430.292	525.62
430.514	461.62
430.736	451.62
430.958	459.62
431.18	444.62
431.402	441.62
431.624	445.62
431.846	414.62
432.068	445.62
432.29	420.62
432.512	459.62
432.734	449.62
432.956	438.62
433.178	451.62
433.4	458.62
433.622	433.62
433.844	448.62
434.066	448.62
434.287	440.62
434.509	449.62
434.731	445.62
434.953	446.62
435.175	469.62
435.397	486.62
435.618	494.62
435.84	526.62
436.062	563.62
436.284	630.62
436.505	525.62
436.727	487.62
436.949	457.62
437.17	441.62
437.392	438.62
437.614	463.62
437.835	476.62
438.057	535.62
438.278	610.62
438.5	623.62
438.721	692.62
438.943	636.62
439.165	543.62
439.386	486.62
439.608	486.62
439.829	490.62
440.05	489.62
440.272	538.62
440.493	500.62
440.715	469.62
440.936	461.62
441.158	463.62
441.379	445.62
441.6	482.62
441.822	495.62
442.043	495.62
442.264	581.62
442.486	607.62
442.707	516.62
442.928	489.62
443.149	506.62
443.371	499.62
443.592	544.62
443.813	629.62
444.034	656.62
444.255	554.62
444.476	508.62
444.698	507.62
444.919	498.62
445.14	617.62
445.361	538.62
445.582	547.62
445.803	562.62
446.024	627.62
446.245	621.62
446.466	583.62
446.687	482.62
446.908	474.62
447.129	481.62
447.35	446.62
447.571	452.62
447.792	430.62
448.013	449.62
448.234	458.62
448.455	512.62
448.675	583.62
448.896	639.62
449.117	563.62
449.338	538.62
449.559	620.62
449.779	691.62
450	559.62
450.221	474.62
450.442	439.62
450.662	429.62
450.883	444.62
451.104	422.62
451.324	427.62
451.545	413.62
451.766	413.62
451.986	417.62
452.207	384.62
452.428	391.62
452.648	393.62
452.869	397.62
453.089	401.62
453.31	422.62
453.53	403.62
453.751	400.62
453.971	407.62
454.192	394.62
454.412	392.62
454.633	407.62
454.853	381.62
455.073	386.62
455.294	393.62
455.514	436.62
455.734	444.62
455.955	414.62
456.175	406.62
456.395	394.62
456.616	377.62
456.836	371.62
457.056	379.62
457.276	374.62
457.497	394.62
457.717	377.62
457.937	385.62
458.157	396.62
458.377	410.62
458.598	414.62
458.818	460.62
459.038	489.62
459.258	506.62
459.478	461.62
459.698	445.62
459.918	437.62
460.138	421.62
460.358	438.62
460.578	432.62
460.798	443.62
461.018	459.62
461.238	439.62
461.458	454.62
461.678	424.62
461.898	450.62
462.118	439.62
462.338	468.62
462.558	472.62
462.777	494.62
462.997	488.62
463.217	484.62
463.437	505.62
463.657	498.62
463.876	501.62
464.096	499.62
464.316	472.62
464.536	477.62
464.755	488.62
464.975	466.62
465.195	500.62
465.414	519.62
465.634	477.62
465.854	468.62
466.073	440.62
466.293	440.62
466.512	413.62
466.732	410.62
466.951	421.62
467.171	420.62
467.391	443.62
467.61	407.62
467.829	422.62
468.049	395.62
468.268	416.62
468.488	420.62
468.707	405.62
468.927	411.62
469.146	388.62
469.365	406.62
469.585	412.62
469.804	411.62
470.023	405.62
470.243	416.62
470.462	412.62
470.681	408.62
470.901	426.62
471.12	450.62
471.339	408.62
471.558	422.62
471.777	427.62
471.997	420.62
472.216	434.62
472.435	429.62
472.654	438.62
472.873	414.62
473.092	419.62
473.311	423.62
473.53	423.62
473.749	410.62
473.968	448.62
474.187	511.62
474.406	504.62
474.625	449.62
474.844	424.62
475.063	408.62
475.282	427.62
475.501	418.62
475.72	444.62
475.939	436.62
476.158	412.62
476.377	413.62
476.596	442.62
476.814	417.62
477.033	438.62
477.252	427.62
477.471	452.62
477.69	431.62
477.908	454.62
478.127	454.62
478.346	454.62
478.564	449.62
478.783	451.62
479.002	452.62
479.22	469.62
479.439	483.62
479.658	498.62
479.876	500.62
480.095	484.62
480.313	514.62
480.532	518.62
480.751	502.62
480.969	538.62
481.188	549.62
481.406	564.62
481.624	519.62
481.843	506.62
482.061	475.62
482.28	479.62
482.498	459.62
482.717	475.62
482.935	484.62
483.153	468.62
483.372	462.62
483.59	458.62
483.808	472.62
484.027	486.62
484.245	474.62
484.463	512.62
484.681	485.62
484.9	488.62
485.118	486.62
485.336	487.62
485.554	495.62
485.772	502.62
485.99	495.62
486.209	476.62
486.427	502.62
486.645	498.62
486.863	514.62
487.081	519.62
487.299	523.62
487.517	522.62
487.735	505.62
487.953	514.62
488.171	489.62
488.389	516.62
488.607	506.62
488.825	510.62
489.043	499.62
489.261	496.62
489.479	528.62
489.696	510.62
489.914	526.62
490.132	554.62
490.35	523.62
490.568	527.62
490.786	535.62
491.003	552.62
491.221	536.62
491.439	571.62
491.657	557.62
491.874	566.62
492.092	574.62
492.31	552.62
492.527	547.62
492.745	580.62
492.963	568.62
493.18	585.62
493.398	587.62
493.615	599.62
493.833	586.62
494.05	597.62
494.268	574.62
494.485	594.62
494.703	579.62
494.92	599.62
495.138	598.62
495.355	593.62
495.573	595.62
495.79	589.62
496.008	574.62
496.225	583.62
496.442	582.62
496.66	604.62
496.877	593.62
497.094	611.62
497.312	607.62
497.529	604.62
497.746	620.62
497.963	626.62
498.181	650.62
498.398	666.62
498.615	681.62
498.832	702.62
499.049	691.62
499.267	742.62
499.484	758.62
499.701	797.62
499.918	838.62
500.135	864.62
500.352	923.62
500.569	908.62
500.786	915.62
501.003	916.62
501.22	889.62
501.437	838.62
501.654	795.62
501.871	775.62
502.088	734.62
