Data from 1964.PennyLincolnUp.Lamp.En5.5.200Scan.071719.P1._HRD10591_14-05-53-909.txt Node
Date: Thu Jul 18 14:05:53 EDT 2019
User: cochatt
Spectrometer: HR+D1059
Trigger mode: 1
Integration Time (sec): 1.000000E-1
Scans to average: 1
Electric dark correction enabled: true
Nonlinearity correction enabled: false
Boxcar width: 0
XAxis mode: Wavelengths
Number of Pixels in Spectrum: 2048
>>>>>Begin Spectral Data<<<<<
223.165	-23.88
223.4	-23.88
223.635	-23.88
223.869	-11.88
224.104	-9.88
224.338	-26.88
224.573	-13.88
224.808	-1.88
225.042	-10.88
225.277	-12.88
225.511	-4.88
225.746	6.12
225.98	-3.88
226.215	14.12
226.449	23.12
226.683	22.12
226.918	28.12
227.152	27.12
227.387	30.12
227.621	42.12
227.856	44.12
228.09	38.12
228.324	54.12
228.559	64.12
228.793	70.12
229.027	92.12
229.262	101.12
229.496	114.12
229.73	106.12
229.964	128.12
230.199	123.12
230.433	105.12
230.667	126.12
230.901	110.12
231.136	111.12
231.37	105.12
231.604	108.12
231.838	115.12
232.072	110.12
232.306	103.12
232.541	106.12
232.775	110.12
233.009	115.12
233.243	112.12
233.477	122.12
233.711	114.12
233.945	107.12
234.179	106.12
234.413	114.12
234.647	102.12
234.881	106.12
235.115	109.12
235.349	100.12
235.583	133.12
235.817	121.12
236.051	116.12
236.285	132.12
236.519	130.12
236.753	138.12
236.987	120.12
237.221	160.12
237.455	200.12
237.689	180.12
237.922	139.12
238.156	126.12
238.39	132.12
238.624	134.12
238.858	110.12
239.091	130.12
239.325	114.12
239.559	123.12
239.793	145.12
240.027	134.12
240.26	158.12
240.494	158.12
240.728	128.12
240.961	138.12
241.195	143.12
241.429	135.12
241.662	125.12
241.896	139.12
242.13	145.12
242.363	136.12
242.597	143.12
242.83	144.12
243.064	136.12
243.298	148.12
243.531	133.12
243.765	131.12
243.998	153.12
244.232	144.12
244.465	152.12
244.699	134.12
244.932	156.12
245.166	154.12
245.399	152.12
245.633	163.12
245.866	141.12
246.099	135.12
246.333	164.12
246.566	166.12
246.8	167.12
247.033	158.12
247.266	164.12
247.5	148.12
247.733	175.12
247.966	180.12
248.2	184.12
248.433	180.12
248.666	163.12
248.899	184.12
249.133	182.12
249.366	195.12
249.599	182.12
249.832	186.12
250.066	181.12
250.299	196.12
250.532	196.12
250.765	199.12
250.998	226.12
251.231	215.12
251.465	207.12
251.698	220.12
251.931	210.12
252.164	214.12
252.397	186.12
252.63	199.12
252.863	215.12
253.096	219.12
253.329	223.12
253.562	224.12
253.795	230.12
254.028	215.12
254.261	223.12
254.494	222.12
254.727	259.12
254.96	252.12
255.193	267.12
255.426	259.12
255.659	236.12
255.892	237.12
256.124	235.12
256.357	236.12
256.59	250.12
256.823	224.12
257.056	216.12
257.289	222.12
257.521	218.12
257.754	222.12
257.987	220.12
258.22	214.12
258.452	208.12
258.685	227.12
258.918	218.12
259.151	233.12
259.383	232.12
259.616	230.12
259.849	238.12
260.081	251.12
260.314	264.12
260.547	254.12
260.779	251.12
261.012	239.12
261.244	241.12
261.477	255.12
261.71	240.12
261.942	248.12
262.175	244.12
262.407	237.12
262.64	229.12
262.872	218.12
263.105	244.12
263.337	228.12
263.57	227.12
263.802	232.12
264.035	224.12
264.267	237.12
264.499	237.12
264.732	212.12
264.964	232.12
265.197	237.12
265.429	233.12
265.661	231.12
265.894	232.12
266.126	222.12
266.358	248.12
266.591	247.12
266.823	236.12
267.055	252.12
267.287	245.12
267.52	237.12
267.752	246.12
267.984	230.12
268.216	254.12
268.448	248.12
268.681	261.12
268.913	270.12
269.145	287.12
269.377	301.12
269.609	281.12
269.841	285.12
270.073	290.12
270.306	297.12
270.538	325.12
270.77	327.12
271.002	324.12
271.234	300.12
271.466	311.12
271.698	328.12
271.93	325.12
272.162	317.12
272.394	312.12
272.626	319.12
272.858	303.12
273.09	288.12
273.322	297.12
273.553	290.12
273.785	292.12
274.017	282.12
274.249	279.12
274.481	280.12
274.713	306.12
274.945	300.12
275.176	302.12
275.408	295.12
275.64	306.12
275.872	290.12
276.104	282.12
276.335	296.12
276.567	290.12
276.799	288.12
277.031	324.12
277.262	336.12
277.494	326.12
277.726	320.12
277.957	308.12
278.189	302.12
278.421	306.12
278.652	272.12
278.884	294.12
279.115	296.12
279.347	298.12
279.579	298.12
279.81	296.12
280.042	288.12
280.273	301.12
280.505	292.12
280.736	293.12
280.968	297.12
281.199	306.12
281.431	310.12
281.662	324.12
281.894	303.12
282.125	308.12
282.356	314.12
282.588	323.12
282.819	333.12
283.051	308.12
283.282	303.12
283.513	292.12
283.745	313.12
283.976	317.12
284.207	295.12
284.439	335.12
284.67	321.12
284.901	311.12
285.132	318.12
285.364	329.12
285.595	322.12
285.826	316.12
286.057	330.12
286.288	321.12
286.52	335.12
286.751	313.12
286.982	314.12
287.213	302.12
287.444	301.12
287.675	332.12
287.906	325.12
288.138	330.12
288.369	330.12
288.6	337.12
288.831	335.12
289.062	329.12
289.293	334.12
289.524	335.12
289.755	325.12
289.986	345.12
290.217	337.12
290.448	328.12
290.679	318.12
290.91	319.12
291.141	320.12
291.371	333.12
291.602	332.12
291.833	327.12
292.064	326.12
292.295	327.12
292.526	320.12
292.757	321.12
292.987	330.12
293.218	332.12
293.449	344.12
293.68	330.12
293.91	307.12
294.141	331.12
294.372	342.12
294.603	316.12
294.833	337.12
295.064	347.12
295.295	334.12
295.525	344.12
295.756	342.12
295.987	355.12
296.217	349.12
296.448	357.12
296.679	330.12
296.909	327.12
297.14	328.12
297.37	368.12
297.601	340.12
297.831	354.12
298.062	346.12
298.292	331.12
298.523	356.12
298.753	333.12
298.984	352.12
299.214	372.12
299.445	335.12
299.675	348.12
299.905	354.12
300.136	352.12
300.366	358.12
300.597	365.12
300.827	355.12
301.057	371.12
301.288	382.12
301.518	356.12
301.748	373.12
301.979	354.12
302.209	402.12
302.439	383.12
302.669	371.12
302.9	376.12
303.13	365.12
303.36	380.12
303.59	366.12
303.82	384.12
304.051	366.12
304.281	379.12
304.511	364.12
304.741	365.12
304.971	383.12
305.201	358.12
305.431	365.12
305.661	393.12
305.891	354.12
306.121	370.12
306.352	364.12
306.582	377.12
306.812	359.12
307.042	375.12
307.272	366.12
307.502	370.12
307.731	380.12
307.961	365.12
308.191	384.12
308.421	379.12
308.651	373.12
308.881	371.12
309.111	390.12
309.341	400.12
309.571	384.12
309.8	386.12
310.03	388.12
310.26	393.12
310.49	383.12
310.72	427.12
310.949	405.12
311.179	422.12
311.409	402.12
311.639	401.12
311.868	411.12
312.098	416.12
312.328	397.12
312.557	420.12
312.787	428.12
313.017	420.12
313.246	430.12
313.476	400.12
313.706	412.12
313.935	414.12
314.165	438.12
314.394	439.12
314.624	415.12
314.853	404.12
315.083	397.12
315.312	408.12
315.542	398.12
315.771	418.12
316.001	401.12
316.23	411.12
316.46	408.12
316.689	402.12
316.919	418.12
317.148	415.12
317.377	422.12
317.607	406.12
317.836	407.12
318.065	410.12
318.295	409.12
318.524	415.12
318.753	408.12
318.983	410.12
319.212	428.12
319.441	408.12
319.67	429.12
319.9	427.12
320.129	414.12
320.358	441.12
320.587	399.12
320.816	418.12
321.046	430.12
321.275	424.12
321.504	413.12
321.733	407.12
321.962	429.12
322.191	424.12
322.42	453.12
322.649	450.12
322.878	471.12
323.108	479.12
323.337	474.12
323.566	467.12
323.795	516.12
324.024	554.12
324.253	647.12
324.482	893.12
324.71	1266.12
324.939	1749.12
325.168	1462.12
325.397	771.12
325.626	574.12
325.855	527.12
326.084	496.12
326.313	486.12
326.542	498.12
326.77	534.12
326.999	628.12
327.228	786.12
327.457	1139.12
327.686	1308.12
327.914	895.12
328.143	636.12
328.372	566.12
328.6	544.12
328.829	536.12
329.058	544.12
329.287	549.12
329.515	501.12
329.744	516.12
329.972	506.12
330.201	537.12
330.43	565.12
330.658	559.12
330.887	580.12
331.115	568.12
331.344	510.12
331.572	493.12
331.801	516.12
332.03	510.12
332.258	494.12
332.486	490.12
332.715	484.12
332.943	501.12
333.172	468.12
333.4	529.12
333.629	518.12
333.857	526.12
334.085	529.12
334.314	553.12
334.542	590.12
334.771	578.12
334.999	570.12
335.227	513.12
335.455	516.12
335.684	510.12
335.912	493.12
336.14	507.12
336.369	509.12
336.597	505.12
336.825	503.12
337.053	512.12
337.281	475.12
337.51	469.12
337.738	474.12
337.966	463.12
338.194	471.12
338.422	474.12
338.65	468.12
338.878	470.12
339.106	472.12
339.334	468.12
339.562	447.12
339.79	455.12
340.018	454.12
340.246	461.12
340.474	463.12
340.702	453.12
340.93	439.12
341.158	435.12
341.386	467.12
341.614	455.12
341.842	452.12
342.07	462.12
342.298	447.12
342.526	428.12
342.754	451.12
342.981	436.12
343.209	447.12
343.437	467.12
343.665	474.12
343.893	488.12
344.12	479.12
344.348	478.12
344.576	468.12
344.804	478.12
345.031	478.12
345.259	468.12
345.487	467.12
345.714	448.12
345.942	454.12
346.17	447.12
346.397	438.12
346.625	451.12
346.853	418.12
347.08	427.12
347.308	446.12
347.535	447.12
347.763	438.12
347.99	433.12
348.218	438.12
348.445	430.12
348.673	436.12
348.9	418.12
349.128	421.12
349.355	421.12
349.583	412.12
349.81	427.12
350.037	438.12
350.265	426.12
350.492	423.12
350.72	448.12
350.947	415.12
351.174	422.12
351.402	435.12
351.629	426.12
351.856	446.12
352.083	413.12
352.311	437.12
352.538	446.12
352.765	436.12
352.992	437.12
353.22	409.12
353.447	420.12
353.674	408.12
353.901	405.12
354.128	413.12
354.355	399.12
354.583	393.12
354.81	421.12
355.037	406.12
355.264	422.12
355.491	425.12
355.718	399.12
355.945	405.12
356.172	418.12
356.399	420.12
356.626	422.12
356.853	412.12
357.08	408.12
357.307	384.12
357.534	414.12
357.761	415.12
357.988	406.12
358.215	391.12
358.441	404.12
358.668	398.12
358.895	408.12
359.122	419.12
359.349	403.12
359.576	428.12
359.802	424.12
360.029	458.12
360.256	452.12
360.483	439.12
360.709	426.12
360.936	425.12
361.163	411.12
361.39	415.12
361.616	422.12
361.843	416.12
362.07	420.12
362.296	406.12
362.523	420.12
362.749	410.12
362.976	418.12
363.203	406.12
363.429	400.12
363.656	415.12
363.882	414.12
364.109	390.12
364.335	395.12
364.562	407.12
364.788	398.12
365.015	411.12
365.241	412.12
365.468	384.12
365.694	418.12
365.92	394.12
366.147	394.12
366.373	386.12
366.599	410.12
366.826	416.12
367.052	408.12
367.278	378.12
367.505	390.12
367.731	412.12
367.957	388.12
368.184	404.12
368.41	406.12
368.636	397.12
368.862	417.12
369.089	421.12
369.315	397.12
369.541	406.12
369.767	397.12
369.993	398.12
370.219	384.12
370.445	397.12
370.672	418.12
370.898	398.12
371.124	410.12
371.35	392.12
371.576	393.12
371.802	412.12
372.028	423.12
372.254	401.12
372.48	422.12
372.706	412.12
372.932	405.12
373.158	426.12
373.384	394.12
373.61	397.12
373.835	412.12
374.061	400.12
374.287	392.12
374.513	409.12
374.739	424.12
374.965	446.12
375.191	401.12
375.416	425.12
375.642	409.12
375.868	420.12
376.094	407.12
376.319	397.12
376.545	378.12
376.771	400.12
376.997	406.12
377.222	410.12
377.448	390.12
377.674	402.12
377.899	394.12
378.125	398.12
378.35	374.12
378.576	380.12
378.802	397.12
379.027	397.12
379.253	404.12
379.478	421.12
379.704	395.12
379.929	413.12
380.155	410.12
380.38	397.12
380.606	398.12
380.831	392.12
381.057	405.12
381.282	385.12
381.507	408.12
381.733	417.12
381.958	410.12
382.184	400.12
382.409	406.12
382.634	415.12
382.86	394.12
383.085	404.12
383.31	429.12
383.535	428.12
383.761	419.12
383.986	411.12
384.211	421.12
384.436	411.12
384.662	422.12
384.887	420.12
385.112	417.12
385.337	435.12
385.562	415.12
385.787	430.12
386.013	458.12
386.238	445.12
386.463	442.12
386.688	451.12
386.913	414.12
387.138	435.12
387.363	421.12
387.588	437.12
387.813	436.12
388.038	444.12
388.263	441.12
388.488	435.12
388.713	450.12
388.938	412.12
389.163	467.12
389.387	427.12
389.612	423.12
389.837	430.12
390.062	438.12
390.287	436.12
390.512	437.12
390.736	422.12
390.961	452.12
391.186	431.12
391.411	431.12
391.636	449.12
391.86	448.12
392.085	468.12
392.31	462.12
392.534	450.12
392.759	462.12
392.984	454.12
393.208	455.12
393.433	462.12
393.658	447.12
393.882	423.12
394.107	436.12
394.331	426.12
394.556	434.12
394.78	458.12
395.005	441.12
395.229	426.12
395.454	447.12
395.678	454.12
395.903	459.12
396.127	471.12
396.352	485.12
396.576	461.12
396.801	440.12
397.025	460.12
397.249	448.12
397.474	469.12
397.698	468.12
397.922	478.12
398.147	503.12
398.371	484.12
398.595	476.12
398.82	485.12
399.044	499.12
399.268	536.12
399.492	566.12
399.717	604.12
399.941	626.12
400.165	620.12
400.389	596.12
400.613	548.12
400.837	523.12
401.062	514.12
401.286	490.12
401.51	499.12
401.734	502.12
401.958	507.12
402.182	494.12
402.406	488.12
402.63	507.12
402.854	498.12
403.078	524.12
403.302	528.12
403.526	509.12
403.75	534.12
403.974	517.12
404.198	474.12
404.422	507.12
404.645	494.12
404.869	527.12
405.093	561.12
405.317	588.12
405.541	595.12
405.765	566.12
405.988	536.12
406.212	519.12
406.436	548.12
406.66	544.12
406.883	574.12
407.107	574.12
407.331	608.12
407.555	649.12
407.778	676.12
408.002	622.12
408.226	546.12
408.449	559.12
408.673	538.12
408.896	579.12
409.12	614.12
409.344	573.12
409.567	530.12
409.791	505.12
410.014	529.12
410.238	506.12
410.461	511.12
410.685	505.12
410.908	514.12
411.132	542.12
411.355	557.12
411.578	553.12
411.802	524.12
412.025	495.12
412.249	514.12
412.472	542.12
412.695	556.12
412.919	551.12
413.142	525.12
413.365	501.12
413.589	506.12
413.812	490.12
414.035	470.12
414.258	483.12
414.482	472.12
414.705	478.12
414.928	480.12
415.151	483.12
415.374	468.12
415.597	456.12
415.821	473.12
416.044	472.12
416.267	471.12
416.49	462.12
416.713	446.12
416.936	471.12
417.159	458.12
417.382	472.12
417.605	458.12
417.828	458.12
418.051	474.12
418.274	484.12
418.497	472.12
418.72	471.12
418.943	460.12
419.166	491.12
419.389	524.12
419.611	505.12
419.834	508.12
420.057	499.12
420.28	518.12
420.503	494.12
420.726	484.12
420.948	503.12
421.171	536.12
421.394	565.12
421.617	489.12
421.839	474.12
422.062	488.12
422.285	517.12
422.507	551.12
422.73	604.12
422.953	575.12
423.175	524.12
423.398	501.12
423.621	502.12
423.843	507.12
424.066	499.12
424.288	521.12
424.511	539.12
424.733	565.12
424.956	634.12
425.178	575.12
425.401	613.12
425.623	589.12
425.846	541.12
426.068	512.12
426.291	497.12
426.513	495.12
426.735	505.12
426.958	519.12
427.18	592.12
427.402	726.12
427.625	750.12
427.847	655.12
428.069	592.12
428.292	510.12
428.514	490.12
428.736	477.12
428.958	460.12
429.181	448.12
429.403	463.12
429.625	465.12
429.847	506.12
430.069	532.12
430.292	540.12
430.514	473.12
430.736	475.12
430.958	470.12
431.18	428.12
431.402	454.12
431.624	435.12
431.846	454.12
432.068	444.12
432.29	441.12
432.512	449.12
432.734	469.12
432.956	463.12
433.178	446.12
433.4	459.12
433.622	440.12
433.844	450.12
434.066	476.12
434.287	455.12
434.509	471.12
434.731	455.12
434.953	490.12
435.175	484.12
435.397	501.12
435.618	501.12
435.84	566.12
436.062	606.12
436.284	641.12
436.505	554.12
436.727	488.12
436.949	460.12
437.17	460.12
437.392	468.12
437.614	462.12
437.835	488.12
438.057	541.12
438.278	621.12
438.5	664.12
438.721	688.12
438.943	652.12
439.165	544.12
439.386	476.12
439.608	487.12
439.829	501.12
440.05	529.12
440.272	540.12
440.493	516.12
440.715	477.12
440.936	478.12
441.158	476.12
441.379	459.12
441.6	510.12
441.822	495.12
442.043	528.12
442.264	600.12
442.486	620.12
442.707	550.12
442.928	529.12
443.149	516.12
443.371	531.12
443.592	568.12
443.813	625.12
444.034	698.12
444.255	585.12
444.476	523.12
444.698	504.12
444.919	543.12
445.14	646.12
445.361	576.12
445.582	561.12
445.803	592.12
446.024	649.12
446.245	638.12
446.466	624.12
446.687	532.12
446.908	500.12
447.129	458.12
447.35	440.12
447.571	439.12
447.792	450.12
448.013	436.12
448.234	459.12
448.455	525.12
448.675	590.12
448.896	674.12
449.117	602.12
449.338	542.12
449.559	647.12
449.779	706.12
450	576.12
450.221	488.12
450.442	451.12
450.662	427.12
450.883	438.12
451.104	450.12
451.324	429.12
451.545	418.12
451.766	419.12
451.986	421.12
452.207	392.12
452.428	398.12
452.648	417.12
452.869	428.12
453.089	422.12
453.31	404.12
453.53	410.12
453.751	415.12
453.971	416.12
454.192	420.12
454.412	394.12
454.633	422.12
454.853	394.12
455.073	402.12
455.294	435.12
455.514	473.12
455.734	467.12
455.955	429.12
456.175	384.12
456.395	392.12
456.616	391.12
456.836	384.12
457.056	398.12
457.276	359.12
457.497	378.12
457.717	404.12
457.937	376.12
458.157	402.12
458.377	405.12
458.598	415.12
458.818	447.12
459.038	475.12
459.258	511.12
459.478	482.12
459.698	446.12
459.918	465.12
460.138	452.12
460.358	472.12
460.578	437.12
460.798	428.12
461.018	478.12
461.238	454.12
461.458	453.12
461.678	434.12
461.898	472.12
462.118	458.12
462.338	469.12
462.558	489.12
462.777	487.12
462.997	478.12
463.217	528.12
463.437	506.12
463.657	512.12
463.876	509.12
464.096	516.12
464.316	484.12
464.536	491.12
464.755	487.12
464.975	482.12
465.195	498.12
465.414	519.12
465.634	467.12
465.854	459.12
466.073	423.12
466.293	433.12
466.512	426.12
466.732	427.12
466.951	427.12
467.171	447.12
467.391	420.12
467.61	416.12
467.829	424.12
468.049	426.12
468.268	405.12
468.488	409.12
468.707	422.12
468.927	414.12
469.146	404.12
469.365	409.12
469.585	397.12
469.804	410.12
470.023	419.12
470.243	424.12
470.462	417.12
470.681	452.12
470.901	453.12
471.12	424.12
471.339	441.12
471.558	432.12
471.777	415.12
471.997	424.12
472.216	402.12
472.435	433.12
472.654	444.12
472.873	429.12
473.092	425.12
473.311	413.12
473.53	421.12
473.749	422.12
473.968	462.12
474.187	550.12
474.406	564.12
474.625	463.12
474.844	422.12
475.063	418.12
475.282	415.12
475.501	439.12
475.72	447.12
475.939	403.12
476.158	438.12
476.377	430.12
476.596	433.12
476.814	446.12
477.033	463.12
477.252	468.12
477.471	468.12
477.69	469.12
477.908	459.12
478.127	472.12
478.346	488.12
478.564	487.12
478.783	476.12
479.002	469.12
479.22	474.12
479.439	498.12
479.658	495.12
479.876	514.12
480.095	500.12
480.313	526.12
480.532	528.12
480.751	523.12
480.969	499.12
481.188	570.12
481.406	593.12
481.624	523.12
481.843	502.12
482.061	508.12
482.28	495.12
482.498	495.12
482.717	479.12
482.935	484.12
483.153	502.12
483.372	484.12
483.59	476.12
483.808	494.12
484.027	493.12
484.245	497.12
484.463	494.12
484.681	505.12
484.9	509.12
485.118	516.12
485.336	501.12
485.554	494.12
485.772	514.12
485.99	510.12
486.209	503.12
486.427	526.12
486.645	500.12
486.863	532.12
487.081	510.12
487.299	507.12
487.517	503.12
487.735	524.12
487.953	533.12
488.171	520.12
488.389	534.12
488.607	507.12
488.825	523.12
489.043	524.12
489.261	519.12
489.479	494.12
489.696	530.12
489.914	502.12
490.132	546.12
490.35	543.12
490.568	526.12
490.786	533.12
491.003	543.12
491.221	564.12
491.439	579.12
491.657	566.12
491.874	559.12
492.092	584.12
492.31	581.12
492.527	587.12
492.745	599.12
492.963	607.12
493.18	610.12
493.398	608.12
493.615	595.12
493.833	568.12
494.05	607.12
494.268	602.12
494.485	596.12
494.703	607.12
494.92	592.12
495.138	607.12
495.355	600.12
495.573	614.12
495.79	611.12
496.008	605.12
496.225	603.12
496.442	612.12
496.66	602.12
496.877	598.12
497.094	636.12
497.312	614.12
497.529	606.12
497.746	617.12
497.963	627.12
498.181	651.12
498.398	646.12
498.615	686.12
498.832	693.12
499.049	717.12
499.267	756.12
499.484	772.12
499.701	798.12
499.918	843.12
500.135	887.12
500.352	950.12
500.569	913.12
500.786	949.12
501.003	931.12
501.22	878.12
501.437	851.12
501.654	808.12
501.871	774.12
