Data from 1964.PennyLincolnUp.Lamp.En5.5.200Scan.071719.P1._HRD10591_14-05-35-910.txt Node
Date: Thu Jul 18 14:05:35 EDT 2019
User: cochatt
Spectrometer: HR+D1059
Trigger mode: 1
Integration Time (sec): 1.000000E-1
Scans to average: 1
Electric dark correction enabled: true
Nonlinearity correction enabled: false
Boxcar width: 0
XAxis mode: Wavelengths
Number of Pixels in Spectrum: 2048
>>>>>Begin Spectral Data<<<<<
223.165	-20.25
223.4	-20.25
223.635	-20.25
223.869	-13.25
224.104	-17.25
224.338	-21.25
224.573	-6.25
224.808	-4.25
225.042	-19.25
225.277	-8.25
225.511	2.75
225.746	8.75
225.98	12.75
226.215	14.75
226.449	16.75
226.683	11.75
226.918	17.75
227.152	24.75
227.387	40.75
227.621	43.75
227.856	38.75
228.09	57.75
228.324	55.75
228.559	45.75
228.793	58.75
229.027	88.75
229.262	105.75
229.496	110.75
229.73	114.75
229.964	148.75
230.199	125.75
230.433	106.75
230.667	98.75
230.901	101.75
231.136	109.75
231.37	123.75
231.604	119.75
231.838	101.75
232.072	118.75
232.306	118.75
232.541	121.75
232.775	116.75
233.009	108.75
233.243	118.75
233.477	132.75
233.711	109.75
233.945	115.75
234.179	116.75
234.413	115.75
234.647	112.75
234.881	112.75
235.115	118.75
235.349	130.75
235.583	131.75
235.817	103.75
236.051	121.75
236.285	135.75
236.519	131.75
236.753	130.75
236.987	145.75
237.221	164.75
237.455	210.75
237.689	186.75
237.922	140.75
238.156	138.75
238.39	116.75
238.624	128.75
238.858	130.75
239.091	126.75
239.325	128.75
239.559	147.75
239.793	130.75
240.027	141.75
240.26	133.75
240.494	152.75
240.728	137.75
240.961	144.75
241.195	141.75
241.429	126.75
241.662	131.75
241.896	138.75
242.13	136.75
242.363	141.75
242.597	131.75
242.83	140.75
243.064	136.75
243.298	148.75
243.531	146.75
243.765	141.75
243.998	144.75
244.232	130.75
244.465	144.75
244.699	142.75
244.932	138.75
245.166	140.75
245.399	152.75
245.633	162.75
245.866	158.75
246.099	156.75
246.333	148.75
246.566	158.75
246.8	173.75
247.033	156.75
247.266	157.75
247.5	168.75
247.733	166.75
247.966	168.75
248.2	191.75
248.433	171.75
248.666	163.75
248.899	187.75
249.133	182.75
249.366	213.75
249.599	208.75
249.832	184.75
250.066	187.75
250.299	188.75
250.532	190.75
250.765	203.75
250.998	227.75
251.231	218.75
251.465	212.75
251.698	198.75
251.931	194.75
252.164	192.75
252.397	193.75
252.63	194.75
252.863	208.75
253.096	214.75
253.329	230.75
253.562	206.75
253.795	219.75
254.028	223.75
254.261	228.75
254.494	233.75
254.727	276.75
254.96	278.75
255.193	262.75
255.426	249.75
255.659	232.75
255.892	237.75
256.124	252.75
256.357	245.75
256.59	226.75
256.823	215.75
257.056	214.75
257.289	216.75
257.521	232.75
257.754	211.75
257.987	217.75
258.22	227.75
258.452	208.75
258.685	219.75
258.918	221.75
259.151	216.75
259.383	234.75
259.616	217.75
259.849	237.75
260.081	230.75
260.314	222.75
260.547	254.75
260.779	263.75
261.012	252.75
261.244	236.75
261.477	245.75
261.71	234.75
261.942	242.75
262.175	238.75
262.407	231.75
262.64	221.75
262.872	229.75
263.105	217.75
263.337	239.75
263.57	226.75
263.802	229.75
264.035	229.75
264.267	235.75
264.499	225.75
264.732	231.75
264.964	228.75
265.197	223.75
265.429	235.75
265.661	235.75
265.894	234.75
266.126	236.75
266.358	234.75
266.591	230.75
266.823	253.75
267.055	239.75
267.287	233.75
267.52	230.75
267.752	241.75
267.984	250.75
268.216	246.75
268.448	245.75
268.681	232.75
268.913	267.75
269.145	266.75
269.377	290.75
269.609	307.75
269.841	278.75
270.073	283.75
270.306	311.75
270.538	312.75
270.77	322.75
271.002	315.75
271.234	310.75
271.466	320.75
271.698	325.75
271.93	326.75
272.162	329.75
272.394	302.75
272.626	294.75
272.858	298.75
273.09	299.75
273.322	293.75
273.553	273.75
273.785	286.75
274.017	286.75
274.249	299.75
274.481	281.75
274.713	282.75
274.945	286.75
275.176	279.75
275.408	288.75
275.64	278.75
275.872	264.75
276.104	278.75
276.335	284.75
276.567	283.75
276.799	318.75
277.031	332.75
277.262	323.75
277.494	321.75
277.726	332.75
277.957	316.75
278.189	311.75
278.421	285.75
278.652	318.75
278.884	294.75
279.115	300.75
279.347	296.75
279.579	307.75
279.81	295.75
280.042	313.75
280.273	306.75
280.505	294.75
280.736	314.75
280.968	291.75
281.199	299.75
281.431	295.75
281.662	300.75
281.894	301.75
282.125	299.75
282.356	297.75
282.588	326.75
282.819	327.75
283.051	283.75
283.282	298.75
283.513	311.75
283.745	310.75
283.976	319.75
284.207	306.75
284.439	333.75
284.67	320.75
284.901	303.75
285.132	302.75
285.364	296.75
285.595	313.75
285.826	296.75
286.057	326.75
286.288	324.75
286.52	301.75
286.751	310.75
286.982	294.75
287.213	324.75
287.444	320.75
287.675	336.75
287.906	335.75
288.138	334.75
288.369	334.75
288.6	339.75
288.831	335.75
289.062	338.75
289.293	333.75
289.524	323.75
289.755	331.75
289.986	339.75
290.217	319.75
290.448	322.75
290.679	318.75
290.91	309.75
291.141	324.75
291.371	316.75
291.602	334.75
291.833	320.75
292.064	341.75
292.295	339.75
292.526	322.75
292.757	311.75
292.987	335.75
293.218	334.75
293.449	339.75
293.68	345.75
293.91	317.75
294.141	326.75
294.372	325.75
294.603	332.75
294.833	329.75
295.064	334.75
295.295	316.75
295.525	339.75
295.756	338.75
295.987	344.75
296.217	347.75
296.448	354.75
296.679	342.75
296.909	341.75
297.14	335.75
297.37	350.75
297.601	331.75
297.831	353.75
298.062	349.75
298.292	334.75
298.523	364.75
298.753	354.75
298.984	350.75
299.214	334.75
299.445	352.75
299.675	350.75
299.905	339.75
300.136	367.75
300.366	367.75
300.597	374.75
300.827	365.75
301.057	351.75
301.288	364.75
301.518	366.75
301.748	361.75
301.979	360.75
302.209	384.75
302.439	380.75
302.669	376.75
302.9	380.75
303.13	370.75
303.36	375.75
303.59	384.75
303.82	379.75
304.051	371.75
304.281	373.75
304.511	371.75
304.741	361.75
304.971	359.75
305.201	359.75
305.431	362.75
305.661	367.75
305.891	360.75
306.121	390.75
306.352	374.75
306.582	365.75
306.812	362.75
307.042	360.75
307.272	364.75
307.502	352.75
307.731	361.75
307.961	363.75
308.191	375.75
308.421	354.75
308.651	372.75
308.881	406.75
309.111	372.75
309.341	384.75
309.571	378.75
309.8	396.75
310.03	387.75
310.26	391.75
310.49	379.75
310.72	410.75
310.949	409.75
311.179	401.75
311.409	395.75
311.639	398.75
311.868	410.75
312.098	424.75
312.328	410.75
312.557	416.75
312.787	424.75
313.017	432.75
313.246	407.75
313.476	389.75
313.706	417.75
313.935	412.75
314.165	428.75
314.394	396.75
314.624	444.75
314.853	415.75
315.083	413.75
315.312	409.75
315.542	420.75
315.771	395.75
316.001	391.75
316.23	400.75
316.46	399.75
316.689	396.75
316.919	409.75
317.148	420.75
317.377	412.75
317.607	421.75
317.836	410.75
318.065	427.75
318.295	418.75
318.524	408.75
318.753	415.75
318.983	409.75
319.212	399.75
319.441	404.75
319.67	413.75
319.9	406.75
320.129	420.75
320.358	422.75
320.587	405.75
320.816	417.75
321.046	428.75
321.275	420.75
321.504	409.75
321.733	420.75
321.962	427.75
322.191	449.75
322.42	439.75
322.649	432.75
322.878	450.75
323.108	426.75
323.337	483.75
323.566	494.75
323.795	500.75
324.024	540.75
324.253	653.75
324.482	844.75
324.71	1252.75
324.939	1663.75
325.168	1430.75
325.397	749.75
325.626	558.75
325.855	520.75
326.084	471.75
326.313	492.75
326.542	495.75
326.77	526.75
326.999	613.75
327.228	762.75
327.457	1119.75
327.686	1251.75
327.914	854.75
328.143	618.75
328.372	557.75
328.6	544.75
328.829	530.75
329.058	542.75
329.287	533.75
329.515	535.75
329.744	523.75
329.972	485.75
330.201	525.75
330.43	549.75
330.658	577.75
330.887	592.75
331.115	575.75
331.344	535.75
331.572	489.75
331.801	495.75
332.03	486.75
332.258	478.75
332.486	500.75
332.715	482.75
332.943	480.75
333.172	498.75
333.4	492.75
333.629	520.75
333.857	527.75
334.085	519.75
334.314	536.75
334.542	569.75
334.771	549.75
334.999	525.75
335.227	526.75
335.455	482.75
335.684	490.75
335.912	483.75
336.14	502.75
336.369	484.75
336.597	477.75
336.825	490.75
337.053	498.75
337.281	469.75
337.51	459.75
337.738	462.75
337.966	467.75
338.194	466.75
338.422	482.75
338.65	483.75
338.878	459.75
339.106	447.75
339.334	459.75
339.562	460.75
339.79	435.75
340.018	455.75
340.246	446.75
340.474	448.75
340.702	448.75
340.93	458.75
341.158	451.75
341.386	461.75
341.614	446.75
341.842	435.75
342.07	472.75
342.298	443.75
342.526	450.75
342.754	438.75
342.981	432.75
343.209	455.75
343.437	467.75
343.665	475.75
343.893	489.75
344.12	482.75
344.348	486.75
344.576	461.75
344.804	475.75
345.031	488.75
345.259	487.75
345.487	462.75
345.714	467.75
345.942	436.75
346.17	439.75
346.397	430.75
346.625	411.75
346.853	430.75
347.08	435.75
347.308	429.75
347.535	410.75
347.763	434.75
347.99	442.75
348.218	422.75
348.445	452.75
348.673	430.75
348.9	418.75
349.128	424.75
349.355	427.75
349.583	397.75
349.81	416.75
350.037	410.75
350.265	415.75
350.492	419.75
350.72	406.75
350.947	405.75
351.174	436.75
351.402	435.75
351.629	429.75
351.856	425.75
352.083	417.75
352.311	431.75
352.538	426.75
352.765	454.75
352.992	446.75
353.22	408.75
353.447	427.75
353.674	410.75
353.901	398.75
354.128	401.75
354.355	396.75
354.583	400.75
354.81	396.75
355.037	398.75
355.264	405.75
355.491	390.75
355.718	418.75
355.945	422.75
356.172	429.75
356.399	423.75
356.626	426.75
356.853	400.75
357.08	417.75
357.307	408.75
357.534	402.75
357.761	382.75
357.988	400.75
358.215	396.75
358.441	404.75
358.668	381.75
358.895	405.75
359.122	402.75
359.349	406.75
359.576	416.75
359.802	440.75
360.029	446.75
360.256	459.75
360.483	438.75
360.709	426.75
360.936	415.75
361.163	419.75
361.39	383.75
361.616	428.75
361.843	395.75
362.07	404.75
362.296	426.75
362.523	419.75
362.749	404.75
362.976	416.75
363.203	408.75
363.429	410.75
363.656	398.75
363.882	404.75
364.109	407.75
364.335	417.75
364.562	408.75
364.788	406.75
365.015	384.75
365.241	410.75
365.468	403.75
365.694	392.75
365.92	379.75
366.147	422.75
366.373	404.75
366.599	374.75
366.826	383.75
367.052	383.75
367.278	387.75
367.505	394.75
367.731	405.75
367.957	396.75
368.184	390.75
368.41	396.75
368.636	396.75
368.862	421.75
369.089	416.75
369.315	418.75
369.541	408.75
369.767	366.75
369.993	394.75
370.219	418.75
370.445	387.75
370.672	427.75
370.898	400.75
371.124	399.75
371.35	395.75
371.576	401.75
371.802	408.75
372.028	418.75
372.254	392.75
372.48	405.75
372.706	415.75
372.932	412.75
373.158	408.75
373.384	407.75
373.61	401.75
373.835	407.75
374.061	422.75
374.287	394.75
374.513	408.75
374.739	410.75
374.965	431.75
375.191	432.75
375.416	416.75
375.642	400.75
375.868	414.75
376.094	431.75
376.319	407.75
376.545	400.75
376.771	410.75
376.997	391.75
377.222	404.75
377.448	386.75
377.674	411.75
377.899	398.75
378.125	395.75
378.35	404.75
378.576	381.75
378.802	397.75
379.027	392.75
379.253	407.75
379.478	390.75
379.704	373.75
379.929	397.75
380.155	386.75
380.38	377.75
380.606	400.75
380.831	407.75
381.057	407.75
381.282	390.75
381.507	407.75
381.733	416.75
381.958	388.75
382.184	396.75
382.409	413.75
382.634	435.75
382.86	401.75
383.085	408.75
383.31	422.75
383.535	434.75
383.761	415.75
383.986	423.75
384.211	432.75
384.436	431.75
384.662	420.75
384.887	420.75
385.112	404.75
385.337	445.75
385.562	450.75
385.787	450.75
386.013	447.75
386.238	443.75
386.463	431.75
386.688	424.75
386.913	449.75
387.138	428.75
387.363	446.75
387.588	431.75
387.813	429.75
388.038	444.75
388.263	456.75
388.488	458.75
388.713	422.75
388.938	444.75
389.163	425.75
389.387	429.75
389.612	414.75
389.837	426.75
390.062	442.75
390.287	440.75
390.512	406.75
390.736	422.75
390.961	437.75
391.186	444.75
391.411	458.75
391.636	446.75
391.86	439.75
392.085	444.75
392.31	438.75
392.534	435.75
392.759	451.75
392.984	451.75
393.208	442.75
393.433	458.75
393.658	430.75
393.882	427.75
394.107	422.75
394.331	440.75
394.556	422.75
394.78	428.75
395.005	440.75
395.229	453.75
395.454	447.75
395.678	466.75
395.903	475.75
396.127	484.75
396.352	472.75
396.576	455.75
396.801	448.75
397.025	453.75
397.249	463.75
397.474	462.75
397.698	456.75
397.922	468.75
398.147	506.75
398.371	495.75
398.595	488.75
398.82	474.75
399.044	486.75
399.268	532.75
399.492	571.75
399.717	590.75
399.941	588.75
400.165	625.75
400.389	598.75
400.613	567.75
400.837	516.75
401.062	514.75
401.286	500.75
401.51	496.75
401.734	499.75
401.958	492.75
402.182	505.75
402.406	516.75
402.63	496.75
402.854	495.75
403.078	513.75
403.302	514.75
403.526	499.75
403.75	494.75
403.974	536.75
404.198	503.75
404.422	525.75
404.645	516.75
404.869	517.75
405.093	557.75
405.317	555.75
405.541	601.75
405.765	557.75
405.988	522.75
406.212	533.75
406.436	524.75
406.66	575.75
406.883	532.75
407.107	556.75
407.331	587.75
407.555	643.75
407.778	639.75
408.002	581.75
408.226	572.75
408.449	544.75
408.673	572.75
408.896	573.75
409.12	591.75
409.344	564.75
409.567	503.75
409.791	526.75
410.014	503.75
410.238	480.75
410.461	518.75
410.685	494.75
410.908	524.75
411.132	541.75
411.355	578.75
411.578	559.75
411.802	471.75
412.025	506.75
412.249	518.75
412.472	552.75
412.695	573.75
412.919	538.75
413.142	501.75
413.365	493.75
413.589	480.75
413.812	471.75
414.035	457.75
414.258	464.75
414.482	467.75
414.705	484.75
414.928	478.75
415.151	462.75
415.374	478.75
415.597	464.75
415.821	463.75
416.044	446.75
416.267	458.75
416.49	476.75
416.713	483.75
416.936	464.75
417.159	479.75
417.382	471.75
417.605	470.75
417.828	489.75
418.051	480.75
418.274	479.75
418.497	483.75
418.72	464.75
418.943	487.75
419.166	477.75
419.389	504.75
419.611	499.75
419.834	510.75
420.057	478.75
420.28	484.75
420.503	502.75
420.726	494.75
420.948	490.75
421.171	544.75
421.394	547.75
421.617	502.75
421.839	491.75
422.062	501.75
422.285	482.75
422.507	553.75
422.73	589.75
422.953	603.75
423.175	537.75
423.398	501.75
423.621	513.75
423.843	534.75
424.066	537.75
424.288	516.75
424.511	518.75
424.733	556.75
424.956	619.75
425.178	621.75
425.401	599.75
425.623	596.75
425.846	534.75
426.068	499.75
426.291	479.75
426.513	468.75
426.735	512.75
426.958	526.75
427.18	580.75
427.402	690.75
427.625	738.75
427.847	638.75
428.069	563.75
428.292	526.75
428.514	496.75
428.736	465.75
428.958	482.75
429.181	463.75
429.403	463.75
429.625	479.75
429.847	469.75
430.069	533.75
430.292	529.75
430.514	489.75
430.736	452.75
430.958	459.75
431.18	441.75
431.402	452.75
431.624	461.75
431.846	456.75
432.068	450.75
432.29	429.75
432.512	462.75
432.734	434.75
432.956	449.75
433.178	468.75
433.4	454.75
433.622	458.75
433.844	458.75
434.066	445.75
434.287	444.75
434.509	423.75
434.731	444.75
434.953	455.75
435.175	462.75
435.397	478.75
435.618	491.75
435.84	516.75
436.062	595.75
436.284	653.75
436.505	539.75
436.727	489.75
436.949	471.75
437.17	467.75
437.392	456.75
437.614	489.75
437.835	487.75
438.057	542.75
438.278	615.75
438.5	632.75
438.721	679.75
438.943	656.75
439.165	535.75
439.386	506.75
439.608	504.75
439.829	494.75
440.05	498.75
440.272	531.75
440.493	520.75
440.715	513.75
440.936	500.75
441.158	465.75
441.379	466.75
441.6	464.75
441.822	492.75
442.043	529.75
442.264	594.75
442.486	624.75
442.707	556.75
442.928	506.75
443.149	502.75
443.371	536.75
443.592	555.75
443.813	631.75
444.034	664.75
444.255	580.75
444.476	527.75
444.698	519.75
444.919	503.75
445.14	566.75
445.361	563.75
445.582	552.75
445.803	580.75
446.024	650.75
446.245	644.75
446.466	603.75
446.687	508.75
446.908	503.75
447.129	466.75
447.35	446.75
447.571	445.75
447.792	447.75
448.013	463.75
448.234	447.75
448.455	502.75
448.675	602.75
448.896	657.75
449.117	557.75
449.338	547.75
449.559	644.75
449.779	735.75
450	577.75
450.221	498.75
450.442	442.75
450.662	436.75
450.883	421.75
451.104	442.75
451.324	434.75
451.545	421.75
451.766	434.75
451.986	408.75
452.207	382.75
452.428	415.75
452.648	410.75
452.869	384.75
453.089	416.75
453.31	402.75
453.53	422.75
453.751	404.75
453.971	404.75
454.192	439.75
454.412	418.75
454.633	381.75
454.853	399.75
455.073	383.75
455.294	436.75
455.514	483.75
455.734	463.75
455.955	404.75
456.175	393.75
456.395	382.75
456.616	387.75
456.836	404.75
457.056	388.75
457.276	396.75
457.497	370.75
457.717	390.75
457.937	398.75
458.157	390.75
458.377	378.75
458.598	401.75
458.818	444.75
459.038	504.75
459.258	511.75
459.478	473.75
459.698	440.75
459.918	434.75
460.138	424.75
460.358	426.75
460.578	445.75
460.798	472.75
461.018	456.75
461.238	458.75
461.458	460.75
461.678	454.75
461.898	459.75
462.118	433.75
462.338	490.75
462.558	466.75
462.777	470.75
462.997	503.75
463.217	514.75
463.437	516.75
463.657	489.75
463.876	476.75
464.096	482.75
464.316	485.75
464.536	501.75
464.755	477.75
464.975	492.75
465.195	490.75
465.414	519.75
465.634	489.75
465.854	451.75
466.073	436.75
466.293	424.75
466.512	431.75
466.732	430.75
466.951	435.75
467.171	427.75
467.391	414.75
467.61	419.75
467.829	425.75
468.049	421.75
468.268	425.75
468.488	410.75
468.707	427.75
468.927	406.75
469.146	367.75
469.365	434.75
469.585	396.75
469.804	414.75
470.023	420.75
470.243	413.75
470.462	438.75
470.681	437.75
470.901	431.75
471.12	432.75
471.339	411.75
471.558	403.75
471.777	446.75
471.997	425.75
472.216	423.75
472.435	450.75
472.654	426.75
472.873	437.75
473.092	429.75
473.311	426.75
473.53	429.75
473.749	414.75
473.968	441.75
474.187	543.75
474.406	537.75
474.625	472.75
474.844	450.75
475.063	431.75
475.282	395.75
475.501	408.75
475.72	434.75
475.939	427.75
476.158	451.75
476.377	430.75
476.596	404.75
476.814	437.75
477.033	437.75
477.252	448.75
477.471	434.75
477.69	471.75
477.908	448.75
478.127	453.75
478.346	470.75
478.564	472.75
478.783	472.75
479.002	487.75
479.22	476.75
479.439	484.75
479.658	486.75
479.876	491.75
480.095	516.75
480.313	520.75
480.532	518.75
480.751	511.75
480.969	518.75
481.188	571.75
481.406	560.75
481.624	526.75
481.843	498.75
482.061	521.75
482.28	523.75
482.498	504.75
482.717	488.75
482.935	484.75
483.153	488.75
483.372	479.75
483.59	476.75
483.808	514.75
484.027	484.75
484.245	479.75
484.463	501.75
484.681	500.75
484.9	498.75
485.118	489.75
485.336	514.75
485.554	479.75
485.772	507.75
485.99	488.75
486.209	498.75
486.427	529.75
486.645	535.75
486.863	524.75
487.081	506.75
487.299	532.75
487.517	505.75
487.735	518.75
487.953	510.75
488.171	506.75
488.389	526.75
488.607	524.75
488.825	511.75
489.043	501.75
489.261	523.75
489.479	526.75
489.696	522.75
489.914	530.75
490.132	526.75
490.35	545.75
490.568	517.75
490.786	548.75
491.003	574.75
491.221	565.75
491.439	573.75
491.657	533.75
491.874	553.75
492.092	578.75
492.31	579.75
492.527	570.75
492.745	575.75
492.963	573.75
493.18	604.75
493.398	583.75
493.615	602.75
493.833	597.75
494.05	592.75
494.268	594.75
494.485	607.75
494.703	600.75
494.92	611.75
495.138	596.75
495.355	598.75
495.573	604.75
495.79	621.75
496.008	628.75
496.225	604.75
496.442	596.75
496.66	617.75
496.877	608.75
497.094	616.75
497.312	602.75
497.529	611.75
497.746	633.75
497.963	640.75
498.181	657.75
498.398	664.75
498.615	706.75
498.832	715.75
499.049	712.75
499.267	745.75
499.484	781.75
499.701	790.75
499.918	848.75
500.135	862.75
500.352	910.75
500.569	914.75
500.786	898.75
501.003	916.75
501.22	875.75
501.437	853.75
501.654	826.75
501.871	790.75
