Data from 1964.PennyLincolnUp.Lamp.En5.5.200Scan.071719.P1._HRD10591_14-04-23-909.txt Node
Date: Thu Jul 18 14:04:23 EDT 2019
User: cochatt
Spectrometer: HR+D1059
Trigger mode: 1
Integration Time (sec): 1.000000E-1
Scans to average: 1
Electric dark correction enabled: true
Nonlinearity correction enabled: false
Boxcar width: 0
XAxis mode: Wavelengths
Number of Pixels in Spectrum: 2048
>>>>>Begin Spectral Data<<<<<
223.165	0.94
223.4	0.94
223.635	0.94
223.869	-19.06
224.104	-13.06
224.338	-12.06
224.573	-22.06
224.808	-21.06
225.042	-5.06
225.277	-10.06
225.511	-7.06
225.746	11.94
225.98	-18.06
226.215	13.94
226.449	12.94
226.683	27.94
226.918	21.94
227.152	37.94
227.387	38.94
227.621	40.94
227.856	48.94
228.09	51.94
228.324	52.94
228.559	67.94
228.793	56.94
229.027	88.94
229.262	93.94
229.496	103.94
229.73	108.94
229.964	122.94
230.199	104.94
230.433	92.94
230.667	117.94
230.901	109.94
231.136	105.94
231.37	107.94
231.604	105.94
231.838	94.94
232.072	107.94
232.306	109.94
232.541	104.94
232.775	109.94
233.009	111.94
233.243	117.94
233.477	103.94
233.711	109.94
233.945	115.94
234.179	110.94
234.413	108.94
234.647	87.94
234.881	113.94
235.115	118.94
235.349	117.94
235.583	116.94
235.817	117.94
236.051	116.94
236.285	119.94
236.519	115.94
236.753	118.94
236.987	125.94
237.221	137.94
237.455	175.94
237.689	159.94
237.922	117.94
238.156	124.94
238.39	122.94
238.624	118.94
238.858	116.94
239.091	121.94
239.325	124.94
239.559	113.94
239.793	112.94
240.027	119.94
240.26	119.94
240.494	148.94
240.728	153.94
240.961	152.94
241.195	132.94
241.429	128.94
241.662	133.94
241.896	126.94
242.13	122.94
242.363	130.94
242.597	116.94
242.83	151.94
243.064	118.94
243.298	142.94
243.531	154.94
243.765	148.94
243.998	131.94
244.232	116.94
244.465	132.94
244.699	130.94
244.932	152.94
245.166	142.94
245.399	145.94
245.633	140.94
245.866	160.94
246.099	128.94
246.333	149.94
246.566	130.94
246.8	151.94
247.033	162.94
247.266	132.94
247.5	148.94
247.733	158.94
247.966	167.94
248.2	179.94
248.433	164.94
248.666	160.94
248.899	156.94
249.133	166.94
249.366	174.94
249.599	178.94
249.832	165.94
250.066	172.94
250.299	184.94
250.532	174.94
250.765	192.94
250.998	205.94
251.231	197.94
251.465	178.94
251.698	196.94
251.931	198.94
252.164	202.94
252.397	176.94
252.63	199.94
252.863	195.94
253.096	191.94
253.329	204.94
253.562	208.94
253.795	194.94
254.028	184.94
254.261	210.94
254.494	205.94
254.727	225.94
254.96	236.94
255.193	234.94
255.426	214.94
255.659	197.94
255.892	213.94
256.124	229.94
256.357	228.94
256.59	226.94
256.823	202.94
257.056	197.94
257.289	212.94
257.521	195.94
257.754	205.94
257.987	206.94
258.22	204.94
258.452	202.94
258.685	199.94
258.918	208.94
259.151	229.94
259.383	192.94
259.616	223.94
259.849	204.94
260.081	219.94
260.314	249.94
260.547	229.94
260.779	225.94
261.012	220.94
261.244	225.94
261.477	225.94
261.71	209.94
261.942	221.94
262.175	211.94
262.407	212.94
262.64	202.94
262.872	212.94
263.105	214.94
263.337	203.94
263.57	217.94
263.802	213.94
264.035	222.94
264.267	217.94
264.499	220.94
264.732	204.94
264.964	214.94
265.197	206.94
265.429	225.94
265.661	229.94
265.894	213.94
266.126	218.94
266.358	215.94
266.591	219.94
266.823	217.94
267.055	236.94
267.287	231.94
267.52	233.94
267.752	220.94
267.984	232.94
268.216	235.94
268.448	235.94
268.681	228.94
268.913	226.94
269.145	249.94
269.377	260.94
269.609	271.94
269.841	261.94
270.073	286.94
270.306	272.94
270.538	299.94
270.77	297.94
271.002	280.94
271.234	276.94
271.466	301.94
271.698	288.94
271.93	275.94
272.162	307.94
272.394	289.94
272.626	285.94
272.858	274.94
273.09	288.94
273.322	286.94
273.553	263.94
273.785	268.94
274.017	261.94
274.249	247.94
274.481	243.94
274.713	252.94
274.945	242.94
275.176	266.94
275.408	276.94
275.64	282.94
275.872	246.94
276.104	279.94
276.335	268.94
276.567	276.94
276.799	282.94
277.031	283.94
277.262	306.94
277.494	310.94
277.726	288.94
277.957	273.94
278.189	281.94
278.421	265.94
278.652	279.94
278.884	294.94
279.115	285.94
279.347	264.94
279.579	271.94
279.81	267.94
280.042	286.94
280.273	272.94
280.505	287.94
280.736	290.94
280.968	289.94
281.199	273.94
281.431	270.94
281.662	278.94
281.894	274.94
282.125	282.94
282.356	270.94
282.588	306.94
282.819	291.94
283.051	279.94
283.282	292.94
283.513	286.94
283.745	302.94
283.976	295.94
284.207	284.94
284.439	290.94
284.67	278.94
284.901	309.94
285.132	277.94
285.364	292.94
285.595	280.94
285.826	279.94
286.057	284.94
286.288	270.94
286.52	305.94
286.751	291.94
286.982	301.94
287.213	289.94
287.444	282.94
287.675	304.94
287.906	300.94
288.138	311.94
288.369	309.94
288.6	294.94
288.831	322.94
289.062	304.94
289.293	294.94
289.524	308.94
289.755	299.94
289.986	308.94
290.217	305.94
290.448	300.94
290.679	294.94
290.91	300.94
291.141	295.94
291.371	308.94
291.602	306.94
291.833	296.94
292.064	309.94
292.295	300.94
292.526	309.94
292.757	318.94
292.987	307.94
293.218	327.94
293.449	324.94
293.68	319.94
293.91	297.94
294.141	301.94
294.372	309.94
294.603	317.94
294.833	331.94
295.064	306.94
295.295	311.94
295.525	303.94
295.756	321.94
295.987	320.94
296.217	320.94
296.448	322.94
296.679	317.94
296.909	309.94
297.14	319.94
297.37	306.94
297.601	317.94
297.831	307.94
298.062	316.94
298.292	336.94
298.523	322.94
298.753	327.94
298.984	324.94
299.214	319.94
299.445	313.94
299.675	341.94
299.905	339.94
300.136	325.94
300.366	325.94
300.597	331.94
300.827	354.94
301.057	344.94
301.288	340.94
301.518	335.94
301.748	355.94
301.979	336.94
302.209	333.94
302.439	336.94
302.669	344.94
302.9	344.94
303.13	338.94
303.36	342.94
303.59	358.94
303.82	357.94
304.051	344.94
304.281	347.94
304.511	347.94
304.741	329.94
304.971	350.94
305.201	357.94
305.431	363.94
305.661	340.94
305.891	323.94
306.121	342.94
306.352	338.94
306.582	347.94
306.812	351.94
307.042	340.94
307.272	338.94
307.502	352.94
307.731	347.94
307.961	344.94
308.191	347.94
308.421	341.94
308.651	333.94
308.881	349.94
309.111	370.94
309.341	352.94
309.571	357.94
309.8	350.94
310.03	376.94
310.26	372.94
310.49	369.94
310.72	375.94
310.949	366.94
311.179	370.94
311.409	389.94
311.639	397.94
311.868	364.94
312.098	380.94
312.328	378.94
312.557	379.94
312.787	401.94
313.017	392.94
313.246	384.94
313.476	393.94
313.706	375.94
313.935	377.94
314.165	358.94
314.394	423.94
314.624	392.94
314.853	384.94
315.083	387.94
315.312	378.94
315.542	400.94
315.771	383.94
316.001	368.94
316.23	380.94
316.46	387.94
316.689	380.94
316.919	384.94
317.148	394.94
317.377	386.94
317.607	392.94
317.836	389.94
318.065	381.94
318.295	401.94
318.524	380.94
318.753	368.94
318.983	365.94
319.212	392.94
319.441	398.94
319.67	404.94
319.9	399.94
320.129	404.94
320.358	388.94
320.587	385.94
320.816	398.94
321.046	393.94
321.275	390.94
321.504	380.94
321.733	392.94
321.962	397.94
322.191	401.94
322.42	414.94
322.649	417.94
322.878	413.94
323.108	421.94
323.337	452.94
323.566	442.94
323.795	463.94
324.024	492.94
324.253	578.94
324.482	752.94
324.71	1060.94
324.939	1428.94
325.168	1222.94
325.397	666.94
325.626	514.94
325.855	457.94
326.084	446.94
326.313	436.94
326.542	446.94
326.77	481.94
326.999	536.94
327.228	652.94
327.457	930.94
327.686	1050.94
327.914	739.94
328.143	568.94
328.372	516.94
328.6	486.94
328.829	486.94
329.058	476.94
329.287	490.94
329.515	477.94
329.744	484.94
329.972	461.94
330.201	476.94
330.43	486.94
330.658	521.94
330.887	520.94
331.115	494.94
331.344	480.94
331.572	470.94
331.801	467.94
332.03	433.94
332.258	436.94
332.486	460.94
332.715	443.94
332.943	454.94
333.172	464.94
333.4	468.94
333.629	470.94
333.857	488.94
334.085	485.94
334.314	484.94
334.542	512.94
334.771	525.94
334.999	494.94
335.227	480.94
335.455	473.94
335.684	452.94
335.912	452.94
336.14	456.94
336.369	451.94
336.597	434.94
336.825	453.94
337.053	432.94
337.281	429.94
337.51	434.94
337.738	449.94
337.966	439.94
338.194	444.94
338.422	453.94
338.65	457.94
338.878	439.94
339.106	451.94
339.334	421.94
339.562	426.94
339.79	445.94
340.018	426.94
340.246	438.94
340.474	415.94
340.702	428.94
340.93	426.94
341.158	428.94
341.386	416.94
341.614	416.94
341.842	428.94
342.07	418.94
342.298	424.94
342.526	412.94
342.754	401.94
342.981	434.94
343.209	403.94
343.437	420.94
343.665	438.94
343.893	446.94
344.12	461.94
344.348	440.94
344.576	446.94
344.804	437.94
345.031	441.94
345.259	427.94
345.487	425.94
345.714	404.94
345.942	424.94
346.17	413.94
346.397	397.94
346.625	416.94
346.853	400.94
347.08	398.94
347.308	424.94
347.535	432.94
347.763	418.94
347.99	398.94
348.218	412.94
348.445	392.94
348.673	401.94
348.9	386.94
349.128	413.94
349.355	408.94
349.583	405.94
349.81	389.94
350.037	392.94
350.265	388.94
350.492	409.94
350.72	387.94
350.947	397.94
351.174	396.94
351.402	401.94
351.629	395.94
351.856	402.94
352.083	393.94
352.311	405.94
352.538	400.94
352.765	405.94
352.992	396.94
353.22	390.94
353.447	385.94
353.674	394.94
353.901	389.94
354.128	386.94
354.355	389.94
354.583	390.94
354.81	366.94
355.037	392.94
355.264	391.94
355.491	395.94
355.718	383.94
355.945	375.94
356.172	377.94
356.399	399.94
356.626	373.94
356.853	370.94
357.08	384.94
357.307	378.94
357.534	373.94
357.761	374.94
357.988	379.94
358.215	392.94
358.441	388.94
358.668	380.94
358.895	409.94
359.122	397.94
359.349	396.94
359.576	390.94
359.802	413.94
360.029	419.94
360.256	390.94
360.483	408.94
360.709	398.94
360.936	394.94
361.163	387.94
361.39	408.94
361.616	390.94
361.843	394.94
362.07	364.94
362.296	378.94
362.523	389.94
362.749	370.94
362.976	375.94
363.203	376.94
363.429	380.94
363.656	394.94
363.882	368.94
364.109	379.94
364.335	380.94
364.562	362.94
364.788	378.94
365.015	376.94
365.241	372.94
365.468	382.94
365.694	386.94
365.92	384.94
366.147	371.94
366.373	371.94
366.599	396.94
366.826	364.94
367.052	385.94
367.278	365.94
367.505	358.94
367.731	401.94
367.957	380.94
368.184	392.94
368.41	384.94
368.636	375.94
368.862	392.94
369.089	385.94
369.315	383.94
369.541	372.94
369.767	368.94
369.993	368.94
370.219	371.94
370.445	377.94
370.672	380.94
370.898	356.94
371.124	372.94
371.35	369.94
371.576	378.94
371.802	378.94
372.028	393.94
372.254	394.94
372.48	375.94
372.706	395.94
372.932	411.94
373.158	387.94
373.384	379.94
373.61	385.94
373.835	368.94
374.061	378.94
374.287	391.94
374.513	402.94
374.739	408.94
374.965	398.94
375.191	383.94
375.416	403.94
375.642	392.94
375.868	392.94
376.094	403.94
376.319	384.94
376.545	376.94
376.771	403.94
376.997	375.94
377.222	356.94
377.448	398.94
377.674	369.94
377.899	362.94
378.125	372.94
378.35	378.94
378.576	380.94
378.802	389.94
379.027	370.94
379.253	394.94
379.478	361.94
379.704	372.94
379.929	362.94
380.155	376.94
380.38	377.94
380.606	360.94
380.831	375.94
381.057	387.94
381.282	376.94
381.507	375.94
381.733	366.94
381.958	371.94
382.184	372.94
382.409	364.94
382.634	396.94
382.86	397.94
383.085	382.94
383.31	383.94
383.535	390.94
383.761	388.94
383.986	389.94
384.211	391.94
384.436	397.94
384.662	387.94
384.887	397.94
385.112	397.94
385.337	428.94
385.562	386.94
385.787	402.94
386.013	429.94
386.238	430.94
386.463	402.94
386.688	397.94
386.913	426.94
387.138	399.94
387.363	406.94
387.588	404.94
387.813	409.94
388.038	427.94
388.263	391.94
388.488	405.94
388.713	406.94
388.938	408.94
389.163	423.94
389.387	412.94
389.612	409.94
389.837	397.94
390.062	420.94
390.287	424.94
390.512	411.94
390.736	426.94
390.961	403.94
391.186	426.94
391.411	419.94
391.636	406.94
391.86	444.94
392.085	422.94
392.31	440.94
392.534	421.94
392.759	420.94
392.984	390.94
393.208	407.94
393.433	420.94
393.658	406.94
393.882	411.94
394.107	414.94
394.331	406.94
394.556	414.94
394.78	413.94
395.005	421.94
395.229	425.94
395.454	428.94
395.678	440.94
395.903	430.94
396.127	440.94
396.352	424.94
396.576	427.94
396.801	439.94
397.025	437.94
397.249	422.94
397.474	430.94
397.698	448.94
397.922	432.94
398.147	470.94
398.371	454.94
398.595	458.94
398.82	452.94
399.044	471.94
399.268	491.94
399.492	522.94
399.717	544.94
399.941	565.94
400.165	572.94
400.389	570.94
400.613	536.94
400.837	484.94
401.062	485.94
401.286	491.94
401.51	451.94
401.734	451.94
401.958	474.94
402.182	456.94
402.406	469.94
402.63	490.94
402.854	466.94
403.078	484.94
403.302	488.94
403.526	492.94
403.75	467.94
403.974	488.94
404.198	477.94
404.422	474.94
404.645	486.94
404.869	494.94
405.093	502.94
405.317	557.94
405.541	596.94
405.765	517.94
405.988	506.94
406.212	488.94
406.436	493.94
406.66	518.94
406.883	500.94
407.107	541.94
407.331	577.94
407.555	608.94
407.778	601.94
408.002	548.94
408.226	524.94
408.449	538.94
408.673	516.94
408.896	526.94
409.12	556.94
409.344	542.94
409.567	506.94
409.791	485.94
410.014	479.94
410.238	484.94
410.461	463.94
410.685	467.94
410.908	497.94
411.132	512.94
411.355	533.94
411.578	514.94
411.802	493.94
412.025	473.94
412.249	480.94
412.472	497.94
412.695	518.94
412.919	520.94
413.142	469.94
413.365	476.94
413.589	478.94
413.812	458.94
414.035	453.94
414.258	436.94
414.482	433.94
414.705	454.94
414.928	459.94
415.151	473.94
415.374	452.94
415.597	438.94
415.821	413.94
416.044	443.94
416.267	459.94
416.49	417.94
416.713	444.94
416.936	436.94
417.159	427.94
417.382	449.94
417.605	430.94
417.828	448.94
418.051	451.94
418.274	449.94
418.497	457.94
418.72	464.94
418.943	449.94
419.166	454.94
419.389	461.94
419.611	455.94
419.834	422.94
420.057	466.94
420.28	453.94
420.503	437.94
420.726	465.94
420.948	477.94
421.171	472.94
421.394	494.94
421.617	485.94
421.839	446.94
422.062	464.94
422.285	460.94
422.507	499.94
422.73	557.94
422.953	534.94
423.175	476.94
423.398	471.94
423.621	471.94
423.843	477.94
424.066	479.94
424.288	490.94
424.511	481.94
424.733	534.94
424.956	603.94
425.178	547.94
425.401	554.94
425.623	581.94
425.846	506.94
426.068	476.94
426.291	466.94
426.513	477.94
426.735	470.94
426.958	471.94
427.18	532.94
427.402	650.94
427.625	690.94
427.847	607.94
428.069	534.94
428.292	500.94
428.514	472.94
428.736	453.94
428.958	446.94
429.181	452.94
429.403	435.94
429.625	432.94
429.847	461.94
430.069	520.94
430.292	506.94
430.514	445.94
430.736	429.94
430.958	417.94
431.18	400.94
431.402	420.94
431.624	412.94
431.846	399.94
432.068	426.94
432.29	420.94
432.512	403.94
432.734	417.94
432.956	407.94
433.178	424.94
433.4	430.94
433.622	413.94
433.844	424.94
434.066	421.94
434.287	419.94
434.509	449.94
434.731	436.94
434.953	432.94
435.175	435.94
435.397	469.94
435.618	461.94
435.84	499.94
436.062	530.94
436.284	574.94
436.505	530.94
436.727	446.94
436.949	423.94
437.17	426.94
437.392	426.94
437.614	438.94
437.835	461.94
438.057	519.94
438.278	590.94
438.5	604.94
438.721	648.94
438.943	614.94
439.165	501.94
439.386	469.94
439.608	457.94
439.829	459.94
440.05	473.94
440.272	501.94
440.493	471.94
440.715	445.94
440.936	452.94
441.158	438.94
441.379	441.94
441.6	452.94
441.822	466.94
442.043	493.94
442.264	551.94
442.486	562.94
442.707	496.94
442.928	468.94
443.149	459.94
443.371	491.94
443.592	521.94
443.813	574.94
444.034	619.94
444.255	546.94
444.476	483.94
444.698	482.94
444.919	490.94
445.14	604.94
445.361	517.94
445.582	474.94
445.803	541.94
446.024	571.94
446.245	581.94
446.466	538.94
446.687	468.94
446.908	469.94
447.129	427.94
447.35	424.94
447.571	427.94
447.792	424.94
448.013	406.94
448.234	421.94
448.455	449.94
448.675	562.94
448.896	630.94
449.117	520.94
449.338	484.94
449.559	586.94
449.779	635.94
450	516.94
450.221	441.94
450.442	410.94
450.662	423.94
450.883	391.94
451.104	398.94
451.324	408.94
451.545	397.94
451.766	404.94
451.986	378.94
452.207	376.94
452.428	378.94
452.648	406.94
452.869	390.94
453.089	381.94
453.31	385.94
453.53	377.94
453.751	379.94
453.971	373.94
454.192	375.94
454.412	372.94
454.633	365.94
454.853	378.94
455.073	378.94
455.294	407.94
455.514	435.94
455.734	434.94
455.955	373.94
456.175	368.94
456.395	361.94
456.616	380.94
456.836	379.94
457.056	356.94
457.276	368.94
457.497	343.94
457.717	356.94
457.937	374.94
458.157	382.94
458.377	383.94
458.598	392.94
458.818	425.94
459.038	478.94
459.258	472.94
459.478	434.94
459.698	416.94
459.918	406.94
460.138	406.94
460.358	411.94
460.578	409.94
460.798	419.94
461.018	432.94
461.238	420.94
461.458	419.94
461.678	433.94
461.898	436.94
462.118	417.94
462.338	447.94
462.558	456.94
462.777	447.94
462.997	445.94
463.217	481.94
463.437	493.94
463.657	474.94
463.876	459.94
464.096	468.94
464.316	462.94
464.536	469.94
464.755	462.94
464.975	432.94
465.195	460.94
465.414	472.94
465.634	440.94
465.854	420.94
466.073	413.94
466.293	404.94
466.512	418.94
466.732	387.94
466.951	385.94
467.171	391.94
467.391	403.94
467.61	417.94
467.829	409.94
468.049	405.94
468.268	393.94
468.488	372.94
468.707	379.94
468.927	390.94
469.146	408.94
469.365	389.94
469.585	395.94
469.804	390.94
470.023	398.94
470.243	380.94
470.462	398.94
470.681	417.94
470.901	400.94
471.12	387.94
471.339	416.94
471.558	388.94
471.777	395.94
471.997	390.94
472.216	410.94
472.435	418.94
472.654	416.94
472.873	393.94
473.092	390.94
473.311	424.94
473.53	393.94
473.749	416.94
473.968	422.94
474.187	488.94
474.406	481.94
474.625	434.94
474.844	402.94
475.063	418.94
475.282	389.94
475.501	401.94
475.72	395.94
475.939	400.94
476.158	409.94
476.377	422.94
476.596	408.94
476.814	411.94
477.033	410.94
477.252	416.94
477.471	419.94
477.69	414.94
477.908	434.94
478.127	426.94
478.346	442.94
478.564	434.94
478.783	428.94
479.002	445.94
479.22	448.94
479.439	440.94
479.658	470.94
479.876	478.94
480.095	495.94
480.313	501.94
480.532	496.94
480.751	482.94
480.969	500.94
481.188	514.94
481.406	535.94
481.624	488.94
481.843	475.94
482.061	461.94
482.28	459.94
482.498	446.94
482.717	480.94
482.935	448.94
483.153	456.94
483.372	458.94
483.59	449.94
483.808	448.94
484.027	448.94
484.245	457.94
484.463	453.94
484.681	460.94
484.9	459.94
485.118	477.94
485.336	470.94
485.554	482.94
485.772	468.94
485.99	466.94
486.209	480.94
486.427	472.94
486.645	468.94
486.863	461.94
487.081	476.94
487.299	480.94
487.517	497.94
487.735	486.94
487.953	474.94
488.171	468.94
488.389	482.94
488.607	491.94
488.825	458.94
489.043	456.94
489.261	471.94
489.479	504.94
489.696	492.94
489.914	471.94
490.132	492.94
490.35	513.94
490.568	498.94
490.786	502.94
491.003	531.94
491.221	505.94
491.439	530.94
491.657	535.94
491.874	527.94
492.092	527.94
492.31	515.94
492.527	515.94
492.745	564.94
492.963	540.94
493.18	532.94
493.398	551.94
493.615	568.94
493.833	550.94
494.05	562.94
494.268	554.94
494.485	577.94
494.703	545.94
494.92	545.94
495.138	567.94
495.355	563.94
495.573	568.94
495.79	567.94
496.008	582.94
496.225	568.94
496.442	564.94
496.66	589.94
496.877	573.94
497.094	571.94
497.312	588.94
497.529	594.94
497.746	599.94
497.963	603.94
498.181	634.94
498.398	605.94
498.615	641.94
498.832	663.94
499.049	692.94
499.267	683.94
499.484	706.94
499.701	749.94
499.918	774.94
500.135	820.94
500.352	888.94
500.569	888.94
500.786	889.94
501.003	873.94
501.22	835.94
501.437	810.94
501.654	755.94
501.871	762.94
502.088	704.94
