Data from 1964.PennyLincolnUp.Lamp.En5.5.200Scan.071719.P1._HRD10591_14-03-35-908.txt Node
Date: Thu Jul 18 14:03:35 EDT 2019
User: cochatt
Spectrometer: HR+D1059
Trigger mode: 1
Integration Time (sec): 1.000000E-1
Scans to average: 1
Electric dark correction enabled: true
Nonlinearity correction enabled: false
Boxcar width: 0
XAxis mode: Wavelengths
Number of Pixels in Spectrum: 2048
>>>>>Begin Spectral Data<<<<<
223.165	-9.94
223.4	-9.94
223.635	-9.94
223.869	-15.94
224.104	-9.94
224.338	-15.94
224.573	-14.94
224.808	-2.94
225.042	5.06
225.277	-0.94
225.511	-10.94
225.746	3.06
225.98	8.06
226.215	4.06
226.449	13.06
226.683	16.06
226.918	19.06
227.152	13.06
227.387	29.06
227.621	25.06
227.856	38.06
228.09	54.06
228.324	45.06
228.559	45.06
228.793	53.06
229.027	90.06
229.262	79.06
229.496	96.06
229.73	104.06
229.964	132.06
230.199	86.06
230.433	103.06
230.667	102.06
230.901	99.06
231.136	91.06
231.37	110.06
231.604	102.06
231.838	108.06
232.072	105.06
232.306	114.06
232.541	105.06
232.775	113.06
233.009	109.06
233.243	88.06
233.477	101.06
233.711	105.06
233.945	116.06
234.179	112.06
234.413	105.06
234.647	109.06
234.881	102.06
235.115	99.06
235.349	101.06
235.583	94.06
235.817	119.06
236.051	114.06
236.285	100.06
236.519	95.06
236.753	124.06
236.987	132.06
237.221	144.06
237.455	193.06
237.689	143.06
237.922	119.06
238.156	121.06
238.39	108.06
238.624	98.06
238.858	106.06
239.091	113.06
239.325	128.06
239.559	107.06
239.793	106.06
240.027	112.06
240.26	130.06
240.494	147.06
240.728	150.06
240.961	134.06
241.195	120.06
241.429	123.06
241.662	134.06
241.896	132.06
242.13	131.06
242.363	120.06
242.597	117.06
242.83	127.06
243.064	115.06
243.298	126.06
243.531	134.06
243.765	132.06
243.998	120.06
244.232	109.06
244.465	150.06
244.699	124.06
244.932	130.06
245.166	140.06
245.399	142.06
245.633	137.06
245.866	137.06
246.099	136.06
246.333	153.06
246.566	141.06
246.8	157.06
247.033	140.06
247.266	152.06
247.5	156.06
247.733	164.06
247.966	149.06
248.2	140.06
248.433	170.06
248.666	168.06
248.899	171.06
249.133	178.06
249.366	172.06
249.599	165.06
249.832	146.06
250.066	171.06
250.299	164.06
250.532	163.06
250.765	167.06
250.998	185.06
251.231	168.06
251.465	188.06
251.698	177.06
251.931	181.06
252.164	186.06
252.397	183.06
252.63	192.06
252.863	191.06
253.096	199.06
253.329	216.06
253.562	191.06
253.795	190.06
254.028	199.06
254.261	194.06
254.494	204.06
254.727	219.06
254.96	225.06
255.193	229.06
255.426	208.06
255.659	196.06
255.892	213.06
256.124	216.06
256.357	204.06
256.59	217.06
256.823	195.06
257.056	189.06
257.289	191.06
257.521	189.06
257.754	186.06
257.987	193.06
258.22	207.06
258.452	200.06
258.685	191.06
258.918	202.06
259.151	206.06
259.383	216.06
259.616	187.06
259.849	201.06
260.081	208.06
260.314	216.06
260.547	219.06
260.779	219.06
261.012	226.06
261.244	213.06
261.477	209.06
261.71	199.06
261.942	203.06
262.175	213.06
262.407	198.06
262.64	207.06
262.872	203.06
263.105	204.06
263.337	192.06
263.57	193.06
263.802	206.06
264.035	195.06
264.267	196.06
264.499	204.06
264.732	209.06
264.964	224.06
265.197	220.06
265.429	214.06
265.661	195.06
265.894	216.06
266.126	212.06
266.358	218.06
266.591	244.06
266.823	219.06
267.055	200.06
267.287	211.06
267.52	207.06
267.752	208.06
267.984	212.06
268.216	213.06
268.448	206.06
268.681	240.06
268.913	238.06
269.145	256.06
269.377	250.06
269.609	282.06
269.841	249.06
270.073	259.06
270.306	262.06
270.538	278.06
270.77	265.06
271.002	267.06
271.234	257.06
271.466	270.06
271.698	261.06
271.93	289.06
272.162	260.06
272.394	291.06
272.626	262.06
272.858	240.06
273.09	256.06
273.322	258.06
273.553	247.06
273.785	257.06
274.017	251.06
274.249	241.06
274.481	259.06
274.713	246.06
274.945	254.06
275.176	257.06
275.408	262.06
275.64	258.06
275.872	256.06
276.104	267.06
276.335	267.06
276.567	256.06
276.799	266.06
277.031	277.06
277.262	282.06
277.494	287.06
277.726	282.06
277.957	274.06
278.189	258.06
278.421	258.06
278.652	254.06
278.884	256.06
279.115	268.06
279.347	270.06
279.579	261.06
279.81	270.06
280.042	267.06
280.273	273.06
280.505	257.06
280.736	267.06
280.968	275.06
281.199	268.06
281.431	252.06
281.662	260.06
281.894	267.06
282.125	262.06
282.356	270.06
282.588	294.06
282.819	285.06
283.051	270.06
283.282	283.06
283.513	265.06
283.745	272.06
283.976	289.06
284.207	292.06
284.439	279.06
284.67	283.06
284.901	268.06
285.132	291.06
285.364	280.06
285.595	266.06
285.826	276.06
286.057	288.06
286.288	278.06
286.52	297.06
286.751	283.06
286.982	295.06
287.213	294.06
287.444	281.06
287.675	297.06
287.906	298.06
288.138	304.06
288.369	285.06
288.6	305.06
288.831	295.06
289.062	284.06
289.293	289.06
289.524	308.06
289.755	299.06
289.986	296.06
290.217	296.06
290.448	298.06
290.679	298.06
290.91	300.06
291.141	276.06
291.371	291.06
291.602	289.06
291.833	296.06
292.064	292.06
292.295	284.06
292.526	294.06
292.757	290.06
292.987	291.06
293.218	293.06
293.449	308.06
293.68	280.06
293.91	306.06
294.141	295.06
294.372	308.06
294.603	293.06
294.833	283.06
295.064	313.06
295.295	311.06
295.525	299.06
295.756	294.06
295.987	308.06
296.217	332.06
296.448	311.06
296.679	328.06
296.909	299.06
297.14	307.06
297.37	299.06
297.601	298.06
297.831	311.06
298.062	322.06
298.292	308.06
298.523	307.06
298.753	286.06
298.984	313.06
299.214	318.06
299.445	327.06
299.675	319.06
299.905	308.06
300.136	324.06
300.366	314.06
300.597	320.06
300.827	324.06
301.057	324.06
301.288	321.06
301.518	309.06
301.748	321.06
301.979	320.06
302.209	324.06
302.439	334.06
302.669	343.06
302.9	312.06
303.13	315.06
303.36	340.06
303.59	336.06
303.82	343.06
304.051	320.06
304.281	343.06
304.511	329.06
304.741	314.06
304.971	317.06
305.201	313.06
305.431	321.06
305.661	309.06
305.891	350.06
306.121	335.06
306.352	329.06
306.582	341.06
306.812	332.06
307.042	336.06
307.272	347.06
307.502	321.06
307.731	340.06
307.961	341.06
308.191	344.06
308.421	328.06
308.651	327.06
308.881	333.06
309.111	336.06
309.341	334.06
309.571	341.06
309.8	352.06
310.03	342.06
310.26	351.06
310.49	349.06
310.72	343.06
310.949	346.06
311.179	367.06
311.409	358.06
311.639	372.06
311.868	361.06
312.098	354.06
312.328	371.06
312.557	389.06
312.787	365.06
313.017	377.06
313.246	364.06
313.476	379.06
313.706	374.06
313.935	376.06
314.165	376.06
314.394	357.06
314.624	376.06
314.853	400.06
315.083	373.06
315.312	363.06
315.542	370.06
315.771	353.06
316.001	366.06
316.23	379.06
316.46	384.06
316.689	364.06
316.919	362.06
317.148	376.06
317.377	376.06
317.607	367.06
317.836	354.06
318.065	356.06
318.295	365.06
318.524	359.06
318.753	372.06
318.983	374.06
319.212	355.06
319.441	372.06
319.67	359.06
319.9	380.06
320.129	368.06
320.358	366.06
320.587	375.06
320.816	396.06
321.046	368.06
321.275	381.06
321.504	378.06
321.733	387.06
321.962	380.06
322.191	391.06
322.42	402.06
322.649	393.06
322.878	396.06
323.108	390.06
323.337	418.06
323.566	403.06
323.795	434.06
324.024	450.06
324.253	523.06
324.482	674.06
324.71	938.06
324.939	1274.06
325.168	1109.06
325.397	611.06
325.626	468.06
325.855	426.06
326.084	421.06
326.313	429.06
326.542	423.06
326.77	452.06
326.999	501.06
327.228	602.06
327.457	887.06
327.686	1004.06
327.914	660.06
328.143	523.06
328.372	470.06
328.6	467.06
328.829	447.06
329.058	441.06
329.287	433.06
329.515	458.06
329.744	446.06
329.972	412.06
330.201	439.06
330.43	434.06
330.658	472.06
330.887	471.06
331.115	476.06
331.344	427.06
331.572	439.06
331.801	436.06
332.03	458.06
332.258	436.06
332.486	426.06
332.715	428.06
332.943	439.06
333.172	434.06
333.4	446.06
333.629	463.06
333.857	470.06
334.085	459.06
334.314	464.06
334.542	466.06
334.771	482.06
334.999	445.06
335.227	438.06
335.455	450.06
335.684	442.06
335.912	449.06
336.14	426.06
336.369	434.06
336.597	440.06
336.825	442.06
337.053	440.06
337.281	414.06
337.51	423.06
337.738	406.06
337.966	413.06
338.194	420.06
338.422	423.06
338.65	431.06
338.878	409.06
339.106	427.06
339.334	424.06
339.562	406.06
339.79	424.06
340.018	417.06
340.246	387.06
340.474	420.06
340.702	423.06
340.93	397.06
341.158	402.06
341.386	424.06
341.614	387.06
341.842	394.06
342.07	416.06
342.298	407.06
342.526	408.06
342.754	399.06
342.981	404.06
343.209	421.06
343.437	414.06
343.665	428.06
343.893	432.06
344.12	417.06
344.348	416.06
344.576	414.06
344.804	424.06
345.031	402.06
345.259	404.06
345.487	393.06
345.714	398.06
345.942	391.06
346.17	394.06
346.397	408.06
346.625	385.06
346.853	384.06
347.08	374.06
347.308	388.06
347.535	378.06
347.763	375.06
347.99	404.06
348.218	389.06
348.445	387.06
348.673	382.06
348.9	378.06
349.128	355.06
349.355	370.06
349.583	388.06
349.81	388.06
350.037	360.06
350.265	348.06
350.492	376.06
350.72	373.06
350.947	367.06
351.174	382.06
351.402	378.06
351.629	358.06
351.856	383.06
352.083	376.06
352.311	388.06
352.538	391.06
352.765	388.06
352.992	371.06
353.22	383.06
353.447	380.06
353.674	375.06
353.901	381.06
354.128	363.06
354.355	361.06
354.583	387.06
354.81	363.06
355.037	379.06
355.264	366.06
355.491	344.06
355.718	371.06
355.945	349.06
356.172	372.06
356.399	376.06
356.626	363.06
356.853	360.06
357.08	381.06
357.307	361.06
357.534	349.06
357.761	370.06
357.988	384.06
358.215	371.06
358.441	393.06
358.668	371.06
358.895	382.06
359.122	367.06
359.349	385.06
359.576	377.06
359.802	369.06
360.029	374.06
360.256	390.06
360.483	376.06
360.709	363.06
360.936	372.06
361.163	378.06
361.39	383.06
361.616	376.06
361.843	386.06
362.07	374.06
362.296	368.06
362.523	370.06
362.749	365.06
362.976	370.06
363.203	362.06
363.429	357.06
363.656	377.06
363.882	369.06
364.109	358.06
364.335	357.06
364.562	354.06
364.788	362.06
365.015	376.06
365.241	357.06
365.468	352.06
365.694	361.06
365.92	363.06
366.147	339.06
366.373	371.06
366.599	357.06
366.826	374.06
367.052	369.06
367.278	368.06
367.505	342.06
367.731	352.06
367.957	360.06
368.184	351.06
368.41	354.06
368.636	378.06
368.862	378.06
369.089	358.06
369.315	347.06
369.541	378.06
369.767	369.06
369.993	363.06
370.219	371.06
370.445	363.06
370.672	366.06
370.898	365.06
371.124	357.06
371.35	373.06
371.576	382.06
371.802	373.06
372.028	357.06
372.254	373.06
372.48	403.06
372.706	363.06
372.932	394.06
373.158	374.06
373.384	376.06
373.61	374.06
373.835	396.06
374.061	377.06
374.287	377.06
374.513	379.06
374.739	375.06
374.965	379.06
375.191	389.06
375.416	382.06
375.642	375.06
375.868	393.06
376.094	375.06
376.319	363.06
376.545	359.06
376.771	346.06
376.997	367.06
377.222	354.06
377.448	360.06
377.674	342.06
377.899	366.06
378.125	361.06
378.35	339.06
378.576	363.06
378.802	348.06
379.027	371.06
379.253	360.06
379.478	359.06
379.704	348.06
379.929	361.06
380.155	369.06
380.38	348.06
380.606	350.06
380.831	357.06
381.057	357.06
381.282	353.06
381.507	357.06
381.733	356.06
381.958	355.06
382.184	383.06
382.409	364.06
382.634	374.06
382.86	371.06
383.085	384.06
383.31	378.06
383.535	354.06
383.761	362.06
383.986	382.06
384.211	377.06
384.436	376.06
384.662	394.06
384.887	405.06
385.112	394.06
385.337	397.06
385.562	381.06
385.787	384.06
386.013	399.06
386.238	413.06
386.463	404.06
386.688	417.06
386.913	397.06
387.138	418.06
387.363	388.06
387.588	384.06
387.813	386.06
388.038	407.06
388.263	382.06
388.488	394.06
388.713	402.06
388.938	382.06
389.163	378.06
389.387	401.06
389.612	389.06
389.837	398.06
390.062	390.06
390.287	402.06
390.512	398.06
390.736	395.06
390.961	410.06
391.186	424.06
391.411	412.06
391.636	414.06
391.86	409.06
392.085	387.06
392.31	408.06
392.534	417.06
392.759	404.06
392.984	412.06
393.208	407.06
393.433	425.06
393.658	419.06
393.882	416.06
394.107	399.06
394.331	383.06
394.556	404.06
394.78	380.06
395.005	394.06
395.229	389.06
395.454	420.06
395.678	423.06
395.903	419.06
396.127	446.06
396.352	416.06
396.576	402.06
396.801	422.06
397.025	414.06
397.249	429.06
397.474	439.06
397.698	428.06
397.922	436.06
398.147	438.06
398.371	451.06
398.595	445.06
398.82	441.06
399.044	471.06
399.268	496.06
399.492	520.06
399.717	543.06
399.941	560.06
400.165	553.06
400.389	518.06
400.613	497.06
400.837	487.06
401.062	451.06
401.286	443.06
401.51	464.06
401.734	440.06
401.958	483.06
402.182	445.06
402.406	442.06
402.63	447.06
402.854	456.06
403.078	455.06
403.302	455.06
403.526	451.06
403.75	458.06
403.974	451.06
404.198	457.06
404.422	465.06
404.645	503.06
404.869	469.06
405.093	477.06
405.317	522.06
405.541	514.06
405.765	493.06
405.988	475.06
406.212	482.06
406.436	498.06
406.66	485.06
406.883	459.06
407.107	512.06
407.331	553.06
407.555	590.06
407.778	584.06
408.002	530.06
408.226	514.06
408.449	497.06
408.673	504.06
408.896	500.06
409.12	530.06
409.344	508.06
409.567	468.06
409.791	461.06
410.014	456.06
410.238	455.06
410.461	443.06
410.685	464.06
410.908	468.06
411.132	497.06
411.355	492.06
411.578	490.06
411.802	439.06
412.025	463.06
412.249	458.06
412.472	460.06
412.695	505.06
412.919	480.06
413.142	425.06
413.365	462.06
413.589	443.06
413.812	432.06
414.035	449.06
414.258	428.06
414.482	440.06
414.705	415.06
414.928	434.06
415.151	434.06
415.374	437.06
415.597	438.06
415.821	415.06
416.044	416.06
416.267	419.06
416.49	422.06
416.713	421.06
416.936	409.06
417.159	423.06
417.382	458.06
417.605	441.06
417.828	438.06
418.051	458.06
418.274	423.06
418.497	396.06
418.72	401.06
418.943	427.06
419.166	430.06
419.389	467.06
419.611	458.06
419.834	429.06
420.057	427.06
420.28	452.06
420.503	446.06
420.726	425.06
420.948	440.06
421.171	463.06
421.394	482.06
421.617	442.06
421.839	438.06
422.062	440.06
422.285	428.06
422.507	494.06
422.73	519.06
422.953	500.06
423.175	465.06
423.398	459.06
423.621	444.06
423.843	458.06
424.066	452.06
424.288	443.06
424.511	474.06
424.733	486.06
424.956	539.06
425.178	526.06
425.401	525.06
425.623	525.06
425.846	451.06
426.068	445.06
426.291	446.06
426.513	448.06
426.735	473.06
426.958	471.06
427.18	538.06
427.402	621.06
427.625	630.06
427.847	571.06
428.069	501.06
428.292	469.06
428.514	447.06
428.736	429.06
428.958	406.06
429.181	411.06
429.403	395.06
429.625	434.06
429.847	444.06
430.069	462.06
430.292	467.06
430.514	416.06
430.736	408.06
430.958	371.06
431.18	391.06
431.402	402.06
431.624	418.06
431.846	395.06
432.068	406.06
432.29	414.06
432.512	394.06
432.734	409.06
432.956	407.06
433.178	423.06
433.4	394.06
433.622	392.06
433.844	393.06
434.066	398.06
434.287	401.06
434.509	413.06
434.731	406.06
434.953	406.06
435.175	424.06
435.397	445.06
435.618	441.06
435.84	476.06
436.062	509.06
436.284	550.06
436.505	466.06
436.727	429.06
436.949	406.06
437.17	415.06
437.392	422.06
437.614	415.06
437.835	428.06
438.057	477.06
438.278	540.06
438.5	551.06
438.721	606.06
438.943	573.06
439.165	464.06
439.386	430.06
439.608	430.06
439.829	435.06
440.05	436.06
440.272	477.06
440.493	447.06
440.715	416.06
440.936	419.06
441.158	417.06
441.379	404.06
441.6	426.06
441.822	450.06
442.043	479.06
442.264	531.06
442.486	557.06
442.707	481.06
442.928	454.06
443.149	454.06
443.371	450.06
443.592	473.06
443.813	544.06
444.034	556.06
444.255	516.06
444.476	441.06
444.698	445.06
444.919	460.06
445.14	566.06
445.361	504.06
445.582	481.06
445.803	506.06
446.024	533.06
446.245	547.06
446.466	504.06
446.687	454.06
446.908	420.06
447.129	413.06
447.35	410.06
447.571	416.06
447.792	373.06
448.013	388.06
448.234	403.06
448.455	461.06
448.675	517.06
448.896	564.06
449.117	517.06
449.338	488.06
449.559	562.06
449.779	618.06
450	488.06
450.221	424.06
450.442	408.06
450.662	383.06
450.883	386.06
451.104	384.06
451.324	389.06
451.545	361.06
451.766	363.06
451.986	341.06
452.207	353.06
452.428	357.06
452.648	352.06
452.869	357.06
453.089	358.06
453.31	380.06
453.53	370.06
453.751	355.06
453.971	372.06
454.192	367.06
454.412	350.06
454.633	376.06
454.853	338.06
455.073	370.06
455.294	364.06
455.514	396.06
455.734	406.06
455.955	368.06
456.175	358.06
456.395	354.06
456.616	359.06
456.836	363.06
457.056	345.06
457.276	354.06
457.497	345.06
457.717	351.06
457.937	361.06
458.157	368.06
458.377	371.06
458.598	361.06
458.818	386.06
459.038	435.06
459.258	437.06
459.478	401.06
459.698	393.06
459.918	379.06
460.138	408.06
460.358	392.06
460.578	414.06
460.798	408.06
461.018	411.06
461.238	420.06
461.458	404.06
461.678	383.06
461.898	411.06
462.118	399.06
462.338	426.06
462.558	429.06
462.777	416.06
462.997	459.06
463.217	455.06
463.437	480.06
463.657	451.06
463.876	419.06
464.096	426.06
464.316	451.06
464.536	436.06
464.755	427.06
464.975	444.06
465.195	442.06
465.414	465.06
465.634	440.06
465.854	402.06
466.073	385.06
466.293	382.06
466.512	377.06
466.732	376.06
466.951	376.06
467.171	381.06
467.391	367.06
467.61	374.06
467.829	379.06
468.049	368.06
468.268	370.06
468.488	363.06
468.707	366.06
468.927	358.06
469.146	371.06
469.365	374.06
469.585	359.06
469.804	364.06
470.023	364.06
470.243	360.06
470.462	380.06
470.681	401.06
470.901	385.06
471.12	380.06
471.339	385.06
471.558	380.06
471.777	390.06
471.997	377.06
472.216	363.06
472.435	390.06
472.654	390.06
472.873	377.06
473.092	377.06
473.311	387.06
473.53	362.06
473.749	390.06
473.968	418.06
474.187	470.06
474.406	469.06
474.625	422.06
474.844	389.06
475.063	369.06
475.282	373.06
475.501	380.06
475.72	375.06
475.939	376.06
476.158	403.06
476.377	412.06
476.596	387.06
476.814	387.06
477.033	393.06
477.252	418.06
477.471	396.06
477.69	396.06
477.908	411.06
478.127	407.06
478.346	425.06
478.564	424.06
478.783	438.06
479.002	438.06
479.22	437.06
479.439	445.06
479.658	438.06
479.876	440.06
480.095	457.06
480.313	476.06
480.532	449.06
480.751	470.06
480.969	474.06
481.188	501.06
481.406	486.06
481.624	452.06
481.843	457.06
482.061	451.06
482.28	453.06
482.498	409.06
482.717	427.06
482.935	426.06
483.153	420.06
483.372	432.06
483.59	432.06
483.808	456.06
484.027	439.06
484.245	421.06
484.463	447.06
484.681	464.06
484.9	460.06
485.118	454.06
485.336	449.06
485.554	455.06
485.772	453.06
485.99	451.06
486.209	439.06
486.427	457.06
486.645	467.06
486.863	464.06
487.081	486.06
487.299	465.06
487.517	478.06
487.735	455.06
487.953	470.06
488.171	461.06
488.389	468.06
488.607	472.06
488.825	470.06
489.043	482.06
489.261	457.06
489.479	468.06
489.696	475.06
489.914	456.06
490.132	484.06
490.35	468.06
490.568	475.06
490.786	486.06
491.003	491.06
491.221	487.06
491.439	510.06
491.657	514.06
491.874	495.06
492.092	520.06
492.31	501.06
492.527	494.06
492.745	525.06
492.963	515.06
493.18	516.06
493.398	514.06
493.615	529.06
493.833	520.06
494.05	515.06
494.268	528.06
494.485	541.06
494.703	530.06
494.92	526.06
495.138	536.06
495.355	543.06
495.573	542.06
495.79	545.06
496.008	540.06
496.225	514.06
496.442	545.06
496.66	547.06
496.877	522.06
497.094	526.06
497.312	558.06
497.529	548.06
497.746	564.06
497.963	568.06
498.181	591.06
498.398	607.06
498.615	600.06
498.832	637.06
499.049	648.06
499.267	651.06
499.484	668.06
499.701	720.06
499.918	772.06
500.135	797.06
500.352	824.06
500.569	850.06
500.786	828.06
501.003	830.06
501.22	792.06
501.437	763.06
501.654	726.06
501.871	701.06
502.088	678.06
