Data from 1964.PennyLincolnUp.Lamp.En5.5.200Scan.071719.P1._HRD10591_14-06-13-909.txt Node
Date: Thu Jul 18 14:06:13 EDT 2019
User: cochatt
Spectrometer: HR+D1059
Trigger mode: 1
Integration Time (sec): 1.000000E-1
Scans to average: 1
Electric dark correction enabled: true
Nonlinearity correction enabled: false
Boxcar width: 0
XAxis mode: Wavelengths
Number of Pixels in Spectrum: 2048
>>>>>Begin Spectral Data<<<<<
223.165	-13.12
223.4	-13.12
223.635	-13.12
223.869	-9.12
224.104	-27.12
224.338	-2.12
224.573	-21.12
224.808	-7.12
225.042	-14.12
225.277	-18.12
225.511	1.88
225.746	9.88
225.98	4.88
226.215	14.88
226.449	0.88
226.683	33.88
226.918	20.88
227.152	24.88
227.387	38.88
227.621	33.88
227.856	49.88
228.09	58.88
228.324	51.88
228.559	54.88
228.793	69.88
229.027	98.88
229.262	106.88
229.496	101.88
229.73	120.88
229.964	154.88
230.199	114.88
230.433	113.88
230.667	110.88
230.901	107.88
231.136	117.88
231.37	106.88
231.604	92.88
231.838	121.88
232.072	123.88
232.306	111.88
232.541	113.88
232.775	113.88
233.009	111.88
233.243	115.88
233.477	107.88
233.711	115.88
233.945	121.88
234.179	106.88
234.413	125.88
234.647	115.88
234.881	122.88
235.115	120.88
235.349	121.88
235.583	153.88
235.817	121.88
236.051	121.88
236.285	128.88
236.519	125.88
236.753	131.88
236.987	125.88
237.221	174.88
237.455	217.88
237.689	166.88
237.922	139.88
238.156	143.88
238.39	139.88
238.624	130.88
238.858	131.88
239.091	119.88
239.325	120.88
239.559	121.88
239.793	129.88
240.027	142.88
240.26	127.88
240.494	142.88
240.728	154.88
240.961	163.88
241.195	133.88
241.429	150.88
241.662	131.88
241.896	135.88
242.13	141.88
242.363	139.88
242.597	136.88
242.83	143.88
243.064	133.88
243.298	129.88
243.531	147.88
243.765	147.88
243.998	146.88
244.232	159.88
244.465	143.88
244.699	158.88
244.932	149.88
245.166	149.88
245.399	165.88
245.633	145.88
245.866	154.88
246.099	162.88
246.333	164.88
246.566	163.88
246.8	149.88
247.033	168.88
247.266	181.88
247.5	166.88
247.733	174.88
247.966	179.88
248.2	185.88
248.433	185.88
248.666	181.88
248.899	190.88
249.133	197.88
249.366	206.88
249.599	194.88
249.832	188.88
250.066	191.88
250.299	199.88
250.532	191.88
250.765	210.88
250.998	227.88
251.231	253.88
251.465	218.88
251.698	213.88
251.931	185.88
252.164	203.88
252.397	210.88
252.63	217.88
252.863	217.88
253.096	230.88
253.329	229.88
253.562	206.88
253.795	229.88
254.028	229.88
254.261	227.88
254.494	223.88
254.727	250.88
254.96	279.88
255.193	265.88
255.426	260.88
255.659	237.88
255.892	242.88
256.124	233.88
256.357	240.88
256.59	243.88
256.823	246.88
257.056	229.88
257.289	223.88
257.521	220.88
257.754	211.88
257.987	221.88
258.22	222.88
258.452	227.88
258.685	233.88
258.918	214.88
259.151	229.88
259.383	233.88
259.616	231.88
259.849	257.88
260.081	232.88
260.314	270.88
260.547	262.88
260.779	248.88
261.012	246.88
261.244	222.88
261.477	236.88
261.71	242.88
261.942	229.88
262.175	245.88
262.407	235.88
262.64	225.88
262.872	229.88
263.105	232.88
263.337	241.88
263.57	228.88
263.802	227.88
264.035	219.88
264.267	218.88
264.499	239.88
264.732	219.88
264.964	239.88
265.197	250.88
265.429	228.88
265.661	223.88
265.894	236.88
266.126	233.88
266.358	225.88
266.591	236.88
266.823	246.88
267.055	241.88
267.287	250.88
267.52	239.88
267.752	246.88
267.984	266.88
268.216	247.88
268.448	266.88
268.681	276.88
268.913	270.88
269.145	282.88
269.377	313.88
269.609	289.88
269.841	287.88
270.073	275.88
270.306	297.88
270.538	324.88
270.77	334.88
271.002	313.88
271.234	321.88
271.466	307.88
271.698	324.88
271.93	339.88
272.162	323.88
272.394	331.88
272.626	337.88
272.858	317.88
273.09	288.88
273.322	296.88
273.553	295.88
273.785	300.88
274.017	300.88
274.249	292.88
274.481	298.88
274.713	276.88
274.945	263.88
275.176	291.88
275.408	292.88
275.64	293.88
275.872	285.88
276.104	289.88
276.335	296.88
276.567	293.88
276.799	323.88
277.031	332.88
277.262	311.88
277.494	340.88
277.726	322.88
277.957	321.88
278.189	313.88
278.421	309.88
278.652	300.88
278.884	302.88
279.115	301.88
279.347	305.88
279.579	307.88
279.81	303.88
280.042	293.88
280.273	305.88
280.505	306.88
280.736	313.88
280.968	309.88
281.199	298.88
281.431	297.88
281.662	316.88
281.894	300.88
282.125	305.88
282.356	329.88
282.588	339.88
282.819	320.88
283.051	308.88
283.282	302.88
283.513	313.88
283.745	321.88
283.976	313.88
284.207	298.88
284.439	318.88
284.67	326.88
284.901	314.88
285.132	314.88
285.364	328.88
285.595	325.88
285.826	315.88
286.057	307.88
286.288	318.88
286.52	311.88
286.751	332.88
286.982	341.88
287.213	316.88
287.444	325.88
287.675	335.88
287.906	327.88
288.138	337.88
288.369	334.88
288.6	342.88
288.831	337.88
289.062	327.88
289.293	325.88
289.524	341.88
289.755	330.88
289.986	329.88
290.217	345.88
290.448	321.88
290.679	332.88
290.91	330.88
291.141	334.88
291.371	336.88
291.602	334.88
291.833	334.88
292.064	349.88
292.295	337.88
292.526	316.88
292.757	329.88
292.987	339.88
293.218	349.88
293.449	338.88
293.68	350.88
293.91	327.88
294.141	330.88
294.372	341.88
294.603	323.88
294.833	345.88
295.064	324.88
295.295	327.88
295.525	327.88
295.756	335.88
295.987	352.88
296.217	366.88
296.448	382.88
296.679	346.88
296.909	337.88
297.14	359.88
297.37	335.88
297.601	349.88
297.831	358.88
298.062	355.88
298.292	359.88
298.523	363.88
298.753	364.88
298.984	343.88
299.214	381.88
299.445	385.88
299.675	362.88
299.905	349.88
300.136	365.88
300.366	354.88
300.597	350.88
300.827	363.88
301.057	357.88
301.288	355.88
301.518	358.88
301.748	375.88
301.979	375.88
302.209	376.88
302.439	379.88
302.669	370.88
302.9	364.88
303.13	381.88
303.36	381.88
303.59	382.88
303.82	378.88
304.051	380.88
304.281	373.88
304.511	357.88
304.741	391.88
304.971	361.88
305.201	387.88
305.431	378.88
305.661	369.88
305.891	396.88
306.121	395.88
306.352	362.88
306.582	377.88
306.812	370.88
307.042	378.88
307.272	385.88
307.502	379.88
307.731	389.88
307.961	385.88
308.191	354.88
308.421	387.88
308.651	391.88
308.881	387.88
309.111	401.88
309.341	395.88
309.571	404.88
309.8	397.88
310.03	388.88
310.26	407.88
310.49	393.88
310.72	415.88
310.949	411.88
311.179	426.88
311.409	405.88
311.639	423.88
311.868	422.88
312.098	423.88
312.328	418.88
312.557	422.88
312.787	445.88
313.017	447.88
313.246	418.88
313.476	408.88
313.706	424.88
313.935	425.88
314.165	434.88
314.394	438.88
314.624	452.88
314.853	413.88
315.083	439.88
315.312	409.88
315.542	398.88
315.771	438.88
316.001	414.88
316.23	416.88
316.46	406.88
316.689	421.88
316.919	418.88
317.148	419.88
317.377	414.88
317.607	424.88
317.836	403.88
318.065	419.88
318.295	414.88
318.524	411.88
318.753	418.88
318.983	418.88
319.212	423.88
319.441	426.88
319.67	430.88
319.9	440.88
320.129	442.88
320.358	435.88
320.587	429.88
320.816	418.88
321.046	426.88
321.275	436.88
321.504	445.88
321.733	445.88
321.962	453.88
322.191	463.88
322.42	458.88
322.649	469.88
322.878	464.88
323.108	497.88
323.337	475.88
323.566	497.88
323.795	533.88
324.024	570.88
324.253	648.88
324.482	894.88
324.71	1309.88
324.939	1770.88
325.168	1546.88
325.397	827.88
325.626	591.88
325.855	533.88
326.084	502.88
326.313	488.88
326.542	525.88
326.77	545.88
326.999	626.88
327.228	817.88
327.457	1178.88
327.686	1351.88
327.914	925.88
328.143	633.88
328.372	596.88
328.6	557.88
328.829	550.88
329.058	564.88
329.287	559.88
329.515	532.88
329.744	535.88
329.972	530.88
330.201	519.88
330.43	578.88
330.658	563.88
330.887	600.88
331.115	570.88
331.344	549.88
331.572	517.88
331.801	520.88
332.03	534.88
332.258	512.88
332.486	470.88
332.715	482.88
332.943	519.88
333.172	496.88
333.4	512.88
333.629	507.88
333.857	537.88
334.085	540.88
334.314	565.88
334.542	566.88
334.771	584.88
334.999	555.88
335.227	550.88
335.455	516.88
335.684	494.88
335.912	511.88
336.14	506.88
336.369	502.88
336.597	503.88
336.825	492.88
337.053	465.88
337.281	470.88
337.51	475.88
337.738	483.88
337.966	492.88
338.194	507.88
338.422	477.88
338.65	467.88
338.878	483.88
339.106	451.88
339.334	476.88
339.562	458.88
339.79	458.88
340.018	462.88
340.246	451.88
340.474	474.88
340.702	457.88
340.93	449.88
341.158	462.88
341.386	455.88
341.614	466.88
341.842	455.88
342.07	467.88
342.298	457.88
342.526	443.88
342.754	466.88
342.981	449.88
343.209	452.88
343.437	476.88
343.665	458.88
343.893	483.88
344.12	494.88
344.348	473.88
344.576	483.88
344.804	481.88
345.031	472.88
345.259	469.88
345.487	442.88
345.714	455.88
345.942	434.88
346.17	443.88
346.397	448.88
346.625	427.88
346.853	436.88
347.08	435.88
347.308	422.88
347.535	446.88
347.763	471.88
347.99	447.88
348.218	458.88
348.445	439.88
348.673	459.88
348.9	428.88
349.128	441.88
349.355	437.88
349.583	407.88
349.81	423.88
350.037	430.88
350.265	436.88
350.492	423.88
350.72	448.88
350.947	429.88
351.174	437.88
351.402	422.88
351.629	442.88
351.856	441.88
352.083	428.88
352.311	443.88
352.538	435.88
352.765	450.88
352.992	420.88
353.22	443.88
353.447	424.88
353.674	428.88
353.901	426.88
354.128	419.88
354.355	425.88
354.583	424.88
354.81	415.88
355.037	419.88
355.264	418.88
355.491	407.88
355.718	409.88
355.945	415.88
356.172	393.88
356.399	407.88
356.626	400.88
356.853	397.88
357.08	401.88
357.307	401.88
357.534	422.88
357.761	403.88
357.988	392.88
358.215	405.88
358.441	405.88
358.668	426.88
358.895	425.88
359.122	436.88
359.349	435.88
359.576	447.88
359.802	445.88
360.029	449.88
360.256	487.88
360.483	462.88
360.709	454.88
360.936	441.88
361.163	414.88
361.39	404.88
361.616	407.88
361.843	418.88
362.07	421.88
362.296	437.88
362.523	422.88
362.749	413.88
362.976	410.88
363.203	422.88
363.429	410.88
363.656	405.88
363.882	422.88
364.109	413.88
364.335	414.88
364.562	414.88
364.788	402.88
365.015	407.88
365.241	406.88
365.468	438.88
365.694	412.88
365.92	411.88
366.147	423.88
366.373	406.88
366.599	419.88
366.826	402.88
367.052	411.88
367.278	417.88
367.505	398.88
367.731	407.88
367.957	398.88
368.184	399.88
368.41	416.88
368.636	387.88
368.862	423.88
369.089	403.88
369.315	414.88
369.541	424.88
369.767	393.88
369.993	419.88
370.219	402.88
370.445	408.88
370.672	408.88
370.898	397.88
371.124	405.88
371.35	412.88
371.576	409.88
371.802	425.88
372.028	406.88
372.254	420.88
372.48	402.88
372.706	410.88
372.932	396.88
373.158	412.88
373.384	421.88
373.61	414.88
373.835	402.88
374.061	421.88
374.287	411.88
374.513	393.88
374.739	419.88
374.965	424.88
375.191	412.88
375.416	430.88
375.642	427.88
375.868	414.88
376.094	413.88
376.319	418.88
376.545	421.88
376.771	407.88
376.997	395.88
377.222	403.88
377.448	400.88
377.674	412.88
377.899	390.88
378.125	405.88
378.35	408.88
378.576	393.88
378.802	418.88
379.027	400.88
379.253	396.88
379.478	406.88
379.704	403.88
379.929	397.88
380.155	399.88
380.38	408.88
380.606	404.88
380.831	397.88
381.057	407.88
381.282	405.88
381.507	398.88
381.733	409.88
381.958	406.88
382.184	393.88
382.409	405.88
382.634	420.88
382.86	413.88
383.085	420.88
383.31	417.88
383.535	410.88
383.761	421.88
383.986	408.88
384.211	434.88
384.436	442.88
384.662	415.88
384.887	426.88
385.112	461.88
385.337	427.88
385.562	446.88
385.787	429.88
386.013	449.88
386.238	452.88
386.463	423.88
386.688	422.88
386.913	434.88
387.138	429.88
387.363	431.88
387.588	434.88
387.813	437.88
388.038	433.88
388.263	449.88
388.488	450.88
388.713	453.88
388.938	450.88
389.163	427.88
389.387	449.88
389.612	433.88
389.837	424.88
390.062	431.88
390.287	425.88
390.512	426.88
390.736	430.88
390.961	447.88
391.186	443.88
391.411	478.88
391.636	470.88
391.86	459.88
392.085	444.88
392.31	454.88
392.534	468.88
392.759	447.88
392.984	456.88
393.208	434.88
393.433	467.88
393.658	447.88
393.882	433.88
394.107	439.88
394.331	449.88
394.556	439.88
394.78	421.88
395.005	459.88
395.229	451.88
395.454	467.88
395.678	464.88
395.903	478.88
396.127	486.88
396.352	477.88
396.576	466.88
396.801	464.88
397.025	454.88
397.249	485.88
397.474	464.88
397.698	458.88
397.922	473.88
398.147	480.88
398.371	489.88
398.595	508.88
398.82	503.88
399.044	491.88
399.268	535.88
399.492	559.88
399.717	604.88
399.941	613.88
400.165	621.88
400.389	616.88
400.613	555.88
400.837	543.88
401.062	533.88
401.286	507.88
401.51	508.88
401.734	473.88
401.958	504.88
402.182	509.88
402.406	517.88
402.63	536.88
402.854	491.88
403.078	505.88
403.302	536.88
403.526	528.88
403.75	512.88
403.974	525.88
404.198	521.88
404.422	525.88
404.645	532.88
404.869	518.88
405.093	550.88
405.317	588.88
405.541	605.88
405.765	591.88
405.988	552.88
406.212	553.88
406.436	554.88
406.66	576.88
406.883	565.88
407.107	589.88
407.331	625.88
407.555	683.88
407.778	684.88
408.002	599.88
408.226	577.88
408.449	554.88
408.673	570.88
408.896	577.88
409.12	610.88
409.344	590.88
409.567	546.88
409.791	534.88
410.014	523.88
410.238	531.88
410.461	502.88
410.685	523.88
410.908	513.88
411.132	567.88
411.355	571.88
411.578	548.88
411.802	513.88
412.025	510.88
412.249	533.88
412.472	537.88
412.695	585.88
412.919	561.88
413.142	505.88
413.365	503.88
413.589	508.88
413.812	494.88
414.035	507.88
414.258	454.88
414.482	479.88
414.705	498.88
414.928	479.88
415.151	486.88
415.374	497.88
415.597	476.88
415.821	467.88
416.044	485.88
416.267	480.88
416.49	502.88
416.713	484.88
416.936	471.88
417.159	459.88
417.382	487.88
417.605	457.88
417.828	481.88
418.051	504.88
418.274	493.88
418.497	478.88
418.72	505.88
418.943	487.88
419.166	482.88
419.389	517.88
419.611	520.88
419.834	505.88
420.057	502.88
420.28	505.88
420.503	504.88
420.726	475.88
420.948	524.88
421.171	546.88
421.394	539.88
421.617	475.88
421.839	512.88
422.062	492.88
422.285	497.88
422.507	537.88
422.73	605.88
422.953	581.88
423.175	531.88
423.398	514.88
423.621	505.88
423.843	544.88
424.066	521.88
424.288	533.88
424.511	545.88
424.733	583.88
424.956	647.88
425.178	620.88
425.401	629.88
425.623	613.88
425.846	543.88
426.068	501.88
426.291	512.88
426.513	506.88
426.735	521.88
426.958	555.88
427.18	602.88
427.402	723.88
427.625	758.88
427.847	661.88
428.069	589.88
428.292	535.88
428.514	483.88
428.736	492.88
428.958	476.88
429.181	461.88
429.403	478.88
429.625	467.88
429.847	511.88
430.069	543.88
430.292	554.88
430.514	494.88
430.736	484.88
430.958	463.88
431.18	466.88
431.402	441.88
431.624	460.88
431.846	441.88
432.068	431.88
432.29	451.88
432.512	452.88
432.734	463.88
432.956	475.88
433.178	470.88
433.4	467.88
433.622	475.88
433.844	457.88
434.066	446.88
434.287	447.88
434.509	455.88
434.731	460.88
434.953	466.88
435.175	510.88
435.397	511.88
435.618	503.88
435.84	552.88
436.062	636.88
436.284	665.88
436.505	550.88
436.727	497.88
436.949	476.88
437.17	470.88
437.392	458.88
437.614	493.88
437.835	498.88
438.057	556.88
438.278	659.88
438.5	644.88
438.721	711.88
438.943	688.88
439.165	544.88
439.386	506.88
439.608	500.88
439.829	517.88
440.05	520.88
440.272	583.88
440.493	521.88
440.715	499.88
440.936	491.88
441.158	467.88
441.379	476.88
441.6	489.88
441.822	523.88
442.043	546.88
442.264	611.88
442.486	628.88
442.707	561.88
442.928	503.88
443.149	517.88
443.371	514.88
443.592	581.88
443.813	664.88
444.034	691.88
444.255	599.88
444.476	542.88
444.698	534.88
444.919	533.88
445.14	615.88
445.361	558.88
445.582	545.88
445.803	587.88
446.024	669.88
446.245	665.88
446.466	611.88
446.687	531.88
446.908	490.88
447.129	493.88
447.35	448.88
447.571	470.88
447.792	433.88
448.013	445.88
448.234	466.88
448.455	529.88
448.675	638.88
448.896	692.88
449.117	574.88
449.338	561.88
449.559	646.88
449.779	761.88
450	588.88
450.221	490.88
450.442	469.88
450.662	443.88
450.883	436.88
451.104	441.88
451.324	443.88
451.545	429.88
451.766	413.88
451.986	420.88
452.207	420.88
452.428	403.88
452.648	415.88
452.869	406.88
453.089	423.88
453.31	457.88
453.53	429.88
453.751	390.88
453.971	420.88
454.192	425.88
454.412	429.88
454.633	395.88
454.853	410.88
455.073	404.88
455.294	452.88
455.514	497.88
455.734	459.88
455.955	415.88
456.175	399.88
456.395	393.88
456.616	402.88
456.836	387.88
457.056	397.88
457.276	392.88
457.497	379.88
457.717	411.88
457.937	412.88
458.157	406.88
458.377	417.88
458.598	447.88
458.818	477.88
459.038	539.88
459.258	542.88
459.478	471.88
459.698	454.88
459.918	460.88
460.138	470.88
460.358	470.88
460.578	450.88
460.798	464.88
461.018	460.88
461.238	451.88
461.458	447.88
461.678	475.88
461.898	479.88
462.118	478.88
462.338	477.88
462.558	465.88
462.777	493.88
462.997	496.88
463.217	527.88
463.437	532.88
463.657	487.88
463.876	505.88
464.096	505.88
464.316	489.88
464.536	501.88
464.755	511.88
464.975	501.88
465.195	499.88
465.414	532.88
465.634	490.88
465.854	471.88
466.073	440.88
466.293	448.88
466.512	421.88
466.732	423.88
466.951	424.88
467.171	423.88
467.391	425.88
467.61	440.88
467.829	427.88
468.049	448.88
468.268	430.88
468.488	412.88
468.707	415.88
468.927	379.88
469.146	381.88
469.365	394.88
469.585	417.88
469.804	426.88
470.023	440.88
470.243	435.88
470.462	421.88
470.681	451.88
470.901	449.88
471.12	439.88
471.339	444.88
471.558	421.88
471.777	447.88
471.997	424.88
472.216	429.88
472.435	454.88
472.654	437.88
472.873	426.88
473.092	443.88
473.311	420.88
473.53	422.88
473.749	442.88
473.968	465.88
474.187	543.88
474.406	552.88
474.625	453.88
474.844	429.88
475.063	447.88
475.282	423.88
475.501	443.88
475.72	448.88
475.939	444.88
476.158	450.88
476.377	449.88
476.596	430.88
476.814	446.88
477.033	461.88
477.252	472.88
477.471	455.88
477.69	477.88
477.908	464.88
478.127	487.88
478.346	467.88
478.564	482.88
478.783	478.88
479.002	490.88
479.22	476.88
479.439	509.88
479.658	493.88
479.876	517.88
480.095	496.88
480.313	553.88
480.532	547.88
480.751	526.88
480.969	517.88
481.188	562.88
481.406	605.88
481.624	547.88
481.843	535.88
482.061	504.88
482.28	505.88
482.498	498.88
482.717	502.88
482.935	518.88
483.153	477.88
483.372	491.88
483.59	489.88
483.808	497.88
484.027	497.88
484.245	487.88
484.463	507.88
484.681	521.88
484.9	513.88
485.118	516.88
485.336	501.88
485.554	507.88
485.772	524.88
485.99	511.88
486.209	520.88
486.427	515.88
486.645	509.88
486.863	539.88
487.081	523.88
487.299	527.88
487.517	547.88
487.735	538.88
487.953	535.88
488.171	515.88
488.389	525.88
488.607	517.88
488.825	527.88
489.043	509.88
489.261	568.88
489.479	513.88
489.696	544.88
489.914	517.88
490.132	541.88
490.35	555.88
490.568	549.88
490.786	535.88
491.003	563.88
491.221	583.88
491.439	584.88
491.657	583.88
491.874	599.88
492.092	591.88
492.31	595.88
492.527	614.88
492.745	601.88
492.963	612.88
493.18	605.88
493.398	591.88
493.615	618.88
493.833	596.88
494.05	617.88
494.268	609.88
494.485	600.88
494.703	586.88
494.92	611.88
495.138	605.88
495.355	593.88
495.573	626.88
495.79	617.88
496.008	604.88
496.225	629.88
496.442	622.88
496.66	632.88
496.877	612.88
497.094	630.88
497.312	634.88
497.529	653.88
497.746	633.88
497.963	656.88
498.181	691.88
498.398	664.88
498.615	697.88
498.832	703.88
499.049	739.88
499.267	746.88
499.484	782.88
499.701	818.88
499.918	857.88
500.135	865.88
500.352	942.88
500.569	972.88
500.786	959.88
501.003	940.88
501.22	894.88
501.437	855.88
501.654	855.88
501.871	833.88
502.088	771.88
