Data from 1964.PennyLincolnUp.Lamp.En5.5.200Scan.071719.P1._HRD10591_14-04-13-909.txt Node
Date: Thu Jul 18 14:04:13 EDT 2019
User: cochatt
Spectrometer: HR+D1059
Trigger mode: 1
Integration Time (sec): 1.000000E-1
Scans to average: 1
Electric dark correction enabled: true
Nonlinearity correction enabled: false
Boxcar width: 0
XAxis mode: Wavelengths
Number of Pixels in Spectrum: 2048
>>>>>Begin Spectral Data<<<<<
223.165	-15.31
223.4	-15.31
223.635	-15.31
223.869	-23.31
224.104	-19.31
224.338	-1.31
224.573	-21.31
224.808	-5.31
225.042	-5.31
225.277	-2.31
225.511	-10.31
225.746	4.69
225.98	-1.31
226.215	3.69
226.449	14.69
226.683	16.69
226.918	27.69
227.152	37.69
227.387	26.69
227.621	41.69
227.856	35.69
228.09	62.69
228.324	42.69
228.559	37.69
228.793	65.69
229.027	80.69
229.262	95.69
229.496	85.69
229.73	94.69
229.964	130.69
230.199	111.69
230.433	111.69
230.667	113.69
230.901	96.69
231.136	110.69
231.37	99.69
231.604	99.69
231.838	89.69
232.072	104.69
232.306	108.69
232.541	92.69
232.775	92.69
233.009	107.69
233.243	114.69
233.477	110.69
233.711	117.69
233.945	107.69
234.179	114.69
234.413	99.69
234.647	105.69
234.881	104.69
235.115	103.69
235.349	103.69
235.583	106.69
235.817	121.69
236.051	119.69
236.285	104.69
236.519	105.69
236.753	124.69
236.987	140.69
237.221	146.69
237.455	169.69
237.689	148.69
237.922	130.69
238.156	126.69
238.39	125.69
238.624	119.69
238.858	106.69
239.091	120.69
239.325	121.69
239.559	126.69
239.793	96.69
240.027	103.69
240.26	110.69
240.494	124.69
240.728	120.69
240.961	123.69
241.195	135.69
241.429	142.69
241.662	122.69
241.896	123.69
242.13	111.69
242.363	125.69
242.597	126.69
242.83	134.69
243.064	141.69
243.298	130.69
243.531	122.69
243.765	135.69
243.998	127.69
244.232	146.69
244.465	136.69
244.699	132.69
244.932	123.69
245.166	148.69
245.399	137.69
245.633	138.69
245.866	116.69
246.099	140.69
246.333	131.69
246.566	133.69
246.8	133.69
247.033	142.69
247.266	144.69
247.5	147.69
247.733	143.69
247.966	159.69
248.2	157.69
248.433	155.69
248.666	156.69
248.899	152.69
249.133	170.69
249.366	178.69
249.599	153.69
249.832	166.69
250.066	167.69
250.299	170.69
250.532	169.69
250.765	189.69
250.998	186.69
251.231	185.69
251.465	185.69
251.698	186.69
251.931	161.69
252.164	177.69
252.397	188.69
252.63	182.69
252.863	178.69
253.096	177.69
253.329	196.69
253.562	201.69
253.795	196.69
254.028	203.69
254.261	194.69
254.494	199.69
254.727	225.69
254.96	220.69
255.193	216.69
255.426	215.69
255.659	196.69
255.892	207.69
256.124	225.69
256.357	214.69
256.59	196.69
256.823	192.69
257.056	211.69
257.289	197.69
257.521	203.69
257.754	192.69
257.987	211.69
258.22	202.69
258.452	187.69
258.685	209.69
258.918	190.69
259.151	192.69
259.383	204.69
259.616	200.69
259.849	197.69
260.081	229.69
260.314	215.69
260.547	241.69
260.779	216.69
261.012	204.69
261.244	211.69
261.477	216.69
261.71	221.69
261.942	199.69
262.175	202.69
262.407	198.69
262.64	205.69
262.872	208.69
263.105	199.69
263.337	185.69
263.57	202.69
263.802	198.69
264.035	207.69
264.267	186.69
264.499	210.69
264.732	186.69
264.964	203.69
265.197	213.69
265.429	211.69
265.661	214.69
265.894	190.69
266.126	211.69
266.358	216.69
266.591	197.69
266.823	235.69
267.055	226.69
267.287	228.69
267.52	206.69
267.752	216.69
267.984	208.69
268.216	212.69
268.448	220.69
268.681	225.69
268.913	222.69
269.145	230.69
269.377	254.69
269.609	236.69
269.841	244.69
270.073	262.69
270.306	258.69
270.538	286.69
270.77	293.69
271.002	262.69
271.234	264.69
271.466	268.69
271.698	268.69
271.93	282.69
272.162	281.69
272.394	288.69
272.626	267.69
272.858	260.69
273.09	279.69
273.322	270.69
273.553	277.69
273.785	260.69
274.017	244.69
274.249	280.69
274.481	270.69
274.713	256.69
274.945	258.69
275.176	257.69
275.408	257.69
275.64	255.69
275.872	266.69
276.104	271.69
276.335	268.69
276.567	258.69
276.799	272.69
277.031	294.69
277.262	285.69
277.494	276.69
277.726	274.69
277.957	272.69
278.189	249.69
278.421	284.69
278.652	268.69
278.884	272.69
279.115	267.69
279.347	258.69
279.579	251.69
279.81	262.69
280.042	262.69
280.273	266.69
280.505	260.69
280.736	275.69
280.968	273.69
281.199	260.69
281.431	278.69
281.662	278.69
281.894	274.69
282.125	272.69
282.356	273.69
282.588	282.69
282.819	279.69
283.051	256.69
283.282	287.69
283.513	287.69
283.745	272.69
283.976	286.69
284.207	286.69
284.439	303.69
284.67	288.69
284.901	288.69
285.132	266.69
285.364	278.69
285.595	250.69
285.826	293.69
286.057	278.69
286.288	295.69
286.52	280.69
286.751	287.69
286.982	280.69
287.213	266.69
287.444	277.69
287.675	303.69
287.906	307.69
288.138	313.69
288.369	307.69
288.6	294.69
288.831	318.69
289.062	298.69
289.293	302.69
289.524	284.69
289.755	298.69
289.986	313.69
290.217	301.69
290.448	285.69
290.679	306.69
290.91	302.69
291.141	301.69
291.371	303.69
291.602	307.69
291.833	300.69
292.064	297.69
292.295	312.69
292.526	294.69
292.757	292.69
292.987	304.69
293.218	279.69
293.449	285.69
293.68	281.69
293.91	301.69
294.141	299.69
294.372	307.69
294.603	311.69
294.833	298.69
295.064	299.69
295.295	290.69
295.525	319.69
295.756	307.69
295.987	304.69
296.217	329.69
296.448	318.69
296.679	304.69
296.909	315.69
297.14	308.69
297.37	298.69
297.601	318.69
297.831	312.69
298.062	304.69
298.292	311.69
298.523	312.69
298.753	315.69
298.984	316.69
299.214	322.69
299.445	307.69
299.675	307.69
299.905	319.69
300.136	324.69
300.366	322.69
300.597	322.69
300.827	340.69
301.057	317.69
301.288	337.69
301.518	323.69
301.748	319.69
301.979	341.69
302.209	341.69
302.439	331.69
302.669	336.69
302.9	346.69
303.13	317.69
303.36	319.69
303.59	336.69
303.82	338.69
304.051	348.69
304.281	340.69
304.511	325.69
304.741	318.69
304.971	333.69
305.201	339.69
305.431	322.69
305.661	329.69
305.891	345.69
306.121	345.69
306.352	353.69
306.582	332.69
306.812	324.69
307.042	358.69
307.272	329.69
307.502	330.69
307.731	331.69
307.961	323.69
308.191	317.69
308.421	320.69
308.651	334.69
308.881	330.69
309.111	329.69
309.341	355.69
309.571	362.69
309.8	354.69
310.03	355.69
310.26	363.69
310.49	357.69
310.72	351.69
310.949	374.69
311.179	386.69
311.409	356.69
311.639	379.69
311.868	344.69
312.098	354.69
312.328	351.69
312.557	356.69
312.787	367.69
313.017	348.69
313.246	370.69
313.476	351.69
313.706	367.69
313.935	373.69
314.165	366.69
314.394	381.69
314.624	371.69
314.853	366.69
315.083	366.69
315.312	363.69
315.542	353.69
315.771	352.69
316.001	369.69
316.23	349.69
316.46	360.69
316.689	378.69
316.919	374.69
317.148	386.69
317.377	383.69
317.607	390.69
317.836	375.69
318.065	394.69
318.295	374.69
318.524	386.69
318.753	369.69
318.983	366.69
319.212	353.69
319.441	373.69
319.67	396.69
319.9	363.69
320.129	364.69
320.358	366.69
320.587	380.69
320.816	378.69
321.046	371.69
321.275	387.69
321.504	380.69
321.733	364.69
321.962	377.69
322.191	414.69
322.42	403.69
322.649	403.69
322.878	416.69
323.108	390.69
323.337	412.69
323.566	415.69
323.795	422.69
324.024	471.69
324.253	533.69
324.482	712.69
324.71	1006.69
324.939	1332.69
325.168	1159.69
325.397	648.69
325.626	486.69
325.855	446.69
326.084	436.69
326.313	404.69
326.542	424.69
326.77	469.69
326.999	513.69
327.228	658.69
327.457	900.69
327.686	1044.69
327.914	700.69
328.143	529.69
328.372	510.69
328.6	473.69
328.829	447.69
329.058	450.69
329.287	494.69
329.515	441.69
329.744	426.69
329.972	451.69
330.201	468.69
330.43	470.69
330.658	478.69
330.887	469.69
331.115	502.69
331.344	463.69
331.572	444.69
331.801	460.69
332.03	424.69
332.258	422.69
332.486	411.69
332.715	418.69
332.943	417.69
333.172	443.69
333.4	444.69
333.629	454.69
333.857	488.69
334.085	467.69
334.314	465.69
334.542	501.69
334.771	506.69
334.999	468.69
335.227	450.69
335.455	454.69
335.684	450.69
335.912	436.69
336.14	434.69
336.369	425.69
336.597	436.69
336.825	423.69
337.053	433.69
337.281	416.69
337.51	415.69
337.738	421.69
337.966	416.69
338.194	432.69
338.422	440.69
338.65	418.69
338.878	418.69
339.106	439.69
339.334	430.69
339.562	408.69
339.79	437.69
340.018	413.69
340.246	402.69
340.474	399.69
340.702	414.69
340.93	408.69
341.158	405.69
341.386	395.69
341.614	418.69
341.842	414.69
342.07	407.69
342.298	393.69
342.526	400.69
342.754	416.69
342.981	393.69
343.209	410.69
343.437	407.69
343.665	405.69
343.893	412.69
344.12	445.69
344.348	450.69
344.576	435.69
344.804	417.69
345.031	419.69
345.259	419.69
345.487	404.69
345.714	404.69
345.942	408.69
346.17	381.69
346.397	392.69
346.625	398.69
346.853	384.69
347.08	392.69
347.308	405.69
347.535	370.69
347.763	386.69
347.99	386.69
348.218	396.69
348.445	378.69
348.673	397.69
348.9	395.69
349.128	388.69
349.355	366.69
349.583	380.69
349.81	367.69
350.037	383.69
350.265	390.69
350.492	387.69
350.72	391.69
350.947	384.69
351.174	415.69
351.402	377.69
351.629	381.69
351.856	379.69
352.083	379.69
352.311	377.69
352.538	398.69
352.765	384.69
352.992	391.69
353.22	383.69
353.447	375.69
353.674	377.69
353.901	391.69
354.128	380.69
354.355	367.69
354.583	362.69
354.81	378.69
355.037	361.69
355.264	369.69
355.491	357.69
355.718	358.69
355.945	372.69
356.172	354.69
356.399	382.69
356.626	359.69
356.853	366.69
357.08	360.69
357.307	363.69
357.534	368.69
357.761	361.69
357.988	366.69
358.215	376.69
358.441	379.69
358.668	360.69
358.895	378.69
359.122	388.69
359.349	376.69
359.576	386.69
359.802	387.69
360.029	389.69
360.256	395.69
360.483	378.69
360.709	403.69
360.936	375.69
361.163	385.69
361.39	378.69
361.616	373.69
361.843	376.69
362.07	368.69
362.296	362.69
362.523	378.69
362.749	378.69
362.976	359.69
363.203	368.69
363.429	348.69
363.656	358.69
363.882	360.69
364.109	378.69
364.335	353.69
364.562	360.69
364.788	354.69
365.015	348.69
365.241	362.69
365.468	362.69
365.694	379.69
365.92	373.69
366.147	353.69
366.373	370.69
366.599	370.69
366.826	327.69
367.052	360.69
367.278	339.69
367.505	362.69
367.731	371.69
367.957	349.69
368.184	366.69
368.41	372.69
368.636	354.69
368.862	383.69
369.089	358.69
369.315	376.69
369.541	349.69
369.767	361.69
369.993	347.69
370.219	360.69
370.445	373.69
370.672	356.69
370.898	369.69
371.124	371.69
371.35	373.69
371.576	372.69
371.802	352.69
372.028	353.69
372.254	387.69
372.48	374.69
372.706	370.69
372.932	358.69
373.158	376.69
373.384	361.69
373.61	367.69
373.835	365.69
374.061	360.69
374.287	382.69
374.513	366.69
374.739	379.69
374.965	380.69
375.191	363.69
375.416	368.69
375.642	368.69
375.868	373.69
376.094	392.69
376.319	380.69
376.545	367.69
376.771	350.69
376.997	345.69
377.222	355.69
377.448	358.69
377.674	351.69
377.899	364.69
378.125	369.69
378.35	363.69
378.576	358.69
378.802	347.69
379.027	365.69
379.253	362.69
379.478	364.69
379.704	359.69
379.929	367.69
380.155	357.69
380.38	372.69
380.606	364.69
380.831	366.69
381.057	368.69
381.282	358.69
381.507	352.69
381.733	368.69
381.958	347.69
382.184	360.69
382.409	384.69
382.634	376.69
382.86	353.69
383.085	370.69
383.31	370.69
383.535	385.69
383.761	393.69
383.986	369.69
384.211	369.69
384.436	382.69
384.662	392.69
384.887	378.69
385.112	386.69
385.337	378.69
385.562	395.69
385.787	400.69
386.013	403.69
386.238	403.69
386.463	385.69
386.688	394.69
386.913	380.69
387.138	396.69
387.363	401.69
387.588	402.69
387.813	393.69
388.038	404.69
388.263	388.69
388.488	403.69
388.713	396.69
388.938	390.69
389.163	391.69
389.387	398.69
389.612	384.69
389.837	406.69
390.062	397.69
390.287	406.69
390.512	401.69
390.736	396.69
390.961	392.69
391.186	394.69
391.411	426.69
391.636	408.69
391.86	404.69
392.085	405.69
392.31	411.69
392.534	422.69
392.759	421.69
392.984	410.69
393.208	414.69
393.433	416.69
393.658	392.69
393.882	407.69
394.107	406.69
394.331	406.69
394.556	391.69
394.78	391.69
395.005	411.69
395.229	393.69
395.454	402.69
395.678	403.69
395.903	412.69
396.127	426.69
396.352	420.69
396.576	404.69
396.801	422.69
397.025	420.69
397.249	414.69
397.474	412.69
397.698	407.69
397.922	432.69
398.147	439.69
398.371	454.69
398.595	430.69
398.82	448.69
399.044	462.69
399.268	496.69
399.492	516.69
399.717	531.69
399.941	562.69
400.165	546.69
400.389	551.69
400.613	515.69
400.837	458.69
401.062	455.69
401.286	440.69
401.51	441.69
401.734	427.69
401.958	446.69
402.182	458.69
402.406	435.69
402.63	456.69
402.854	454.69
403.078	454.69
403.302	475.69
403.526	452.69
403.75	452.69
403.974	459.69
404.198	459.69
404.422	464.69
404.645	454.69
404.869	466.69
405.093	479.69
405.317	506.69
405.541	560.69
405.765	514.69
405.988	478.69
406.212	480.69
406.436	482.69
406.66	479.69
406.883	499.69
407.107	512.69
407.331	543.69
407.555	584.69
407.778	594.69
408.002	538.69
408.226	517.69
408.449	516.69
408.673	491.69
408.896	499.69
409.12	548.69
409.344	500.69
409.567	467.69
409.791	478.69
410.014	464.69
410.238	463.69
410.461	473.69
410.685	452.69
410.908	477.69
411.132	481.69
411.355	497.69
411.578	491.69
411.802	467.69
412.025	467.69
412.249	464.69
412.472	457.69
412.695	486.69
412.919	491.69
413.142	468.69
413.365	450.69
413.589	452.69
413.812	442.69
414.035	458.69
414.258	436.69
414.482	418.69
414.705	417.69
414.928	436.69
415.151	437.69
415.374	422.69
415.597	436.69
415.821	424.69
416.044	441.69
416.267	419.69
416.49	427.69
416.713	419.69
416.936	439.69
417.159	452.69
417.382	426.69
417.605	416.69
417.828	444.69
418.051	433.69
418.274	434.69
418.497	421.69
418.72	425.69
418.943	429.69
419.166	466.69
419.389	464.69
419.611	477.69
419.834	466.69
420.057	444.69
420.28	440.69
420.503	456.69
420.726	437.69
420.948	454.69
421.171	483.69
421.394	483.69
421.617	472.69
421.839	449.69
422.062	435.69
422.285	441.69
422.507	507.69
422.73	512.69
422.953	500.69
423.175	473.69
423.398	446.69
423.621	454.69
423.843	461.69
424.066	454.69
424.288	467.69
424.511	466.69
424.733	495.69
424.956	571.69
425.178	538.69
425.401	525.69
425.623	552.69
425.846	472.69
426.068	457.69
426.291	438.69
426.513	447.69
426.735	436.69
426.958	486.69
427.18	528.69
427.402	634.69
427.625	654.69
427.847	570.69
428.069	496.69
428.292	483.69
428.514	428.69
428.736	418.69
428.958	444.69
429.181	414.69
429.403	435.69
429.625	443.69
429.847	446.69
430.069	472.69
430.292	480.69
430.514	415.69
430.736	422.69
430.958	405.69
431.18	401.69
431.402	405.69
431.624	433.69
431.846	390.69
432.068	400.69
432.29	416.69
432.512	382.69
432.734	435.69
432.956	414.69
433.178	416.69
433.4	403.69
433.622	421.69
433.844	419.69
434.066	399.69
434.287	422.69
434.509	391.69
434.731	410.69
434.953	422.69
435.175	417.69
435.397	443.69
435.618	455.69
435.84	466.69
436.062	521.69
436.284	562.69
436.505	480.69
436.727	440.69
436.949	416.69
437.17	422.69
437.392	409.69
437.614	407.69
437.835	436.69
438.057	483.69
438.278	546.69
438.5	551.69
438.721	603.69
438.943	575.69
439.165	480.69
439.386	425.69
439.608	427.69
439.829	432.69
440.05	442.69
440.272	474.69
440.493	449.69
440.715	423.69
440.936	426.69
441.158	430.69
441.379	422.69
441.6	423.69
441.822	458.69
442.043	470.69
442.264	533.69
442.486	538.69
442.707	459.69
442.928	462.69
443.149	468.69
443.371	472.69
443.592	495.69
443.813	539.69
444.034	576.69
444.255	489.69
444.476	473.69
444.698	465.69
444.919	468.69
445.14	578.69
445.361	499.69
445.582	485.69
445.803	508.69
446.024	575.69
446.245	560.69
446.466	533.69
446.687	478.69
446.908	432.69
447.129	412.69
447.35	423.69
447.571	389.69
447.792	385.69
448.013	405.69
448.234	419.69
448.455	434.69
448.675	515.69
448.896	587.69
449.117	489.69
449.338	481.69
449.559	575.69
449.779	619.69
450	501.69
450.221	424.69
450.442	414.69
450.662	402.69
450.883	391.69
451.104	406.69
451.324	394.69
451.545	384.69
451.766	383.69
451.986	358.69
452.207	368.69
452.428	358.69
452.648	367.69
452.869	358.69
453.089	357.69
453.31	364.69
453.53	352.69
453.751	361.69
453.971	368.69
454.192	360.69
454.412	382.69
454.633	372.69
454.853	357.69
455.073	348.69
455.294	382.69
455.514	420.69
455.734	414.69
455.955	369.69
456.175	362.69
456.395	354.69
456.616	358.69
456.836	351.69
457.056	337.69
457.276	353.69
457.497	356.69
457.717	353.69
457.937	367.69
458.157	366.69
458.377	352.69
458.598	381.69
458.818	390.69
459.038	428.69
459.258	452.69
459.478	416.69
459.698	396.69
459.918	384.69
460.138	375.69
460.358	387.69
460.578	411.69
460.798	408.69
461.018	420.69
461.238	428.69
461.458	401.69
461.678	397.69
461.898	438.69
462.118	417.69
462.338	425.69
462.558	418.69
462.777	439.69
462.997	434.69
463.217	470.69
463.437	475.69
463.657	435.69
463.876	426.69
464.096	430.69
464.316	452.69
464.536	449.69
464.755	436.69
464.975	433.69
465.195	435.69
465.414	440.69
465.634	427.69
465.854	406.69
466.073	386.69
466.293	386.69
466.512	380.69
466.732	358.69
466.951	387.69
467.171	370.69
467.391	358.69
467.61	378.69
467.829	394.69
468.049	385.69
468.268	378.69
468.488	360.69
468.707	370.69
468.927	376.69
469.146	374.69
469.365	378.69
469.585	365.69
469.804	364.69
470.023	367.69
470.243	377.69
470.462	401.69
470.681	386.69
470.901	406.69
471.12	378.69
471.339	378.69
471.558	369.69
471.777	387.69
471.997	388.69
472.216	379.69
472.435	402.69
472.654	391.69
472.873	378.69
473.092	367.69
473.311	377.69
473.53	358.69
473.749	386.69
473.968	418.69
474.187	480.69
474.406	477.69
474.625	409.69
474.844	386.69
475.063	393.69
475.282	386.69
475.501	396.69
475.72	402.69
475.939	402.69
476.158	381.69
476.377	392.69
476.596	384.69
476.814	411.69
477.033	416.69
477.252	363.69
477.471	422.69
477.69	399.69
477.908	393.69
478.127	397.69
478.346	419.69
478.564	422.69
478.783	440.69
479.002	430.69
479.22	447.69
479.439	419.69
479.658	434.69
479.876	457.69
480.095	457.69
480.313	466.69
480.532	467.69
480.751	455.69
480.969	481.69
481.188	483.69
481.406	522.69
481.624	470.69
481.843	433.69
482.061	442.69
482.28	444.69
482.498	449.69
482.717	434.69
482.935	420.69
483.153	436.69
483.372	433.69
483.59	430.69
483.808	422.69
484.027	436.69
484.245	435.69
484.463	442.69
484.681	448.69
484.9	453.69
485.118	466.69
485.336	448.69
485.554	454.69
485.772	457.69
485.99	469.69
486.209	459.69
486.427	452.69
486.645	470.69
486.863	464.69
487.081	460.69
487.299	468.69
487.517	442.69
487.735	438.69
487.953	476.69
488.171	459.69
488.389	474.69
488.607	457.69
488.825	474.69
489.043	466.69
489.261	462.69
489.479	476.69
489.696	445.69
489.914	455.69
490.132	486.69
490.35	468.69
490.568	484.69
490.786	506.69
491.003	494.69
491.221	519.69
491.439	518.69
491.657	499.69
491.874	519.69
492.092	514.69
492.31	518.69
492.527	530.69
492.745	520.69
492.963	523.69
493.18	529.69
493.398	514.69
493.615	533.69
493.833	546.69
494.05	539.69
494.268	520.69
494.485	522.69
494.703	537.69
494.92	561.69
495.138	536.69
495.355	542.69
495.573	515.69
495.79	534.69
496.008	542.69
496.225	538.69
496.442	539.69
496.66	551.69
496.877	548.69
497.094	537.69
497.312	562.69
497.529	576.69
497.746	596.69
497.963	583.69
498.181	586.69
498.398	631.69
498.615	606.69
498.832	643.69
499.049	648.69
499.267	660.69
499.484	683.69
499.701	722.69
499.918	762.69
500.135	790.69
500.352	818.69
500.569	851.69
500.786	856.69
501.003	813.69
501.22	771.69
501.437	762.69
501.654	713.69
501.871	710.69
502.088	679.69
