Data from 1964.PennyLincolnUp.Lamp.En5.5.200Scan.071719.P1._HRD10591_14-06-37-909.txt Node
Date: Thu Jul 18 14:06:37 EDT 2019
User: cochatt
Spectrometer: HR+D1059
Trigger mode: 1
Integration Time (sec): 1.000000E-1
Scans to average: 1
Electric dark correction enabled: true
Nonlinearity correction enabled: false
Boxcar width: 0
XAxis mode: Wavelengths
Number of Pixels in Spectrum: 2048
>>>>>Begin Spectral Data<<<<<
223.165	-12.12
223.4	-12.12
223.635	-12.12
223.869	0.88
224.104	-14.12
224.338	-0.12
224.573	-25.12
224.808	-15.12
225.042	-7.12
225.277	-18.12
225.511	-5.12
225.746	19.88
225.98	13.88
226.215	-0.12
226.449	4.88
226.683	10.88
226.918	11.88
227.152	34.88
227.387	37.88
227.621	37.88
227.856	42.88
228.09	42.88
228.324	46.88
228.559	42.88
228.793	64.88
229.027	99.88
229.262	89.88
229.496	93.88
229.73	118.88
229.964	133.88
230.199	106.88
230.433	99.88
230.667	111.88
230.901	113.88
231.136	112.88
231.37	119.88
231.604	99.88
231.838	105.88
232.072	108.88
232.306	110.88
232.541	120.88
232.775	110.88
233.009	114.88
233.243	118.88
233.477	123.88
233.711	122.88
233.945	123.88
234.179	116.88
234.413	103.88
234.647	95.88
234.881	124.88
235.115	116.88
235.349	118.88
235.583	126.88
235.817	114.88
236.051	113.88
236.285	123.88
236.519	130.88
236.753	137.88
236.987	141.88
237.221	186.88
237.455	217.88
237.689	158.88
237.922	146.88
238.156	139.88
238.39	130.88
238.624	126.88
238.858	124.88
239.091	121.88
239.325	119.88
239.559	130.88
239.793	136.88
240.027	112.88
240.26	137.88
240.494	147.88
240.728	162.88
240.961	137.88
241.195	149.88
241.429	160.88
241.662	139.88
241.896	146.88
242.13	144.88
242.363	148.88
242.597	136.88
242.83	142.88
243.064	139.88
243.298	134.88
243.531	138.88
243.765	138.88
243.998	139.88
244.232	141.88
244.465	129.88
244.699	138.88
244.932	147.88
245.166	152.88
245.399	150.88
245.633	147.88
245.866	146.88
246.099	148.88
246.333	165.88
246.566	150.88
246.8	158.88
247.033	160.88
247.266	165.88
247.5	162.88
247.733	165.88
247.966	165.88
248.2	168.88
248.433	174.88
248.666	163.88
248.899	199.88
249.133	203.88
249.366	211.88
249.599	194.88
249.832	189.88
250.066	195.88
250.299	169.88
250.532	198.88
250.765	211.88
250.998	214.88
251.231	220.88
251.465	215.88
251.698	196.88
251.931	205.88
252.164	193.88
252.397	197.88
252.63	198.88
252.863	217.88
253.096	214.88
253.329	229.88
253.562	214.88
253.795	216.88
254.028	228.88
254.261	222.88
254.494	221.88
254.727	250.88
254.96	267.88
255.193	284.88
255.426	240.88
255.659	248.88
255.892	257.88
256.124	243.88
256.357	220.88
256.59	226.88
256.823	225.88
257.056	223.88
257.289	224.88
257.521	216.88
257.754	203.88
257.987	210.88
258.22	230.88
258.452	205.88
258.685	220.88
258.918	213.88
259.151	204.88
259.383	216.88
259.616	225.88
259.849	237.88
260.081	256.88
260.314	268.88
260.547	261.88
260.779	268.88
261.012	250.88
261.244	230.88
261.477	220.88
261.71	226.88
261.942	230.88
262.175	245.88
262.407	216.88
262.64	234.88
262.872	218.88
263.105	209.88
263.337	228.88
263.57	223.88
263.802	211.88
264.035	216.88
264.267	228.88
264.499	221.88
264.732	220.88
264.964	227.88
265.197	231.88
265.429	241.88
265.661	248.88
265.894	243.88
266.126	225.88
266.358	242.88
266.591	238.88
266.823	240.88
267.055	250.88
267.287	254.88
267.52	256.88
267.752	250.88
267.984	244.88
268.216	238.88
268.448	269.88
268.681	257.88
268.913	269.88
269.145	268.88
269.377	296.88
269.609	300.88
269.841	277.88
270.073	299.88
270.306	306.88
270.538	334.88
270.77	329.88
271.002	323.88
271.234	301.88
271.466	320.88
271.698	320.88
271.93	307.88
272.162	322.88
272.394	343.88
272.626	333.88
272.858	292.88
273.09	313.88
273.322	294.88
273.553	296.88
273.785	276.88
274.017	302.88
274.249	282.88
274.481	280.88
274.713	284.88
274.945	300.88
275.176	289.88
275.408	280.88
275.64	280.88
275.872	280.88
276.104	283.88
276.335	286.88
276.567	293.88
276.799	308.88
277.031	319.88
277.262	349.88
277.494	340.88
277.726	329.88
277.957	305.88
278.189	312.88
278.421	299.88
278.652	282.88
278.884	299.88
279.115	299.88
279.347	309.88
279.579	306.88
279.81	292.88
280.042	324.88
280.273	302.88
280.505	298.88
280.736	291.88
280.968	294.88
281.199	315.88
281.431	312.88
281.662	301.88
281.894	292.88
282.125	285.88
282.356	320.88
282.588	328.88
282.819	334.88
283.051	304.88
283.282	302.88
283.513	310.88
283.745	300.88
283.976	310.88
284.207	304.88
284.439	325.88
284.67	315.88
284.901	331.88
285.132	307.88
285.364	304.88
285.595	322.88
285.826	308.88
286.057	316.88
286.288	305.88
286.52	327.88
286.751	316.88
286.982	301.88
287.213	310.88
287.444	322.88
287.675	332.88
287.906	330.88
288.138	338.88
288.369	359.88
288.6	326.88
288.831	336.88
289.062	324.88
289.293	347.88
289.524	329.88
289.755	333.88
289.986	327.88
290.217	330.88
290.448	328.88
290.679	352.88
290.91	332.88
291.141	342.88
291.371	320.88
291.602	343.88
291.833	342.88
292.064	337.88
292.295	317.88
292.526	330.88
292.757	328.88
292.987	345.88
293.218	336.88
293.449	321.88
293.68	323.88
293.91	326.88
294.141	349.88
294.372	340.88
294.603	337.88
294.833	330.88
295.064	336.88
295.295	324.88
295.525	350.88
295.756	329.88
295.987	334.88
296.217	346.88
296.448	366.88
296.679	346.88
296.909	331.88
297.14	332.88
297.37	347.88
297.601	343.88
297.831	349.88
298.062	355.88
298.292	334.88
298.523	357.88
298.753	359.88
298.984	336.88
299.214	352.88
299.445	354.88
299.675	354.88
299.905	359.88
300.136	369.88
300.366	346.88
300.597	348.88
300.827	378.88
301.057	378.88
301.288	368.88
301.518	365.88
301.748	371.88
301.979	371.88
302.209	383.88
302.439	379.88
302.669	372.88
302.9	369.88
303.13	368.88
303.36	359.88
303.59	372.88
303.82	371.88
304.051	388.88
304.281	390.88
304.511	371.88
304.741	369.88
304.971	383.88
305.201	389.88
305.431	363.88
305.661	392.88
305.891	380.88
306.121	371.88
306.352	392.88
306.582	380.88
306.812	383.88
307.042	377.88
307.272	379.88
307.502	350.88
307.731	364.88
307.961	370.88
308.191	383.88
308.421	364.88
308.651	406.88
308.881	392.88
309.111	383.88
309.341	376.88
309.571	406.88
309.8	402.88
310.03	389.88
310.26	398.88
310.49	400.88
310.72	418.88
310.949	397.88
311.179	426.88
311.409	407.88
311.639	409.88
311.868	393.88
312.098	411.88
312.328	421.88
312.557	431.88
312.787	445.88
313.017	440.88
313.246	435.88
313.476	438.88
313.706	422.88
313.935	427.88
314.165	413.88
314.394	428.88
314.624	436.88
314.853	416.88
315.083	432.88
315.312	437.88
315.542	418.88
315.771	430.88
316.001	416.88
316.23	406.88
316.46	399.88
316.689	435.88
316.919	428.88
317.148	431.88
317.377	422.88
317.607	420.88
317.836	426.88
318.065	412.88
318.295	433.88
318.524	425.88
318.753	427.88
318.983	409.88
319.212	428.88
319.441	418.88
319.67	436.88
319.9	444.88
320.129	411.88
320.358	440.88
320.587	428.88
320.816	435.88
321.046	427.88
321.275	418.88
321.504	432.88
321.733	434.88
321.962	432.88
322.191	485.88
322.42	484.88
322.649	470.88
322.878	467.88
323.108	478.88
323.337	493.88
323.566	519.88
323.795	543.88
324.024	560.88
324.253	644.88
324.482	880.88
324.71	1334.88
324.939	1825.88
325.168	1520.88
325.397	822.88
325.626	584.88
325.855	539.88
326.084	512.88
326.313	505.88
326.542	502.88
326.77	535.88
326.999	626.88
327.228	831.88
327.457	1161.88
327.686	1356.88
327.914	932.88
328.143	661.88
328.372	582.88
328.6	581.88
328.829	547.88
329.058	542.88
329.287	577.88
329.515	546.88
329.744	530.88
329.972	525.88
330.201	565.88
330.43	581.88
330.658	567.88
330.887	594.88
331.115	574.88
331.344	542.88
331.572	517.88
331.801	522.88
332.03	493.88
332.258	503.88
332.486	492.88
332.715	528.88
332.943	503.88
333.172	521.88
333.4	522.88
333.629	516.88
333.857	532.88
334.085	537.88
334.314	572.88
334.542	581.88
334.771	593.88
334.999	538.88
335.227	532.88
335.455	491.88
335.684	520.88
335.912	491.88
336.14	511.88
336.369	490.88
336.597	495.88
336.825	494.88
337.053	485.88
337.281	474.88
337.51	486.88
337.738	489.88
337.966	457.88
338.194	480.88
338.422	479.88
338.65	478.88
338.878	455.88
339.106	489.88
339.334	449.88
339.562	472.88
339.79	459.88
340.018	476.88
340.246	467.88
340.474	473.88
340.702	467.88
340.93	458.88
341.158	442.88
341.386	471.88
341.614	466.88
341.842	446.88
342.07	476.88
342.298	459.88
342.526	452.88
342.754	439.88
342.981	435.88
343.209	461.88
343.437	471.88
343.665	471.88
343.893	476.88
344.12	486.88
344.348	488.88
344.576	473.88
344.804	478.88
345.031	467.88
345.259	471.88
345.487	463.88
345.714	475.88
345.942	466.88
346.17	455.88
346.397	430.88
346.625	437.88
346.853	438.88
347.08	434.88
347.308	450.88
347.535	441.88
347.763	450.88
347.99	451.88
348.218	420.88
348.445	449.88
348.673	459.88
348.9	448.88
349.128	435.88
349.355	437.88
349.583	426.88
349.81	442.88
350.037	409.88
350.265	434.88
350.492	413.88
350.72	426.88
350.947	438.88
351.174	438.88
351.402	450.88
351.629	432.88
351.856	444.88
352.083	444.88
352.311	456.88
352.538	444.88
352.765	441.88
352.992	445.88
353.22	433.88
353.447	420.88
353.674	420.88
353.901	411.88
354.128	410.88
354.355	408.88
354.583	420.88
354.81	397.88
355.037	404.88
355.264	396.88
355.491	405.88
355.718	426.88
355.945	420.88
356.172	415.88
356.399	391.88
356.626	408.88
356.853	416.88
357.08	410.88
357.307	401.88
357.534	410.88
357.761	391.88
357.988	406.88
358.215	404.88
358.441	410.88
358.668	428.88
358.895	411.88
359.122	406.88
359.349	420.88
359.576	401.88
359.802	453.88
360.029	455.88
360.256	447.88
360.483	442.88
360.709	412.88
360.936	433.88
361.163	434.88
361.39	413.88
361.616	420.88
361.843	410.88
362.07	427.88
362.296	425.88
362.523	434.88
362.749	424.88
362.976	427.88
363.203	408.88
363.429	381.88
363.656	410.88
363.882	394.88
364.109	422.88
364.335	411.88
364.562	408.88
364.788	398.88
365.015	406.88
365.241	414.88
365.468	419.88
365.694	405.88
365.92	405.88
366.147	418.88
366.373	424.88
366.599	422.88
366.826	410.88
367.052	402.88
367.278	396.88
367.505	410.88
367.731	401.88
367.957	421.88
368.184	393.88
368.41	402.88
368.636	401.88
368.862	424.88
369.089	423.88
369.315	385.88
369.541	408.88
369.767	414.88
369.993	409.88
370.219	412.88
370.445	412.88
370.672	421.88
370.898	408.88
371.124	400.88
371.35	401.88
371.576	396.88
371.802	410.88
372.028	397.88
372.254	418.88
372.48	396.88
372.706	409.88
372.932	410.88
373.158	412.88
373.384	417.88
373.61	392.88
373.835	395.88
374.061	402.88
374.287	425.88
374.513	437.88
374.739	417.88
374.965	409.88
375.191	420.88
375.416	418.88
375.642	432.88
375.868	442.88
376.094	420.88
376.319	399.88
376.545	383.88
376.771	428.88
376.997	414.88
377.222	390.88
377.448	399.88
377.674	396.88
377.899	418.88
378.125	420.88
378.35	392.88
378.576	396.88
378.802	378.88
379.027	411.88
379.253	400.88
379.478	392.88
379.704	396.88
379.929	421.88
380.155	405.88
380.38	407.88
380.606	398.88
380.831	399.88
381.057	410.88
381.282	406.88
381.507	402.88
381.733	418.88
381.958	380.88
382.184	412.88
382.409	421.88
382.634	428.88
382.86	420.88
383.085	418.88
383.31	410.88
383.535	414.88
383.761	405.88
383.986	399.88
384.211	412.88
384.436	421.88
384.662	425.88
384.887	425.88
385.112	417.88
385.337	421.88
385.562	440.88
385.787	436.88
386.013	441.88
386.238	449.88
386.463	448.88
386.688	443.88
386.913	416.88
387.138	441.88
387.363	443.88
387.588	445.88
387.813	410.88
388.038	459.88
388.263	448.88
388.488	447.88
388.713	446.88
388.938	434.88
389.163	435.88
389.387	439.88
389.612	440.88
389.837	427.88
390.062	453.88
390.287	429.88
390.512	435.88
390.736	417.88
390.961	466.88
391.186	432.88
391.411	457.88
391.636	457.88
391.86	454.88
392.085	466.88
392.31	458.88
392.534	477.88
392.759	453.88
392.984	445.88
393.208	425.88
393.433	462.88
393.658	453.88
393.882	441.88
394.107	442.88
394.331	441.88
394.556	452.88
394.78	445.88
395.005	446.88
395.229	435.88
395.454	448.88
395.678	455.88
395.903	468.88
396.127	483.88
396.352	480.88
396.576	456.88
396.801	440.88
397.025	452.88
397.249	476.88
397.474	461.88
397.698	468.88
397.922	468.88
398.147	471.88
398.371	477.88
398.595	473.88
398.82	469.88
399.044	517.88
399.268	512.88
399.492	557.88
399.717	613.88
399.941	630.88
400.165	645.88
400.389	609.88
400.613	570.88
400.837	510.88
401.062	507.88
401.286	508.88
401.51	499.88
401.734	512.88
401.958	494.88
402.182	510.88
402.406	512.88
402.63	497.88
402.854	508.88
403.078	506.88
403.302	515.88
403.526	490.88
403.75	531.88
403.974	521.88
404.198	490.88
404.422	544.88
404.645	523.88
404.869	524.88
405.093	532.88
405.317	576.88
405.541	616.88
405.765	560.88
405.988	527.88
406.212	537.88
406.436	546.88
406.66	548.88
406.883	541.88
407.107	564.88
407.331	574.88
407.555	674.88
407.778	630.88
408.002	609.88
408.226	555.88
408.449	568.88
408.673	540.88
408.896	582.88
409.12	610.88
409.344	581.88
409.567	527.88
409.791	532.88
410.014	527.88
410.238	507.88
410.461	515.88
410.685	498.88
410.908	539.88
411.132	541.88
411.355	553.88
411.578	548.88
411.802	537.88
412.025	528.88
412.249	508.88
412.472	525.88
412.695	551.88
412.919	586.88
413.142	534.88
413.365	515.88
413.589	514.88
413.812	468.88
414.035	487.88
414.258	489.88
414.482	484.88
414.705	486.88
414.928	486.88
415.151	468.88
415.374	461.88
415.597	476.88
415.821	456.88
416.044	486.88
416.267	466.88
416.49	480.88
416.713	467.88
416.936	487.88
417.159	484.88
417.382	466.88
417.605	475.88
417.828	487.88
418.051	483.88
418.274	485.88
418.497	481.88
418.72	474.88
418.943	466.88
419.166	510.88
419.389	512.88
419.611	522.88
419.834	513.88
420.057	512.88
420.28	504.88
420.503	497.88
420.726	500.88
420.948	516.88
421.171	519.88
421.394	540.88
421.617	509.88
421.839	479.88
422.062	488.88
422.285	511.88
422.507	525.88
422.73	611.88
422.953	571.88
423.175	506.88
423.398	494.88
423.621	504.88
423.843	524.88
424.066	524.88
424.288	523.88
424.511	546.88
424.733	576.88
424.956	644.88
425.178	596.88
425.401	592.88
425.623	616.88
425.846	560.88
426.068	521.88
426.291	526.88
426.513	516.88
426.735	517.88
426.958	531.88
427.18	624.88
427.402	700.88
427.625	742.88
427.847	657.88
428.069	589.88
428.292	519.88
428.514	514.88
428.736	466.88
428.958	479.88
429.181	481.88
429.403	450.88
429.625	483.88
429.847	528.88
430.069	548.88
430.292	537.88
430.514	489.88
430.736	483.88
430.958	478.88
431.18	456.88
431.402	453.88
431.624	436.88
431.846	438.88
432.068	440.88
432.29	462.88
432.512	468.88
432.734	458.88
432.956	438.88
433.178	452.88
433.4	474.88
433.622	453.88
433.844	457.88
434.066	447.88
434.287	436.88
434.509	459.88
434.731	466.88
434.953	497.88
435.175	475.88
435.397	500.88
435.618	515.88
435.84	539.88
436.062	606.88
436.284	645.88
436.505	542.88
436.727	502.88
436.949	484.88
437.17	471.88
437.392	465.88
437.614	486.88
437.835	488.88
438.057	567.88
438.278	637.88
438.5	624.88
438.721	678.88
438.943	663.88
439.165	540.88
439.386	501.88
439.608	534.88
439.829	489.88
440.05	537.88
440.272	560.88
440.493	523.88
440.715	514.88
440.936	461.88
441.158	490.88
441.379	462.88
441.6	481.88
441.822	505.88
442.043	535.88
442.264	588.88
442.486	628.88
442.707	549.88
442.928	519.88
443.149	508.88
443.371	526.88
443.592	554.88
443.813	632.88
444.034	672.88
444.255	565.88
444.476	555.88
444.698	532.88
444.919	538.88
445.14	615.88
445.361	552.88
445.582	548.88
445.803	578.88
446.024	668.88
446.245	666.88
446.466	602.88
446.687	534.88
446.908	493.88
447.129	477.88
447.35	466.88
447.571	491.88
447.792	459.88
448.013	467.88
448.234	492.88
448.455	525.88
448.675	604.88
448.896	694.88
449.117	568.88
449.338	551.88
449.559	649.88
449.779	716.88
450	589.88
450.221	485.88
450.442	450.88
450.662	429.88
450.883	449.88
451.104	473.88
451.324	441.88
451.545	430.88
451.766	428.88
451.986	418.88
452.207	425.88
452.428	411.88
452.648	404.88
452.869	429.88
453.089	418.88
453.31	435.88
453.53	405.88
453.751	421.88
453.971	422.88
454.192	398.88
454.412	406.88
454.633	402.88
454.853	418.88
455.073	436.88
455.294	434.88
455.514	461.88
455.734	469.88
455.955	417.88
456.175	425.88
456.395	386.88
456.616	415.88
456.836	395.88
457.056	377.88
457.276	377.88
457.497	398.88
457.717	394.88
457.937	406.88
458.157	411.88
458.377	398.88
458.598	427.88
458.818	473.88
459.038	503.88
459.258	549.88
459.478	473.88
459.698	461.88
459.918	457.88
460.138	453.88
460.358	456.88
460.578	453.88
460.798	454.88
461.018	468.88
461.238	460.88
461.458	461.88
461.678	466.88
461.898	461.88
462.118	476.88
462.338	462.88
462.558	481.88
462.777	501.88
462.997	506.88
463.217	515.88
463.437	522.88
463.657	497.88
463.876	506.88
464.096	488.88
464.316	482.88
464.536	485.88
464.755	508.88
464.975	480.88
465.195	500.88
465.414	525.88
465.634	484.88
465.854	478.88
466.073	448.88
466.293	448.88
466.512	425.88
466.732	414.88
466.951	434.88
467.171	396.88
467.391	398.88
467.61	439.88
467.829	438.88
468.049	448.88
468.268	422.88
468.488	418.88
468.707	426.88
468.927	399.88
469.146	406.88
469.365	425.88
469.585	422.88
469.804	432.88
470.023	425.88
470.243	421.88
470.462	413.88
470.681	430.88
470.901	438.88
471.12	428.88
471.339	436.88
471.558	436.88
471.777	451.88
471.997	408.88
472.216	421.88
472.435	484.88
472.654	439.88
472.873	445.88
473.092	425.88
473.311	426.88
473.53	423.88
473.749	440.88
473.968	454.88
474.187	541.88
474.406	556.88
474.625	457.88
474.844	440.88
475.063	428.88
475.282	442.88
475.501	434.88
475.72	422.88
475.939	443.88
476.158	448.88
476.377	426.88
476.596	442.88
476.814	424.88
477.033	436.88
477.252	465.88
477.471	448.88
477.69	449.88
477.908	454.88
478.127	472.88
478.346	460.88
478.564	475.88
478.783	489.88
479.002	489.88
479.22	496.88
479.439	485.88
479.658	492.88
479.876	518.88
480.095	516.88
480.313	536.88
480.532	521.88
480.751	515.88
480.969	562.88
481.188	570.88
481.406	586.88
481.624	522.88
481.843	507.88
482.061	501.88
482.28	472.88
482.498	481.88
482.717	480.88
482.935	497.88
483.153	496.88
483.372	491.88
483.59	489.88
483.808	505.88
484.027	489.88
484.245	483.88
484.463	498.88
484.681	500.88
484.9	506.88
485.118	517.88
485.336	477.88
485.554	494.88
485.772	508.88
485.99	510.88
486.209	516.88
486.427	511.88
486.645	502.88
486.863	536.88
487.081	519.88
487.299	514.88
487.517	527.88
487.735	515.88
487.953	508.88
488.171	535.88
488.389	485.88
488.607	536.88
488.825	532.88
489.043	530.88
489.261	506.88
489.479	540.88
489.696	545.88
489.914	530.88
490.132	558.88
490.35	525.88
490.568	543.88
490.786	561.88
491.003	569.88
491.221	569.88
491.439	568.88
491.657	578.88
491.874	600.88
492.092	586.88
492.31	580.88
492.527	616.88
492.745	591.88
492.963	613.88
493.18	603.88
493.398	592.88
493.615	621.88
493.833	611.88
494.05	612.88
494.268	598.88
494.485	594.88
494.703	592.88
494.92	606.88
495.138	602.88
495.355	612.88
495.573	602.88
495.79	608.88
496.008	605.88
496.225	624.88
496.442	593.88
496.66	619.88
496.877	609.88
497.094	627.88
497.312	615.88
497.529	610.88
497.746	626.88
497.963	637.88
498.181	691.88
498.398	691.88
498.615	701.88
498.832	731.88
499.049	734.88
499.267	760.88
499.484	781.88
499.701	812.88
499.918	865.88
500.135	892.88
500.352	928.88
500.569	955.88
500.786	957.88
501.003	903.88
501.22	901.88
501.437	869.88
501.654	853.88
501.871	819.88
502.088	777.88
