Data from 1964.PennyLincolnUp.Lamp.En5.5.200Scan.071719.P1._HRD10591_14-04-02-908.txt Node
Date: Thu Jul 18 14:04:02 EDT 2019
User: cochatt
Spectrometer: HR+D1059
Trigger mode: 1
Integration Time (sec): 1.000000E-1
Scans to average: 1
Electric dark correction enabled: true
Nonlinearity correction enabled: false
Boxcar width: 0
XAxis mode: Wavelengths
Number of Pixels in Spectrum: 2048
>>>>>Begin Spectral Data<<<<<
223.165	-17.44
223.4	-17.44
223.635	-17.44
223.869	-20.44
224.104	-17.44
224.338	-16.44
224.573	-24.44
224.808	-16.44
225.042	-13.44
225.277	5.56
225.511	2.56
225.746	19.56
225.98	6.56
226.215	2.56
226.449	26.56
226.683	15.56
226.918	15.56
227.152	31.56
227.387	28.56
227.621	40.56
227.856	55.56
228.09	45.56
228.324	50.56
228.559	55.56
228.793	74.56
229.027	95.56
229.262	83.56
229.496	105.56
229.73	104.56
229.964	119.56
230.199	90.56
230.433	89.56
230.667	111.56
230.901	115.56
231.136	120.56
231.37	98.56
231.604	117.56
231.838	102.56
232.072	114.56
232.306	114.56
232.541	121.56
232.775	117.56
233.009	100.56
233.243	124.56
233.477	109.56
233.711	100.56
233.945	120.56
234.179	112.56
234.413	129.56
234.647	126.56
234.881	114.56
235.115	124.56
235.349	118.56
235.583	112.56
235.817	101.56
236.051	119.56
236.285	118.56
236.519	118.56
236.753	124.56
236.987	139.56
237.221	166.56
237.455	186.56
237.689	176.56
237.922	126.56
238.156	116.56
238.39	111.56
238.624	114.56
238.858	119.56
239.091	111.56
239.325	120.56
239.559	128.56
239.793	123.56
240.027	137.56
240.26	141.56
240.494	130.56
240.728	135.56
240.961	128.56
241.195	134.56
241.429	130.56
241.662	124.56
241.896	140.56
242.13	124.56
242.363	140.56
242.597	125.56
242.83	135.56
243.064	131.56
243.298	138.56
243.531	134.56
243.765	144.56
243.998	138.56
244.232	144.56
244.465	145.56
244.699	143.56
244.932	137.56
245.166	139.56
245.399	145.56
245.633	150.56
245.866	153.56
246.099	152.56
246.333	142.56
246.566	158.56
246.8	153.56
247.033	150.56
247.266	137.56
247.5	156.56
247.733	157.56
247.966	155.56
248.2	170.56
248.433	171.56
248.666	181.56
248.899	188.56
249.133	190.56
249.366	186.56
249.599	185.56
249.832	174.56
250.066	174.56
250.299	191.56
250.532	182.56
250.765	204.56
250.998	221.56
251.231	206.56
251.465	210.56
251.698	202.56
251.931	197.56
252.164	195.56
252.397	186.56
252.63	202.56
252.863	194.56
253.096	205.56
253.329	214.56
253.562	207.56
253.795	224.56
254.028	204.56
254.261	200.56
254.494	206.56
254.727	245.56
254.96	247.56
255.193	248.56
255.426	235.56
255.659	208.56
255.892	232.56
256.124	214.56
256.357	221.56
256.59	215.56
256.823	218.56
257.056	206.56
257.289	202.56
257.521	202.56
257.754	218.56
257.987	202.56
258.22	211.56
258.452	203.56
258.685	219.56
258.918	198.56
259.151	190.56
259.383	207.56
259.616	209.56
259.849	235.56
260.081	219.56
260.314	226.56
260.547	251.56
260.779	236.56
261.012	215.56
261.244	218.56
261.477	212.56
261.71	219.56
261.942	223.56
262.175	224.56
262.407	200.56
262.64	229.56
262.872	205.56
263.105	200.56
263.337	227.56
263.57	206.56
263.802	199.56
264.035	211.56
264.267	222.56
264.499	222.56
264.732	226.56
264.964	235.56
265.197	227.56
265.429	227.56
265.661	224.56
265.894	221.56
266.126	232.56
266.358	222.56
266.591	222.56
266.823	231.56
267.055	230.56
267.287	251.56
267.52	246.56
267.752	224.56
267.984	258.56
268.216	232.56
268.448	240.56
268.681	248.56
268.913	251.56
269.145	242.56
269.377	278.56
269.609	274.56
269.841	280.56
270.073	272.56
270.306	289.56
270.538	294.56
270.77	303.56
271.002	280.56
271.234	282.56
271.466	288.56
271.698	295.56
271.93	302.56
272.162	272.56
272.394	302.56
272.626	280.56
272.858	291.56
273.09	271.56
273.322	276.56
273.553	288.56
273.785	277.56
274.017	282.56
274.249	271.56
274.481	266.56
274.713	262.56
274.945	272.56
275.176	283.56
275.408	267.56
275.64	274.56
275.872	252.56
276.104	258.56
276.335	266.56
276.567	283.56
276.799	288.56
277.031	294.56
277.262	288.56
277.494	287.56
277.726	314.56
277.957	298.56
278.189	282.56
278.421	280.56
278.652	264.56
278.884	290.56
279.115	293.56
279.347	300.56
279.579	287.56
279.81	275.56
280.042	291.56
280.273	280.56
280.505	272.56
280.736	282.56
280.968	297.56
281.199	287.56
281.431	274.56
281.662	271.56
281.894	286.56
282.125	282.56
282.356	281.56
282.588	303.56
282.819	298.56
283.051	298.56
283.282	294.56
283.513	294.56
283.745	302.56
283.976	301.56
284.207	293.56
284.439	312.56
284.67	313.56
284.901	295.56
285.132	302.56
285.364	308.56
285.595	299.56
285.826	304.56
286.057	307.56
286.288	283.56
286.52	315.56
286.751	296.56
286.982	326.56
287.213	303.56
287.444	325.56
287.675	310.56
287.906	306.56
288.138	297.56
288.369	318.56
288.6	299.56
288.831	326.56
289.062	298.56
289.293	312.56
289.524	312.56
289.755	311.56
289.986	326.56
290.217	311.56
290.448	294.56
290.679	330.56
290.91	327.56
291.141	318.56
291.371	314.56
291.602	314.56
291.833	307.56
292.064	293.56
292.295	319.56
292.526	306.56
292.757	300.56
292.987	319.56
293.218	319.56
293.449	312.56
293.68	335.56
293.91	327.56
294.141	298.56
294.372	308.56
294.603	320.56
294.833	319.56
295.064	328.56
295.295	325.56
295.525	306.56
295.756	332.56
295.987	345.56
296.217	342.56
296.448	336.56
296.679	320.56
296.909	327.56
297.14	343.56
297.37	339.56
297.601	340.56
297.831	330.56
298.062	326.56
298.292	300.56
298.523	335.56
298.753	320.56
298.984	337.56
299.214	330.56
299.445	349.56
299.675	329.56
299.905	347.56
300.136	327.56
300.366	331.56
300.597	337.56
300.827	328.56
301.057	341.56
301.288	344.56
301.518	347.56
301.748	342.56
301.979	363.56
302.209	374.56
302.439	332.56
302.669	362.56
302.9	339.56
303.13	359.56
303.36	363.56
303.59	349.56
303.82	358.56
304.051	366.56
304.281	364.56
304.511	347.56
304.741	344.56
304.971	346.56
305.201	372.56
305.431	378.56
305.661	363.56
305.891	349.56
306.121	358.56
306.352	345.56
306.582	378.56
306.812	346.56
307.042	347.56
307.272	363.56
307.502	345.56
307.731	368.56
307.961	362.56
308.191	347.56
308.421	374.56
308.651	360.56
308.881	338.56
309.111	358.56
309.341	376.56
309.571	353.56
309.8	355.56
310.03	377.56
310.26	386.56
310.49	397.56
310.72	369.56
310.949	388.56
311.179	380.56
311.409	386.56
311.639	381.56
311.868	387.56
312.098	384.56
312.328	382.56
312.557	402.56
312.787	398.56
313.017	388.56
313.246	370.56
313.476	384.56
313.706	379.56
313.935	392.56
314.165	390.56
314.394	393.56
314.624	412.56
314.853	418.56
315.083	405.56
315.312	403.56
315.542	386.56
315.771	384.56
316.001	391.56
316.23	395.56
316.46	399.56
316.689	405.56
316.919	386.56
317.148	398.56
317.377	395.56
317.607	404.56
317.836	387.56
318.065	394.56
318.295	403.56
318.524	413.56
318.753	382.56
318.983	395.56
319.212	394.56
319.441	400.56
319.67	383.56
319.9	383.56
320.129	421.56
320.358	382.56
320.587	384.56
320.816	382.56
321.046	396.56
321.275	415.56
321.504	410.56
321.733	408.56
321.962	404.56
322.191	430.56
322.42	419.56
322.649	447.56
322.878	432.56
323.108	411.56
323.337	443.56
323.566	446.56
323.795	458.56
324.024	483.56
324.253	563.56
324.482	729.56
324.71	1035.56
324.939	1418.56
325.168	1158.56
325.397	662.56
325.626	515.56
325.855	466.56
326.084	458.56
326.313	472.56
326.542	458.56
326.77	482.56
326.999	556.56
327.228	694.56
327.457	936.56
327.686	1063.56
327.914	757.56
328.143	558.56
328.372	529.56
328.6	483.56
328.829	498.56
329.058	495.56
329.287	485.56
329.515	486.56
329.744	492.56
329.972	470.56
330.201	481.56
330.43	493.56
330.658	521.56
330.887	502.56
331.115	529.56
331.344	467.56
331.572	463.56
331.801	478.56
332.03	453.56
332.258	469.56
332.486	466.56
332.715	462.56
332.943	475.56
333.172	477.56
333.4	477.56
333.629	489.56
333.857	497.56
334.085	491.56
334.314	486.56
334.542	513.56
334.771	538.56
334.999	500.56
335.227	476.56
335.455	472.56
335.684	477.56
335.912	466.56
336.14	448.56
336.369	467.56
336.597	465.56
336.825	462.56
337.053	450.56
337.281	464.56
337.51	460.56
337.738	467.56
337.966	447.56
338.194	467.56
338.422	459.56
338.65	448.56
338.878	446.56
339.106	427.56
339.334	450.56
339.562	463.56
339.79	457.56
340.018	438.56
340.246	436.56
340.474	460.56
340.702	434.56
340.93	426.56
341.158	431.56
341.386	412.56
341.614	464.56
341.842	428.56
342.07	428.56
342.298	429.56
342.526	452.56
342.754	428.56
342.981	422.56
343.209	445.56
343.437	442.56
343.665	439.56
343.893	450.56
344.12	458.56
344.348	458.56
344.576	455.56
344.804	431.56
345.031	457.56
345.259	430.56
345.487	450.56
345.714	408.56
345.942	410.56
346.17	428.56
346.397	412.56
346.625	425.56
346.853	412.56
347.08	417.56
347.308	421.56
347.535	419.56
347.763	409.56
347.99	403.56
348.218	409.56
348.445	428.56
348.673	416.56
348.9	413.56
349.128	412.56
349.355	410.56
349.583	393.56
349.81	409.56
350.037	401.56
350.265	402.56
350.492	394.56
350.72	391.56
350.947	419.56
351.174	413.56
351.402	414.56
351.629	418.56
351.856	400.56
352.083	404.56
352.311	411.56
352.538	382.56
352.765	407.56
352.992	400.56
353.22	420.56
353.447	395.56
353.674	410.56
353.901	398.56
354.128	396.56
354.355	391.56
354.583	381.56
354.81	392.56
355.037	404.56
355.264	386.56
355.491	380.56
355.718	385.56
355.945	386.56
356.172	376.56
356.399	370.56
356.626	383.56
356.853	384.56
357.08	384.56
357.307	387.56
357.534	409.56
357.761	378.56
357.988	388.56
358.215	398.56
358.441	394.56
358.668	399.56
358.895	388.56
359.122	413.56
359.349	388.56
359.576	415.56
359.802	409.56
360.029	421.56
360.256	414.56
360.483	413.56
360.709	411.56
360.936	410.56
361.163	398.56
361.39	414.56
361.616	406.56
361.843	404.56
362.07	416.56
362.296	404.56
362.523	394.56
362.749	398.56
362.976	393.56
363.203	395.56
363.429	392.56
363.656	401.56
363.882	400.56
364.109	390.56
364.335	395.56
364.562	393.56
364.788	384.56
365.015	385.56
365.241	383.56
365.468	390.56
365.694	388.56
365.92	392.56
366.147	391.56
366.373	390.56
366.599	374.56
366.826	391.56
367.052	392.56
367.278	383.56
367.505	374.56
367.731	372.56
367.957	403.56
368.184	415.56
368.41	390.56
368.636	409.56
368.862	400.56
369.089	392.56
369.315	395.56
369.541	408.56
369.767	384.56
369.993	386.56
370.219	387.56
370.445	373.56
370.672	404.56
370.898	380.56
371.124	379.56
371.35	403.56
371.576	374.56
371.802	380.56
372.028	410.56
372.254	385.56
372.48	394.56
372.706	395.56
372.932	382.56
373.158	391.56
373.384	412.56
373.61	401.56
373.835	392.56
374.061	388.56
374.287	384.56
374.513	412.56
374.739	403.56
374.965	394.56
375.191	394.56
375.416	390.56
375.642	391.56
375.868	387.56
376.094	391.56
376.319	376.56
376.545	375.56
376.771	373.56
376.997	390.56
377.222	393.56
377.448	396.56
377.674	370.56
377.899	382.56
378.125	382.56
378.35	377.56
378.576	389.56
378.802	383.56
379.027	379.56
379.253	390.56
379.478	370.56
379.704	373.56
379.929	401.56
380.155	366.56
380.38	382.56
380.606	380.56
380.831	379.56
381.057	405.56
381.282	380.56
381.507	388.56
381.733	394.56
381.958	384.56
382.184	378.56
382.409	375.56
382.634	408.56
382.86	393.56
383.085	380.56
383.31	405.56
383.535	398.56
383.761	395.56
383.986	396.56
384.211	394.56
384.436	397.56
384.662	421.56
384.887	398.56
385.112	420.56
385.337	414.56
385.562	410.56
385.787	426.56
386.013	412.56
386.238	418.56
386.463	403.56
386.688	432.56
386.913	407.56
387.138	392.56
387.363	418.56
387.588	421.56
387.813	412.56
388.038	416.56
388.263	403.56
388.488	414.56
388.713	444.56
388.938	434.56
389.163	426.56
389.387	428.56
389.612	420.56
389.837	396.56
390.062	405.56
390.287	420.56
390.512	434.56
390.736	410.56
390.961	412.56
391.186	400.56
391.411	427.56
391.636	437.56
391.86	442.56
392.085	450.56
392.31	455.56
392.534	432.56
392.759	431.56
392.984	424.56
393.208	422.56
393.433	406.56
393.658	418.56
393.882	419.56
394.107	416.56
394.331	408.56
394.556	429.56
394.78	430.56
395.005	416.56
395.229	420.56
395.454	455.56
395.678	442.56
395.903	456.56
396.127	442.56
396.352	443.56
396.576	439.56
396.801	435.56
397.025	436.56
397.249	460.56
397.474	432.56
397.698	453.56
397.922	475.56
398.147	460.56
398.371	476.56
398.595	470.56
398.82	464.56
399.044	475.56
399.268	512.56
399.492	532.56
399.717	567.56
399.941	577.56
400.165	582.56
400.389	555.56
400.613	526.56
400.837	498.56
401.062	492.56
401.286	498.56
401.51	482.56
401.734	453.56
401.958	466.56
402.182	472.56
402.406	473.56
402.63	471.56
402.854	484.56
403.078	479.56
403.302	500.56
403.526	511.56
403.75	501.56
403.974	491.56
404.198	461.56
404.422	508.56
404.645	502.56
404.869	516.56
405.093	528.56
405.317	549.56
405.541	562.56
405.765	547.56
405.988	500.56
406.212	514.56
406.436	528.56
406.66	547.56
406.883	517.56
407.107	520.56
407.331	563.56
407.555	600.56
407.778	589.56
408.002	558.56
408.226	532.56
408.449	546.56
408.673	533.56
408.896	551.56
409.12	586.56
409.344	537.56
409.567	506.56
409.791	506.56
410.014	496.56
410.238	459.56
410.461	482.56
410.685	497.56
410.908	482.56
411.132	529.56
411.355	539.56
411.578	504.56
411.802	518.56
412.025	480.56
412.249	488.56
412.472	510.56
412.695	527.56
412.919	515.56
413.142	470.56
413.365	466.56
413.589	481.56
413.812	477.56
414.035	454.56
414.258	486.56
414.482	458.56
414.705	450.56
414.928	449.56
415.151	444.56
415.374	452.56
415.597	457.56
415.821	461.56
416.044	466.56
416.267	454.56
416.49	444.56
416.713	446.56
416.936	436.56
417.159	452.56
417.382	444.56
417.605	455.56
417.828	474.56
418.051	455.56
418.274	463.56
418.497	463.56
418.72	469.56
418.943	441.56
419.166	474.56
419.389	485.56
419.611	474.56
419.834	444.56
420.057	486.56
420.28	464.56
420.503	463.56
420.726	459.56
420.948	491.56
421.171	476.56
421.394	487.56
421.617	481.56
421.839	455.56
422.062	490.56
422.285	464.56
422.507	525.56
422.73	540.56
422.953	540.56
423.175	486.56
423.398	485.56
423.621	471.56
423.843	463.56
424.066	478.56
424.288	502.56
424.511	504.56
424.733	554.56
424.956	582.56
425.178	550.56
425.401	551.56
425.623	578.56
425.846	495.56
426.068	492.56
426.291	468.56
426.513	472.56
426.735	479.56
426.958	523.56
427.18	567.56
427.402	654.56
427.625	712.56
427.847	612.56
428.069	552.56
428.292	507.56
428.514	459.56
428.736	456.56
428.958	466.56
429.181	448.56
429.403	439.56
429.625	443.56
429.847	456.56
430.069	530.56
430.292	508.56
430.514	458.56
430.736	444.56
430.958	430.56
431.18	444.56
431.402	417.56
431.624	424.56
431.846	431.56
432.068	424.56
432.29	429.56
432.512	430.56
432.734	445.56
432.956	415.56
433.178	439.56
433.4	437.56
433.622	430.56
433.844	423.56
434.066	446.56
434.287	445.56
434.509	443.56
434.731	435.56
434.953	459.56
435.175	444.56
435.397	470.56
435.618	484.56
435.84	526.56
436.062	582.56
436.284	599.56
436.505	498.56
436.727	466.56
436.949	447.56
437.17	447.56
437.392	453.56
437.614	454.56
437.835	470.56
438.057	528.56
438.278	594.56
438.5	593.56
438.721	645.56
438.943	630.56
439.165	527.56
439.386	477.56
439.608	478.56
439.829	446.56
440.05	489.56
440.272	499.56
440.493	502.56
440.715	458.56
440.936	439.56
441.158	456.56
441.379	440.56
441.6	464.56
441.822	474.56
442.043	491.56
442.264	546.56
442.486	573.56
442.707	505.56
442.928	479.56
443.149	477.56
443.371	498.56
443.592	516.56
443.813	568.56
444.034	628.56
444.255	539.56
444.476	486.56
444.698	486.56
444.919	492.56
445.14	611.56
445.361	541.56
445.582	490.56
445.803	542.56
446.024	639.56
446.245	600.56
446.466	559.56
446.687	468.56
446.908	469.56
447.129	442.56
447.35	431.56
447.571	440.56
447.792	426.56
448.013	433.56
448.234	444.56
448.455	467.56
448.675	560.56
448.896	605.56
449.117	535.56
449.338	520.56
449.559	594.56
449.779	642.56
450	527.56
450.221	460.56
450.442	435.56
450.662	427.56
450.883	430.56
451.104	418.56
451.324	405.56
451.545	424.56
451.766	400.56
451.986	392.56
452.207	413.56
452.428	366.56
452.648	390.56
452.869	377.56
453.089	399.56
453.31	395.56
453.53	397.56
453.751	395.56
453.971	371.56
454.192	383.56
454.412	381.56
454.633	382.56
454.853	392.56
455.073	374.56
455.294	404.56
455.514	424.56
455.734	441.56
455.955	382.56
456.175	367.56
456.395	374.56
456.616	380.56
456.836	374.56
457.056	387.56
457.276	363.56
457.497	365.56
457.717	372.56
457.937	378.56
458.157	388.56
458.377	387.56
458.598	386.56
458.818	432.56
459.038	459.56
459.258	476.56
459.478	441.56
459.698	414.56
459.918	410.56
460.138	422.56
460.358	438.56
460.578	435.56
460.798	416.56
461.018	435.56
461.238	436.56
461.458	427.56
461.678	419.56
461.898	444.56
462.118	443.56
462.338	454.56
462.558	444.56
462.777	476.56
462.997	486.56
463.217	501.56
463.437	513.56
463.657	493.56
463.876	479.56
464.096	457.56
464.316	461.56
464.536	490.56
464.755	474.56
464.975	456.56
465.195	477.56
465.414	478.56
465.634	458.56
465.854	426.56
466.073	425.56
466.293	412.56
466.512	403.56
466.732	416.56
466.951	418.56
467.171	408.56
467.391	394.56
467.61	399.56
467.829	429.56
468.049	410.56
468.268	400.56
468.488	398.56
468.707	403.56
468.927	397.56
469.146	390.56
469.365	374.56
469.585	379.56
469.804	421.56
470.023	396.56
470.243	422.56
470.462	418.56
470.681	409.56
470.901	415.56
471.12	401.56
471.339	392.56
471.558	426.56
471.777	408.56
471.997	401.56
472.216	410.56
472.435	414.56
472.654	407.56
472.873	414.56
473.092	418.56
473.311	398.56
473.53	420.56
473.749	411.56
473.968	417.56
474.187	511.56
474.406	502.56
474.625	434.56
474.844	403.56
475.063	403.56
475.282	406.56
475.501	413.56
475.72	408.56
475.939	423.56
476.158	393.56
476.377	389.56
476.596	406.56
476.814	424.56
477.033	437.56
477.252	434.56
477.471	438.56
477.69	431.56
477.908	440.56
478.127	452.56
478.346	448.56
478.564	462.56
478.783	453.56
479.002	458.56
479.22	458.56
479.439	468.56
479.658	482.56
479.876	487.56
480.095	485.56
480.313	506.56
480.532	500.56
480.751	472.56
480.969	503.56
481.188	531.56
481.406	548.56
481.624	485.56
481.843	480.56
482.061	475.56
482.28	480.56
482.498	458.56
482.717	458.56
482.935	467.56
483.153	458.56
483.372	458.56
483.59	452.56
483.808	451.56
484.027	454.56
484.245	466.56
484.463	474.56
484.681	473.56
484.9	478.56
485.118	476.56
485.336	467.56
485.554	483.56
485.772	486.56
485.99	502.56
486.209	481.56
486.427	477.56
486.645	474.56
486.863	508.56
487.081	476.56
487.299	485.56
487.517	489.56
487.735	478.56
487.953	481.56
488.171	501.56
488.389	504.56
488.607	498.56
488.825	479.56
489.043	484.56
489.261	511.56
489.479	508.56
489.696	542.56
489.914	524.56
490.132	522.56
490.35	487.56
490.568	512.56
490.786	539.56
491.003	532.56
491.221	538.56
491.439	533.56
491.657	536.56
491.874	548.56
492.092	544.56
492.31	541.56
492.527	553.56
492.745	550.56
492.963	555.56
493.18	550.56
493.398	570.56
493.615	574.56
493.833	554.56
494.05	544.56
494.268	563.56
494.485	565.56
494.703	560.56
494.92	564.56
495.138	578.56
495.355	552.56
495.573	556.56
495.79	555.56
496.008	577.56
496.225	574.56
496.442	583.56
496.66	582.56
496.877	587.56
497.094	588.56
497.312	585.56
497.529	592.56
497.746	602.56
497.963	622.56
498.181	643.56
498.398	670.56
498.615	662.56
498.832	670.56
499.049	690.56
499.267	719.56
499.484	757.56
499.701	770.56
499.918	784.56
500.135	844.56
500.352	884.56
500.569	898.56
500.786	892.56
501.003	895.56
501.22	870.56
501.437	817.56
501.654	762.56
501.871	760.56
502.088	722.56
