Data from 1964.PennyLincolnUp.Lamp.En5.5.200Scan.071719.P1._HRD10591_14-03-41-908.txt Node
Date: Thu Jul 18 14:03:41 EDT 2019
User: cochatt
Spectrometer: HR+D1059
Trigger mode: 1
Integration Time (sec): 1.000000E-1
Scans to average: 1
Electric dark correction enabled: true
Nonlinearity correction enabled: false
Boxcar width: 0
XAxis mode: Wavelengths
Number of Pixels in Spectrum: 2048
>>>>>Begin Spectral Data<<<<<
223.165	-10.88
223.4	-10.88
223.635	-10.88
223.869	-27.88
224.104	-4.88
224.338	-22.88
224.573	-20.88
224.808	-13.88
225.042	-7.88
225.277	-11.88
225.511	5.12
225.746	-7.88
225.98	8.12
226.215	23.12
226.449	16.12
226.683	33.12
226.918	22.12
227.152	21.12
227.387	25.12
227.621	33.12
227.856	43.12
228.09	45.12
228.324	50.12
228.559	59.12
228.793	59.12
229.027	86.12
229.262	87.12
229.496	95.12
229.73	109.12
229.964	116.12
230.199	115.12
230.433	107.12
230.667	94.12
230.901	114.12
231.136	106.12
231.37	91.12
231.604	107.12
231.838	107.12
232.072	103.12
232.306	105.12
232.541	104.12
232.775	113.12
233.009	102.12
233.243	106.12
233.477	109.12
233.711	118.12
233.945	117.12
234.179	126.12
234.413	118.12
234.647	130.12
234.881	91.12
235.115	109.12
235.349	105.12
235.583	110.12
235.817	107.12
236.051	111.12
236.285	113.12
236.519	112.12
236.753	125.12
236.987	117.12
237.221	145.12
237.455	173.12
237.689	160.12
237.922	138.12
238.156	123.12
238.39	122.12
238.624	120.12
238.858	115.12
239.091	100.12
239.325	128.12
239.559	124.12
239.793	121.12
240.027	113.12
240.26	135.12
240.494	133.12
240.728	133.12
240.961	133.12
241.195	124.12
241.429	139.12
241.662	125.12
241.896	114.12
242.13	125.12
242.363	143.12
242.597	130.12
242.83	124.12
243.064	117.12
243.298	148.12
243.531	132.12
243.765	118.12
243.998	117.12
244.232	127.12
244.465	129.12
244.699	135.12
244.932	142.12
245.166	133.12
245.399	133.12
245.633	141.12
245.866	149.12
246.099	136.12
246.333	139.12
246.566	137.12
246.8	125.12
247.033	140.12
247.266	161.12
247.5	142.12
247.733	156.12
247.966	167.12
248.2	169.12
248.433	163.12
248.666	147.12
248.899	177.12
249.133	174.12
249.366	168.12
249.599	187.12
249.832	171.12
250.066	158.12
250.299	177.12
250.532	179.12
250.765	204.12
250.998	188.12
251.231	191.12
251.465	200.12
251.698	193.12
251.931	177.12
252.164	173.12
252.397	187.12
252.63	192.12
252.863	186.12
253.096	211.12
253.329	205.12
253.562	205.12
253.795	195.12
254.028	213.12
254.261	185.12
254.494	206.12
254.727	206.12
254.96	233.12
255.193	230.12
255.426	205.12
255.659	196.12
255.892	205.12
256.124	207.12
256.357	215.12
256.59	214.12
256.823	203.12
257.056	205.12
257.289	191.12
257.521	195.12
257.754	204.12
257.987	210.12
258.22	193.12
258.452	206.12
258.685	203.12
258.918	206.12
259.151	205.12
259.383	211.12
259.616	199.12
259.849	206.12
260.081	206.12
260.314	238.12
260.547	224.12
260.779	225.12
261.012	221.12
261.244	214.12
261.477	215.12
261.71	210.12
261.942	202.12
262.175	195.12
262.407	209.12
262.64	198.12
262.872	205.12
263.105	206.12
263.337	210.12
263.57	210.12
263.802	202.12
264.035	208.12
264.267	197.12
264.499	199.12
264.732	195.12
264.964	206.12
265.197	216.12
265.429	211.12
265.661	231.12
265.894	226.12
266.126	211.12
266.358	215.12
266.591	205.12
266.823	222.12
267.055	228.12
267.287	212.12
267.52	227.12
267.752	229.12
267.984	223.12
268.216	239.12
268.448	225.12
268.681	226.12
268.913	210.12
269.145	248.12
269.377	259.12
269.609	248.12
269.841	255.12
270.073	265.12
270.306	264.12
270.538	268.12
270.77	282.12
271.002	275.12
271.234	256.12
271.466	267.12
271.698	279.12
271.93	276.12
272.162	280.12
272.394	276.12
272.626	274.12
272.858	265.12
273.09	259.12
273.322	253.12
273.553	241.12
273.785	262.12
274.017	247.12
274.249	250.12
274.481	244.12
274.713	272.12
274.945	258.12
275.176	258.12
275.408	272.12
275.64	252.12
275.872	263.12
276.104	262.12
276.335	247.12
276.567	266.12
276.799	280.12
277.031	270.12
277.262	270.12
277.494	294.12
277.726	290.12
277.957	271.12
278.189	279.12
278.421	264.12
278.652	270.12
278.884	257.12
279.115	271.12
279.347	267.12
279.579	262.12
279.81	270.12
280.042	268.12
280.273	268.12
280.505	279.12
280.736	273.12
280.968	271.12
281.199	281.12
281.431	268.12
281.662	285.12
281.894	293.12
282.125	276.12
282.356	279.12
282.588	300.12
282.819	289.12
283.051	269.12
283.282	265.12
283.513	285.12
283.745	270.12
283.976	288.12
284.207	293.12
284.439	284.12
284.67	269.12
284.901	290.12
285.132	294.12
285.364	299.12
285.595	303.12
285.826	290.12
286.057	277.12
286.288	280.12
286.52	285.12
286.751	280.12
286.982	278.12
287.213	289.12
287.444	300.12
287.675	301.12
287.906	307.12
288.138	285.12
288.369	315.12
288.6	308.12
288.831	299.12
289.062	284.12
289.293	288.12
289.524	313.12
289.755	304.12
289.986	310.12
290.217	310.12
290.448	278.12
290.679	302.12
290.91	292.12
291.141	282.12
291.371	296.12
291.602	300.12
291.833	294.12
292.064	303.12
292.295	316.12
292.526	296.12
292.757	319.12
292.987	316.12
293.218	307.12
293.449	309.12
293.68	292.12
293.91	313.12
294.141	298.12
294.372	285.12
294.603	305.12
294.833	275.12
295.064	307.12
295.295	302.12
295.525	299.12
295.756	298.12
295.987	289.12
296.217	321.12
296.448	327.12
296.679	327.12
296.909	326.12
297.14	318.12
297.37	318.12
297.601	314.12
297.831	296.12
298.062	295.12
298.292	317.12
298.523	321.12
298.753	306.12
298.984	327.12
299.214	324.12
299.445	313.12
299.675	328.12
299.905	317.12
300.136	317.12
300.366	332.12
300.597	311.12
300.827	327.12
301.057	318.12
301.288	326.12
301.518	350.12
301.748	339.12
301.979	353.12
302.209	333.12
302.439	324.12
302.669	343.12
302.9	321.12
303.13	326.12
303.36	325.12
303.59	329.12
303.82	319.12
304.051	334.12
304.281	336.12
304.511	343.12
304.741	345.12
304.971	339.12
305.201	337.12
305.431	342.12
305.661	330.12
305.891	329.12
306.121	329.12
306.352	347.12
306.582	342.12
306.812	340.12
307.042	330.12
307.272	354.12
307.502	334.12
307.731	345.12
307.961	343.12
308.191	330.12
308.421	340.12
308.651	334.12
308.881	318.12
309.111	352.12
309.341	339.12
309.571	355.12
309.8	349.12
310.03	358.12
310.26	363.12
310.49	355.12
310.72	344.12
310.949	392.12
311.179	377.12
311.409	357.12
311.639	367.12
311.868	342.12
312.098	374.12
312.328	359.12
312.557	389.12
312.787	390.12
313.017	362.12
313.246	354.12
313.476	373.12
313.706	353.12
313.935	376.12
314.165	391.12
314.394	381.12
314.624	391.12
314.853	375.12
315.083	385.12
315.312	368.12
315.542	369.12
315.771	374.12
316.001	348.12
316.23	362.12
316.46	363.12
316.689	371.12
316.919	384.12
317.148	389.12
317.377	381.12
317.607	366.12
317.836	373.12
318.065	385.12
318.295	373.12
318.524	374.12
318.753	373.12
318.983	383.12
319.212	374.12
319.441	359.12
319.67	387.12
319.9	353.12
320.129	371.12
320.358	367.12
320.587	383.12
320.816	395.12
321.046	381.12
321.275	405.12
321.504	381.12
321.733	378.12
321.962	377.12
322.191	393.12
322.42	391.12
322.649	415.12
322.878	399.12
323.108	395.12
323.337	398.12
323.566	431.12
323.795	430.12
324.024	489.12
324.253	533.12
324.482	691.12
324.71	997.12
324.939	1326.12
325.168	1110.12
325.397	617.12
325.626	472.12
325.855	435.12
326.084	438.12
326.313	437.12
326.542	426.12
326.77	471.12
326.999	522.12
327.228	637.12
327.457	878.12
327.686	1029.12
327.914	707.12
328.143	517.12
328.372	470.12
328.6	465.12
328.829	467.12
329.058	487.12
329.287	481.12
329.515	429.12
329.744	443.12
329.972	435.12
330.201	448.12
330.43	473.12
330.658	484.12
330.887	479.12
331.115	473.12
331.344	467.12
331.572	446.12
331.801	450.12
332.03	435.12
332.258	441.12
332.486	431.12
332.715	436.12
332.943	443.12
333.172	456.12
333.4	448.12
333.629	441.12
333.857	463.12
334.085	456.12
334.314	458.12
334.542	511.12
334.771	481.12
334.999	458.12
335.227	469.12
335.455	463.12
335.684	471.12
335.912	435.12
336.14	437.12
336.369	465.12
336.597	461.12
336.825	415.12
337.053	426.12
337.281	427.12
337.51	425.12
337.738	430.12
337.966	435.12
338.194	419.12
338.422	430.12
338.65	438.12
338.878	438.12
339.106	412.12
339.334	418.12
339.562	409.12
339.79	405.12
340.018	410.12
340.246	407.12
340.474	441.12
340.702	414.12
340.93	397.12
341.158	417.12
341.386	399.12
341.614	407.12
341.842	411.12
342.07	409.12
342.298	416.12
342.526	422.12
342.754	417.12
342.981	409.12
343.209	406.12
343.437	387.12
343.665	421.12
343.893	432.12
344.12	433.12
344.348	436.12
344.576	406.12
344.804	413.12
345.031	418.12
345.259	425.12
345.487	388.12
345.714	399.12
345.942	395.12
346.17	395.12
346.397	401.12
346.625	389.12
346.853	399.12
347.08	377.12
347.308	395.12
347.535	407.12
347.763	396.12
347.99	371.12
348.218	413.12
348.445	381.12
348.673	404.12
348.9	391.12
349.128	385.12
349.355	385.12
349.583	378.12
349.81	393.12
350.037	383.12
350.265	375.12
350.492	373.12
350.72	369.12
350.947	393.12
351.174	378.12
351.402	379.12
351.629	403.12
351.856	392.12
352.083	385.12
352.311	403.12
352.538	364.12
352.765	387.12
352.992	425.12
353.22	399.12
353.447	393.12
353.674	393.12
353.901	382.12
354.128	381.12
354.355	354.12
354.583	363.12
354.81	375.12
355.037	377.12
355.264	378.12
355.491	378.12
355.718	365.12
355.945	385.12
356.172	379.12
356.399	376.12
356.626	378.12
356.853	400.12
357.08	373.12
357.307	375.12
357.534	376.12
357.761	352.12
357.988	365.12
358.215	362.12
358.441	378.12
358.668	372.12
358.895	378.12
359.122	375.12
359.349	369.12
359.576	375.12
359.802	396.12
360.029	411.12
360.256	402.12
360.483	382.12
360.709	372.12
360.936	374.12
361.163	377.12
361.39	394.12
361.616	379.12
361.843	376.12
362.07	389.12
362.296	382.12
362.523	379.12
362.749	369.12
362.976	383.12
363.203	354.12
363.429	375.12
363.656	377.12
363.882	369.12
364.109	371.12
364.335	382.12
364.562	365.12
364.788	373.12
365.015	371.12
365.241	357.12
365.468	364.12
365.694	369.12
365.92	367.12
366.147	371.12
366.373	365.12
366.599	356.12
366.826	372.12
367.052	369.12
367.278	366.12
367.505	361.12
367.731	359.12
367.957	366.12
368.184	347.12
368.41	360.12
368.636	375.12
368.862	379.12
369.089	351.12
369.315	347.12
369.541	377.12
369.767	383.12
369.993	378.12
370.219	350.12
370.445	362.12
370.672	372.12
370.898	353.12
371.124	379.12
371.35	362.12
371.576	370.12
371.802	373.12
372.028	371.12
372.254	369.12
372.48	381.12
372.706	361.12
372.932	365.12
373.158	362.12
373.384	390.12
373.61	373.12
373.835	364.12
374.061	377.12
374.287	415.12
374.513	383.12
374.739	374.12
374.965	377.12
375.191	389.12
375.416	374.12
375.642	376.12
375.868	375.12
376.094	361.12
376.319	393.12
376.545	368.12
376.771	380.12
376.997	367.12
377.222	340.12
377.448	343.12
377.674	367.12
377.899	368.12
378.125	349.12
378.35	349.12
378.576	356.12
378.802	358.12
379.027	361.12
379.253	380.12
379.478	366.12
379.704	360.12
379.929	357.12
380.155	373.12
380.38	370.12
380.606	379.12
380.831	359.12
381.057	377.12
381.282	370.12
381.507	366.12
381.733	365.12
381.958	377.12
382.184	377.12
382.409	369.12
382.634	358.12
382.86	371.12
383.085	379.12
383.31	381.12
383.535	382.12
383.761	362.12
383.986	383.12
384.211	375.12
384.436	396.12
384.662	397.12
384.887	405.12
385.112	374.12
385.337	397.12
385.562	391.12
385.787	404.12
386.013	416.12
386.238	399.12
386.463	420.12
386.688	411.12
386.913	395.12
387.138	409.12
387.363	393.12
387.588	411.12
387.813	394.12
388.038	419.12
388.263	405.12
388.488	399.12
388.713	405.12
388.938	399.12
389.163	372.12
389.387	400.12
389.612	405.12
389.837	418.12
390.062	395.12
390.287	397.12
390.512	405.12
390.736	380.12
390.961	401.12
391.186	415.12
391.411	416.12
391.636	401.12
391.86	426.12
392.085	411.12
392.31	409.12
392.534	382.12
392.759	418.12
392.984	396.12
393.208	434.12
393.433	413.12
393.658	411.12
393.882	385.12
394.107	397.12
394.331	396.12
394.556	403.12
394.78	413.12
395.005	397.12
395.229	387.12
395.454	427.12
395.678	410.12
395.903	421.12
396.127	421.12
396.352	442.12
396.576	413.12
396.801	419.12
397.025	419.12
397.249	429.12
397.474	425.12
397.698	421.12
397.922	431.12
398.147	437.12
398.371	429.12
398.595	444.12
398.82	435.12
399.044	439.12
399.268	493.12
399.492	485.12
399.717	547.12
399.941	562.12
400.165	549.12
400.389	545.12
400.613	513.12
400.837	495.12
401.062	472.12
401.286	457.12
401.51	447.12
401.734	462.12
401.958	457.12
402.182	426.12
402.406	451.12
402.63	470.12
402.854	446.12
403.078	467.12
403.302	468.12
403.526	468.12
403.75	462.12
403.974	442.12
404.198	479.12
404.422	485.12
404.645	474.12
404.869	472.12
405.093	498.12
405.317	522.12
405.541	542.12
405.765	510.12
405.988	490.12
406.212	500.12
406.436	509.12
406.66	487.12
406.883	482.12
407.107	509.12
407.331	559.12
407.555	589.12
407.778	581.12
408.002	541.12
408.226	511.12
408.449	511.12
408.673	506.12
408.896	508.12
409.12	515.12
409.344	504.12
409.567	482.12
409.791	469.12
410.014	457.12
410.238	458.12
410.461	452.12
410.685	450.12
410.908	471.12
411.132	475.12
411.355	489.12
411.578	496.12
411.802	472.12
412.025	447.12
412.249	464.12
412.472	477.12
412.695	486.12
412.919	488.12
413.142	468.12
413.365	430.12
413.589	433.12
413.812	416.12
414.035	429.12
414.258	437.12
414.482	450.12
414.705	431.12
414.928	435.12
415.151	439.12
415.374	427.12
415.597	436.12
415.821	423.12
416.044	424.12
416.267	443.12
416.49	417.12
416.713	446.12
416.936	435.12
417.159	426.12
417.382	420.12
417.605	406.12
417.828	453.12
418.051	419.12
418.274	451.12
418.497	419.12
418.72	425.12
418.943	420.12
419.166	443.12
419.389	446.12
419.611	448.12
419.834	448.12
420.057	447.12
420.28	453.12
420.503	459.12
420.726	443.12
420.948	443.12
421.171	476.12
421.394	483.12
421.617	446.12
421.839	430.12
422.062	477.12
422.285	464.12
422.507	476.12
422.73	522.12
422.953	507.12
423.175	462.12
423.398	452.12
423.621	443.12
423.843	473.12
424.066	451.12
424.288	465.12
424.511	480.12
424.733	491.12
424.956	578.12
425.178	544.12
425.401	536.12
425.623	525.12
425.846	482.12
426.068	465.12
426.291	448.12
426.513	440.12
426.735	448.12
426.958	477.12
427.18	548.12
427.402	625.12
427.625	671.12
427.847	571.12
428.069	492.12
428.292	467.12
428.514	434.12
428.736	418.12
428.958	424.12
429.181	423.12
429.403	415.12
429.625	414.12
429.847	451.12
430.069	468.12
430.292	480.12
430.514	435.12
430.736	427.12
430.958	392.12
431.18	399.12
431.402	405.12
431.624	392.12
431.846	390.12
432.068	397.12
432.29	419.12
432.512	385.12
432.734	398.12
432.956	401.12
433.178	404.12
433.4	396.12
433.622	404.12
433.844	404.12
434.066	410.12
434.287	390.12
434.509	418.12
434.731	408.12
434.953	414.12
435.175	411.12
435.397	436.12
435.618	449.12
435.84	464.12
436.062	557.12
436.284	595.12
436.505	485.12
436.727	444.12
436.949	424.12
437.17	418.12
437.392	409.12
437.614	422.12
437.835	451.12
438.057	486.12
438.278	541.12
438.5	556.12
438.721	610.12
438.943	590.12
439.165	467.12
439.386	425.12
439.608	433.12
439.829	411.12
440.05	469.12
440.272	477.12
440.493	474.12
440.715	456.12
440.936	431.12
441.158	419.12
441.379	418.12
441.6	428.12
441.822	433.12
442.043	471.12
442.264	534.12
442.486	526.12
442.707	471.12
442.928	466.12
443.149	441.12
443.371	477.12
443.592	504.12
443.813	581.12
444.034	587.12
444.255	505.12
444.476	445.12
444.698	450.12
444.919	480.12
445.14	581.12
445.361	499.12
445.582	481.12
445.803	509.12
446.024	554.12
446.245	569.12
446.466	526.12
446.687	451.12
446.908	424.12
447.129	418.12
447.35	410.12
447.571	414.12
447.792	399.12
448.013	413.12
448.234	418.12
448.455	429.12
448.675	513.12
448.896	579.12
449.117	501.12
449.338	502.12
449.559	562.12
449.779	621.12
450	493.12
450.221	436.12
450.442	391.12
450.662	384.12
450.883	395.12
451.104	381.12
451.324	389.12
451.545	383.12
451.766	371.12
451.986	363.12
452.207	371.12
452.428	363.12
452.648	370.12
452.869	354.12
453.089	361.12
453.31	370.12
453.53	359.12
453.751	379.12
453.971	375.12
454.192	378.12
454.412	366.12
454.633	364.12
454.853	359.12
455.073	360.12
455.294	385.12
455.514	407.12
455.734	394.12
455.955	367.12
456.175	349.12
456.395	350.12
456.616	342.12
456.836	370.12
457.056	369.12
457.276	332.12
457.497	377.12
457.717	345.12
457.937	338.12
458.157	345.12
458.377	363.12
458.598	380.12
458.818	415.12
459.038	426.12
459.258	420.12
459.478	417.12
459.698	400.12
459.918	390.12
460.138	397.12
460.358	408.12
460.578	397.12
460.798	403.12
461.018	420.12
461.238	426.12
461.458	415.12
461.678	418.12
461.898	435.12
462.118	400.12
462.338	439.12
462.558	426.12
462.777	447.12
462.997	454.12
463.217	474.12
463.437	475.12
463.657	450.12
463.876	449.12
464.096	441.12
464.316	439.12
464.536	461.12
464.755	436.12
464.975	425.12
465.195	454.12
465.414	441.12
465.634	390.12
465.854	403.12
466.073	393.12
466.293	387.12
466.512	390.12
466.732	390.12
466.951	385.12
467.171	400.12
467.391	394.12
467.61	380.12
467.829	385.12
468.049	388.12
468.268	353.12
468.488	361.12
468.707	390.12
468.927	381.12
469.146	354.12
469.365	369.12
469.585	381.12
469.804	372.12
470.023	392.12
470.243	385.12
470.462	386.12
470.681	388.12
470.901	378.12
471.12	381.12
471.339	383.12
471.558	394.12
471.777	378.12
471.997	385.12
472.216	371.12
472.435	397.12
472.654	398.12
472.873	385.12
473.092	387.12
473.311	393.12
473.53	386.12
473.749	401.12
473.968	418.12
474.187	471.12
474.406	485.12
474.625	422.12
474.844	394.12
475.063	383.12
475.282	394.12
475.501	398.12
475.72	408.12
475.939	385.12
476.158	378.12
476.377	411.12
476.596	411.12
476.814	396.12
477.033	384.12
477.252	396.12
477.471	398.12
477.69	407.12
477.908	415.12
478.127	409.12
478.346	417.12
478.564	433.12
478.783	425.12
479.002	431.12
479.22	445.12
479.439	442.12
479.658	453.12
479.876	458.12
480.095	443.12
480.313	471.12
480.532	470.12
480.751	459.12
480.969	465.12
481.188	479.12
481.406	513.12
481.624	475.12
481.843	451.12
482.061	443.12
482.28	452.12
482.498	440.12
482.717	457.12
482.935	429.12
483.153	447.12
483.372	429.12
483.59	441.12
483.808	443.12
484.027	443.12
484.245	443.12
484.463	447.12
484.681	449.12
484.9	439.12
485.118	463.12
485.336	458.12
485.554	459.12
485.772	463.12
485.99	458.12
486.209	462.12
486.427	443.12
486.645	458.12
486.863	455.12
487.081	457.12
487.299	460.12
487.517	477.12
487.735	453.12
487.953	481.12
488.171	465.12
488.389	470.12
488.607	460.12
488.825	472.12
489.043	472.12
489.261	461.12
489.479	455.12
489.696	479.12
489.914	462.12
490.132	482.12
490.35	477.12
490.568	487.12
490.786	490.12
491.003	513.12
491.221	511.12
491.439	521.12
491.657	509.12
491.874	521.12
492.092	522.12
492.31	499.12
492.527	525.12
492.745	508.12
492.963	512.12
493.18	532.12
493.398	534.12
493.615	531.12
493.833	528.12
494.05	531.12
494.268	526.12
494.485	538.12
494.703	551.12
494.92	538.12
495.138	525.12
495.355	538.12
495.573	534.12
495.79	530.12
496.008	537.12
496.225	555.12
496.442	554.12
496.66	567.12
496.877	533.12
497.094	550.12
497.312	558.12
497.529	545.12
497.746	573.12
497.963	588.12
498.181	598.12
498.398	621.12
498.615	627.12
498.832	629.12
499.049	647.12
499.267	666.12
499.484	699.12
499.701	734.12
499.918	750.12
500.135	773.12
500.352	849.12
500.569	847.12
500.786	830.12
501.003	831.12
501.22	808.12
501.437	777.12
501.654	742.12
501.871	728.12
502.088	678.12
