Data from 1964.PennyLincolnUp.Lamp.En5.5.200Scan.071719.P1._HRD10591_14-05-56-909.txt Node
Date: Thu Jul 18 14:05:56 EDT 2019
User: cochatt
Spectrometer: HR+D1059
Trigger mode: 1
Integration Time (sec): 1.000000E-1
Scans to average: 1
Electric dark correction enabled: true
Nonlinearity correction enabled: false
Boxcar width: 0
XAxis mode: Wavelengths
Number of Pixels in Spectrum: 2048
>>>>>Begin Spectral Data<<<<<
223.165	-11.25
223.4	-11.25
223.635	-11.25
223.869	-23.25
224.104	-10.25
224.338	-21.25
224.573	-21.25
224.808	-1.25
225.042	-10.25
225.277	4.75
225.511	-12.25
225.746	-4.25
225.98	11.75
226.215	10.75
226.449	10.75
226.683	15.75
226.918	36.75
227.152	24.75
227.387	43.75
227.621	27.75
227.856	42.75
228.09	53.75
228.324	57.75
228.559	57.75
228.793	57.75
229.027	78.75
229.262	113.75
229.496	119.75
229.73	119.75
229.964	124.75
230.199	121.75
230.433	111.75
230.667	105.75
230.901	105.75
231.136	104.75
231.37	114.75
231.604	103.75
231.838	99.75
232.072	101.75
232.306	103.75
232.541	98.75
232.775	116.75
233.009	105.75
233.243	118.75
233.477	106.75
233.711	108.75
233.945	119.75
234.179	114.75
234.413	118.75
234.647	125.75
234.881	128.75
235.115	127.75
235.349	123.75
235.583	119.75
235.817	121.75
236.051	127.75
236.285	120.75
236.519	135.75
236.753	135.75
236.987	126.75
237.221	150.75
237.455	202.75
237.689	159.75
237.922	132.75
238.156	115.75
238.39	143.75
238.624	135.75
238.858	127.75
239.091	131.75
239.325	135.75
239.559	135.75
239.793	118.75
240.027	117.75
240.26	141.75
240.494	143.75
240.728	142.75
240.961	150.75
241.195	154.75
241.429	138.75
241.662	135.75
241.896	116.75
242.13	143.75
242.363	143.75
242.597	121.75
242.83	142.75
243.064	149.75
243.298	153.75
243.531	150.75
243.765	132.75
243.998	148.75
244.232	138.75
244.465	142.75
244.699	157.75
244.932	166.75
245.166	155.75
245.399	149.75
245.633	145.75
245.866	154.75
246.099	158.75
246.333	162.75
246.566	155.75
246.8	142.75
247.033	173.75
247.266	151.75
247.5	161.75
247.733	168.75
247.966	170.75
248.2	160.75
248.433	173.75
248.666	174.75
248.899	187.75
249.133	192.75
249.366	214.75
249.599	216.75
249.832	190.75
250.066	181.75
250.299	181.75
250.532	200.75
250.765	201.75
250.998	213.75
251.231	217.75
251.465	212.75
251.698	209.75
251.931	208.75
252.164	211.75
252.397	189.75
252.63	194.75
252.863	206.75
253.096	221.75
253.329	222.75
253.562	240.75
253.795	225.75
254.028	213.75
254.261	217.75
254.494	233.75
254.727	246.75
254.96	258.75
255.193	270.75
255.426	247.75
255.659	241.75
255.892	237.75
256.124	230.75
256.357	234.75
256.59	232.75
256.823	228.75
257.056	240.75
257.289	208.75
257.521	243.75
257.754	201.75
257.987	219.75
258.22	228.75
258.452	230.75
258.685	191.75
258.918	212.75
259.151	211.75
259.383	216.75
259.616	225.75
259.849	223.75
260.081	240.75
260.314	252.75
260.547	281.75
260.779	247.75
261.012	254.75
261.244	248.75
261.477	240.75
261.71	223.75
261.942	236.75
262.175	225.75
262.407	245.75
262.64	244.75
262.872	232.75
263.105	241.75
263.337	224.75
263.57	231.75
263.802	230.75
264.035	224.75
264.267	240.75
264.499	215.75
264.732	253.75
264.964	243.75
265.197	240.75
265.429	240.75
265.661	222.75
265.894	233.75
266.126	219.75
266.358	216.75
266.591	241.75
266.823	244.75
267.055	263.75
267.287	245.75
267.52	240.75
267.752	249.75
267.984	228.75
268.216	247.75
268.448	258.75
268.681	245.75
268.913	271.75
269.145	276.75
269.377	286.75
269.609	285.75
269.841	296.75
270.073	284.75
270.306	314.75
270.538	308.75
270.77	324.75
271.002	324.75
271.234	328.75
271.466	338.75
271.698	327.75
271.93	321.75
272.162	345.75
272.394	321.75
272.626	329.75
272.858	299.75
273.09	293.75
273.322	283.75
273.553	284.75
273.785	294.75
274.017	291.75
274.249	281.75
274.481	272.75
274.713	287.75
274.945	303.75
275.176	310.75
275.408	293.75
275.64	289.75
275.872	298.75
276.104	288.75
276.335	302.75
276.567	287.75
276.799	291.75
277.031	318.75
277.262	330.75
277.494	344.75
277.726	329.75
277.957	306.75
278.189	292.75
278.421	297.75
278.652	308.75
278.884	307.75
279.115	294.75
279.347	303.75
279.579	301.75
279.81	310.75
280.042	306.75
280.273	300.75
280.505	301.75
280.736	288.75
280.968	296.75
281.199	300.75
281.431	288.75
281.662	289.75
281.894	303.75
282.125	301.75
282.356	318.75
282.588	327.75
282.819	339.75
283.051	320.75
283.282	295.75
283.513	320.75
283.745	303.75
283.976	317.75
284.207	319.75
284.439	319.75
284.67	315.75
284.901	330.75
285.132	320.75
285.364	323.75
285.595	315.75
285.826	325.75
286.057	315.75
286.288	326.75
286.52	330.75
286.751	350.75
286.982	329.75
287.213	324.75
287.444	340.75
287.675	325.75
287.906	326.75
288.138	327.75
288.369	327.75
288.6	332.75
288.831	332.75
289.062	347.75
289.293	322.75
289.524	316.75
289.755	302.75
289.986	330.75
290.217	331.75
290.448	307.75
290.679	317.75
290.91	335.75
291.141	333.75
291.371	325.75
291.602	308.75
291.833	322.75
292.064	327.75
292.295	329.75
292.526	331.75
292.757	329.75
292.987	319.75
293.218	320.75
293.449	321.75
293.68	332.75
293.91	339.75
294.141	337.75
294.372	337.75
294.603	328.75
294.833	336.75
295.064	340.75
295.295	336.75
295.525	345.75
295.756	359.75
295.987	349.75
296.217	360.75
296.448	348.75
296.679	341.75
296.909	327.75
297.14	323.75
297.37	323.75
297.601	340.75
297.831	347.75
298.062	340.75
298.292	363.75
298.523	369.75
298.753	364.75
298.984	375.75
299.214	364.75
299.445	349.75
299.675	372.75
299.905	345.75
300.136	368.75
300.366	347.75
300.597	363.75
300.827	373.75
301.057	367.75
301.288	363.75
301.518	357.75
301.748	371.75
301.979	373.75
302.209	375.75
302.439	361.75
302.669	377.75
302.9	373.75
303.13	357.75
303.36	369.75
303.59	365.75
303.82	379.75
304.051	381.75
304.281	360.75
304.511	366.75
304.741	364.75
304.971	366.75
305.201	357.75
305.431	375.75
305.661	365.75
305.891	364.75
306.121	369.75
306.352	382.75
306.582	362.75
306.812	362.75
307.042	383.75
307.272	368.75
307.502	363.75
307.731	380.75
307.961	381.75
308.191	367.75
308.421	377.75
308.651	389.75
308.881	380.75
309.111	364.75
309.341	358.75
309.571	378.75
309.8	390.75
310.03	378.75
310.26	377.75
310.49	395.75
310.72	421.75
310.949	404.75
311.179	423.75
311.409	400.75
311.639	396.75
311.868	412.75
312.098	410.75
312.328	431.75
312.557	437.75
312.787	425.75
313.017	449.75
313.246	437.75
313.476	418.75
313.706	415.75
313.935	417.75
314.165	420.75
314.394	416.75
314.624	423.75
314.853	422.75
315.083	424.75
315.312	410.75
315.542	398.75
315.771	383.75
316.001	416.75
316.23	399.75
316.46	419.75
316.689	424.75
316.919	422.75
317.148	414.75
317.377	436.75
317.607	436.75
317.836	425.75
318.065	397.75
318.295	409.75
318.524	420.75
318.753	422.75
318.983	418.75
319.212	411.75
319.441	412.75
319.67	423.75
319.9	430.75
320.129	426.75
320.358	411.75
320.587	425.75
320.816	404.75
321.046	420.75
321.275	428.75
321.504	439.75
321.733	448.75
321.962	454.75
322.191	450.75
322.42	455.75
322.649	473.75
322.878	468.75
323.108	472.75
323.337	476.75
323.566	502.75
323.795	499.75
324.024	545.75
324.253	617.75
324.482	886.75
324.71	1236.75
324.939	1712.75
325.168	1464.75
325.397	797.75
325.626	594.75
325.855	543.75
326.084	501.75
326.313	494.75
326.542	503.75
326.77	545.75
326.999	608.75
327.228	808.75
327.457	1095.75
327.686	1304.75
327.914	870.75
328.143	650.75
328.372	588.75
328.6	541.75
328.829	533.75
329.058	556.75
329.287	558.75
329.515	531.75
329.744	515.75
329.972	533.75
330.201	523.75
330.43	551.75
330.658	572.75
330.887	589.75
331.115	543.75
331.344	504.75
331.572	510.75
331.801	506.75
332.03	524.75
332.258	517.75
332.486	492.75
332.715	507.75
332.943	490.75
333.172	483.75
333.4	488.75
333.629	522.75
333.857	529.75
334.085	526.75
334.314	553.75
334.542	585.75
334.771	575.75
334.999	531.75
335.227	519.75
335.455	493.75
335.684	508.75
335.912	496.75
336.14	489.75
336.369	492.75
336.597	508.75
336.825	505.75
337.053	484.75
337.281	476.75
337.51	468.75
337.738	492.75
337.966	481.75
338.194	461.75
338.422	472.75
338.65	477.75
338.878	483.75
339.106	459.75
339.334	452.75
339.562	447.75
339.79	465.75
340.018	451.75
340.246	466.75
340.474	456.75
340.702	458.75
340.93	455.75
341.158	453.75
341.386	451.75
341.614	450.75
341.842	465.75
342.07	455.75
342.298	457.75
342.526	443.75
342.754	458.75
342.981	450.75
343.209	455.75
343.437	460.75
343.665	462.75
343.893	470.75
344.12	483.75
344.348	477.75
344.576	491.75
344.804	464.75
345.031	500.75
345.259	451.75
345.487	435.75
345.714	450.75
345.942	448.75
346.17	445.75
346.397	456.75
346.625	445.75
346.853	441.75
347.08	435.75
347.308	435.75
347.535	444.75
347.763	452.75
347.99	455.75
348.218	444.75
348.445	437.75
348.673	430.75
348.9	449.75
349.128	425.75
349.355	423.75
349.583	423.75
349.81	421.75
350.037	444.75
350.265	416.75
350.492	423.75
350.72	431.75
350.947	447.75
351.174	440.75
351.402	425.75
351.629	444.75
351.856	419.75
352.083	419.75
352.311	444.75
352.538	431.75
352.765	433.75
352.992	433.75
353.22	425.75
353.447	425.75
353.674	402.75
353.901	431.75
354.128	420.75
354.355	404.75
354.583	406.75
354.81	402.75
355.037	408.75
355.264	419.75
355.491	419.75
355.718	402.75
355.945	430.75
356.172	412.75
356.399	407.75
356.626	410.75
356.853	392.75
357.08	401.75
357.307	405.75
357.534	410.75
357.761	412.75
357.988	422.75
358.215	426.75
358.441	398.75
358.668	413.75
358.895	391.75
359.122	392.75
359.349	403.75
359.576	437.75
359.802	445.75
360.029	446.75
360.256	445.75
360.483	436.75
360.709	437.75
360.936	421.75
361.163	431.75
361.39	407.75
361.616	424.75
361.843	411.75
362.07	425.75
362.296	407.75
362.523	428.75
362.749	402.75
362.976	392.75
363.203	414.75
363.429	411.75
363.656	409.75
363.882	403.75
364.109	395.75
364.335	409.75
364.562	405.75
364.788	410.75
365.015	423.75
365.241	414.75
365.468	409.75
365.694	387.75
365.92	410.75
366.147	402.75
366.373	417.75
366.599	421.75
366.826	379.75
367.052	393.75
367.278	407.75
367.505	389.75
367.731	401.75
367.957	413.75
368.184	406.75
368.41	413.75
368.636	432.75
368.862	384.75
369.089	423.75
369.315	381.75
369.541	387.75
369.767	421.75
369.993	386.75
370.219	411.75
370.445	416.75
370.672	423.75
370.898	385.75
371.124	388.75
371.35	437.75
371.576	416.75
371.802	405.75
372.028	413.75
372.254	409.75
372.48	412.75
372.706	407.75
372.932	407.75
373.158	436.75
373.384	410.75
373.61	398.75
373.835	399.75
374.061	401.75
374.287	420.75
374.513	417.75
374.739	414.75
374.965	412.75
375.191	420.75
375.416	414.75
375.642	395.75
375.868	402.75
376.094	410.75
376.319	395.75
376.545	390.75
376.771	398.75
376.997	409.75
377.222	421.75
377.448	385.75
377.674	398.75
377.899	377.75
378.125	374.75
378.35	401.75
378.576	397.75
378.802	395.75
379.027	403.75
379.253	401.75
379.478	381.75
379.704	407.75
379.929	430.75
380.155	393.75
380.38	385.75
380.606	397.75
380.831	399.75
381.057	399.75
381.282	421.75
381.507	403.75
381.733	404.75
381.958	416.75
382.184	405.75
382.409	406.75
382.634	416.75
382.86	420.75
383.085	407.75
383.31	412.75
383.535	410.75
383.761	403.75
383.986	409.75
384.211	420.75
384.436	403.75
384.662	427.75
384.887	417.75
385.112	416.75
385.337	425.75
385.562	430.75
385.787	444.75
386.013	466.75
386.238	455.75
386.463	429.75
386.688	448.75
386.913	415.75
387.138	440.75
387.363	423.75
387.588	433.75
387.813	424.75
388.038	435.75
388.263	439.75
388.488	443.75
388.713	447.75
388.938	419.75
389.163	431.75
389.387	446.75
389.612	435.75
389.837	431.75
390.062	429.75
390.287	448.75
390.512	441.75
390.736	421.75
390.961	430.75
391.186	432.75
391.411	420.75
391.636	438.75
391.86	441.75
392.085	449.75
392.31	444.75
392.534	460.75
392.759	459.75
392.984	425.75
393.208	455.75
393.433	440.75
393.658	436.75
393.882	448.75
394.107	429.75
394.331	447.75
394.556	430.75
394.78	469.75
395.005	437.75
395.229	447.75
395.454	457.75
395.678	456.75
395.903	455.75
396.127	465.75
396.352	475.75
396.576	453.75
396.801	443.75
397.025	438.75
397.249	457.75
397.474	464.75
397.698	472.75
397.922	452.75
398.147	481.75
398.371	493.75
398.595	474.75
398.82	483.75
399.044	501.75
399.268	508.75
399.492	534.75
399.717	597.75
399.941	605.75
400.165	614.75
400.389	597.75
400.613	548.75
400.837	512.75
401.062	503.75
401.286	494.75
401.51	493.75
401.734	492.75
401.958	477.75
402.182	517.75
402.406	507.75
402.63	476.75
402.854	491.75
403.078	495.75
403.302	501.75
403.526	519.75
403.75	523.75
403.974	502.75
404.198	533.75
404.422	507.75
404.645	531.75
404.869	524.75
405.093	548.75
405.317	553.75
405.541	614.75
405.765	533.75
405.988	511.75
406.212	533.75
406.436	561.75
406.66	592.75
406.883	539.75
407.107	559.75
407.331	589.75
407.555	641.75
407.778	610.75
408.002	602.75
408.226	570.75
408.449	549.75
408.673	540.75
408.896	579.75
409.12	598.75
409.344	583.75
409.567	530.75
409.791	493.75
410.014	480.75
410.238	495.75
410.461	516.75
410.685	531.75
410.908	543.75
411.132	535.75
411.355	559.75
411.578	536.75
411.802	484.75
412.025	505.75
412.249	535.75
412.472	533.75
412.695	577.75
412.919	552.75
413.142	515.75
413.365	498.75
413.589	483.75
413.812	485.75
414.035	480.75
414.258	470.75
414.482	470.75
414.705	472.75
414.928	449.75
415.151	473.75
415.374	482.75
415.597	466.75
415.821	469.75
416.044	481.75
416.267	493.75
416.49	464.75
416.713	487.75
416.936	466.75
417.159	476.75
417.382	451.75
417.605	484.75
417.828	457.75
418.051	488.75
418.274	478.75
418.497	452.75
418.72	468.75
418.943	473.75
419.166	493.75
419.389	519.75
419.611	491.75
419.834	511.75
420.057	499.75
420.28	476.75
420.503	498.75
420.726	471.75
420.948	486.75
421.171	511.75
421.394	553.75
421.617	494.75
421.839	514.75
422.062	492.75
422.285	502.75
422.507	529.75
422.73	585.75
422.953	576.75
423.175	517.75
423.398	483.75
423.621	493.75
423.843	495.75
424.066	518.75
424.288	524.75
424.511	529.75
424.733	580.75
424.956	634.75
425.178	603.75
425.401	590.75
425.623	606.75
425.846	531.75
426.068	509.75
426.291	501.75
426.513	485.75
426.735	508.75
426.958	528.75
427.18	611.75
427.402	691.75
427.625	767.75
427.847	625.75
428.069	599.75
428.292	528.75
428.514	487.75
428.736	463.75
428.958	482.75
429.181	471.75
429.403	483.75
429.625	461.75
429.847	502.75
430.069	549.75
430.292	550.75
430.514	487.75
430.736	452.75
430.958	462.75
431.18	467.75
431.402	453.75
431.624	427.75
431.846	432.75
432.068	441.75
432.29	442.75
432.512	453.75
432.734	442.75
432.956	448.75
433.178	447.75
433.4	449.75
433.622	448.75
433.844	460.75
434.066	458.75
434.287	446.75
434.509	453.75
434.731	459.75
434.953	465.75
435.175	487.75
435.397	494.75
435.618	490.75
435.84	538.75
436.062	599.75
436.284	654.75
436.505	556.75
436.727	507.75
436.949	472.75
437.17	456.75
437.392	453.75
437.614	460.75
437.835	495.75
438.057	545.75
438.278	636.75
438.5	608.75
438.721	674.75
438.943	679.75
439.165	549.75
439.386	514.75
439.608	509.75
439.829	505.75
440.05	532.75
440.272	552.75
440.493	506.75
440.715	472.75
440.936	494.75
441.158	456.75
441.379	470.75
441.6	503.75
441.822	517.75
442.043	538.75
442.264	595.75
442.486	622.75
442.707	544.75
442.928	522.75
443.149	507.75
443.371	537.75
443.592	569.75
443.813	641.75
444.034	676.75
444.255	569.75
444.476	535.75
444.698	550.75
444.919	508.75
445.14	623.75
445.361	578.75
445.582	535.75
445.803	570.75
446.024	637.75
446.245	624.75
446.466	592.75
446.687	520.75
446.908	474.75
447.129	463.75
447.35	454.75
447.571	461.75
447.792	451.75
448.013	471.75
448.234	464.75
448.455	521.75
448.675	598.75
448.896	683.75
449.117	578.75
449.338	545.75
449.559	632.75
449.779	717.75
450	561.75
450.221	485.75
450.442	465.75
450.662	442.75
450.883	448.75
451.104	456.75
451.324	469.75
451.545	421.75
451.766	416.75
451.986	424.75
452.207	413.75
452.428	407.75
452.648	391.75
452.869	426.75
453.089	415.75
453.31	409.75
453.53	403.75
453.751	412.75
453.971	402.75
454.192	416.75
454.412	402.75
454.633	396.75
454.853	393.75
455.073	388.75
455.294	440.75
455.514	495.75
455.734	449.75
455.955	423.75
456.175	404.75
456.395	398.75
456.616	381.75
456.836	392.75
457.056	392.75
457.276	384.75
457.497	386.75
457.717	396.75
457.937	418.75
458.157	388.75
458.377	392.75
458.598	413.75
458.818	449.75
459.038	510.75
459.258	540.75
459.478	476.75
459.698	457.75
459.918	446.75
460.138	453.75
460.358	440.75
460.578	447.75
460.798	475.75
461.018	484.75
461.238	464.75
461.458	444.75
461.678	456.75
461.898	443.75
462.118	453.75
462.338	470.75
462.558	487.75
462.777	465.75
462.997	491.75
463.217	506.75
463.437	521.75
463.657	513.75
463.876	503.75
464.096	497.75
464.316	473.75
464.536	502.75
464.755	481.75
464.975	499.75
465.195	515.75
465.414	530.75
465.634	467.75
465.854	465.75
466.073	448.75
466.293	447.75
466.512	409.75
466.732	411.75
466.951	431.75
467.171	417.75
467.391	420.75
467.61	448.75
467.829	445.75
468.049	433.75
468.268	430.75
468.488	413.75
468.707	413.75
468.927	398.75
469.146	407.75
469.365	429.75
469.585	421.75
469.804	435.75
470.023	395.75
470.243	402.75
470.462	432.75
470.681	447.75
470.901	412.75
471.12	423.75
471.339	424.75
471.558	428.75
471.777	427.75
471.997	415.75
472.216	426.75
472.435	455.75
472.654	440.75
472.873	438.75
473.092	421.75
473.311	425.75
473.53	413.75
473.749	416.75
473.968	455.75
474.187	543.75
474.406	559.75
474.625	460.75
474.844	435.75
475.063	428.75
475.282	426.75
475.501	415.75
475.72	443.75
475.939	449.75
476.158	426.75
476.377	436.75
476.596	420.75
476.814	459.75
477.033	437.75
477.252	442.75
477.471	472.75
477.69	429.75
477.908	456.75
478.127	447.75
478.346	445.75
478.564	468.75
478.783	475.75
479.002	495.75
479.22	471.75
479.439	493.75
479.658	507.75
479.876	503.75
480.095	511.75
480.313	518.75
480.532	528.75
480.751	525.75
480.969	534.75
481.188	548.75
481.406	577.75
481.624	539.75
481.843	509.75
482.061	508.75
482.28	486.75
482.498	484.75
482.717	472.75
482.935	484.75
483.153	464.75
483.372	505.75
483.59	492.75
483.808	483.75
484.027	473.75
484.245	477.75
484.463	475.75
484.681	511.75
484.9	513.75
485.118	486.75
485.336	496.75
485.554	495.75
485.772	494.75
485.99	481.75
486.209	502.75
486.427	492.75
486.645	493.75
486.863	507.75
487.081	505.75
487.299	508.75
487.517	518.75
487.735	503.75
487.953	502.75
488.171	538.75
488.389	527.75
488.607	519.75
488.825	538.75
489.043	525.75
489.261	512.75
489.479	521.75
489.696	521.75
489.914	541.75
490.132	530.75
490.35	532.75
490.568	544.75
490.786	539.75
491.003	555.75
491.221	555.75
491.439	608.75
491.657	576.75
491.874	574.75
492.092	604.75
492.31	588.75
492.527	615.75
492.745	585.75
492.963	594.75
493.18	579.75
493.398	630.75
493.615	603.75
493.833	595.75
494.05	572.75
494.268	612.75
494.485	603.75
494.703	588.75
494.92	613.75
495.138	597.75
495.355	602.75
495.573	602.75
495.79	606.75
496.008	606.75
496.225	614.75
496.442	617.75
496.66	607.75
496.877	625.75
497.094	615.75
497.312	638.75
497.529	634.75
497.746	656.75
497.963	645.75
498.181	646.75
498.398	678.75
498.615	680.75
498.832	703.75
499.049	711.75
499.267	703.75
499.484	787.75
499.701	791.75
499.918	824.75
500.135	865.75
500.352	904.75
500.569	933.75
500.786	963.75
501.003	903.75
501.22	878.75
501.437	838.75
501.654	821.75
501.871	778.75
