Data from 1964.PennyLincolnUp.Lamp.En5.5.200Scan.071719.P1._HRD10591_14-04-36-909.txt Node
Date: Thu Jul 18 14:04:36 EDT 2019
User: cochatt
Spectrometer: HR+D1059
Trigger mode: 1
Integration Time (sec): 1.000000E-1
Scans to average: 1
Electric dark correction enabled: true
Nonlinearity correction enabled: false
Boxcar width: 0
XAxis mode: Wavelengths
Number of Pixels in Spectrum: 2048
>>>>>Begin Spectral Data<<<<<
223.165	-6.38
223.4	-6.38
223.635	-6.38
223.869	-10.38
224.104	-10.38
224.338	-7.38
224.573	-10.38
224.808	-2.38
225.042	12.62
225.277	-16.38
225.511	-0.38
225.746	-1.38
225.98	-13.38
226.215	-4.38
226.449	14.62
226.683	5.62
226.918	11.62
227.152	38.62
227.387	28.62
227.621	42.62
227.856	48.62
228.09	39.62
228.324	49.62
228.559	33.62
228.793	63.62
229.027	69.62
229.262	92.62
229.496	93.62
229.73	109.62
229.964	108.62
230.199	114.62
230.433	93.62
230.667	116.62
230.901	109.62
231.136	100.62
231.37	98.62
231.604	106.62
231.838	105.62
232.072	106.62
232.306	93.62
232.541	104.62
232.775	107.62
233.009	109.62
233.243	88.62
233.477	108.62
233.711	116.62
233.945	100.62
234.179	111.62
234.413	113.62
234.647	112.62
234.881	118.62
235.115	112.62
235.349	108.62
235.583	115.62
235.817	123.62
236.051	115.62
236.285	117.62
236.519	115.62
236.753	107.62
236.987	134.62
237.221	147.62
237.455	172.62
237.689	155.62
237.922	127.62
238.156	123.62
238.39	108.62
238.624	111.62
238.858	126.62
239.091	117.62
239.325	122.62
239.559	130.62
239.793	126.62
240.027	116.62
240.26	123.62
240.494	139.62
240.728	127.62
240.961	144.62
241.195	134.62
241.429	132.62
241.662	126.62
241.896	128.62
242.13	129.62
242.363	127.62
242.597	127.62
242.83	125.62
243.064	124.62
243.298	136.62
243.531	135.62
243.765	151.62
243.998	139.62
244.232	135.62
244.465	130.62
244.699	129.62
244.932	129.62
245.166	124.62
245.399	147.62
245.633	152.62
245.866	155.62
246.099	125.62
246.333	144.62
246.566	147.62
246.8	152.62
247.033	157.62
247.266	141.62
247.5	145.62
247.733	172.62
247.966	163.62
248.2	142.62
248.433	158.62
248.666	156.62
248.899	176.62
249.133	189.62
249.366	179.62
249.599	195.62
249.832	177.62
250.066	156.62
250.299	168.62
250.532	182.62
250.765	171.62
250.998	224.62
251.231	218.62
251.465	186.62
251.698	194.62
251.931	184.62
252.164	184.62
252.397	180.62
252.63	189.62
252.863	199.62
253.096	204.62
253.329	210.62
253.562	211.62
253.795	205.62
254.028	208.62
254.261	204.62
254.494	215.62
254.727	228.62
254.96	249.62
255.193	248.62
255.426	226.62
255.659	218.62
255.892	223.62
256.124	200.62
256.357	203.62
256.59	201.62
256.823	207.62
257.056	199.62
257.289	214.62
257.521	220.62
257.754	213.62
257.987	211.62
258.22	206.62
258.452	216.62
258.685	193.62
258.918	201.62
259.151	216.62
259.383	213.62
259.616	225.62
259.849	229.62
260.081	216.62
260.314	239.62
260.547	242.62
260.779	228.62
261.012	223.62
261.244	220.62
261.477	226.62
261.71	219.62
261.942	204.62
262.175	210.62
262.407	214.62
262.64	204.62
262.872	204.62
263.105	215.62
263.337	204.62
263.57	210.62
263.802	209.62
264.035	207.62
264.267	221.62
264.499	212.62
264.732	211.62
264.964	216.62
265.197	219.62
265.429	216.62
265.661	217.62
265.894	211.62
266.126	203.62
266.358	204.62
266.591	224.62
266.823	223.62
267.055	233.62
267.287	236.62
267.52	236.62
267.752	228.62
267.984	217.62
268.216	234.62
268.448	205.62
268.681	235.62
268.913	240.62
269.145	248.62
269.377	269.62
269.609	264.62
269.841	275.62
270.073	271.62
270.306	282.62
270.538	308.62
270.77	290.62
271.002	288.62
271.234	265.62
271.466	289.62
271.698	291.62
271.93	293.62
272.162	288.62
272.394	306.62
272.626	295.62
272.858	282.62
273.09	269.62
273.322	269.62
273.553	262.62
273.785	259.62
274.017	269.62
274.249	264.62
274.481	284.62
274.713	255.62
274.945	279.62
275.176	279.62
275.408	264.62
275.64	280.62
275.872	267.62
276.104	287.62
276.335	279.62
276.567	277.62
276.799	276.62
277.031	296.62
277.262	314.62
277.494	303.62
277.726	297.62
277.957	290.62
278.189	294.62
278.421	284.62
278.652	291.62
278.884	270.62
279.115	268.62
279.347	284.62
279.579	286.62
279.81	269.62
280.042	286.62
280.273	287.62
280.505	288.62
280.736	277.62
280.968	278.62
281.199	276.62
281.431	290.62
281.662	287.62
281.894	284.62
282.125	294.62
282.356	314.62
282.588	314.62
282.819	295.62
283.051	290.62
283.282	275.62
283.513	283.62
283.745	276.62
283.976	311.62
284.207	292.62
284.439	288.62
284.67	301.62
284.901	307.62
285.132	300.62
285.364	287.62
285.595	291.62
285.826	300.62
286.057	283.62
286.288	296.62
286.52	294.62
286.751	309.62
286.982	308.62
287.213	305.62
287.444	308.62
287.675	300.62
287.906	326.62
288.138	312.62
288.369	329.62
288.6	323.62
288.831	311.62
289.062	316.62
289.293	319.62
289.524	307.62
289.755	317.62
289.986	317.62
290.217	288.62
290.448	303.62
290.679	310.62
290.91	300.62
291.141	308.62
291.371	312.62
291.602	304.62
291.833	305.62
292.064	303.62
292.295	297.62
292.526	297.62
292.757	308.62
292.987	303.62
293.218	303.62
293.449	310.62
293.68	329.62
293.91	307.62
294.141	323.62
294.372	298.62
294.603	308.62
294.833	331.62
295.064	321.62
295.295	315.62
295.525	311.62
295.756	332.62
295.987	334.62
296.217	339.62
296.448	329.62
296.679	331.62
296.909	320.62
297.14	311.62
297.37	333.62
297.601	332.62
297.831	326.62
298.062	298.62
298.292	328.62
298.523	336.62
298.753	316.62
298.984	334.62
299.214	314.62
299.445	333.62
299.675	338.62
299.905	307.62
300.136	324.62
300.366	344.62
300.597	336.62
300.827	343.62
301.057	349.62
301.288	336.62
301.518	347.62
301.748	348.62
301.979	337.62
302.209	352.62
302.439	329.62
302.669	349.62
302.9	339.62
303.13	329.62
303.36	362.62
303.59	357.62
303.82	354.62
304.051	345.62
304.281	353.62
304.511	354.62
304.741	354.62
304.971	344.62
305.201	351.62
305.431	362.62
305.661	351.62
305.891	341.62
306.121	347.62
306.352	347.62
306.582	351.62
306.812	337.62
307.042	338.62
307.272	332.62
307.502	363.62
307.731	367.62
307.961	351.62
308.191	362.62
308.421	361.62
308.651	344.62
308.881	348.62
309.111	349.62
309.341	354.62
309.571	368.62
309.8	372.62
310.03	377.62
310.26	380.62
310.49	376.62
310.72	376.62
310.949	396.62
311.179	370.62
311.409	387.62
311.639	364.62
311.868	391.62
312.098	369.62
312.328	384.62
312.557	393.62
312.787	396.62
313.017	408.62
313.246	378.62
313.476	371.62
313.706	385.62
313.935	396.62
314.165	387.62
314.394	385.62
314.624	381.62
314.853	397.62
315.083	390.62
315.312	385.62
315.542	411.62
315.771	360.62
316.001	364.62
316.23	370.62
316.46	374.62
316.689	387.62
316.919	408.62
317.148	401.62
317.377	378.62
317.607	398.62
317.836	372.62
318.065	382.62
318.295	372.62
318.524	391.62
318.753	393.62
318.983	386.62
319.212	392.62
319.441	397.62
319.67	390.62
319.9	398.62
320.129	403.62
320.358	405.62
320.587	386.62
320.816	395.62
321.046	402.62
321.275	401.62
321.504	401.62
321.733	392.62
321.962	394.62
322.191	408.62
322.42	404.62
322.649	431.62
322.878	433.62
323.108	424.62
323.337	430.62
323.566	452.62
323.795	461.62
324.024	477.62
324.253	553.62
324.482	735.62
324.71	1077.62
324.939	1444.62
325.168	1210.62
325.397	677.62
325.626	519.62
325.855	455.62
326.084	456.62
326.313	469.62
326.542	451.62
326.77	491.62
326.999	532.62
327.228	689.62
327.457	948.62
327.686	1047.62
327.914	751.62
328.143	579.62
328.372	534.62
328.6	479.62
328.829	504.62
329.058	497.62
329.287	484.62
329.515	487.62
329.744	465.62
329.972	462.62
330.201	466.62
330.43	502.62
330.658	488.62
330.887	507.62
331.115	478.62
331.344	486.62
331.572	455.62
331.801	460.62
332.03	477.62
332.258	450.62
332.486	448.62
332.715	441.62
332.943	453.62
333.172	470.62
333.4	461.62
333.629	491.62
333.857	488.62
334.085	482.62
334.314	490.62
334.542	517.62
334.771	501.62
334.999	503.62
335.227	487.62
335.455	486.62
335.684	456.62
335.912	455.62
336.14	436.62
336.369	442.62
336.597	456.62
336.825	460.62
337.053	450.62
337.281	439.62
337.51	442.62
337.738	442.62
337.966	446.62
338.194	436.62
338.422	427.62
338.65	436.62
338.878	415.62
339.106	425.62
339.334	416.62
339.562	435.62
339.79	436.62
340.018	439.62
340.246	450.62
340.474	409.62
340.702	406.62
340.93	412.62
341.158	428.62
341.386	417.62
341.614	409.62
341.842	447.62
342.07	440.62
342.298	419.62
342.526	423.62
342.754	413.62
342.981	415.62
343.209	423.62
343.437	445.62
343.665	442.62
343.893	453.62
344.12	465.62
344.348	442.62
344.576	473.62
344.804	455.62
345.031	452.62
345.259	440.62
345.487	433.62
345.714	433.62
345.942	419.62
346.17	418.62
346.397	422.62
346.625	389.62
346.853	415.62
347.08	401.62
347.308	403.62
347.535	404.62
347.763	423.62
347.99	407.62
348.218	414.62
348.445	426.62
348.673	392.62
348.9	394.62
349.128	386.62
349.355	404.62
349.583	377.62
349.81	401.62
350.037	386.62
350.265	399.62
350.492	388.62
350.72	407.62
350.947	409.62
351.174	413.62
351.402	416.62
351.629	409.62
351.856	406.62
352.083	398.62
352.311	392.62
352.538	412.62
352.765	422.62
352.992	426.62
353.22	386.62
353.447	381.62
353.674	398.62
353.901	405.62
354.128	383.62
354.355	385.62
354.583	391.62
354.81	378.62
355.037	388.62
355.264	388.62
355.491	395.62
355.718	375.62
355.945	373.62
356.172	382.62
356.399	383.62
356.626	390.62
356.853	398.62
357.08	389.62
357.307	371.62
357.534	391.62
357.761	407.62
357.988	377.62
358.215	374.62
358.441	372.62
358.668	390.62
358.895	389.62
359.122	385.62
359.349	385.62
359.576	415.62
359.802	421.62
360.029	419.62
360.256	413.62
360.483	396.62
360.709	385.62
360.936	380.62
361.163	376.62
361.39	380.62
361.616	372.62
361.843	409.62
362.07	395.62
362.296	390.62
362.523	385.62
362.749	386.62
362.976	380.62
363.203	393.62
363.429	372.62
363.656	386.62
363.882	374.62
364.109	380.62
364.335	396.62
364.562	373.62
364.788	364.62
365.015	377.62
365.241	379.62
365.468	373.62
365.694	400.62
365.92	396.62
366.147	376.62
366.373	368.62
366.599	379.62
366.826	375.62
367.052	386.62
367.278	375.62
367.505	359.62
367.731	381.62
367.957	379.62
368.184	357.62
368.41	375.62
368.636	381.62
368.862	372.62
369.089	386.62
369.315	385.62
369.541	374.62
369.767	390.62
369.993	391.62
370.219	389.62
370.445	368.62
370.672	393.62
370.898	380.62
371.124	388.62
371.35	381.62
371.576	371.62
371.802	393.62
372.028	391.62
372.254	387.62
372.48	390.62
372.706	383.62
372.932	398.62
373.158	384.62
373.384	374.62
373.61	375.62
373.835	392.62
374.061	376.62
374.287	376.62
374.513	397.62
374.739	393.62
374.965	384.62
375.191	398.62
375.416	392.62
375.642	385.62
375.868	383.62
376.094	384.62
376.319	384.62
376.545	367.62
376.771	366.62
376.997	374.62
377.222	376.62
377.448	361.62
377.674	360.62
377.899	365.62
378.125	387.62
378.35	387.62
378.576	362.62
378.802	376.62
379.027	376.62
379.253	360.62
379.478	395.62
379.704	374.62
379.929	359.62
380.155	377.62
380.38	385.62
380.606	372.62
380.831	361.62
381.057	375.62
381.282	375.62
381.507	362.62
381.733	387.62
381.958	377.62
382.184	393.62
382.409	381.62
382.634	393.62
382.86	392.62
383.085	380.62
383.31	408.62
383.535	393.62
383.761	418.62
383.986	405.62
384.211	408.62
384.436	396.62
384.662	401.62
384.887	441.62
385.112	447.62
385.337	415.62
385.562	408.62
385.787	406.62
386.013	439.62
386.238	422.62
386.463	412.62
386.688	426.62
386.913	404.62
387.138	407.62
387.363	421.62
387.588	415.62
387.813	419.62
388.038	400.62
388.263	421.62
388.488	428.62
388.713	414.62
388.938	424.62
389.163	409.62
389.387	411.62
389.612	382.62
389.837	426.62
390.062	407.62
390.287	427.62
390.512	416.62
390.736	415.62
390.961	414.62
391.186	410.62
391.411	408.62
391.636	425.62
391.86	424.62
392.085	422.62
392.31	434.62
392.534	424.62
392.759	429.62
392.984	431.62
393.208	413.62
393.433	426.62
393.658	407.62
393.882	413.62
394.107	415.62
394.331	435.62
394.556	415.62
394.78	432.62
395.005	419.62
395.229	416.62
395.454	433.62
395.678	431.62
395.903	421.62
396.127	459.62
396.352	435.62
396.576	426.62
396.801	423.62
397.025	431.62
397.249	417.62
397.474	443.62
397.698	435.62
397.922	447.62
398.147	448.62
398.371	445.62
398.595	450.62
398.82	484.62
399.044	489.62
399.268	501.62
399.492	524.62
399.717	539.62
399.941	581.62
400.165	586.62
400.389	560.62
400.613	543.62
400.837	483.62
401.062	482.62
401.286	470.62
401.51	479.62
401.734	470.62
401.958	456.62
402.182	467.62
402.406	472.62
402.63	456.62
402.854	447.62
403.078	463.62
403.302	487.62
403.526	481.62
403.75	488.62
403.974	488.62
404.198	486.62
404.422	475.62
404.645	512.62
404.869	497.62
405.093	517.62
405.317	549.62
405.541	566.62
405.765	509.62
405.988	529.62
406.212	484.62
406.436	505.62
406.66	519.62
406.883	516.62
407.107	543.62
407.331	593.62
407.555	599.62
407.778	612.62
408.002	549.62
408.226	545.62
408.449	523.62
408.673	537.62
408.896	541.62
409.12	560.62
409.344	547.62
409.567	481.62
409.791	495.62
410.014	484.62
410.238	469.62
410.461	476.62
410.685	468.62
410.908	495.62
411.132	523.62
411.355	524.62
411.578	501.62
411.802	492.62
412.025	478.62
412.249	481.62
412.472	509.62
412.695	507.62
412.919	502.62
413.142	480.62
413.365	462.62
413.589	487.62
413.812	433.62
414.035	442.62
414.258	462.62
414.482	453.62
414.705	456.62
414.928	439.62
415.151	432.62
415.374	455.62
415.597	445.62
415.821	443.62
416.044	457.62
416.267	424.62
416.49	444.62
416.713	443.62
416.936	429.62
417.159	443.62
417.382	434.62
417.605	473.62
417.828	464.62
418.051	471.62
418.274	444.62
418.497	454.62
418.72	444.62
418.943	434.62
419.166	442.62
419.389	492.62
419.611	459.62
419.834	477.62
420.057	459.62
420.28	455.62
420.503	460.62
420.726	449.62
420.948	471.62
421.171	477.62
421.394	525.62
421.617	475.62
421.839	452.62
422.062	467.62
422.285	457.62
422.507	499.62
422.73	545.62
422.953	518.62
423.175	481.62
423.398	462.62
423.621	477.62
423.843	476.62
424.066	487.62
424.288	480.62
424.511	509.62
424.733	539.62
424.956	557.62
425.178	579.62
425.401	572.62
425.623	578.62
425.846	488.62
426.068	472.62
426.291	470.62
426.513	476.62
426.735	488.62
426.958	526.62
427.18	550.62
427.402	633.62
427.625	695.62
427.847	615.62
428.069	539.62
428.292	482.62
428.514	469.62
428.736	446.62
428.958	451.62
429.181	457.62
429.403	440.62
429.625	429.62
429.847	461.62
430.069	496.62
430.292	481.62
430.514	461.62
430.736	435.62
430.958	441.62
431.18	426.62
431.402	430.62
431.624	403.62
431.846	411.62
432.068	424.62
432.29	421.62
432.512	433.62
432.734	429.62
432.956	428.62
433.178	443.62
433.4	407.62
433.622	438.62
433.844	442.62
434.066	412.62
434.287	444.62
434.509	431.62
434.731	440.62
434.953	429.62
435.175	431.62
435.397	464.62
435.618	465.62
435.84	505.62
436.062	551.62
436.284	595.62
436.505	502.62
436.727	474.62
436.949	444.62
437.17	409.62
437.392	412.62
437.614	424.62
437.835	439.62
438.057	523.62
438.278	561.62
438.5	581.62
438.721	638.62
438.943	620.62
439.165	501.62
439.386	478.62
439.608	463.62
439.829	460.62
440.05	494.62
440.272	497.62
440.493	486.62
440.715	438.62
440.936	436.62
441.158	442.62
441.379	421.62
441.6	433.62
441.822	478.62
442.043	488.62
442.264	570.62
442.486	561.62
442.707	499.62
442.928	482.62
443.149	471.62
443.371	473.62
443.592	512.62
443.813	582.62
444.034	643.62
444.255	543.62
444.476	504.62
444.698	485.62
444.919	491.62
445.14	623.62
445.361	548.62
445.582	498.62
445.803	536.62
446.024	589.62
446.245	601.62
446.466	539.62
446.687	479.62
446.908	458.62
447.129	428.62
447.35	448.62
447.571	416.62
447.792	413.62
448.013	415.62
448.234	423.62
448.455	453.62
448.675	561.62
448.896	610.62
449.117	532.62
449.338	511.62
449.559	569.62
449.779	653.62
450	504.62
450.221	444.62
450.442	409.62
450.662	407.62
450.883	410.62
451.104	418.62
451.324	415.62
451.545	427.62
451.766	390.62
451.986	374.62
452.207	380.62
452.428	385.62
452.648	348.62
452.869	377.62
453.089	397.62
453.31	399.62
453.53	395.62
453.751	368.62
453.971	362.62
454.192	376.62
454.412	364.62
454.633	369.62
454.853	367.62
455.073	364.62
455.294	395.62
455.514	449.62
455.734	416.62
455.955	378.62
456.175	370.62
456.395	380.62
456.616	373.62
456.836	372.62
457.056	379.62
457.276	362.62
457.497	367.62
457.717	356.62
457.937	360.62
458.157	377.62
458.377	367.62
458.598	397.62
458.818	419.62
459.038	461.62
459.258	472.62
459.478	425.62
459.698	407.62
459.918	388.62
460.138	424.62
460.358	427.62
460.578	405.62
460.798	424.62
461.018	445.62
461.238	427.62
461.458	435.62
461.678	433.62
461.898	441.62
462.118	436.62
462.338	448.62
462.558	452.62
462.777	457.62
462.997	457.62
463.217	488.62
463.437	489.62
463.657	454.62
463.876	463.62
464.096	481.62
464.316	457.62
464.536	468.62
464.755	460.62
464.975	448.62
465.195	474.62
465.414	489.62
465.634	434.62
465.854	427.62
466.073	422.62
466.293	414.62
466.512	376.62
466.732	396.62
466.951	400.62
467.171	388.62
467.391	387.62
467.61	388.62
467.829	408.62
468.049	403.62
468.268	386.62
468.488	381.62
468.707	383.62
468.927	395.62
469.146	397.62
469.365	396.62
469.585	409.62
469.804	382.62
470.023	399.62
470.243	389.62
470.462	419.62
470.681	395.62
470.901	434.62
471.12	410.62
471.339	396.62
471.558	403.62
471.777	389.62
471.997	417.62
472.216	401.62
472.435	416.62
472.654	406.62
472.873	391.62
473.092	384.62
473.311	403.62
473.53	393.62
473.749	403.62
473.968	420.62
474.187	504.62
474.406	509.62
474.625	429.62
474.844	410.62
475.063	387.62
475.282	393.62
475.501	392.62
475.72	406.62
475.939	408.62
476.158	416.62
476.377	396.62
476.596	424.62
476.814	410.62
477.033	408.62
477.252	407.62
477.471	402.62
477.69	444.62
477.908	427.62
478.127	454.62
478.346	443.62
478.564	441.62
478.783	443.62
479.002	452.62
479.22	452.62
479.439	466.62
479.658	486.62
479.876	471.62
480.095	488.62
480.313	492.62
480.532	489.62
480.751	478.62
480.969	521.62
481.188	531.62
481.406	533.62
481.624	500.62
481.843	467.62
482.061	459.62
482.28	463.62
482.498	439.62
482.717	439.62
482.935	445.62
483.153	449.62
483.372	464.62
483.59	441.62
483.808	451.62
484.027	456.62
484.245	451.62
484.463	468.62
484.681	471.62
484.9	464.62
485.118	468.62
485.336	453.62
485.554	487.62
485.772	486.62
485.99	461.62
486.209	475.62
486.427	473.62
486.645	497.62
486.863	490.62
487.081	497.62
487.299	489.62
487.517	489.62
487.735	503.62
487.953	503.62
488.171	499.62
488.389	493.62
488.607	484.62
488.825	519.62
489.043	497.62
489.261	491.62
489.479	476.62
489.696	483.62
489.914	474.62
490.132	495.62
490.35	525.62
490.568	499.62
490.786	512.62
491.003	523.62
491.221	536.62
491.439	520.62
491.657	541.62
491.874	528.62
492.092	559.62
492.31	534.62
492.527	546.62
492.745	550.62
492.963	553.62
493.18	537.62
493.398	546.62
493.615	552.62
493.833	552.62
494.05	555.62
494.268	549.62
494.485	527.62
494.703	549.62
494.92	554.62
495.138	547.62
495.355	565.62
495.573	565.62
495.79	563.62
496.008	567.62
496.225	579.62
496.442	563.62
496.66	549.62
496.877	573.62
497.094	587.62
497.312	567.62
497.529	576.62
497.746	580.62
497.963	589.62
498.181	627.62
498.398	625.62
498.615	664.62
498.832	653.62
499.049	682.62
499.267	700.62
499.484	713.62
499.701	770.62
499.918	792.62
500.135	841.62
500.352	868.62
500.569	890.62
500.786	883.62
501.003	872.62
501.22	832.62
501.437	820.62
501.654	776.62
501.871	760.62
502.088	734.62
