Data from 1964.PennyLincolnUp.Lamp.En5.5.200Scan.071719.P1._HRD10591_14-05-28-910.txt Node
Date: Thu Jul 18 14:05:28 EDT 2019
User: cochatt
Spectrometer: HR+D1059
Trigger mode: 1
Integration Time (sec): 1.000000E-1
Scans to average: 1
Electric dark correction enabled: true
Nonlinearity correction enabled: false
Boxcar width: 0
XAxis mode: Wavelengths
Number of Pixels in Spectrum: 2048
>>>>>Begin Spectral Data<<<<<
223.165	-14.06
223.4	-14.06
223.635	-14.06
223.869	-19.06
224.104	-18.06
224.338	-7.06
224.573	-18.06
224.808	-12.06
225.042	-12.06
225.277	-8.06
225.511	5.94
225.746	9.94
225.98	10.94
226.215	8.94
226.449	-0.06
226.683	21.94
226.918	25.94
227.152	24.94
227.387	22.94
227.621	37.94
227.856	41.94
228.09	41.94
228.324	60.94
228.559	65.94
228.793	63.94
229.027	71.94
229.262	111.94
229.496	106.94
229.73	109.94
229.964	141.94
230.199	123.94
230.433	99.94
230.667	113.94
230.901	112.94
231.136	101.94
231.37	110.94
231.604	117.94
231.838	112.94
232.072	112.94
232.306	118.94
232.541	118.94
232.775	127.94
233.009	122.94
233.243	117.94
233.477	107.94
233.711	110.94
233.945	123.94
234.179	115.94
234.413	120.94
234.647	112.94
234.881	125.94
235.115	122.94
235.349	129.94
235.583	132.94
235.817	131.94
236.051	116.94
236.285	134.94
236.519	142.94
236.753	142.94
236.987	140.94
237.221	165.94
237.455	191.94
237.689	166.94
237.922	127.94
238.156	115.94
238.39	123.94
238.624	135.94
238.858	125.94
239.091	127.94
239.325	128.94
239.559	131.94
239.793	127.94
240.027	136.94
240.26	142.94
240.494	146.94
240.728	141.94
240.961	150.94
241.195	147.94
241.429	144.94
241.662	136.94
241.896	140.94
242.13	141.94
242.363	130.94
242.597	136.94
242.83	153.94
243.064	138.94
243.298	128.94
243.531	133.94
243.765	143.94
243.998	156.94
244.232	151.94
244.465	142.94
244.699	165.94
244.932	148.94
245.166	133.94
245.399	129.94
245.633	151.94
245.866	156.94
246.099	144.94
246.333	163.94
246.566	163.94
246.8	154.94
247.033	163.94
247.266	153.94
247.5	172.94
247.733	181.94
247.966	177.94
248.2	165.94
248.433	164.94
248.666	186.94
248.899	189.94
249.133	183.94
249.366	197.94
249.599	194.94
249.832	197.94
250.066	185.94
250.299	191.94
250.532	192.94
250.765	204.94
250.998	207.94
251.231	211.94
251.465	204.94
251.698	195.94
251.931	201.94
252.164	190.94
252.397	205.94
252.63	215.94
252.863	194.94
253.096	210.94
253.329	216.94
253.562	206.94
253.795	216.94
254.028	223.94
254.261	207.94
254.494	217.94
254.727	239.94
254.96	268.94
255.193	273.94
255.426	255.94
255.659	243.94
255.892	229.94
256.124	254.94
256.357	248.94
256.59	240.94
256.823	220.94
257.056	233.94
257.289	214.94
257.521	223.94
257.754	222.94
257.987	216.94
258.22	241.94
258.452	221.94
258.685	232.94
258.918	224.94
259.151	234.94
259.383	233.94
259.616	212.94
259.849	232.94
260.081	244.94
260.314	257.94
260.547	277.94
260.779	251.94
261.012	237.94
261.244	249.94
261.477	221.94
261.71	231.94
261.942	229.94
262.175	251.94
262.407	237.94
262.64	240.94
262.872	221.94
263.105	224.94
263.337	235.94
263.57	227.94
263.802	227.94
264.035	229.94
264.267	205.94
264.499	227.94
264.732	222.94
264.964	236.94
265.197	243.94
265.429	236.94
265.661	236.94
265.894	233.94
266.126	227.94
266.358	233.94
266.591	236.94
266.823	238.94
267.055	261.94
267.287	249.94
267.52	237.94
267.752	240.94
267.984	251.94
268.216	236.94
268.448	248.94
268.681	257.94
268.913	264.94
269.145	292.94
269.377	265.94
269.609	296.94
269.841	268.94
270.073	277.94
270.306	306.94
270.538	323.94
270.77	322.94
271.002	308.94
271.234	285.94
271.466	316.94
271.698	309.94
271.93	331.94
272.162	328.94
272.394	340.94
272.626	323.94
272.858	293.94
273.09	305.94
273.322	298.94
273.553	282.94
273.785	293.94
274.017	291.94
274.249	297.94
274.481	279.94
274.713	285.94
274.945	303.94
275.176	293.94
275.408	298.94
275.64	292.94
275.872	296.94
276.104	310.94
276.335	289.94
276.567	308.94
276.799	296.94
277.031	316.94
277.262	342.94
277.494	342.94
277.726	305.94
277.957	319.94
278.189	312.94
278.421	297.94
278.652	304.94
278.884	294.94
279.115	294.94
279.347	287.94
279.579	315.94
279.81	299.94
280.042	273.94
280.273	295.94
280.505	303.94
280.736	303.94
280.968	303.94
281.199	293.94
281.431	310.94
281.662	295.94
281.894	315.94
282.125	301.94
282.356	317.94
282.588	327.94
282.819	319.94
283.051	302.94
283.282	310.94
283.513	316.94
283.745	325.94
283.976	297.94
284.207	308.94
284.439	319.94
284.67	309.94
284.901	315.94
285.132	318.94
285.364	303.94
285.595	328.94
285.826	317.94
286.057	322.94
286.288	331.94
286.52	319.94
286.751	312.94
286.982	319.94
287.213	310.94
287.444	331.94
287.675	328.94
287.906	321.94
288.138	325.94
288.369	345.94
288.6	325.94
288.831	334.94
289.062	335.94
289.293	326.94
289.524	340.94
289.755	335.94
289.986	347.94
290.217	330.94
290.448	343.94
290.679	336.94
290.91	324.94
291.141	336.94
291.371	318.94
291.602	315.94
291.833	327.94
292.064	340.94
292.295	313.94
292.526	335.94
292.757	314.94
292.987	337.94
293.218	326.94
293.449	349.94
293.68	323.94
293.91	341.94
294.141	322.94
294.372	338.94
294.603	334.94
294.833	338.94
295.064	327.94
295.295	336.94
295.525	347.94
295.756	349.94
295.987	342.94
296.217	365.94
296.448	361.94
296.679	345.94
296.909	364.94
297.14	327.94
297.37	352.94
297.601	339.94
297.831	345.94
298.062	352.94
298.292	347.94
298.523	337.94
298.753	340.94
298.984	334.94
299.214	335.94
299.445	354.94
299.675	341.94
299.905	375.94
300.136	362.94
300.366	355.94
300.597	328.94
300.827	384.94
301.057	387.94
301.288	373.94
301.518	360.94
301.748	373.94
301.979	405.94
302.209	381.94
302.439	355.94
302.669	391.94
302.9	352.94
303.13	359.94
303.36	380.94
303.59	376.94
303.82	384.94
304.051	380.94
304.281	391.94
304.511	357.94
304.741	367.94
304.971	375.94
305.201	387.94
305.431	380.94
305.661	377.94
305.891	376.94
306.121	364.94
306.352	373.94
306.582	375.94
306.812	365.94
307.042	362.94
307.272	376.94
307.502	370.94
307.731	398.94
307.961	380.94
308.191	393.94
308.421	375.94
308.651	366.94
308.881	378.94
309.111	385.94
309.341	377.94
309.571	396.94
309.8	410.94
310.03	401.94
310.26	381.94
310.49	391.94
310.72	415.94
310.949	416.94
311.179	428.94
311.409	401.94
311.639	384.94
311.868	408.94
312.098	412.94
312.328	406.94
312.557	415.94
312.787	436.94
313.017	413.94
313.246	405.94
313.476	422.94
313.706	411.94
313.935	421.94
314.165	432.94
314.394	418.94
314.624	425.94
314.853	422.94
315.083	423.94
315.312	428.94
315.542	416.94
315.771	410.94
316.001	394.94
316.23	400.94
316.46	433.94
316.689	418.94
316.919	428.94
317.148	424.94
317.377	443.94
317.607	425.94
317.836	443.94
318.065	412.94
318.295	392.94
318.524	416.94
318.753	411.94
318.983	429.94
319.212	409.94
319.441	423.94
319.67	420.94
319.9	420.94
320.129	414.94
320.358	408.94
320.587	421.94
320.816	420.94
321.046	428.94
321.275	423.94
321.504	439.94
321.733	453.94
321.962	446.94
322.191	456.94
322.42	441.94
322.649	456.94
322.878	471.94
323.108	443.94
323.337	478.94
323.566	495.94
323.795	515.94
324.024	550.94
324.253	622.94
324.482	823.94
324.71	1210.94
324.939	1689.94
325.168	1403.94
325.397	766.94
325.626	569.94
325.855	523.94
326.084	483.94
326.313	476.94
326.542	502.94
326.77	543.94
326.999	613.94
327.228	803.94
327.457	1099.94
327.686	1284.94
327.914	889.94
328.143	622.94
328.372	584.94
328.6	536.94
328.829	541.94
329.058	544.94
329.287	566.94
329.515	545.94
329.744	507.94
329.972	528.94
330.201	544.94
330.43	543.94
330.658	576.94
330.887	590.94
331.115	548.94
331.344	527.94
331.572	507.94
331.801	490.94
332.03	494.94
332.258	504.94
332.486	478.94
332.715	501.94
332.943	517.94
333.172	516.94
333.4	519.94
333.629	504.94
333.857	526.94
334.085	518.94
334.314	558.94
334.542	580.94
334.771	587.94
334.999	558.94
335.227	503.94
335.455	540.94
335.684	488.94
335.912	487.94
336.14	495.94
336.369	485.94
336.597	489.94
336.825	473.94
337.053	477.94
337.281	483.94
337.51	467.94
337.738	478.94
337.966	479.94
338.194	471.94
338.422	477.94
338.65	474.94
338.878	466.94
339.106	454.94
339.334	477.94
339.562	441.94
339.79	468.94
340.018	458.94
340.246	472.94
340.474	469.94
340.702	436.94
340.93	444.94
341.158	452.94
341.386	465.94
341.614	453.94
341.842	447.94
342.07	454.94
342.298	471.94
342.526	459.94
342.754	469.94
342.981	444.94
343.209	425.94
343.437	486.94
343.665	454.94
343.893	494.94
344.12	489.94
344.348	469.94
344.576	471.94
344.804	467.94
345.031	480.94
345.259	499.94
345.487	459.94
345.714	445.94
345.942	448.94
346.17	448.94
346.397	416.94
346.625	429.94
346.853	443.94
347.08	439.94
347.308	432.94
347.535	437.94
347.763	449.94
347.99	447.94
348.218	455.94
348.445	448.94
348.673	435.94
348.9	421.94
349.128	451.94
349.355	425.94
349.583	410.94
349.81	426.94
350.037	436.94
350.265	443.94
350.492	433.94
350.72	421.94
350.947	431.94
351.174	436.94
351.402	438.94
351.629	416.94
351.856	438.94
352.083	423.94
352.311	439.94
352.538	436.94
352.765	437.94
352.992	430.94
353.22	430.94
353.447	426.94
353.674	425.94
353.901	422.94
354.128	405.94
354.355	407.94
354.583	394.94
354.81	405.94
355.037	416.94
355.264	407.94
355.491	414.94
355.718	408.94
355.945	425.94
356.172	411.94
356.399	410.94
356.626	420.94
356.853	423.94
357.08	405.94
357.307	411.94
357.534	404.94
357.761	415.94
357.988	411.94
358.215	396.94
358.441	375.94
358.668	398.94
358.895	399.94
359.122	414.94
359.349	415.94
359.576	438.94
359.802	438.94
360.029	443.94
360.256	468.94
360.483	457.94
360.709	419.94
360.936	424.94
361.163	417.94
361.39	417.94
361.616	409.94
361.843	419.94
362.07	408.94
362.296	450.94
362.523	443.94
362.749	415.94
362.976	422.94
363.203	419.94
363.429	430.94
363.656	426.94
363.882	401.94
364.109	419.94
364.335	423.94
364.562	398.94
364.788	415.94
365.015	401.94
365.241	402.94
365.468	408.94
365.694	428.94
365.92	415.94
366.147	412.94
366.373	422.94
366.599	409.94
366.826	413.94
367.052	397.94
367.278	395.94
367.505	423.94
367.731	413.94
367.957	400.94
368.184	399.94
368.41	394.94
368.636	414.94
368.862	413.94
369.089	396.94
369.315	395.94
369.541	425.94
369.767	409.94
369.993	394.94
370.219	405.94
370.445	393.94
370.672	398.94
370.898	388.94
371.124	413.94
371.35	406.94
371.576	403.94
371.802	407.94
372.028	412.94
372.254	410.94
372.48	402.94
372.706	414.94
372.932	412.94
373.158	447.94
373.384	412.94
373.61	397.94
373.835	418.94
374.061	404.94
374.287	396.94
374.513	417.94
374.739	427.94
374.965	417.94
375.191	431.94
375.416	423.94
375.642	421.94
375.868	401.94
376.094	427.94
376.319	397.94
376.545	396.94
376.771	412.94
376.997	375.94
377.222	381.94
377.448	404.94
377.674	409.94
377.899	406.94
378.125	400.94
378.35	418.94
378.576	410.94
378.802	415.94
379.027	402.94
379.253	394.94
379.478	399.94
379.704	398.94
379.929	412.94
380.155	416.94
380.38	405.94
380.606	420.94
380.831	398.94
381.057	390.94
381.282	404.94
381.507	407.94
381.733	417.94
381.958	414.94
382.184	406.94
382.409	397.94
382.634	418.94
382.86	412.94
383.085	415.94
383.31	405.94
383.535	423.94
383.761	414.94
383.986	427.94
384.211	417.94
384.436	426.94
384.662	431.94
384.887	444.94
385.112	443.94
385.337	435.94
385.562	439.94
385.787	450.94
386.013	451.94
386.238	436.94
386.463	432.94
386.688	448.94
386.913	438.94
387.138	441.94
387.363	444.94
387.588	415.94
387.813	441.94
388.038	425.94
388.263	451.94
388.488	441.94
388.713	452.94
388.938	452.94
389.163	448.94
389.387	443.94
389.612	431.94
389.837	451.94
390.062	424.94
390.287	421.94
390.512	429.94
390.736	438.94
390.961	439.94
391.186	453.94
391.411	420.94
391.636	431.94
391.86	456.94
392.085	464.94
392.31	455.94
392.534	459.94
392.759	447.94
392.984	436.94
393.208	453.94
393.433	460.94
393.658	450.94
393.882	424.94
394.107	448.94
394.331	434.94
394.556	447.94
394.78	440.94
395.005	424.94
395.229	437.94
395.454	436.94
395.678	461.94
395.903	470.94
396.127	479.94
396.352	467.94
396.576	459.94
396.801	479.94
397.025	449.94
397.249	460.94
397.474	472.94
397.698	473.94
397.922	495.94
398.147	481.94
398.371	480.94
398.595	497.94
398.82	500.94
399.044	531.94
399.268	542.94
399.492	567.94
399.717	593.94
399.941	613.94
400.165	629.94
400.389	615.94
400.613	558.94
400.837	542.94
401.062	521.94
401.286	500.94
401.51	514.94
401.734	497.94
401.958	498.94
402.182	496.94
402.406	501.94
402.63	503.94
402.854	499.94
403.078	522.94
403.302	499.94
403.526	524.94
403.75	530.94
403.974	540.94
404.198	519.94
404.422	524.94
404.645	524.94
404.869	513.94
405.093	551.94
405.317	586.94
405.541	595.94
405.765	570.94
405.988	528.94
406.212	527.94
406.436	558.94
406.66	564.94
406.883	537.94
407.107	559.94
407.331	605.94
407.555	658.94
407.778	675.94
408.002	607.94
408.226	557.94
408.449	557.94
408.673	549.94
408.896	576.94
409.12	590.94
409.344	578.94
409.567	536.94
409.791	501.94
410.014	523.94
410.238	545.94
410.461	535.94
410.685	507.94
410.908	542.94
411.132	539.94
411.355	572.94
411.578	545.94
411.802	523.94
412.025	493.94
412.249	535.94
412.472	552.94
412.695	580.94
412.919	559.94
413.142	494.94
413.365	505.94
413.589	502.94
413.812	472.94
414.035	507.94
414.258	469.94
414.482	487.94
414.705	501.94
414.928	472.94
415.151	463.94
415.374	476.94
415.597	489.94
415.821	488.94
416.044	481.94
416.267	487.94
416.49	503.94
416.713	480.94
416.936	471.94
417.159	477.94
417.382	475.94
417.605	479.94
417.828	501.94
418.051	484.94
418.274	501.94
418.497	468.94
418.72	492.94
418.943	484.94
419.166	509.94
419.389	524.94
419.611	506.94
419.834	480.94
420.057	505.94
420.28	496.94
420.503	501.94
420.726	481.94
420.948	495.94
421.171	548.94
421.394	571.94
421.617	492.94
421.839	476.94
422.062	500.94
422.285	488.94
422.507	554.94
422.73	594.94
422.953	579.94
423.175	527.94
423.398	516.94
423.621	486.94
423.843	519.94
424.066	523.94
424.288	514.94
424.511	531.94
424.733	569.94
424.956	633.94
425.178	585.94
425.401	607.94
425.623	616.94
425.846	536.94
426.068	497.94
426.291	527.94
426.513	509.94
426.735	519.94
426.958	555.94
427.18	614.94
427.402	695.94
427.625	727.94
427.847	660.94
428.069	590.94
428.292	537.94
428.514	500.94
428.736	499.94
428.958	483.94
429.181	462.94
429.403	441.94
429.625	467.94
429.847	488.94
430.069	537.94
430.292	533.94
430.514	476.94
430.736	466.94
430.958	464.94
431.18	449.94
431.402	456.94
431.624	424.94
431.846	462.94
432.068	432.94
432.29	433.94
432.512	445.94
432.734	469.94
432.956	455.94
433.178	484.94
433.4	463.94
433.622	461.94
433.844	473.94
434.066	456.94
434.287	428.94
434.509	462.94
434.731	473.94
434.953	471.94
435.175	486.94
435.397	503.94
435.618	515.94
435.84	528.94
436.062	585.94
436.284	625.94
436.505	535.94
436.727	503.94
436.949	476.94
437.17	469.94
437.392	456.94
437.614	465.94
437.835	482.94
438.057	553.94
438.278	629.94
438.5	624.94
438.721	685.94
438.943	681.94
439.165	549.94
439.386	522.94
439.608	483.94
439.829	490.94
440.05	518.94
440.272	546.94
440.493	525.94
440.715	472.94
440.936	490.94
441.158	460.94
441.379	474.94
441.6	473.94
441.822	494.94
442.043	534.94
442.264	578.94
442.486	635.94
442.707	533.94
442.928	512.94
443.149	495.94
443.371	541.94
443.592	571.94
443.813	640.94
444.034	669.94
444.255	574.94
444.476	524.94
444.698	517.94
444.919	512.94
445.14	596.94
445.361	568.94
445.582	542.94
445.803	584.94
446.024	643.94
446.245	655.94
446.466	599.94
446.687	526.94
446.908	484.94
447.129	483.94
447.35	470.94
447.571	473.94
447.792	454.94
448.013	451.94
448.234	452.94
448.455	495.94
448.675	606.94
448.896	675.94
449.117	582.94
449.338	579.94
449.559	640.94
449.779	718.94
450	569.94
450.221	477.94
450.442	449.94
450.662	453.94
450.883	443.94
451.104	454.94
451.324	431.94
451.545	441.94
451.766	424.94
451.986	419.94
452.207	421.94
452.428	429.94
452.648	421.94
452.869	414.94
453.089	415.94
453.31	402.94
453.53	432.94
453.751	393.94
453.971	418.94
454.192	412.94
454.412	410.94
454.633	406.94
454.853	411.94
455.073	410.94
455.294	411.94
455.514	484.94
455.734	461.94
455.955	416.94
456.175	393.94
456.395	388.94
456.616	389.94
456.836	401.94
457.056	380.94
457.276	383.94
457.497	417.94
457.717	369.94
457.937	387.94
458.157	414.94
458.377	418.94
458.598	411.94
458.818	442.94
459.038	499.94
459.258	513.94
459.478	470.94
459.698	441.94
459.918	454.94
460.138	444.94
460.358	452.94
460.578	465.94
460.798	457.94
461.018	459.94
461.238	444.94
461.458	468.94
461.678	477.94
461.898	477.94
462.118	464.94
462.338	469.94
462.558	473.94
462.777	483.94
462.997	486.94
463.217	521.94
463.437	528.94
463.657	509.94
463.876	491.94
464.096	479.94
464.316	480.94
464.536	484.94
464.755	488.94
464.975	499.94
465.195	487.94
465.414	518.94
465.634	499.94
465.854	486.94
466.073	444.94
466.293	455.94
466.512	436.94
466.732	426.94
466.951	435.94
467.171	403.94
467.391	416.94
467.61	429.94
467.829	433.94
468.049	447.94
468.268	446.94
468.488	417.94
468.707	405.94
468.927	402.94
469.146	407.94
469.365	424.94
469.585	418.94
469.804	419.94
470.023	431.94
470.243	437.94
470.462	444.94
470.681	427.94
470.901	441.94
471.12	425.94
471.339	446.94
471.558	423.94
471.777	440.94
471.997	413.94
472.216	409.94
472.435	443.94
472.654	443.94
472.873	448.94
473.092	416.94
473.311	423.94
473.53	425.94
473.749	460.94
473.968	490.94
474.187	539.94
474.406	541.94
474.625	467.94
474.844	434.94
475.063	443.94
475.282	410.94
475.501	445.94
475.72	441.94
475.939	437.94
476.158	445.94
476.377	446.94
476.596	453.94
476.814	431.94
477.033	436.94
477.252	455.94
477.471	447.94
477.69	472.94
477.908	474.94
478.127	474.94
478.346	465.94
478.564	493.94
478.783	479.94
479.002	486.94
479.22	489.94
479.439	504.94
479.658	492.94
479.876	509.94
480.095	518.94
480.313	531.94
480.532	521.94
480.751	542.94
480.969	536.94
481.188	566.94
481.406	588.94
481.624	525.94
481.843	499.94
482.061	529.94
482.28	496.94
482.498	496.94
482.717	491.94
482.935	488.94
483.153	501.94
483.372	490.94
483.59	505.94
483.808	488.94
484.027	499.94
484.245	485.94
484.463	481.94
484.681	507.94
484.9	501.94
485.118	503.94
485.336	487.94
485.554	509.94
485.772	503.94
485.99	509.94
486.209	504.94
486.427	504.94
486.645	527.94
486.863	527.94
487.081	536.94
487.299	532.94
487.517	519.94
487.735	523.94
487.953	526.94
488.171	508.94
488.389	505.94
488.607	519.94
488.825	533.94
489.043	515.94
489.261	514.94
489.479	520.94
489.696	529.94
489.914	546.94
490.132	529.94
490.35	524.94
490.568	541.94
490.786	545.94
491.003	550.94
491.221	579.94
491.439	580.94
491.657	601.94
491.874	584.94
492.092	584.94
492.31	552.94
492.527	588.94
492.745	567.94
492.963	597.94
493.18	615.94
493.398	594.94
493.615	608.94
493.833	595.94
494.05	616.94
494.268	608.94
494.485	579.94
494.703	590.94
494.92	603.94
495.138	605.94
495.355	606.94
495.573	595.94
495.79	593.94
496.008	614.94
496.225	593.94
496.442	601.94
496.66	601.94
496.877	619.94
497.094	619.94
497.312	630.94
497.529	619.94
497.746	629.94
497.963	641.94
498.181	700.94
498.398	689.94
498.615	681.94
498.832	692.94
499.049	728.94
499.267	723.94
499.484	781.94
499.701	826.94
499.918	841.94
500.135	889.94
500.352	922.94
500.569	928.94
500.786	976.94
501.003	919.94
501.22	907.94
501.437	875.94
501.654	808.94
501.871	812.94
