Data from 1964.PennyLincolnUp.Lamp.En5.5.200Scan.071719.P1._HRD10591_14-05-57-910.txt Node
Date: Thu Jul 18 14:05:57 EDT 2019
User: cochatt
Spectrometer: HR+D1059
Trigger mode: 1
Integration Time (sec): 1.000000E-1
Scans to average: 1
Electric dark correction enabled: true
Nonlinearity correction enabled: false
Boxcar width: 0
XAxis mode: Wavelengths
Number of Pixels in Spectrum: 2048
>>>>>Begin Spectral Data<<<<<
223.165	-18.81
223.4	-18.81
223.635	-18.81
223.869	-30.81
224.104	-8.81
224.338	-9.81
224.573	-11.81
224.808	-7.81
225.042	-7.81
225.277	-17.81
225.511	-6.81
225.746	7.19
225.98	9.19
226.215	22.19
226.449	19.19
226.683	12.19
226.918	22.19
227.152	28.19
227.387	27.19
227.621	37.19
227.856	45.19
228.09	58.19
228.324	56.19
228.559	58.19
228.793	63.19
229.027	90.19
229.262	95.19
229.496	120.19
229.73	121.19
229.964	142.19
230.199	118.19
230.433	113.19
230.667	111.19
230.901	129.19
231.136	109.19
231.37	124.19
231.604	126.19
231.838	120.19
232.072	110.19
232.306	118.19
232.541	122.19
232.775	112.19
233.009	123.19
233.243	120.19
233.477	128.19
233.711	125.19
233.945	123.19
234.179	119.19
234.413	134.19
234.647	113.19
234.881	126.19
235.115	124.19
235.349	120.19
235.583	120.19
235.817	129.19
236.051	118.19
236.285	120.19
236.519	124.19
236.753	110.19
236.987	135.19
237.221	146.19
237.455	203.19
237.689	169.19
237.922	133.19
238.156	133.19
238.39	139.19
238.624	132.19
238.858	127.19
239.091	115.19
239.325	131.19
239.559	126.19
239.793	118.19
240.027	139.19
240.26	149.19
240.494	158.19
240.728	141.19
240.961	161.19
241.195	140.19
241.429	141.19
241.662	131.19
241.896	137.19
242.13	149.19
242.363	141.19
242.597	150.19
242.83	139.19
243.064	156.19
243.298	125.19
243.531	148.19
243.765	152.19
243.998	143.19
244.232	144.19
244.465	145.19
244.699	150.19
244.932	164.19
245.166	156.19
245.399	141.19
245.633	142.19
245.866	154.19
246.099	150.19
246.333	154.19
246.566	155.19
246.8	133.19
247.033	156.19
247.266	182.19
247.5	165.19
247.733	179.19
247.966	180.19
248.2	160.19
248.433	168.19
248.666	180.19
248.899	180.19
249.133	197.19
249.366	186.19
249.599	195.19
249.832	184.19
250.066	192.19
250.299	201.19
250.532	198.19
250.765	206.19
250.998	218.19
251.231	231.19
251.465	206.19
251.698	207.19
251.931	207.19
252.164	209.19
252.397	192.19
252.63	210.19
252.863	206.19
253.096	230.19
253.329	217.19
253.562	228.19
253.795	221.19
254.028	236.19
254.261	237.19
254.494	241.19
254.727	251.19
254.96	273.19
255.193	265.19
255.426	249.19
255.659	229.19
255.892	228.19
256.124	244.19
256.357	246.19
256.59	231.19
256.823	213.19
257.056	229.19
257.289	225.19
257.521	230.19
257.754	204.19
257.987	217.19
258.22	226.19
258.452	220.19
258.685	227.19
258.918	210.19
259.151	231.19
259.383	232.19
259.616	248.19
259.849	213.19
260.081	225.19
260.314	258.19
260.547	250.19
260.779	266.19
261.012	243.19
261.244	238.19
261.477	255.19
261.71	228.19
261.942	226.19
262.175	239.19
262.407	233.19
262.64	232.19
262.872	237.19
263.105	226.19
263.337	235.19
263.57	223.19
263.802	226.19
264.035	228.19
264.267	245.19
264.499	231.19
264.732	220.19
264.964	224.19
265.197	241.19
265.429	216.19
265.661	225.19
265.894	246.19
266.126	243.19
266.358	234.19
266.591	248.19
266.823	239.19
267.055	252.19
267.287	245.19
267.52	237.19
267.752	252.19
267.984	254.19
268.216	249.19
268.448	263.19
268.681	256.19
268.913	274.19
269.145	276.19
269.377	288.19
269.609	281.19
269.841	274.19
270.073	293.19
270.306	324.19
270.538	319.19
270.77	324.19
271.002	317.19
271.234	322.19
271.466	310.19
271.698	321.19
271.93	313.19
272.162	320.19
272.394	326.19
272.626	298.19
272.858	298.19
273.09	303.19
273.322	293.19
273.553	281.19
273.785	290.19
274.017	280.19
274.249	292.19
274.481	290.19
274.713	289.19
274.945	295.19
275.176	275.19
275.408	284.19
275.64	296.19
275.872	281.19
276.104	286.19
276.335	296.19
276.567	279.19
276.799	306.19
277.031	317.19
277.262	320.19
277.494	354.19
277.726	343.19
277.957	324.19
278.189	332.19
278.421	303.19
278.652	294.19
278.884	298.19
279.115	294.19
279.347	289.19
279.579	312.19
279.81	296.19
280.042	298.19
280.273	300.19
280.505	290.19
280.736	300.19
280.968	314.19
281.199	309.19
281.431	300.19
281.662	292.19
281.894	309.19
282.125	316.19
282.356	319.19
282.588	331.19
282.819	335.19
283.051	323.19
283.282	310.19
283.513	313.19
283.745	309.19
283.976	304.19
284.207	301.19
284.439	314.19
284.67	316.19
284.901	328.19
285.132	319.19
285.364	304.19
285.595	336.19
285.826	321.19
286.057	317.19
286.288	301.19
286.52	326.19
286.751	333.19
286.982	338.19
287.213	328.19
287.444	318.19
287.675	334.19
287.906	298.19
288.138	330.19
288.369	319.19
288.6	342.19
288.831	344.19
289.062	345.19
289.293	348.19
289.524	336.19
289.755	319.19
289.986	308.19
290.217	331.19
290.448	331.19
290.679	329.19
290.91	329.19
291.141	313.19
291.371	335.19
291.602	335.19
291.833	322.19
292.064	326.19
292.295	328.19
292.526	328.19
292.757	332.19
292.987	338.19
293.218	335.19
293.449	349.19
293.68	330.19
293.91	333.19
294.141	326.19
294.372	341.19
294.603	320.19
294.833	330.19
295.064	327.19
295.295	334.19
295.525	335.19
295.756	334.19
295.987	334.19
296.217	345.19
296.448	354.19
296.679	339.19
296.909	329.19
297.14	316.19
297.37	336.19
297.601	348.19
297.831	321.19
298.062	329.19
298.292	328.19
298.523	344.19
298.753	356.19
298.984	340.19
299.214	357.19
299.445	356.19
299.675	350.19
299.905	361.19
300.136	359.19
300.366	351.19
300.597	360.19
300.827	362.19
301.057	361.19
301.288	382.19
301.518	372.19
301.748	365.19
301.979	373.19
302.209	363.19
302.439	374.19
302.669	401.19
302.9	368.19
303.13	369.19
303.36	383.19
303.59	383.19
303.82	367.19
304.051	383.19
304.281	378.19
304.511	369.19
304.741	376.19
304.971	378.19
305.201	394.19
305.431	372.19
305.661	386.19
305.891	373.19
306.121	375.19
306.352	361.19
306.582	364.19
306.812	368.19
307.042	369.19
307.272	369.19
307.502	370.19
307.731	368.19
307.961	368.19
308.191	371.19
308.421	370.19
308.651	381.19
308.881	394.19
309.111	376.19
309.341	391.19
309.571	376.19
309.8	399.19
310.03	408.19
310.26	387.19
310.49	389.19
310.72	399.19
310.949	408.19
311.179	408.19
311.409	401.19
311.639	408.19
311.868	429.19
312.098	400.19
312.328	407.19
312.557	432.19
312.787	440.19
313.017	416.19
313.246	427.19
313.476	410.19
313.706	416.19
313.935	411.19
314.165	431.19
314.394	432.19
314.624	431.19
314.853	431.19
315.083	408.19
315.312	414.19
315.542	422.19
315.771	407.19
316.001	413.19
316.23	407.19
316.46	432.19
316.689	429.19
316.919	417.19
317.148	416.19
317.377	437.19
317.607	422.19
317.836	431.19
318.065	408.19
318.295	408.19
318.524	439.19
318.753	418.19
318.983	426.19
319.212	428.19
319.441	414.19
319.67	402.19
319.9	415.19
320.129	418.19
320.358	423.19
320.587	453.19
320.816	410.19
321.046	438.19
321.275	439.19
321.504	444.19
321.733	442.19
321.962	434.19
322.191	432.19
322.42	439.19
322.649	457.19
322.878	491.19
323.108	459.19
323.337	470.19
323.566	499.19
323.795	526.19
324.024	540.19
324.253	655.19
324.482	868.19
324.71	1248.19
324.939	1718.19
325.168	1476.19
325.397	816.19
325.626	596.19
325.855	545.19
326.084	509.19
326.313	495.19
326.542	508.19
326.77	529.19
326.999	644.19
327.228	801.19
327.457	1140.19
327.686	1292.19
327.914	866.19
328.143	683.19
328.372	570.19
328.6	536.19
328.829	537.19
329.058	567.19
329.287	551.19
329.515	540.19
329.744	497.19
329.972	505.19
330.201	513.19
330.43	566.19
330.658	574.19
330.887	583.19
331.115	561.19
331.344	527.19
331.572	498.19
331.801	517.19
332.03	490.19
332.258	479.19
332.486	510.19
332.715	480.19
332.943	489.19
333.172	492.19
333.4	508.19
333.629	536.19
333.857	539.19
334.085	539.19
334.314	530.19
334.542	542.19
334.771	584.19
334.999	521.19
335.227	536.19
335.455	529.19
335.684	497.19
335.912	501.19
336.14	487.19
336.369	502.19
336.597	502.19
336.825	490.19
337.053	502.19
337.281	470.19
337.51	471.19
337.738	476.19
337.966	472.19
338.194	491.19
338.422	466.19
338.65	478.19
338.878	485.19
339.106	449.19
339.334	465.19
339.562	457.19
339.79	450.19
340.018	473.19
340.246	446.19
340.474	460.19
340.702	482.19
340.93	488.19
341.158	455.19
341.386	470.19
341.614	470.19
341.842	462.19
342.07	464.19
342.298	469.19
342.526	447.19
342.754	452.19
342.981	444.19
343.209	457.19
343.437	442.19
343.665	458.19
343.893	479.19
344.12	495.19
344.348	470.19
344.576	480.19
344.804	483.19
345.031	473.19
345.259	486.19
345.487	465.19
345.714	461.19
345.942	446.19
346.17	435.19
346.397	454.19
346.625	428.19
346.853	440.19
347.08	417.19
347.308	437.19
347.535	442.19
347.763	442.19
347.99	452.19
348.218	467.19
348.445	463.19
348.673	453.19
348.9	448.19
349.128	439.19
349.355	447.19
349.583	422.19
349.81	409.19
350.037	420.19
350.265	432.19
350.492	431.19
350.72	423.19
350.947	428.19
351.174	430.19
351.402	436.19
351.629	421.19
351.856	440.19
352.083	426.19
352.311	440.19
352.538	449.19
352.765	420.19
352.992	428.19
353.22	423.19
353.447	422.19
353.674	405.19
353.901	413.19
354.128	397.19
354.355	403.19
354.583	422.19
354.81	410.19
355.037	400.19
355.264	410.19
355.491	418.19
355.718	405.19
355.945	397.19
356.172	421.19
356.399	410.19
356.626	415.19
356.853	406.19
357.08	409.19
357.307	416.19
357.534	413.19
357.761	409.19
357.988	408.19
358.215	401.19
358.441	392.19
358.668	405.19
358.895	395.19
359.122	402.19
359.349	415.19
359.576	418.19
359.802	437.19
360.029	432.19
360.256	452.19
360.483	436.19
360.709	422.19
360.936	398.19
361.163	428.19
361.39	416.19
361.616	416.19
361.843	421.19
362.07	400.19
362.296	410.19
362.523	418.19
362.749	420.19
362.976	415.19
363.203	420.19
363.429	396.19
363.656	402.19
363.882	409.19
364.109	406.19
364.335	399.19
364.562	408.19
364.788	404.19
365.015	422.19
365.241	406.19
365.468	432.19
365.694	400.19
365.92	423.19
366.147	406.19
366.373	427.19
366.599	378.19
366.826	410.19
367.052	396.19
367.278	399.19
367.505	411.19
367.731	429.19
367.957	421.19
368.184	390.19
368.41	396.19
368.636	422.19
368.862	427.19
369.089	396.19
369.315	427.19
369.541	404.19
369.767	419.19
369.993	412.19
370.219	383.19
370.445	417.19
370.672	426.19
370.898	408.19
371.124	408.19
371.35	420.19
371.576	412.19
371.802	396.19
372.028	391.19
372.254	420.19
372.48	417.19
372.706	426.19
372.932	424.19
373.158	413.19
373.384	426.19
373.61	410.19
373.835	408.19
374.061	410.19
374.287	426.19
374.513	401.19
374.739	428.19
374.965	432.19
375.191	415.19
375.416	428.19
375.642	415.19
375.868	401.19
376.094	396.19
376.319	406.19
376.545	392.19
376.771	393.19
376.997	409.19
377.222	395.19
377.448	416.19
377.674	417.19
377.899	399.19
378.125	388.19
378.35	399.19
378.576	407.19
378.802	384.19
379.027	405.19
379.253	409.19
379.478	390.19
379.704	398.19
379.929	398.19
380.155	406.19
380.38	417.19
380.606	400.19
380.831	386.19
381.057	433.19
381.282	418.19
381.507	421.19
381.733	400.19
381.958	402.19
382.184	409.19
382.409	410.19
382.634	409.19
382.86	398.19
383.085	424.19
383.31	421.19
383.535	426.19
383.761	411.19
383.986	429.19
384.211	424.19
384.436	429.19
384.662	434.19
384.887	432.19
385.112	435.19
385.337	427.19
385.562	430.19
385.787	429.19
386.013	469.19
386.238	450.19
386.463	443.19
386.688	440.19
386.913	438.19
387.138	440.19
387.363	426.19
387.588	434.19
387.813	430.19
388.038	422.19
388.263	444.19
388.488	429.19
388.713	428.19
388.938	465.19
389.163	460.19
389.387	437.19
389.612	436.19
389.837	426.19
390.062	433.19
390.287	442.19
390.512	425.19
390.736	430.19
390.961	437.19
391.186	446.19
391.411	448.19
391.636	463.19
391.86	432.19
392.085	434.19
392.31	453.19
392.534	454.19
392.759	458.19
392.984	458.19
393.208	456.19
393.433	446.19
393.658	455.19
393.882	448.19
394.107	457.19
394.331	445.19
394.556	446.19
394.78	460.19
395.005	447.19
395.229	447.19
395.454	466.19
395.678	452.19
395.903	444.19
396.127	479.19
396.352	488.19
396.576	462.19
396.801	449.19
397.025	467.19
397.249	455.19
397.474	471.19
397.698	471.19
397.922	459.19
398.147	478.19
398.371	487.19
398.595	470.19
398.82	497.19
399.044	518.19
399.268	528.19
399.492	570.19
399.717	606.19
399.941	617.19
400.165	605.19
400.389	626.19
400.613	577.19
400.837	543.19
401.062	496.19
401.286	516.19
401.51	488.19
401.734	483.19
401.958	505.19
402.182	494.19
402.406	496.19
402.63	494.19
402.854	508.19
403.078	490.19
403.302	514.19
403.526	523.19
403.75	526.19
403.974	520.19
404.198	498.19
404.422	513.19
404.645	521.19
404.869	536.19
405.093	540.19
405.317	555.19
405.541	604.19
405.765	575.19
405.988	533.19
406.212	526.19
406.436	564.19
406.66	557.19
406.883	549.19
407.107	567.19
407.331	618.19
407.555	660.19
407.778	670.19
408.002	606.19
408.226	561.19
408.449	577.19
408.673	543.19
408.896	592.19
409.12	614.19
409.344	566.19
409.567	510.19
409.791	525.19
410.014	508.19
410.238	526.19
410.461	489.19
410.685	519.19
410.908	523.19
411.132	555.19
411.355	557.19
411.578	556.19
411.802	534.19
412.025	495.19
412.249	524.19
412.472	536.19
412.695	581.19
412.919	558.19
413.142	512.19
413.365	496.19
413.589	506.19
413.812	491.19
414.035	485.19
414.258	482.19
414.482	485.19
414.705	463.19
414.928	472.19
415.151	495.19
415.374	491.19
415.597	473.19
415.821	464.19
416.044	489.19
416.267	471.19
416.49	470.19
416.713	496.19
416.936	479.19
417.159	477.19
417.382	506.19
417.605	457.19
417.828	502.19
418.051	501.19
418.274	482.19
418.497	482.19
418.72	480.19
418.943	464.19
419.166	501.19
419.389	495.19
419.611	512.19
419.834	516.19
420.057	510.19
420.28	524.19
420.503	482.19
420.726	504.19
420.948	496.19
421.171	528.19
421.394	537.19
421.617	519.19
421.839	502.19
422.062	470.19
422.285	482.19
422.507	531.19
422.73	595.19
422.953	567.19
423.175	531.19
423.398	503.19
423.621	510.19
423.843	533.19
424.066	514.19
424.288	529.19
424.511	527.19
424.733	560.19
424.956	601.19
425.178	593.19
425.401	615.19
425.623	628.19
425.846	530.19
426.068	520.19
426.291	514.19
426.513	500.19
426.735	534.19
426.958	543.19
427.18	608.19
427.402	699.19
427.625	771.19
427.847	654.19
428.069	585.19
428.292	543.19
428.514	484.19
428.736	487.19
428.958	484.19
429.181	503.19
429.403	455.19
429.625	470.19
429.847	499.19
430.069	542.19
430.292	540.19
430.514	485.19
430.736	464.19
430.958	474.19
431.18	447.19
431.402	438.19
431.624	444.19
431.846	456.19
432.068	438.19
432.29	453.19
432.512	446.19
432.734	463.19
432.956	453.19
433.178	466.19
433.4	473.19
433.622	456.19
433.844	442.19
434.066	439.19
434.287	466.19
434.509	458.19
434.731	480.19
434.953	489.19
435.175	492.19
435.397	516.19
435.618	521.19
435.84	541.19
436.062	616.19
436.284	646.19
436.505	565.19
436.727	512.19
436.949	470.19
437.17	468.19
437.392	456.19
437.614	460.19
437.835	497.19
438.057	570.19
438.278	635.19
438.5	612.19
438.721	691.19
438.943	656.19
439.165	534.19
439.386	508.19
439.608	497.19
439.829	500.19
440.05	526.19
440.272	558.19
440.493	527.19
440.715	506.19
440.936	489.19
441.158	474.19
441.379	462.19
441.6	485.19
441.822	527.19
442.043	530.19
442.264	577.19
442.486	626.19
442.707	545.19
442.928	506.19
443.149	520.19
443.371	544.19
443.592	574.19
443.813	653.19
444.034	670.19
444.255	566.19
444.476	538.19
444.698	508.19
444.919	506.19
445.14	632.19
445.361	586.19
445.582	550.19
445.803	571.19
446.024	645.19
446.245	643.19
446.466	621.19
446.687	537.19
446.908	479.19
447.129	456.19
447.35	458.19
447.571	458.19
447.792	473.19
448.013	480.19
448.234	489.19
448.455	506.19
448.675	606.19
448.896	712.19
449.117	594.19
449.338	545.19
449.559	649.19
449.779	721.19
450	582.19
450.221	493.19
450.442	472.19
450.662	451.19
450.883	452.19
451.104	443.19
451.324	456.19
451.545	432.19
451.766	415.19
451.986	429.19
452.207	432.19
452.428	396.19
452.648	424.19
452.869	401.19
453.089	431.19
453.31	416.19
453.53	407.19
453.751	410.19
453.971	424.19
454.192	427.19
454.412	408.19
454.633	399.19
454.853	393.19
455.073	418.19
455.294	440.19
455.514	473.19
455.734	470.19
455.955	403.19
456.175	401.19
456.395	390.19
456.616	404.19
456.836	394.19
457.056	398.19
457.276	379.19
457.497	393.19
457.717	388.19
457.937	400.19
458.157	428.19
458.377	404.19
458.598	430.19
458.818	473.19
459.038	490.19
459.258	512.19
459.478	461.19
459.698	448.19
459.918	442.19
460.138	451.19
460.358	472.19
460.578	436.19
460.798	448.19
461.018	465.19
461.238	482.19
461.458	453.19
461.678	444.19
461.898	464.19
462.118	456.19
462.338	458.19
462.558	473.19
462.777	467.19
462.997	516.19
463.217	542.19
463.437	488.19
463.657	483.19
463.876	489.19
464.096	499.19
464.316	498.19
464.536	500.19
464.755	500.19
464.975	477.19
465.195	517.19
465.414	525.19
465.634	488.19
465.854	462.19
466.073	442.19
466.293	425.19
466.512	428.19
466.732	421.19
466.951	436.19
467.171	427.19
467.391	421.19
467.61	421.19
467.829	410.19
468.049	421.19
468.268	424.19
468.488	417.19
468.707	404.19
468.927	394.19
469.146	413.19
469.365	425.19
469.585	413.19
469.804	408.19
470.023	414.19
470.243	420.19
470.462	432.19
470.681	456.19
470.901	412.19
471.12	429.19
471.339	423.19
471.558	419.19
471.777	428.19
471.997	424.19
472.216	440.19
472.435	459.19
472.654	448.19
472.873	431.19
473.092	410.19
473.311	428.19
473.53	443.19
473.749	432.19
473.968	456.19
474.187	544.19
474.406	536.19
474.625	476.19
474.844	441.19
475.063	409.19
475.282	439.19
475.501	427.19
475.72	434.19
475.939	455.19
476.158	432.19
476.377	438.19
476.596	430.19
476.814	440.19
477.033	445.19
477.252	457.19
477.471	436.19
477.69	445.19
477.908	463.19
478.127	470.19
478.346	472.19
478.564	478.19
478.783	475.19
479.002	502.19
479.22	485.19
479.439	485.19
479.658	468.19
479.876	495.19
480.095	509.19
480.313	548.19
480.532	529.19
480.751	527.19
480.969	527.19
481.188	553.19
481.406	582.19
481.624	522.19
481.843	513.19
482.061	510.19
482.28	489.19
482.498	499.19
482.717	476.19
482.935	482.19
483.153	512.19
483.372	513.19
483.59	486.19
483.808	487.19
484.027	480.19
484.245	490.19
484.463	483.19
484.681	493.19
484.9	525.19
485.118	487.19
485.336	481.19
485.554	503.19
485.772	507.19
485.99	497.19
486.209	487.19
486.427	488.19
486.645	513.19
486.863	506.19
487.081	521.19
487.299	529.19
487.517	522.19
487.735	498.19
487.953	523.19
488.171	509.19
488.389	541.19
488.607	504.19
488.825	500.19
489.043	511.19
489.261	544.19
489.479	515.19
489.696	512.19
489.914	528.19
490.132	513.19
490.35	540.19
490.568	568.19
490.786	541.19
491.003	576.19
491.221	589.19
491.439	561.19
491.657	572.19
491.874	576.19
492.092	569.19
492.31	599.19
492.527	587.19
492.745	590.19
492.963	591.19
493.18	596.19
493.398	580.19
493.615	632.19
493.833	604.19
494.05	596.19
494.268	605.19
494.485	611.19
494.703	598.19
494.92	609.19
495.138	603.19
495.355	602.19
495.573	621.19
495.79	603.19
496.008	617.19
496.225	596.19
496.442	593.19
496.66	622.19
496.877	601.19
497.094	606.19
497.312	603.19
497.529	631.19
497.746	650.19
497.963	641.19
498.181	670.19
498.398	653.19
498.615	689.19
498.832	727.19
499.049	777.19
499.267	752.19
499.484	758.19
499.701	792.19
499.918	843.19
500.135	918.19
500.352	943.19
500.569	943.19
500.786	964.19
501.003	922.19
501.22	900.19
501.437	847.19
501.654	824.19
501.871	811.19
