Data from 1964.PennyLincolnUp.Lamp.En5.5.200Scan.071719.P1._HRD10591_14-04-33-908.txt Node
Date: Thu Jul 18 14:04:33 EDT 2019
User: cochatt
Spectrometer: HR+D1059
Trigger mode: 1
Integration Time (sec): 1.000000E-1
Scans to average: 1
Electric dark correction enabled: true
Nonlinearity correction enabled: false
Boxcar width: 0
XAxis mode: Wavelengths
Number of Pixels in Spectrum: 2048
>>>>>Begin Spectral Data<<<<<
223.165	2.88
223.4	2.88
223.635	2.88
223.869	-21.12
224.104	-8.12
224.338	-6.12
224.573	-23.12
224.808	2.88
225.042	-9.12
225.277	-13.12
225.511	14.88
225.746	-6.12
225.98	3.88
226.215	-1.12
226.449	15.88
226.683	21.88
226.918	11.88
227.152	13.88
227.387	38.88
227.621	35.88
227.856	58.88
228.09	46.88
228.324	54.88
228.559	56.88
228.793	59.88
229.027	97.88
229.262	103.88
229.496	91.88
229.73	125.88
229.964	122.88
230.199	114.88
230.433	96.88
230.667	114.88
230.901	107.88
231.136	98.88
231.37	89.88
231.604	88.88
231.838	118.88
232.072	120.88
232.306	112.88
232.541	114.88
232.775	126.88
233.009	105.88
233.243	104.88
233.477	105.88
233.711	111.88
233.945	106.88
234.179	108.88
234.413	122.88
234.647	122.88
234.881	101.88
235.115	111.88
235.349	107.88
235.583	114.88
235.817	126.88
236.051	126.88
236.285	121.88
236.519	137.88
236.753	118.88
236.987	135.88
237.221	178.88
237.455	194.88
237.689	166.88
237.922	132.88
238.156	134.88
238.39	123.88
238.624	124.88
238.858	129.88
239.091	118.88
239.325	129.88
239.559	123.88
239.793	119.88
240.027	134.88
240.26	122.88
240.494	141.88
240.728	133.88
240.961	137.88
241.195	150.88
241.429	143.88
241.662	123.88
241.896	130.88
242.13	122.88
242.363	155.88
242.597	134.88
242.83	142.88
243.064	116.88
243.298	148.88
243.531	139.88
243.765	124.88
243.998	137.88
244.232	143.88
244.465	147.88
244.699	148.88
244.932	134.88
245.166	160.88
245.399	138.88
245.633	157.88
245.866	149.88
246.099	163.88
246.333	164.88
246.566	151.88
246.8	159.88
247.033	148.88
247.266	161.88
247.5	150.88
247.733	155.88
247.966	151.88
248.2	172.88
248.433	163.88
248.666	182.88
248.899	181.88
249.133	187.88
249.366	196.88
249.599	196.88
249.832	184.88
250.066	176.88
250.299	174.88
250.532	195.88
250.765	198.88
250.998	212.88
251.231	215.88
251.465	203.88
251.698	189.88
251.931	185.88
252.164	201.88
252.397	197.88
252.63	195.88
252.863	202.88
253.096	221.88
253.329	205.88
253.562	210.88
253.795	223.88
254.028	227.88
254.261	190.88
254.494	212.88
254.727	232.88
254.96	274.88
255.193	259.88
255.426	230.88
255.659	242.88
255.892	215.88
256.124	236.88
256.357	218.88
256.59	227.88
256.823	220.88
257.056	210.88
257.289	208.88
257.521	210.88
257.754	213.88
257.987	223.88
258.22	194.88
258.452	222.88
258.685	210.88
258.918	220.88
259.151	204.88
259.383	226.88
259.616	223.88
259.849	237.88
260.081	219.88
260.314	251.88
260.547	238.88
260.779	254.88
261.012	243.88
261.244	239.88
261.477	228.88
261.71	226.88
261.942	229.88
262.175	231.88
262.407	217.88
262.64	223.88
262.872	223.88
263.105	222.88
263.337	215.88
263.57	226.88
263.802	215.88
264.035	231.88
264.267	222.88
264.499	221.88
264.732	228.88
264.964	232.88
265.197	238.88
265.429	232.88
265.661	214.88
265.894	243.88
266.126	220.88
266.358	235.88
266.591	225.88
266.823	235.88
267.055	246.88
267.287	244.88
267.52	235.88
267.752	259.88
267.984	251.88
268.216	235.88
268.448	239.88
268.681	250.88
268.913	247.88
269.145	290.88
269.377	282.88
269.609	287.88
269.841	290.88
270.073	272.88
270.306	298.88
270.538	301.88
270.77	295.88
271.002	318.88
271.234	288.88
271.466	297.88
271.698	323.88
271.93	307.88
272.162	315.88
272.394	307.88
272.626	306.88
272.858	290.88
273.09	295.88
273.322	278.88
273.553	281.88
273.785	280.88
274.017	277.88
274.249	279.88
274.481	279.88
274.713	279.88
274.945	279.88
275.176	275.88
275.408	286.88
275.64	294.88
275.872	267.88
276.104	281.88
276.335	282.88
276.567	285.88
276.799	285.88
277.031	299.88
277.262	311.88
277.494	314.88
277.726	317.88
277.957	297.88
278.189	299.88
278.421	290.88
278.652	299.88
278.884	284.88
279.115	286.88
279.347	291.88
279.579	280.88
279.81	291.88
280.042	294.88
280.273	289.88
280.505	292.88
280.736	278.88
280.968	291.88
281.199	289.88
281.431	287.88
281.662	300.88
281.894	307.88
282.125	303.88
282.356	303.88
282.588	294.88
282.819	312.88
283.051	293.88
283.282	289.88
283.513	309.88
283.745	315.88
283.976	315.88
284.207	311.88
284.439	303.88
284.67	306.88
284.901	324.88
285.132	299.88
285.364	314.88
285.595	307.88
285.826	296.88
286.057	312.88
286.288	301.88
286.52	317.88
286.751	316.88
286.982	326.88
287.213	324.88
287.444	311.88
287.675	334.88
287.906	332.88
288.138	331.88
288.369	308.88
288.6	326.88
288.831	312.88
289.062	330.88
289.293	322.88
289.524	325.88
289.755	325.88
289.986	317.88
290.217	313.88
290.448	319.88
290.679	331.88
290.91	311.88
291.141	337.88
291.371	320.88
291.602	332.88
291.833	331.88
292.064	346.88
292.295	326.88
292.526	309.88
292.757	311.88
292.987	315.88
293.218	325.88
293.449	338.88
293.68	330.88
293.91	320.88
294.141	343.88
294.372	323.88
294.603	320.88
294.833	328.88
295.064	343.88
295.295	329.88
295.525	326.88
295.756	312.88
295.987	330.88
296.217	333.88
296.448	353.88
296.679	330.88
296.909	331.88
297.14	354.88
297.37	322.88
297.601	320.88
297.831	342.88
298.062	333.88
298.292	341.88
298.523	319.88
298.753	357.88
298.984	361.88
299.214	338.88
299.445	354.88
299.675	365.88
299.905	340.88
300.136	348.88
300.366	363.88
300.597	356.88
300.827	346.88
301.057	366.88
301.288	373.88
301.518	356.88
301.748	363.88
301.979	381.88
302.209	360.88
302.439	363.88
302.669	372.88
302.9	363.88
303.13	367.88
303.36	360.88
303.59	356.88
303.82	353.88
304.051	379.88
304.281	362.88
304.511	378.88
304.741	336.88
304.971	357.88
305.201	358.88
305.431	363.88
305.661	359.88
305.891	363.88
306.121	354.88
306.352	366.88
306.582	376.88
306.812	364.88
307.042	368.88
307.272	370.88
307.502	358.88
307.731	367.88
307.961	363.88
308.191	393.88
308.421	378.88
308.651	376.88
308.881	376.88
309.111	386.88
309.341	364.88
309.571	399.88
309.8	395.88
310.03	400.88
310.26	397.88
310.49	389.88
310.72	404.88
310.949	417.88
311.179	416.88
311.409	393.88
311.639	386.88
311.868	388.88
312.098	407.88
312.328	394.88
312.557	420.88
312.787	427.88
313.017	429.88
313.246	419.88
313.476	403.88
313.706	391.88
313.935	422.88
314.165	424.88
314.394	402.88
314.624	420.88
314.853	401.88
315.083	411.88
315.312	410.88
315.542	417.88
315.771	396.88
316.001	394.88
316.23	386.88
316.46	415.88
316.689	403.88
316.919	415.88
317.148	398.88
317.377	431.88
317.607	420.88
317.836	414.88
318.065	415.88
318.295	404.88
318.524	420.88
318.753	426.88
318.983	414.88
319.212	396.88
319.441	390.88
319.67	405.88
319.9	412.88
320.129	420.88
320.358	390.88
320.587	393.88
320.816	416.88
321.046	405.88
321.275	418.88
321.504	410.88
321.733	421.88
321.962	420.88
322.191	440.88
322.42	434.88
322.649	449.88
322.878	443.88
323.108	458.88
323.337	454.88
323.566	462.88
323.795	495.88
324.024	525.88
324.253	616.88
324.482	818.88
324.71	1111.88
324.939	1536.88
325.168	1282.88
325.397	726.88
325.626	560.88
325.855	511.88
326.084	482.88
326.313	470.88
326.542	507.88
326.77	534.88
326.999	571.88
327.228	719.88
327.457	1008.88
327.686	1154.88
327.914	795.88
328.143	586.88
328.372	533.88
328.6	497.88
328.829	516.88
329.058	518.88
329.287	527.88
329.515	506.88
329.744	471.88
329.972	488.88
330.201	498.88
330.43	518.88
330.658	558.88
330.887	563.88
331.115	518.88
331.344	516.88
331.572	501.88
331.801	483.88
332.03	484.88
332.258	489.88
332.486	469.88
332.715	465.88
332.943	475.88
333.172	505.88
333.4	486.88
333.629	512.88
333.857	526.88
334.085	523.88
334.314	544.88
334.542	539.88
334.771	562.88
334.999	519.88
335.227	502.88
335.455	501.88
335.684	502.88
335.912	481.88
336.14	475.88
336.369	480.88
336.597	471.88
336.825	489.88
337.053	472.88
337.281	444.88
337.51	465.88
337.738	461.88
337.966	476.88
338.194	457.88
338.422	474.88
338.65	476.88
338.878	450.88
339.106	435.88
339.334	473.88
339.562	455.88
339.79	471.88
340.018	459.88
340.246	462.88
340.474	444.88
340.702	451.88
340.93	452.88
341.158	456.88
341.386	432.88
341.614	440.88
341.842	453.88
342.07	436.88
342.298	448.88
342.526	423.88
342.754	440.88
342.981	435.88
343.209	426.88
343.437	470.88
343.665	446.88
343.893	487.88
344.12	488.88
344.348	458.88
344.576	471.88
344.804	449.88
345.031	452.88
345.259	480.88
345.487	411.88
345.714	439.88
345.942	440.88
346.17	436.88
346.397	442.88
346.625	425.88
346.853	412.88
347.08	439.88
347.308	447.88
347.535	419.88
347.763	422.88
347.99	429.88
348.218	420.88
348.445	418.88
348.673	415.88
348.9	437.88
349.128	429.88
349.355	419.88
349.583	406.88
349.81	418.88
350.037	418.88
350.265	405.88
350.492	412.88
350.72	424.88
350.947	414.88
351.174	417.88
351.402	415.88
351.629	405.88
351.856	426.88
352.083	417.88
352.311	428.88
352.538	420.88
352.765	402.88
352.992	425.88
353.22	415.88
353.447	400.88
353.674	404.88
353.901	404.88
354.128	400.88
354.355	415.88
354.583	400.88
354.81	398.88
355.037	398.88
355.264	398.88
355.491	401.88
355.718	384.88
355.945	382.88
356.172	388.88
356.399	389.88
356.626	390.88
356.853	393.88
357.08	403.88
357.307	407.88
357.534	399.88
357.761	394.88
357.988	422.88
358.215	410.88
358.441	400.88
358.668	380.88
358.895	398.88
359.122	415.88
359.349	412.88
359.576	403.88
359.802	422.88
360.029	427.88
360.256	438.88
360.483	423.88
360.709	404.88
360.936	416.88
361.163	411.88
361.39	408.88
361.616	420.88
361.843	406.88
362.07	417.88
362.296	418.88
362.523	401.88
362.749	404.88
362.976	391.88
363.203	412.88
363.429	401.88
363.656	403.88
363.882	419.88
364.109	414.88
364.335	400.88
364.562	392.88
364.788	401.88
365.015	407.88
365.241	400.88
365.468	404.88
365.694	396.88
365.92	407.88
366.147	388.88
366.373	391.88
366.599	400.88
366.826	377.88
367.052	398.88
367.278	409.88
367.505	394.88
367.731	397.88
367.957	400.88
368.184	370.88
368.41	403.88
368.636	412.88
368.862	418.88
369.089	399.88
369.315	391.88
369.541	387.88
369.767	414.88
369.993	388.88
370.219	380.88
370.445	408.88
370.672	403.88
370.898	387.88
371.124	403.88
371.35	408.88
371.576	399.88
371.802	412.88
372.028	401.88
372.254	407.88
372.48	417.88
372.706	405.88
372.932	395.88
373.158	415.88
373.384	419.88
373.61	428.88
373.835	391.88
374.061	392.88
374.287	409.88
374.513	421.88
374.739	414.88
374.965	404.88
375.191	416.88
375.416	416.88
375.642	414.88
375.868	394.88
376.094	389.88
376.319	414.88
376.545	404.88
376.771	407.88
376.997	402.88
377.222	381.88
377.448	386.88
377.674	392.88
377.899	398.88
378.125	397.88
378.35	389.88
378.576	398.88
378.802	396.88
379.027	406.88
379.253	383.88
379.478	390.88
379.704	395.88
379.929	403.88
380.155	397.88
380.38	389.88
380.606	379.88
380.831	412.88
381.057	410.88
381.282	401.88
381.507	387.88
381.733	388.88
381.958	404.88
382.184	394.88
382.409	400.88
382.634	409.88
382.86	416.88
383.085	395.88
383.31	413.88
383.535	406.88
383.761	398.88
383.986	399.88
384.211	405.88
384.436	440.88
384.662	415.88
384.887	421.88
385.112	438.88
385.337	442.88
385.562	430.88
385.787	462.88
386.013	451.88
386.238	435.88
386.463	426.88
386.688	436.88
386.913	418.88
387.138	431.88
387.363	443.88
387.588	420.88
387.813	431.88
388.038	425.88
388.263	432.88
388.488	435.88
388.713	423.88
388.938	442.88
389.163	443.88
389.387	441.88
389.612	424.88
389.837	432.88
390.062	436.88
390.287	438.88
390.512	418.88
390.736	430.88
390.961	416.88
391.186	443.88
391.411	428.88
391.636	456.88
391.86	461.88
392.085	452.88
392.31	434.88
392.534	440.88
392.759	430.88
392.984	435.88
393.208	426.88
393.433	425.88
393.658	434.88
393.882	447.88
394.107	435.88
394.331	407.88
394.556	405.88
394.78	421.88
395.005	440.88
395.229	449.88
395.454	463.88
395.678	442.88
395.903	443.88
396.127	478.88
396.352	495.88
396.576	470.88
396.801	442.88
397.025	438.88
397.249	445.88
397.474	443.88
397.698	458.88
397.922	462.88
398.147	476.88
398.371	483.88
398.595	484.88
398.82	482.88
399.044	526.88
399.268	547.88
399.492	550.88
399.717	572.88
399.941	590.88
400.165	608.88
400.389	606.88
400.613	524.88
400.837	552.88
401.062	520.88
401.286	490.88
401.51	493.88
401.734	464.88
401.958	485.88
402.182	513.88
402.406	524.88
402.63	478.88
402.854	487.88
403.078	490.88
403.302	493.88
403.526	517.88
403.75	484.88
403.974	503.88
404.198	486.88
404.422	520.88
404.645	509.88
404.869	516.88
405.093	555.88
405.317	577.88
405.541	590.88
405.765	557.88
405.988	533.88
406.212	524.88
406.436	524.88
406.66	538.88
406.883	522.88
407.107	567.88
407.331	602.88
407.555	626.88
407.778	619.88
408.002	575.88
408.226	542.88
408.449	557.88
408.673	544.88
408.896	548.88
409.12	587.88
409.344	566.88
409.567	517.88
409.791	514.88
410.014	492.88
410.238	477.88
410.461	506.88
410.685	501.88
410.908	506.88
411.132	546.88
411.355	557.88
411.578	518.88
411.802	476.88
412.025	476.88
412.249	501.88
412.472	513.88
412.695	556.88
412.919	550.88
413.142	517.88
413.365	504.88
413.589	477.88
413.812	498.88
414.035	494.88
414.258	473.88
414.482	477.88
414.705	463.88
414.928	472.88
415.151	472.88
415.374	464.88
415.597	490.88
415.821	455.88
416.044	468.88
416.267	463.88
416.49	474.88
416.713	458.88
416.936	468.88
417.159	459.88
417.382	459.88
417.605	471.88
417.828	481.88
418.051	487.88
418.274	474.88
418.497	463.88
418.72	451.88
418.943	457.88
419.166	461.88
419.389	502.88
419.611	492.88
419.834	493.88
420.057	490.88
420.28	471.88
420.503	479.88
420.726	482.88
420.948	495.88
421.171	498.88
421.394	546.88
421.617	483.88
421.839	464.88
422.062	480.88
422.285	492.88
422.507	507.88
422.73	589.88
422.953	531.88
423.175	515.88
423.398	494.88
423.621	496.88
423.843	510.88
424.066	507.88
424.288	498.88
424.511	519.88
424.733	560.88
424.956	608.88
425.178	614.88
425.401	588.88
425.623	583.88
425.846	541.88
426.068	490.88
426.291	489.88
426.513	470.88
426.735	519.88
426.958	526.88
427.18	597.88
427.402	695.88
427.625	742.88
427.847	626.88
428.069	537.88
428.292	542.88
428.514	490.88
428.736	467.88
428.958	493.88
429.181	450.88
429.403	455.88
429.625	464.88
429.847	479.88
430.069	538.88
430.292	520.88
430.514	440.88
430.736	443.88
430.958	459.88
431.18	469.88
431.402	446.88
431.624	426.88
431.846	452.88
432.068	443.88
432.29	438.88
432.512	452.88
432.734	451.88
432.956	424.88
433.178	444.88
433.4	436.88
433.622	443.88
433.844	438.88
434.066	458.88
434.287	447.88
434.509	435.88
434.731	435.88
434.953	477.88
435.175	463.88
435.397	499.88
435.618	486.88
435.84	508.88
436.062	591.88
436.284	627.88
436.505	546.88
436.727	490.88
436.949	476.88
437.17	463.88
437.392	435.88
437.614	463.88
437.835	467.88
438.057	543.88
438.278	603.88
438.5	592.88
438.721	674.88
438.943	654.88
439.165	541.88
439.386	478.88
439.608	478.88
439.829	467.88
440.05	478.88
440.272	541.88
440.493	481.88
440.715	470.88
440.936	460.88
441.158	442.88
441.379	457.88
441.6	450.88
441.822	494.88
442.043	503.88
442.264	569.88
442.486	611.88
442.707	524.88
442.928	502.88
443.149	514.88
443.371	500.88
443.592	547.88
443.813	612.88
444.034	639.88
444.255	562.88
444.476	493.88
444.698	521.88
444.919	510.88
445.14	617.88
445.361	571.88
445.582	513.88
445.803	550.88
446.024	613.88
446.245	614.88
446.466	577.88
446.687	502.88
446.908	476.88
447.129	446.88
447.35	458.88
447.571	443.88
447.792	442.88
448.013	447.88
448.234	439.88
448.455	496.88
448.675	574.88
448.896	645.88
449.117	559.88
449.338	525.88
449.559	616.88
449.779	696.88
450	553.88
450.221	478.88
450.442	454.88
450.662	420.88
450.883	430.88
451.104	448.88
451.324	434.88
451.545	406.88
451.766	420.88
451.986	409.88
452.207	408.88
452.428	395.88
452.648	394.88
452.869	402.88
453.089	399.88
453.31	417.88
453.53	398.88
453.751	410.88
453.971	394.88
454.192	401.88
454.412	404.88
454.633	414.88
454.853	388.88
455.073	393.88
455.294	429.88
455.514	431.88
455.734	451.88
455.955	401.88
456.175	376.88
456.395	356.88
456.616	360.88
456.836	399.88
457.056	382.88
457.276	381.88
457.497	378.88
457.717	378.88
457.937	417.88
458.157	391.88
458.377	389.88
458.598	401.88
458.818	452.88
459.038	489.88
459.258	501.88
459.478	458.88
459.698	443.88
459.918	424.88
460.138	453.88
460.358	455.88
460.578	446.88
460.798	449.88
461.018	456.88
461.238	456.88
461.458	467.88
461.678	461.88
461.898	445.88
462.118	435.88
462.338	455.88
462.558	451.88
462.777	479.88
462.997	518.88
463.217	518.88
463.437	515.88
463.657	476.88
463.876	507.88
464.096	492.88
464.316	482.88
464.536	491.88
464.755	471.88
464.975	473.88
465.195	501.88
465.414	488.88
465.634	467.88
465.854	455.88
466.073	434.88
466.293	424.88
466.512	408.88
466.732	405.88
466.951	407.88
467.171	409.88
467.391	404.88
467.61	429.88
467.829	391.88
468.049	418.88
468.268	404.88
468.488	417.88
468.707	420.88
468.927	404.88
469.146	406.88
469.365	414.88
469.585	400.88
469.804	395.88
470.023	419.88
470.243	429.88
470.462	423.88
470.681	413.88
470.901	439.88
471.12	418.88
471.339	430.88
471.558	401.88
471.777	412.88
471.997	418.88
472.216	414.88
472.435	420.88
472.654	436.88
472.873	400.88
473.092	411.88
473.311	394.88
473.53	417.88
473.749	406.88
473.968	444.88
474.187	514.88
474.406	532.88
474.625	463.88
474.844	429.88
475.063	395.88
475.282	391.88
475.501	408.88
475.72	419.88
475.939	416.88
476.158	430.88
476.377	411.88
476.596	423.88
476.814	442.88
477.033	431.88
477.252	430.88
477.471	425.88
477.69	429.88
477.908	412.88
478.127	460.88
478.346	453.88
478.564	451.88
478.783	448.88
479.002	490.88
479.22	484.88
479.439	499.88
479.658	504.88
479.876	512.88
480.095	515.88
480.313	514.88
480.532	504.88
480.751	528.88
480.969	509.88
481.188	556.88
481.406	554.88
481.624	525.88
481.843	503.88
482.061	478.88
482.28	484.88
482.498	480.88
482.717	493.88
482.935	458.88
483.153	480.88
483.372	463.88
483.59	470.88
483.808	491.88
484.027	468.88
484.245	507.88
484.463	474.88
484.681	498.88
484.9	499.88
485.118	485.88
485.336	479.88
485.554	503.88
485.772	474.88
485.99	505.88
486.209	502.88
486.427	488.88
486.645	491.88
486.863	532.88
487.081	529.88
487.299	523.88
487.517	499.88
487.735	494.88
487.953	495.88
488.171	521.88
488.389	514.88
488.607	499.88
488.825	497.88
489.043	510.88
489.261	511.88
489.479	499.88
489.696	529.88
489.914	521.88
490.132	526.88
490.35	525.88
490.568	529.88
490.786	546.88
491.003	544.88
491.221	540.88
491.439	556.88
491.657	574.88
491.874	587.88
492.092	565.88
492.31	573.88
492.527	579.88
492.745	565.88
492.963	570.88
493.18	598.88
493.398	591.88
493.615	599.88
493.833	585.88
494.05	575.88
494.268	602.88
494.485	582.88
494.703	580.88
494.92	589.88
495.138	583.88
495.355	598.88
495.573	596.88
495.79	623.88
496.008	592.88
496.225	590.88
496.442	603.88
496.66	606.88
496.877	613.88
497.094	606.88
497.312	604.88
497.529	621.88
497.746	618.88
497.963	644.88
498.181	631.88
498.398	676.88
498.615	670.88
498.832	698.88
499.049	713.88
499.267	754.88
499.484	774.88
499.701	808.88
499.918	812.88
500.135	867.88
500.352	908.88
500.569	916.88
500.786	919.88
501.003	935.88
501.22	878.88
501.437	851.88
501.654	797.88
501.871	794.88
502.088	756.88
