Data from 1964.PennyLincolnUp.Lamp.En5.5.200Scan.071719.P1._HRD10591_14-04-39-908.txt Node
Date: Thu Jul 18 14:04:39 EDT 2019
User: cochatt
Spectrometer: HR+D1059
Trigger mode: 1
Integration Time (sec): 1.000000E-1
Scans to average: 1
Electric dark correction enabled: true
Nonlinearity correction enabled: false
Boxcar width: 0
XAxis mode: Wavelengths
Number of Pixels in Spectrum: 2048
>>>>>Begin Spectral Data<<<<<
223.165	-4.25
223.4	-4.25
223.635	-4.25
223.869	-6.25
224.104	-18.25
224.338	-0.25
224.573	-5.25
224.808	-12.25
225.042	-6.25
225.277	-2.25
225.511	6.75
225.746	2.75
225.98	2.75
226.215	9.75
226.449	-1.25
226.683	-1.25
226.918	15.75
227.152	19.75
227.387	34.75
227.621	30.75
227.856	37.75
228.09	49.75
228.324	45.75
228.559	59.75
228.793	66.75
229.027	81.75
229.262	97.75
229.496	103.75
229.73	120.75
229.964	134.75
230.199	116.75
230.433	101.75
230.667	104.75
230.901	119.75
231.136	89.75
231.37	96.75
231.604	99.75
231.838	105.75
232.072	92.75
232.306	107.75
232.541	107.75
232.775	101.75
233.009	116.75
233.243	95.75
233.477	119.75
233.711	108.75
233.945	125.75
234.179	108.75
234.413	110.75
234.647	125.75
234.881	127.75
235.115	115.75
235.349	115.75
235.583	125.75
235.817	101.75
236.051	107.75
236.285	117.75
236.519	114.75
236.753	134.75
236.987	135.75
237.221	148.75
237.455	204.75
237.689	149.75
237.922	129.75
238.156	118.75
238.39	136.75
238.624	122.75
238.858	122.75
239.091	115.75
239.325	125.75
239.559	129.75
239.793	128.75
240.027	140.75
240.26	140.75
240.494	149.75
240.728	141.75
240.961	144.75
241.195	150.75
241.429	135.75
241.662	135.75
241.896	123.75
242.13	126.75
242.363	129.75
242.597	116.75
242.83	131.75
243.064	119.75
243.298	133.75
243.531	148.75
243.765	132.75
243.998	149.75
244.232	142.75
244.465	146.75
244.699	136.75
244.932	145.75
245.166	131.75
245.399	146.75
245.633	151.75
245.866	153.75
246.099	150.75
246.333	145.75
246.566	153.75
246.8	147.75
247.033	145.75
247.266	150.75
247.5	157.75
247.733	149.75
247.966	173.75
248.2	158.75
248.433	172.75
248.666	177.75
248.899	181.75
249.133	186.75
249.366	180.75
249.599	207.75
249.832	164.75
250.066	195.75
250.299	198.75
250.532	200.75
250.765	190.75
250.998	214.75
251.231	201.75
251.465	207.75
251.698	188.75
251.931	193.75
252.164	194.75
252.397	189.75
252.63	192.75
252.863	189.75
253.096	202.75
253.329	209.75
253.562	228.75
253.795	211.75
254.028	214.75
254.261	226.75
254.494	228.75
254.727	262.75
254.96	257.75
255.193	240.75
255.426	238.75
255.659	230.75
255.892	223.75
256.124	232.75
256.357	236.75
256.59	225.75
256.823	230.75
257.056	195.75
257.289	201.75
257.521	209.75
257.754	219.75
257.987	219.75
258.22	219.75
258.452	205.75
258.685	205.75
258.918	208.75
259.151	204.75
259.383	231.75
259.616	213.75
259.849	223.75
260.081	226.75
260.314	236.75
260.547	262.75
260.779	225.75
261.012	231.75
261.244	218.75
261.477	245.75
261.71	236.75
261.942	235.75
262.175	232.75
262.407	242.75
262.64	201.75
262.872	223.75
263.105	231.75
263.337	219.75
263.57	214.75
263.802	225.75
264.035	226.75
264.267	224.75
264.499	235.75
264.732	228.75
264.964	212.75
265.197	206.75
265.429	253.75
265.661	222.75
265.894	226.75
266.126	202.75
266.358	221.75
266.591	230.75
266.823	230.75
267.055	249.75
267.287	245.75
267.52	248.75
267.752	234.75
267.984	220.75
268.216	241.75
268.448	229.75
268.681	263.75
268.913	257.75
269.145	259.75
269.377	273.75
269.609	271.75
269.841	291.75
270.073	269.75
270.306	292.75
270.538	297.75
270.77	296.75
271.002	315.75
271.234	309.75
271.466	309.75
271.698	310.75
271.93	323.75
272.162	303.75
272.394	315.75
272.626	308.75
272.858	295.75
273.09	285.75
273.322	280.75
273.553	275.75
273.785	267.75
274.017	291.75
274.249	272.75
274.481	271.75
274.713	270.75
274.945	294.75
275.176	283.75
275.408	270.75
275.64	276.75
275.872	289.75
276.104	269.75
276.335	268.75
276.567	283.75
276.799	281.75
277.031	307.75
277.262	318.75
277.494	338.75
277.726	277.75
277.957	299.75
278.189	286.75
278.421	290.75
278.652	315.75
278.884	283.75
279.115	275.75
279.347	297.75
279.579	295.75
279.81	295.75
280.042	307.75
280.273	309.75
280.505	295.75
280.736	286.75
280.968	294.75
281.199	292.75
281.431	308.75
281.662	285.75
281.894	282.75
282.125	287.75
282.356	305.75
282.588	318.75
282.819	310.75
283.051	284.75
283.282	307.75
283.513	305.75
283.745	285.75
283.976	296.75
284.207	293.75
284.439	305.75
284.67	294.75
284.901	308.75
285.132	301.75
285.364	292.75
285.595	306.75
285.826	303.75
286.057	290.75
286.288	304.75
286.52	306.75
286.751	298.75
286.982	308.75
287.213	320.75
287.444	305.75
287.675	326.75
287.906	319.75
288.138	335.75
288.369	324.75
288.6	332.75
288.831	315.75
289.062	329.75
289.293	324.75
289.524	312.75
289.755	317.75
289.986	313.75
290.217	314.75
290.448	314.75
290.679	313.75
290.91	325.75
291.141	330.75
291.371	313.75
291.602	347.75
291.833	325.75
292.064	323.75
292.295	322.75
292.526	323.75
292.757	319.75
292.987	323.75
293.218	318.75
293.449	321.75
293.68	348.75
293.91	323.75
294.141	330.75
294.372	320.75
294.603	345.75
294.833	340.75
295.064	333.75
295.295	315.75
295.525	320.75
295.756	330.75
295.987	337.75
296.217	334.75
296.448	333.75
296.679	348.75
296.909	324.75
297.14	317.75
297.37	340.75
297.601	336.75
297.831	334.75
298.062	328.75
298.292	340.75
298.523	326.75
298.753	341.75
298.984	349.75
299.214	339.75
299.445	352.75
299.675	325.75
299.905	341.75
300.136	351.75
300.366	335.75
300.597	353.75
300.827	350.75
301.057	353.75
301.288	349.75
301.518	350.75
301.748	356.75
301.979	376.75
302.209	357.75
302.439	368.75
302.669	348.75
302.9	360.75
303.13	353.75
303.36	358.75
303.59	346.75
303.82	351.75
304.051	358.75
304.281	343.75
304.511	353.75
304.741	359.75
304.971	364.75
305.201	365.75
305.431	349.75
305.661	363.75
305.891	372.75
306.121	382.75
306.352	357.75
306.582	341.75
306.812	360.75
307.042	378.75
307.272	377.75
307.502	369.75
307.731	377.75
307.961	357.75
308.191	358.75
308.421	369.75
308.651	361.75
308.881	359.75
309.111	354.75
309.341	382.75
309.571	395.75
309.8	397.75
310.03	379.75
310.26	389.75
310.49	396.75
310.72	385.75
310.949	403.75
311.179	393.75
311.409	383.75
311.639	393.75
311.868	382.75
312.098	389.75
312.328	399.75
312.557	400.75
312.787	409.75
313.017	408.75
313.246	435.75
313.476	420.75
313.706	383.75
313.935	407.75
314.165	417.75
314.394	397.75
314.624	426.75
314.853	408.75
315.083	389.75
315.312	397.75
315.542	386.75
315.771	385.75
316.001	409.75
316.23	383.75
316.46	392.75
316.689	411.75
316.919	400.75
317.148	428.75
317.377	427.75
317.607	398.75
317.836	398.75
318.065	408.75
318.295	387.75
318.524	403.75
318.753	393.75
318.983	401.75
319.212	417.75
319.441	395.75
319.67	393.75
319.9	420.75
320.129	409.75
320.358	419.75
320.587	417.75
320.816	420.75
321.046	418.75
321.275	408.75
321.504	409.75
321.733	415.75
321.962	419.75
322.191	420.75
322.42	419.75
322.649	450.75
322.878	437.75
323.108	439.75
323.337	454.75
323.566	483.75
323.795	493.75
324.024	505.75
324.253	613.75
324.482	776.75
324.71	1125.75
324.939	1513.75
325.168	1285.75
325.397	696.75
325.626	528.75
325.855	499.75
326.084	461.75
326.313	452.75
326.542	491.75
326.77	502.75
326.999	558.75
327.228	724.75
327.457	1001.75
327.686	1145.75
327.914	806.75
328.143	594.75
328.372	545.75
328.6	538.75
328.829	524.75
329.058	531.75
329.287	523.75
329.515	498.75
329.744	505.75
329.972	497.75
330.201	507.75
330.43	501.75
330.658	549.75
330.887	575.75
331.115	543.75
331.344	502.75
331.572	479.75
331.801	491.75
332.03	505.75
332.258	486.75
332.486	475.75
332.715	474.75
332.943	470.75
333.172	511.75
333.4	499.75
333.629	491.75
333.857	520.75
334.085	531.75
334.314	513.75
334.542	533.75
334.771	545.75
334.999	517.75
335.227	495.75
335.455	507.75
335.684	481.75
335.912	500.75
336.14	477.75
336.369	470.75
336.597	465.75
336.825	463.75
337.053	455.75
337.281	467.75
337.51	483.75
337.738	485.75
337.966	427.75
338.194	466.75
338.422	456.75
338.65	458.75
338.878	456.75
339.106	475.75
339.334	438.75
339.562	454.75
339.79	443.75
340.018	446.75
340.246	409.75
340.474	466.75
340.702	431.75
340.93	443.75
341.158	451.75
341.386	429.75
341.614	463.75
341.842	438.75
342.07	444.75
342.298	447.75
342.526	428.75
342.754	431.75
342.981	442.75
343.209	444.75
343.437	459.75
343.665	458.75
343.893	461.75
344.12	500.75
344.348	473.75
344.576	467.75
344.804	472.75
345.031	470.75
345.259	441.75
345.487	440.75
345.714	438.75
345.942	422.75
346.17	439.75
346.397	423.75
346.625	422.75
346.853	427.75
347.08	405.75
347.308	414.75
347.535	432.75
347.763	434.75
347.99	440.75
348.218	419.75
348.445	408.75
348.673	449.75
348.9	403.75
349.128	430.75
349.355	407.75
349.583	400.75
349.81	402.75
350.037	415.75
350.265	422.75
350.492	415.75
350.72	406.75
350.947	417.75
351.174	418.75
351.402	437.75
351.629	433.75
351.856	422.75
352.083	422.75
352.311	427.75
352.538	398.75
352.765	418.75
352.992	430.75
353.22	414.75
353.447	406.75
353.674	405.75
353.901	399.75
354.128	416.75
354.355	403.75
354.583	403.75
354.81	413.75
355.037	386.75
355.264	405.75
355.491	400.75
355.718	414.75
355.945	375.75
356.172	400.75
356.399	403.75
356.626	397.75
356.853	398.75
357.08	393.75
357.307	407.75
357.534	405.75
357.761	389.75
357.988	413.75
358.215	406.75
358.441	414.75
358.668	382.75
358.895	398.75
359.122	398.75
359.349	413.75
359.576	409.75
359.802	439.75
360.029	421.75
360.256	429.75
360.483	452.75
360.709	406.75
360.936	415.75
361.163	434.75
361.39	405.75
361.616	385.75
361.843	387.75
362.07	387.75
362.296	414.75
362.523	421.75
362.749	395.75
362.976	394.75
363.203	414.75
363.429	407.75
363.656	408.75
363.882	401.75
364.109	385.75
364.335	401.75
364.562	406.75
364.788	399.75
365.015	400.75
365.241	391.75
365.468	387.75
365.694	381.75
365.92	393.75
366.147	392.75
366.373	392.75
366.599	382.75
366.826	394.75
367.052	405.75
367.278	383.75
367.505	388.75
367.731	377.75
367.957	385.75
368.184	381.75
368.41	411.75
368.636	393.75
368.862	420.75
369.089	427.75
369.315	397.75
369.541	419.75
369.767	382.75
369.993	387.75
370.219	384.75
370.445	394.75
370.672	382.75
370.898	393.75
371.124	395.75
371.35	398.75
371.576	381.75
371.802	395.75
372.028	387.75
372.254	412.75
372.48	403.75
372.706	420.75
372.932	385.75
373.158	392.75
373.384	400.75
373.61	408.75
373.835	413.75
374.061	411.75
374.287	401.75
374.513	393.75
374.739	425.75
374.965	414.75
375.191	403.75
375.416	420.75
375.642	414.75
375.868	411.75
376.094	392.75
376.319	409.75
376.545	401.75
376.771	398.75
376.997	374.75
377.222	378.75
377.448	375.75
377.674	374.75
377.899	373.75
378.125	394.75
378.35	382.75
378.576	390.75
378.802	400.75
379.027	387.75
379.253	399.75
379.478	401.75
379.704	375.75
379.929	391.75
380.155	386.75
380.38	378.75
380.606	389.75
380.831	400.75
381.057	404.75
381.282	381.75
381.507	385.75
381.733	405.75
381.958	390.75
382.184	391.75
382.409	397.75
382.634	393.75
382.86	394.75
383.085	388.75
383.31	415.75
383.535	413.75
383.761	387.75
383.986	414.75
384.211	406.75
384.436	407.75
384.662	398.75
384.887	416.75
385.112	434.75
385.337	419.75
385.562	409.75
385.787	438.75
386.013	434.75
386.238	428.75
386.463	412.75
386.688	427.75
386.913	419.75
387.138	432.75
387.363	406.75
387.588	415.75
387.813	430.75
388.038	436.75
388.263	433.75
388.488	433.75
388.713	443.75
388.938	426.75
389.163	426.75
389.387	432.75
389.612	419.75
389.837	424.75
390.062	426.75
390.287	435.75
390.512	425.75
390.736	425.75
390.961	417.75
391.186	418.75
391.411	439.75
391.636	446.75
391.86	433.75
392.085	435.75
392.31	429.75
392.534	439.75
392.759	448.75
392.984	440.75
393.208	441.75
393.433	431.75
393.658	436.75
393.882	409.75
394.107	431.75
394.331	421.75
394.556	419.75
394.78	443.75
395.005	426.75
395.229	433.75
395.454	441.75
395.678	434.75
395.903	451.75
396.127	458.75
396.352	429.75
396.576	461.75
396.801	447.75
397.025	428.75
397.249	442.75
397.474	447.75
397.698	462.75
397.922	468.75
398.147	466.75
398.371	475.75
398.595	472.75
398.82	481.75
399.044	485.75
399.268	515.75
399.492	542.75
399.717	586.75
399.941	600.75
400.165	625.75
400.389	598.75
400.613	573.75
400.837	514.75
401.062	517.75
401.286	495.75
401.51	477.75
401.734	494.75
401.958	507.75
402.182	503.75
402.406	482.75
402.63	471.75
402.854	497.75
403.078	489.75
403.302	497.75
403.526	498.75
403.75	513.75
403.974	485.75
404.198	486.75
404.422	496.75
404.645	489.75
404.869	547.75
405.093	535.75
405.317	569.75
405.541	590.75
405.765	552.75
405.988	525.75
406.212	522.75
406.436	515.75
406.66	538.75
406.883	528.75
407.107	565.75
407.331	620.75
407.555	632.75
407.778	609.75
408.002	586.75
408.226	539.75
408.449	552.75
408.673	574.75
408.896	552.75
409.12	574.75
409.344	566.75
409.567	509.75
409.791	517.75
410.014	503.75
410.238	484.75
410.461	495.75
410.685	490.75
410.908	499.75
411.132	526.75
411.355	535.75
411.578	522.75
411.802	490.75
412.025	485.75
412.249	533.75
412.472	520.75
412.695	550.75
412.919	553.75
413.142	485.75
413.365	492.75
413.589	470.75
413.812	472.75
414.035	471.75
414.258	476.75
414.482	457.75
414.705	481.75
414.928	458.75
415.151	457.75
415.374	462.75
415.597	463.75
415.821	457.75
416.044	464.75
416.267	475.75
416.49	472.75
416.713	455.75
416.936	444.75
417.159	466.75
417.382	467.75
417.605	454.75
417.828	458.75
418.051	483.75
418.274	484.75
418.497	459.75
418.72	470.75
418.943	455.75
419.166	499.75
419.389	518.75
419.611	501.75
419.834	488.75
420.057	486.75
420.28	479.75
420.503	491.75
420.726	475.75
420.948	489.75
421.171	519.75
421.394	540.75
421.617	501.75
421.839	475.75
422.062	471.75
422.285	473.75
422.507	503.75
422.73	563.75
422.953	535.75
423.175	490.75
423.398	460.75
423.621	509.75
423.843	518.75
424.066	515.75
424.288	500.75
424.511	515.75
424.733	580.75
424.956	605.75
425.178	587.75
425.401	575.75
425.623	591.75
425.846	511.75
426.068	490.75
426.291	503.75
426.513	447.75
426.735	511.75
426.958	542.75
427.18	574.75
427.402	668.75
427.625	723.75
427.847	608.75
428.069	546.75
428.292	499.75
428.514	477.75
428.736	446.75
428.958	459.75
429.181	452.75
429.403	469.75
429.625	474.75
429.847	475.75
430.069	521.75
430.292	511.75
430.514	460.75
430.736	431.75
430.958	419.75
431.18	435.75
431.402	434.75
431.624	415.75
431.846	431.75
432.068	434.75
432.29	428.75
432.512	433.75
432.734	443.75
432.956	413.75
433.178	438.75
433.4	449.75
433.622	439.75
433.844	427.75
434.066	440.75
434.287	426.75
434.509	436.75
434.731	445.75
434.953	443.75
435.175	465.75
435.397	468.75
435.618	478.75
435.84	507.75
436.062	578.75
436.284	633.75
436.505	557.75
436.727	485.75
436.949	445.75
437.17	438.75
437.392	451.75
437.614	467.75
437.835	484.75
438.057	567.75
438.278	611.75
438.5	610.75
438.721	654.75
438.943	633.75
439.165	529.75
439.386	479.75
439.608	482.75
439.829	467.75
440.05	489.75
440.272	517.75
440.493	474.75
440.715	470.75
440.936	451.75
441.158	460.75
441.379	460.75
441.6	493.75
441.822	477.75
442.043	524.75
442.264	580.75
442.486	592.75
442.707	520.75
442.928	511.75
443.149	489.75
443.371	503.75
443.592	555.75
443.813	602.75
444.034	646.75
444.255	547.75
444.476	517.75
444.698	519.75
444.919	492.75
445.14	628.75
445.361	537.75
445.582	506.75
445.803	539.75
446.024	651.75
446.245	619.75
446.466	574.75
446.687	502.75
446.908	442.75
447.129	455.75
447.35	451.75
447.571	440.75
447.792	419.75
448.013	433.75
448.234	471.75
448.455	492.75
448.675	571.75
448.896	638.75
449.117	574.75
449.338	537.75
449.559	623.75
449.779	656.75
450	539.75
450.221	463.75
450.442	448.75
450.662	435.75
450.883	421.75
451.104	429.75
451.324	416.75
451.545	390.75
451.766	396.75
451.986	379.75
452.207	407.75
452.428	408.75
452.648	391.75
452.869	397.75
453.089	398.75
453.31	409.75
453.53	384.75
453.751	376.75
453.971	427.75
454.192	407.75
454.412	400.75
454.633	393.75
454.853	397.75
455.073	381.75
455.294	420.75
455.514	451.75
455.734	458.75
455.955	388.75
456.175	396.75
456.395	365.75
456.616	388.75
456.836	404.75
457.056	363.75
457.276	373.75
457.497	363.75
457.717	377.75
457.937	384.75
458.157	385.75
458.377	374.75
458.598	414.75
458.818	455.75
459.038	498.75
459.258	516.75
459.478	430.75
459.698	437.75
459.918	414.75
460.138	425.75
460.358	442.75
460.578	443.75
460.798	435.75
461.018	455.75
461.238	451.75
461.458	446.75
461.678	444.75
461.898	424.75
462.118	460.75
462.338	493.75
462.558	468.75
462.777	461.75
462.997	489.75
463.217	491.75
463.437	486.75
463.657	483.75
463.876	470.75
464.096	455.75
464.316	454.75
464.536	495.75
464.755	463.75
464.975	463.75
465.195	479.75
465.414	499.75
465.634	460.75
465.854	443.75
466.073	455.75
466.293	429.75
466.512	415.75
466.732	414.75
466.951	406.75
467.171	429.75
467.391	405.75
467.61	423.75
467.829	405.75
468.049	402.75
468.268	415.75
468.488	413.75
468.707	396.75
468.927	392.75
469.146	395.75
469.365	408.75
469.585	386.75
469.804	405.75
470.023	415.75
470.243	402.75
470.462	435.75
470.681	460.75
470.901	438.75
471.12	417.75
471.339	417.75
471.558	404.75
471.777	412.75
471.997	411.75
472.216	426.75
472.435	422.75
472.654	439.75
472.873	406.75
473.092	411.75
473.311	430.75
473.53	408.75
473.749	451.75
473.968	445.75
474.187	523.75
474.406	542.75
474.625	464.75
474.844	421.75
475.063	414.75
475.282	419.75
475.501	445.75
475.72	431.75
475.939	411.75
476.158	429.75
476.377	426.75
476.596	418.75
476.814	434.75
477.033	429.75
477.252	426.75
477.471	430.75
477.69	437.75
477.908	449.75
478.127	465.75
478.346	458.75
478.564	457.75
478.783	461.75
479.002	476.75
479.22	479.75
479.439	470.75
479.658	471.75
479.876	483.75
480.095	498.75
480.313	519.75
480.532	501.75
480.751	516.75
480.969	510.75
481.188	521.75
481.406	567.75
481.624	533.75
481.843	497.75
482.061	486.75
482.28	477.75
482.498	486.75
482.717	479.75
482.935	485.75
483.153	494.75
483.372	470.75
483.59	485.75
483.808	454.75
484.027	470.75
484.245	477.75
484.463	468.75
484.681	518.75
484.9	470.75
485.118	467.75
485.336	495.75
485.554	461.75
485.772	481.75
485.99	497.75
486.209	482.75
486.427	491.75
486.645	480.75
486.863	505.75
487.081	509.75
487.299	488.75
487.517	525.75
487.735	502.75
487.953	504.75
488.171	509.75
488.389	503.75
488.607	493.75
488.825	509.75
489.043	494.75
489.261	517.75
489.479	528.75
489.696	515.75
489.914	521.75
490.132	513.75
490.35	518.75
490.568	516.75
490.786	547.75
491.003	548.75
491.221	555.75
491.439	581.75
491.657	565.75
491.874	567.75
492.092	566.75
492.31	565.75
492.527	573.75
492.745	581.75
492.963	557.75
493.18	573.75
493.398	574.75
493.615	593.75
493.833	586.75
494.05	573.75
494.268	602.75
494.485	594.75
494.703	565.75
494.92	569.75
495.138	571.75
495.355	589.75
495.573	591.75
495.79	600.75
496.008	588.75
496.225	600.75
496.442	595.75
496.66	597.75
496.877	591.75
497.094	603.75
497.312	625.75
497.529	616.75
497.746	630.75
497.963	642.75
498.181	637.75
498.398	659.75
498.615	698.75
498.832	721.75
499.049	704.75
499.267	721.75
499.484	756.75
499.701	784.75
499.918	858.75
500.135	829.75
500.352	906.75
500.569	904.75
500.786	927.75
501.003	893.75
501.22	862.75
501.437	817.75
501.654	818.75
501.871	765.75
502.088	753.75
