Data from 1964.PennyLincolnUp.Lamp.En5.5.200Scan.071719.P1._HRD10591_14-03-30-908.txt Node
Date: Thu Jul 18 14:03:30 EDT 2019
User: cochatt
Spectrometer: HR+D1059
Trigger mode: 1
Integration Time (sec): 1.000000E-1
Scans to average: 1
Electric dark correction enabled: true
Nonlinearity correction enabled: false
Boxcar width: 0
XAxis mode: Wavelengths
Number of Pixels in Spectrum: 2048
>>>>>Begin Spectral Data<<<<<
223.165	-1.25
223.4	-1.25
223.635	-1.25
223.869	-3.25
224.104	-16.25
224.338	-20.25
224.573	-25.25
224.808	-13.25
225.042	-1.25
225.277	1.75
225.511	-13.25
225.746	12.75
225.98	-5.25
226.215	6.75
226.449	11.75
226.683	25.75
226.918	13.75
227.152	26.75
227.387	41.75
227.621	33.75
227.856	49.75
228.09	47.75
228.324	49.75
228.559	55.75
228.793	71.75
229.027	97.75
229.262	96.75
229.496	105.75
229.73	105.75
229.964	126.75
230.199	132.75
230.433	121.75
230.667	105.75
230.901	109.75
231.136	102.75
231.37	107.75
231.604	120.75
231.838	100.75
232.072	112.75
232.306	110.75
232.541	110.75
232.775	117.75
233.009	119.75
233.243	121.75
233.477	118.75
233.711	108.75
233.945	108.75
234.179	118.75
234.413	108.75
234.647	108.75
234.881	98.75
235.115	124.75
235.349	105.75
235.583	111.75
235.817	106.75
236.051	123.75
236.285	114.75
236.519	109.75
236.753	102.75
236.987	124.75
237.221	149.75
237.455	165.75
237.689	134.75
237.922	114.75
238.156	113.75
238.39	125.75
238.624	107.75
238.858	117.75
239.091	109.75
239.325	113.75
239.559	123.75
239.793	127.75
240.027	125.75
240.26	123.75
240.494	129.75
240.728	117.75
240.961	131.75
241.195	140.75
241.429	123.75
241.662	127.75
241.896	133.75
242.13	125.75
242.363	131.75
242.597	131.75
242.83	132.75
243.064	131.75
243.298	126.75
243.531	129.75
243.765	134.75
243.998	133.75
244.232	126.75
244.465	132.75
244.699	148.75
244.932	140.75
245.166	147.75
245.399	133.75
245.633	142.75
245.866	140.75
246.099	141.75
246.333	143.75
246.566	143.75
246.8	146.75
247.033	138.75
247.266	154.75
247.5	156.75
247.733	139.75
247.966	151.75
248.2	151.75
248.433	152.75
248.666	155.75
248.899	158.75
249.133	181.75
249.366	159.75
249.599	181.75
249.832	162.75
250.066	169.75
250.299	176.75
250.532	182.75
250.765	200.75
250.998	202.75
251.231	207.75
251.465	180.75
251.698	187.75
251.931	177.75
252.164	179.75
252.397	167.75
252.63	188.75
252.863	206.75
253.096	203.75
253.329	198.75
253.562	210.75
253.795	204.75
254.028	191.75
254.261	202.75
254.494	193.75
254.727	227.75
254.96	235.75
255.193	223.75
255.426	225.75
255.659	203.75
255.892	190.75
256.124	201.75
256.357	204.75
256.59	202.75
256.823	192.75
257.056	211.75
257.289	187.75
257.521	182.75
257.754	203.75
257.987	202.75
258.22	205.75
258.452	206.75
258.685	206.75
258.918	210.75
259.151	195.75
259.383	216.75
259.616	207.75
259.849	193.75
260.081	212.75
260.314	221.75
260.547	205.75
260.779	225.75
261.012	211.75
261.244	209.75
261.477	197.75
261.71	213.75
261.942	214.75
262.175	214.75
262.407	216.75
262.64	194.75
262.872	213.75
263.105	198.75
263.337	198.75
263.57	203.75
263.802	209.75
264.035	204.75
264.267	220.75
264.499	203.75
264.732	216.75
264.964	210.75
265.197	197.75
265.429	220.75
265.661	219.75
265.894	224.75
266.126	202.75
266.358	201.75
266.591	206.75
266.823	216.75
267.055	213.75
267.287	241.75
267.52	224.75
267.752	217.75
267.984	212.75
268.216	219.75
268.448	232.75
268.681	238.75
268.913	231.75
269.145	231.75
269.377	226.75
269.609	232.75
269.841	249.75
270.073	233.75
270.306	260.75
270.538	278.75
270.77	270.75
271.002	261.75
271.234	268.75
271.466	271.75
271.698	290.75
271.93	250.75
272.162	259.75
272.394	292.75
272.626	263.75
272.858	265.75
273.09	268.75
273.322	274.75
273.553	250.75
273.785	250.75
274.017	245.75
274.249	261.75
274.481	232.75
274.713	247.75
274.945	265.75
275.176	243.75
275.408	254.75
275.64	263.75
275.872	267.75
276.104	244.75
276.335	261.75
276.567	260.75
276.799	264.75
277.031	283.75
277.262	281.75
277.494	283.75
277.726	283.75
277.957	291.75
278.189	267.75
278.421	248.75
278.652	244.75
278.884	272.75
279.115	276.75
279.347	250.75
279.579	273.75
279.81	280.75
280.042	265.75
280.273	251.75
280.505	275.75
280.736	262.75
280.968	255.75
281.199	270.75
281.431	248.75
281.662	251.75
281.894	289.75
282.125	281.75
282.356	296.75
282.588	283.75
282.819	280.75
283.051	281.75
283.282	272.75
283.513	270.75
283.745	269.75
283.976	278.75
284.207	279.75
284.439	299.75
284.67	281.75
284.901	284.75
285.132	284.75
285.364	293.75
285.595	303.75
285.826	298.75
286.057	291.75
286.288	279.75
286.52	277.75
286.751	283.75
286.982	283.75
287.213	276.75
287.444	305.75
287.675	290.75
287.906	313.75
288.138	300.75
288.369	302.75
288.6	298.75
288.831	306.75
289.062	312.75
289.293	313.75
289.524	297.75
289.755	292.75
289.986	292.75
290.217	300.75
290.448	284.75
290.679	294.75
290.91	296.75
291.141	313.75
291.371	306.75
291.602	291.75
291.833	281.75
292.064	299.75
292.295	291.75
292.526	299.75
292.757	296.75
292.987	307.75
293.218	309.75
293.449	298.75
293.68	330.75
293.91	296.75
294.141	297.75
294.372	284.75
294.603	274.75
294.833	293.75
295.064	294.75
295.295	315.75
295.525	295.75
295.756	306.75
295.987	299.75
296.217	307.75
296.448	307.75
296.679	299.75
296.909	313.75
297.14	319.75
297.37	302.75
297.601	301.75
297.831	306.75
298.062	307.75
298.292	310.75
298.523	297.75
298.753	309.75
298.984	318.75
299.214	313.75
299.445	314.75
299.675	319.75
299.905	305.75
300.136	334.75
300.366	319.75
300.597	309.75
300.827	325.75
301.057	322.75
301.288	333.75
301.518	333.75
301.748	322.75
301.979	341.75
302.209	327.75
302.439	331.75
302.669	359.75
302.9	337.75
303.13	360.75
303.36	338.75
303.59	341.75
303.82	340.75
304.051	327.75
304.281	348.75
304.511	338.75
304.741	332.75
304.971	315.75
305.201	310.75
305.431	338.75
305.661	341.75
305.891	328.75
306.121	339.75
306.352	337.75
306.582	327.75
306.812	331.75
307.042	347.75
307.272	341.75
307.502	330.75
307.731	317.75
307.961	342.75
308.191	341.75
308.421	344.75
308.651	347.75
308.881	345.75
309.111	337.75
309.341	355.75
309.571	351.75
309.8	347.75
310.03	373.75
310.26	327.75
310.49	353.75
310.72	373.75
310.949	357.75
311.179	369.75
311.409	355.75
311.639	358.75
311.868	366.75
312.098	390.75
312.328	361.75
312.557	363.75
312.787	361.75
313.017	357.75
313.246	371.75
313.476	387.75
313.706	375.75
313.935	372.75
314.165	357.75
314.394	382.75
314.624	381.75
314.853	369.75
315.083	374.75
315.312	365.75
315.542	354.75
315.771	350.75
316.001	350.75
316.23	371.75
316.46	371.75
316.689	356.75
316.919	373.75
317.148	363.75
317.377	382.75
317.607	391.75
317.836	369.75
318.065	375.75
318.295	363.75
318.524	374.75
318.753	361.75
318.983	353.75
319.212	373.75
319.441	356.75
319.67	359.75
319.9	361.75
320.129	375.75
320.358	386.75
320.587	381.75
320.816	385.75
321.046	380.75
321.275	386.75
321.504	375.75
321.733	370.75
321.962	389.75
322.191	402.75
322.42	391.75
322.649	383.75
322.878	399.75
323.108	405.75
323.337	394.75
323.566	417.75
323.795	428.75
324.024	453.75
324.253	498.75
324.482	659.75
324.71	960.75
324.939	1295.75
325.168	1110.75
325.397	604.75
325.626	470.75
325.855	450.75
326.084	440.75
326.313	430.75
326.542	433.75
326.77	443.75
326.999	499.75
327.228	655.75
327.457	855.75
327.686	982.75
327.914	689.75
328.143	501.75
328.372	463.75
328.6	482.75
328.829	432.75
329.058	476.75
329.287	471.75
329.515	444.75
329.744	435.75
329.972	448.75
330.201	449.75
330.43	460.75
330.658	468.75
330.887	467.75
331.115	456.75
331.344	437.75
331.572	441.75
331.801	418.75
332.03	440.75
332.258	430.75
332.486	424.75
332.715	410.75
332.943	438.75
333.172	423.75
333.4	451.75
333.629	458.75
333.857	463.75
334.085	469.75
334.314	461.75
334.542	477.75
334.771	501.75
334.999	457.75
335.227	455.75
335.455	453.75
335.684	451.75
335.912	428.75
336.14	449.75
336.369	434.75
336.597	443.75
336.825	439.75
337.053	456.75
337.281	441.75
337.51	430.75
337.738	435.75
337.966	424.75
338.194	428.75
338.422	417.75
338.65	426.75
338.878	412.75
339.106	423.75
339.334	449.75
339.562	400.75
339.79	416.75
340.018	386.75
340.246	421.75
340.474	429.75
340.702	408.75
340.93	397.75
341.158	409.75
341.386	406.75
341.614	414.75
341.842	399.75
342.07	407.75
342.298	394.75
342.526	404.75
342.754	401.75
342.981	413.75
343.209	398.75
343.437	411.75
343.665	436.75
343.893	448.75
344.12	454.75
344.348	438.75
344.576	430.75
344.804	423.75
345.031	433.75
345.259	420.75
345.487	395.75
345.714	396.75
345.942	403.75
346.17	403.75
346.397	417.75
346.625	389.75
346.853	385.75
347.08	378.75
347.308	391.75
347.535	394.75
347.763	396.75
347.99	392.75
348.218	398.75
348.445	383.75
348.673	373.75
348.9	373.75
349.128	402.75
349.355	381.75
349.583	371.75
349.81	381.75
350.037	381.75
350.265	386.75
350.492	372.75
350.72	384.75
350.947	387.75
351.174	380.75
351.402	399.75
351.629	374.75
351.856	390.75
352.083	383.75
352.311	392.75
352.538	378.75
352.765	390.75
352.992	365.75
353.22	381.75
353.447	381.75
353.674	387.75
353.901	359.75
354.128	366.75
354.355	377.75
354.583	361.75
354.81	365.75
355.037	377.75
355.264	364.75
355.491	372.75
355.718	374.75
355.945	364.75
356.172	364.75
356.399	359.75
356.626	358.75
356.853	375.75
357.08	366.75
357.307	389.75
357.534	371.75
357.761	362.75
357.988	372.75
358.215	357.75
358.441	374.75
358.668	365.75
358.895	374.75
359.122	372.75
359.349	369.75
359.576	385.75
359.802	385.75
360.029	381.75
360.256	387.75
360.483	397.75
360.709	385.75
360.936	378.75
361.163	386.75
361.39	389.75
361.616	385.75
361.843	395.75
362.07	381.75
362.296	379.75
362.523	361.75
362.749	364.75
362.976	359.75
363.203	365.75
363.429	369.75
363.656	373.75
363.882	370.75
364.109	359.75
364.335	377.75
364.562	349.75
364.788	358.75
365.015	365.75
365.241	366.75
365.468	361.75
365.694	375.75
365.92	374.75
366.147	362.75
366.373	343.75
366.599	358.75
366.826	364.75
367.052	370.75
367.278	356.75
367.505	346.75
367.731	370.75
367.957	372.75
368.184	363.75
368.41	383.75
368.636	403.75
368.862	388.75
369.089	375.75
369.315	364.75
369.541	381.75
369.767	381.75
369.993	379.75
370.219	359.75
370.445	376.75
370.672	361.75
370.898	370.75
371.124	363.75
371.35	369.75
371.576	372.75
371.802	364.75
372.028	347.75
372.254	378.75
372.48	362.75
372.706	383.75
372.932	380.75
373.158	366.75
373.384	362.75
373.61	359.75
373.835	374.75
374.061	375.75
374.287	372.75
374.513	363.75
374.739	366.75
374.965	374.75
375.191	381.75
375.416	370.75
375.642	382.75
375.868	368.75
376.094	379.75
376.319	350.75
376.545	360.75
376.771	347.75
376.997	365.75
377.222	375.75
377.448	375.75
377.674	358.75
377.899	355.75
378.125	365.75
378.35	366.75
378.576	371.75
378.802	360.75
379.027	355.75
379.253	344.75
379.478	361.75
379.704	363.75
379.929	344.75
380.155	348.75
380.38	365.75
380.606	374.75
380.831	361.75
381.057	365.75
381.282	374.75
381.507	372.75
381.733	361.75
381.958	361.75
382.184	378.75
382.409	363.75
382.634	379.75
382.86	363.75
383.085	383.75
383.31	383.75
383.535	380.75
383.761	385.75
383.986	384.75
384.211	374.75
384.436	361.75
384.662	397.75
384.887	400.75
385.112	369.75
385.337	406.75
385.562	395.75
385.787	395.75
386.013	398.75
386.238	386.75
386.463	424.75
386.688	409.75
386.913	388.75
387.138	409.75
387.363	391.75
387.588	398.75
387.813	398.75
388.038	391.75
388.263	420.75
388.488	409.75
388.713	404.75
388.938	399.75
389.163	389.75
389.387	380.75
389.612	382.75
389.837	398.75
390.062	397.75
390.287	399.75
390.512	387.75
390.736	391.75
390.961	394.75
391.186	381.75
391.411	404.75
391.636	401.75
391.86	428.75
392.085	420.75
392.31	435.75
392.534	411.75
392.759	402.75
392.984	414.75
393.208	414.75
393.433	430.75
393.658	443.75
393.882	413.75
394.107	392.75
394.331	395.75
394.556	395.75
394.78	409.75
395.005	410.75
395.229	397.75
395.454	406.75
395.678	418.75
395.903	403.75
396.127	422.75
396.352	409.75
396.576	396.75
396.801	429.75
397.025	421.75
397.249	428.75
397.474	392.75
397.698	426.75
397.922	411.75
398.147	431.75
398.371	439.75
398.595	433.75
398.82	435.75
399.044	447.75
399.268	481.75
399.492	499.75
399.717	553.75
399.941	571.75
400.165	553.75
400.389	560.75
400.613	519.75
400.837	487.75
401.062	459.75
401.286	467.75
401.51	451.75
401.734	440.75
401.958	457.75
402.182	446.75
402.406	479.75
402.63	445.75
402.854	458.75
403.078	456.75
403.302	477.75
403.526	485.75
403.75	471.75
403.974	467.75
404.198	454.75
404.422	466.75
404.645	487.75
404.869	461.75
405.093	474.75
405.317	537.75
405.541	550.75
405.765	475.75
405.988	473.75
406.212	477.75
406.436	493.75
406.66	501.75
406.883	487.75
407.107	524.75
407.331	564.75
407.555	574.75
407.778	570.75
408.002	550.75
408.226	499.75
408.449	521.75
408.673	477.75
408.896	518.75
409.12	536.75
409.344	487.75
409.567	467.75
409.791	466.75
410.014	467.75
410.238	455.75
410.461	486.75
410.685	467.75
410.908	463.75
411.132	489.75
411.355	521.75
411.578	491.75
411.802	455.75
412.025	436.75
412.249	457.75
412.472	481.75
412.695	489.75
412.919	487.75
413.142	481.75
413.365	450.75
413.589	462.75
413.812	450.75
414.035	459.75
414.258	431.75
414.482	425.75
414.705	410.75
414.928	426.75
415.151	447.75
415.374	417.75
415.597	434.75
415.821	415.75
416.044	421.75
416.267	427.75
416.49	435.75
416.713	415.75
416.936	422.75
417.159	405.75
417.382	420.75
417.605	405.75
417.828	423.75
418.051	438.75
418.274	440.75
418.497	434.75
418.72	424.75
418.943	415.75
419.166	437.75
419.389	446.75
419.611	447.75
419.834	457.75
420.057	442.75
420.28	437.75
420.503	438.75
420.726	450.75
420.948	436.75
421.171	463.75
421.394	488.75
421.617	433.75
421.839	414.75
422.062	449.75
422.285	439.75
422.507	475.75
422.73	536.75
422.953	505.75
423.175	461.75
423.398	442.75
423.621	462.75
423.843	464.75
424.066	454.75
424.288	455.75
424.511	483.75
424.733	522.75
424.956	549.75
425.178	517.75
425.401	491.75
425.623	533.75
425.846	492.75
426.068	451.75
426.291	469.75
426.513	439.75
426.735	426.75
426.958	472.75
427.18	555.75
427.402	608.75
427.625	646.75
427.847	539.75
428.069	517.75
428.292	446.75
428.514	435.75
428.736	422.75
428.958	418.75
429.181	408.75
429.403	411.75
429.625	425.75
429.847	428.75
430.069	473.75
430.292	468.75
430.514	419.75
430.736	414.75
430.958	411.75
431.18	397.75
431.402	398.75
431.624	406.75
431.846	379.75
432.068	383.75
432.29	425.75
432.512	395.75
432.734	413.75
432.956	397.75
433.178	403.75
433.4	406.75
433.622	415.75
433.844	408.75
434.066	411.75
434.287	397.75
434.509	412.75
434.731	423.75
434.953	417.75
435.175	445.75
435.397	434.75
435.618	452.75
435.84	464.75
436.062	518.75
436.284	558.75
436.505	479.75
436.727	451.75
436.949	422.75
437.17	405.75
437.392	420.75
437.614	416.75
437.835	424.75
438.057	498.75
438.278	552.75
438.5	558.75
438.721	613.75
438.943	585.75
439.165	467.75
439.386	455.75
439.608	437.75
439.829	427.75
440.05	449.75
440.272	463.75
440.493	451.75
440.715	422.75
440.936	415.75
441.158	419.75
441.379	417.75
441.6	426.75
441.822	441.75
442.043	468.75
442.264	492.75
442.486	530.75
442.707	485.75
442.928	460.75
443.149	460.75
443.371	463.75
443.592	469.75
443.813	541.75
444.034	595.75
444.255	498.75
444.476	490.75
444.698	460.75
444.919	453.75
445.14	558.75
445.361	527.75
445.582	467.75
445.803	499.75
446.024	555.75
446.245	565.75
446.466	507.75
446.687	445.75
446.908	430.75
447.129	428.75
447.35	414.75
447.571	412.75
447.792	399.75
448.013	413.75
448.234	422.75
448.455	435.75
448.675	514.75
448.896	590.75
449.117	506.75
449.338	485.75
449.559	562.75
449.779	625.75
450	485.75
450.221	420.75
450.442	395.75
450.662	380.75
450.883	389.75
451.104	395.75
451.324	387.75
451.545	382.75
451.766	380.75
451.986	369.75
452.207	365.75
452.428	356.75
452.648	364.75
452.869	341.75
453.089	370.75
453.31	381.75
453.53	355.75
453.751	348.75
453.971	341.75
454.192	356.75
454.412	367.75
454.633	366.75
454.853	374.75
455.073	344.75
455.294	372.75
455.514	406.75
455.734	396.75
455.955	338.75
456.175	366.75
456.395	358.75
456.616	347.75
456.836	350.75
457.056	342.75
457.276	353.75
457.497	375.75
457.717	356.75
457.937	357.75
458.157	362.75
458.377	362.75
458.598	371.75
458.818	400.75
459.038	430.75
459.258	481.75
459.478	385.75
459.698	401.75
459.918	412.75
460.138	399.75
460.358	413.75
460.578	412.75
460.798	393.75
461.018	429.75
461.238	412.75
461.458	423.75
461.678	422.75
461.898	418.75
462.118	396.75
462.338	457.75
462.558	437.75
462.777	435.75
462.997	455.75
463.217	487.75
463.437	473.75
463.657	469.75
463.876	473.75
464.096	471.75
464.316	447.75
464.536	458.75
464.755	451.75
464.975	404.75
465.195	448.75
465.414	473.75
465.634	432.75
465.854	402.75
466.073	398.75
466.293	406.75
466.512	393.75
466.732	376.75
466.951	369.75
467.171	388.75
467.391	377.75
467.61	377.75
467.829	378.75
468.049	373.75
468.268	378.75
468.488	373.75
468.707	367.75
468.927	375.75
469.146	365.75
469.365	403.75
469.585	379.75
469.804	374.75
470.023	387.75
470.243	373.75
470.462	377.75
470.681	385.75
470.901	394.75
471.12	388.75
471.339	393.75
471.558	378.75
471.777	375.75
471.997	379.75
472.216	401.75
472.435	392.75
472.654	384.75
472.873	388.75
473.092	381.75
473.311	378.75
473.53	381.75
473.749	400.75
473.968	414.75
474.187	473.75
474.406	457.75
474.625	413.75
474.844	387.75
475.063	384.75
475.282	383.75
475.501	385.75
475.72	381.75
475.939	390.75
476.158	369.75
476.377	365.75
476.596	379.75
476.814	382.75
477.033	404.75
477.252	403.75
477.471	418.75
477.69	377.75
477.908	406.75
478.127	410.75
478.346	399.75
478.564	437.75
478.783	435.75
479.002	430.75
479.22	451.75
479.439	451.75
479.658	458.75
479.876	464.75
480.095	461.75
480.313	470.75
480.532	476.75
480.751	457.75
480.969	463.75
481.188	510.75
481.406	476.75
481.624	468.75
481.843	434.75
482.061	439.75
482.28	421.75
482.498	439.75
482.717	445.75
482.935	431.75
483.153	415.75
483.372	427.75
483.59	426.75
483.808	430.75
484.027	433.75
484.245	439.75
484.463	451.75
484.681	458.75
484.9	425.75
485.118	465.75
485.336	450.75
485.554	457.75
485.772	440.75
485.99	444.75
486.209	462.75
486.427	478.75
486.645	461.75
486.863	471.75
487.081	469.75
487.299	458.75
487.517	447.75
487.735	460.75
487.953	476.75
488.171	469.75
488.389	448.75
488.607	459.75
488.825	463.75
489.043	466.75
489.261	477.75
489.479	464.75
489.696	473.75
489.914	492.75
490.132	472.75
490.35	486.75
490.568	460.75
490.786	496.75
491.003	479.75
491.221	494.75
491.439	478.75
491.657	511.75
491.874	524.75
492.092	518.75
492.31	515.75
492.527	505.75
492.745	499.75
492.963	512.75
493.18	522.75
493.398	513.75
493.615	517.75
493.833	514.75
494.05	522.75
494.268	533.75
494.485	529.75
494.703	530.75
494.92	527.75
495.138	524.75
495.355	529.75
495.573	523.75
495.79	542.75
496.008	533.75
496.225	535.75
496.442	533.75
496.66	516.75
496.877	537.75
497.094	542.75
497.312	548.75
497.529	547.75
497.746	582.75
497.963	583.75
498.181	589.75
498.398	590.75
498.615	620.75
498.832	627.75
499.049	628.75
499.267	678.75
499.484	693.75
499.701	728.75
499.918	757.75
500.135	787.75
500.352	809.75
500.569	855.75
500.786	878.75
501.003	837.75
501.22	820.75
501.437	772.75
501.654	733.75
501.871	699.75
502.088	689.75
