Data from 1964.PennyLincolnUp.Lamp.En5.5.200Scan.071719.P1._HRD10591_14-03-23-908.txt Node
Date: Thu Jul 18 14:03:23 EDT 2019
User: cochatt
Spectrometer: HR+D1059
Trigger mode: 1
Integration Time (sec): 1.000000E-1
Scans to average: 1
Electric dark correction enabled: true
Nonlinearity correction enabled: false
Boxcar width: 0
XAxis mode: Wavelengths
Number of Pixels in Spectrum: 2048
>>>>>Begin Spectral Data<<<<<
223.165	-18.69
223.4	-18.69
223.635	-18.69
223.869	-8.69
224.104	-15.69
224.338	-15.69
224.573	1.31
224.808	-6.69
225.042	-10.69
225.277	-12.69
225.511	-5.69
225.746	-8.69
225.98	1.31
226.215	4.31
226.449	12.31
226.683	28.31
226.918	21.31
227.152	34.31
227.387	26.31
227.621	38.31
227.856	43.31
228.09	34.31
228.324	55.31
228.559	58.31
228.793	57.31
229.027	73.31
229.262	94.31
229.496	101.31
229.73	125.31
229.964	122.31
230.199	91.31
230.433	105.31
230.667	100.31
230.901	96.31
231.136	122.31
231.37	102.31
231.604	109.31
231.838	101.31
232.072	96.31
232.306	111.31
232.541	103.31
232.775	116.31
233.009	100.31
233.243	102.31
233.477	110.31
233.711	98.31
233.945	90.31
234.179	101.31
234.413	98.31
234.647	118.31
234.881	117.31
235.115	112.31
235.349	95.31
235.583	92.31
235.817	88.31
236.051	123.31
236.285	114.31
236.519	108.31
236.753	107.31
236.987	133.31
237.221	146.31
237.455	163.31
237.689	137.31
237.922	117.31
238.156	103.31
238.39	118.31
238.624	112.31
238.858	102.31
239.091	113.31
239.325	100.31
239.559	96.31
239.793	110.31
240.027	114.31
240.26	127.31
240.494	127.31
240.728	128.31
240.961	121.31
241.195	120.31
241.429	136.31
241.662	124.31
241.896	122.31
242.13	122.31
242.363	108.31
242.597	122.31
242.83	126.31
243.064	120.31
243.298	118.31
243.531	114.31
243.765	140.31
243.998	120.31
244.232	123.31
244.465	149.31
244.699	118.31
244.932	127.31
245.166	134.31
245.399	143.31
245.633	147.31
245.866	147.31
246.099	143.31
246.333	136.31
246.566	146.31
246.8	136.31
247.033	150.31
247.266	132.31
247.5	130.31
247.733	153.31
247.966	146.31
248.2	162.31
248.433	151.31
248.666	152.31
248.899	161.31
249.133	164.31
249.366	164.31
249.599	175.31
249.832	170.31
250.066	156.31
250.299	147.31
250.532	171.31
250.765	164.31
250.998	182.31
251.231	167.31
251.465	172.31
251.698	172.31
251.931	170.31
252.164	175.31
252.397	174.31
252.63	182.31
252.863	180.31
253.096	195.31
253.329	199.31
253.562	195.31
253.795	191.31
254.028	188.31
254.261	191.31
254.494	196.31
254.727	207.31
254.96	224.31
255.193	210.31
255.426	217.31
255.659	203.31
255.892	185.31
256.124	210.31
256.357	195.31
256.59	180.31
256.823	195.31
257.056	174.31
257.289	188.31
257.521	188.31
257.754	193.31
257.987	195.31
258.22	187.31
258.452	187.31
258.685	176.31
258.918	202.31
259.151	185.31
259.383	195.31
259.616	182.31
259.849	198.31
260.081	203.31
260.314	223.31
260.547	203.31
260.779	217.31
261.012	208.31
261.244	219.31
261.477	211.31
261.71	199.31
261.942	200.31
262.175	202.31
262.407	214.31
262.64	201.31
262.872	205.31
263.105	206.31
263.337	187.31
263.57	201.31
263.802	200.31
264.035	202.31
264.267	192.31
264.499	208.31
264.732	213.31
264.964	197.31
265.197	199.31
265.429	217.31
265.661	210.31
265.894	193.31
266.126	209.31
266.358	224.31
266.591	225.31
266.823	223.31
267.055	220.31
267.287	211.31
267.52	215.31
267.752	214.31
267.984	213.31
268.216	215.31
268.448	216.31
268.681	229.31
268.913	222.31
269.145	222.31
269.377	241.31
269.609	244.31
269.841	231.31
270.073	244.31
270.306	243.31
270.538	260.31
270.77	263.31
271.002	265.31
271.234	253.31
271.466	246.31
271.698	267.31
271.93	276.31
272.162	262.31
272.394	269.31
272.626	273.31
272.858	256.31
273.09	242.31
273.322	260.31
273.553	231.31
273.785	246.31
274.017	241.31
274.249	243.31
274.481	236.31
274.713	246.31
274.945	240.31
275.176	251.31
275.408	240.31
275.64	255.31
275.872	249.31
276.104	254.31
276.335	234.31
276.567	255.31
276.799	249.31
277.031	279.31
277.262	257.31
277.494	297.31
277.726	283.31
277.957	266.31
278.189	261.31
278.421	264.31
278.652	264.31
278.884	251.31
279.115	246.31
279.347	258.31
279.579	290.31
279.81	279.31
280.042	274.31
280.273	279.31
280.505	286.31
280.736	284.31
280.968	246.31
281.199	274.31
281.431	256.31
281.662	262.31
281.894	252.31
282.125	256.31
282.356	270.31
282.588	271.31
282.819	295.31
283.051	266.31
283.282	262.31
283.513	280.31
283.745	271.31
283.976	280.31
284.207	274.31
284.439	279.31
284.67	272.31
284.901	262.31
285.132	274.31
285.364	292.31
285.595	292.31
285.826	261.31
286.057	289.31
286.288	290.31
286.52	265.31
286.751	259.31
286.982	284.31
287.213	290.31
287.444	273.31
287.675	304.31
287.906	289.31
288.138	282.31
288.369	284.31
288.6	299.31
288.831	291.31
289.062	296.31
289.293	313.31
289.524	296.31
289.755	288.31
289.986	281.31
290.217	294.31
290.448	276.31
290.679	271.31
290.91	270.31
291.141	283.31
291.371	300.31
291.602	284.31
291.833	268.31
292.064	274.31
292.295	287.31
292.526	304.31
292.757	286.31
292.987	282.31
293.218	284.31
293.449	311.31
293.68	286.31
293.91	294.31
294.141	328.31
294.372	294.31
294.603	302.31
294.833	303.31
295.064	281.31
295.295	285.31
295.525	284.31
295.756	290.31
295.987	294.31
296.217	311.31
296.448	304.31
296.679	302.31
296.909	290.31
297.14	299.31
297.37	288.31
297.601	293.31
297.831	283.31
298.062	297.31
298.292	311.31
298.523	305.31
298.753	302.31
298.984	315.31
299.214	308.31
299.445	327.31
299.675	317.31
299.905	300.31
300.136	315.31
300.366	299.31
300.597	305.31
300.827	326.31
301.057	325.31
301.288	326.31
301.518	320.31
301.748	311.31
301.979	319.31
302.209	315.31
302.439	304.31
302.669	325.31
302.9	324.31
303.13	332.31
303.36	322.31
303.59	337.31
303.82	321.31
304.051	322.31
304.281	336.31
304.511	314.31
304.741	323.31
304.971	327.31
305.201	330.31
305.431	320.31
305.661	320.31
305.891	313.31
306.121	329.31
306.352	327.31
306.582	319.31
306.812	332.31
307.042	327.31
307.272	310.31
307.502	306.31
307.731	329.31
307.961	332.31
308.191	329.31
308.421	324.31
308.651	327.31
308.881	319.31
309.111	336.31
309.341	318.31
309.571	320.31
309.8	340.31
310.03	346.31
310.26	346.31
310.49	347.31
310.72	342.31
310.949	351.31
311.179	339.31
311.409	342.31
311.639	342.31
311.868	358.31
312.098	347.31
312.328	361.31
312.557	362.31
312.787	360.31
313.017	368.31
313.246	346.31
313.476	343.31
313.706	343.31
313.935	351.31
314.165	354.31
314.394	363.31
314.624	370.31
314.853	342.31
315.083	366.31
315.312	373.31
315.542	361.31
315.771	349.31
316.001	342.31
316.23	336.31
316.46	356.31
316.689	356.31
316.919	354.31
317.148	351.31
317.377	372.31
317.607	354.31
317.836	355.31
318.065	359.31
318.295	355.31
318.524	377.31
318.753	380.31
318.983	353.31
319.212	353.31
319.441	366.31
319.67	362.31
319.9	356.31
320.129	357.31
320.358	350.31
320.587	355.31
320.816	352.31
321.046	355.31
321.275	344.31
321.504	366.31
321.733	363.31
321.962	369.31
322.191	370.31
322.42	390.31
322.649	392.31
322.878	376.31
323.108	398.31
323.337	415.31
323.566	394.31
323.795	437.31
324.024	441.31
324.253	507.31
324.482	692.31
324.71	999.31
324.939	1393.31
325.168	1202.31
325.397	629.31
325.626	478.31
325.855	420.31
326.084	418.31
326.313	416.31
326.542	416.31
326.77	445.31
326.999	505.31
327.228	639.31
327.457	918.31
327.686	1054.31
327.914	708.31
328.143	510.31
328.372	464.31
328.6	440.31
328.829	423.31
329.058	417.31
329.287	438.31
329.515	430.31
329.744	423.31
329.972	410.31
330.201	418.31
330.43	455.31
330.658	438.31
330.887	471.31
331.115	463.31
331.344	442.31
331.572	423.31
331.801	432.31
332.03	434.31
332.258	425.31
332.486	412.31
332.715	421.31
332.943	409.31
333.172	430.31
333.4	431.31
333.629	421.31
333.857	443.31
334.085	446.31
334.314	466.31
334.542	486.31
334.771	465.31
334.999	464.31
335.227	432.31
335.455	427.31
335.684	433.31
335.912	446.31
336.14	425.31
336.369	422.31
336.597	439.31
336.825	415.31
337.053	422.31
337.281	422.31
337.51	395.31
337.738	414.31
337.966	412.31
338.194	408.31
338.422	426.31
338.65	420.31
338.878	400.31
339.106	421.31
339.334	412.31
339.562	394.31
339.79	396.31
340.018	408.31
340.246	411.31
340.474	403.31
340.702	391.31
340.93	394.31
341.158	404.31
341.386	378.31
341.614	405.31
341.842	398.31
342.07	397.31
342.298	394.31
342.526	378.31
342.754	393.31
342.981	384.31
343.209	395.31
343.437	414.31
343.665	404.31
343.893	400.31
344.12	417.31
344.348	414.31
344.576	410.31
344.804	399.31
345.031	378.31
345.259	400.31
345.487	402.31
345.714	389.31
345.942	404.31
346.17	386.31
346.397	370.31
346.625	368.31
346.853	376.31
347.08	371.31
347.308	386.31
347.535	392.31
347.763	377.31
347.99	356.31
348.218	370.31
348.445	382.31
348.673	359.31
348.9	350.31
349.128	371.31
349.355	358.31
349.583	370.31
349.81	364.31
350.037	366.31
350.265	363.31
350.492	366.31
350.72	368.31
350.947	384.31
351.174	374.31
351.402	374.31
351.629	366.31
351.856	371.31
352.083	371.31
352.311	381.31
352.538	378.31
352.765	378.31
352.992	362.31
353.22	375.31
353.447	372.31
353.674	360.31
353.901	352.31
354.128	342.31
354.355	343.31
354.583	357.31
354.81	368.31
355.037	354.31
355.264	366.31
355.491	350.31
355.718	371.31
355.945	356.31
356.172	354.31
356.399	361.31
356.626	354.31
356.853	351.31
357.08	328.31
357.307	346.31
357.534	347.31
357.761	339.31
357.988	374.31
358.215	348.31
358.441	361.31
358.668	363.31
358.895	354.31
359.122	361.31
359.349	379.31
359.576	370.31
359.802	389.31
360.029	394.31
360.256	380.31
360.483	375.31
360.709	360.31
360.936	366.31
361.163	348.31
361.39	359.31
361.616	363.31
361.843	361.31
362.07	368.31
362.296	374.31
362.523	369.31
362.749	355.31
362.976	362.31
363.203	353.31
363.429	336.31
363.656	375.31
363.882	362.31
364.109	359.31
364.335	345.31
364.562	332.31
364.788	330.31
365.015	356.31
365.241	355.31
365.468	369.31
365.694	356.31
365.92	360.31
366.147	343.31
366.373	347.31
366.599	334.31
366.826	327.31
367.052	337.31
367.278	348.31
367.505	354.31
367.731	364.31
367.957	350.31
368.184	340.31
368.41	347.31
368.636	368.31
368.862	358.31
369.089	355.31
369.315	368.31
369.541	340.31
369.767	362.31
369.993	364.31
370.219	368.31
370.445	358.31
370.672	343.31
370.898	350.31
371.124	348.31
371.35	353.31
371.576	375.31
371.802	356.31
372.028	366.31
372.254	354.31
372.48	344.31
372.706	359.31
372.932	370.31
373.158	363.31
373.384	352.31
373.61	355.31
373.835	362.31
374.061	367.31
374.287	368.31
374.513	378.31
374.739	358.31
374.965	384.31
375.191	361.31
375.416	382.31
375.642	364.31
375.868	360.31
376.094	355.31
376.319	359.31
376.545	342.31
376.771	356.31
376.997	368.31
377.222	353.31
377.448	357.31
377.674	332.31
377.899	338.31
378.125	347.31
378.35	356.31
378.576	361.31
378.802	354.31
379.027	351.31
379.253	364.31
379.478	357.31
379.704	343.31
379.929	352.31
380.155	374.31
380.38	364.31
380.606	372.31
380.831	344.31
381.057	348.31
381.282	359.31
381.507	347.31
381.733	348.31
381.958	371.31
382.184	367.31
382.409	366.31
382.634	366.31
382.86	372.31
383.085	368.31
383.31	391.31
383.535	387.31
383.761	389.31
383.986	360.31
384.211	374.31
384.436	378.31
384.662	372.31
384.887	380.31
385.112	379.31
385.337	375.31
385.562	405.31
385.787	390.31
386.013	401.31
386.238	384.31
386.463	404.31
386.688	378.31
386.913	377.31
387.138	387.31
387.363	397.31
387.588	398.31
387.813	379.31
388.038	393.31
388.263	385.31
388.488	410.31
388.713	394.31
388.938	386.31
389.163	386.31
389.387	367.31
389.612	399.31
389.837	372.31
390.062	396.31
390.287	386.31
390.512	383.31
390.736	369.31
390.961	390.31
391.186	382.31
391.411	400.31
391.636	402.31
391.86	409.31
392.085	390.31
392.31	394.31
392.534	411.31
392.759	418.31
392.984	427.31
393.208	422.31
393.433	475.31
393.658	472.31
393.882	411.31
394.107	387.31
394.331	390.31
394.556	368.31
394.78	403.31
395.005	394.31
395.229	383.31
395.454	413.31
395.678	388.31
395.903	426.31
396.127	422.31
396.352	425.31
396.576	410.31
396.801	424.31
397.025	444.31
397.249	420.31
397.474	415.31
397.698	447.31
397.922	414.31
398.147	426.31
398.371	427.31
398.595	426.31
398.82	447.31
399.044	464.31
399.268	466.31
399.492	510.31
399.717	533.31
399.941	521.31
400.165	555.31
400.389	524.31
400.613	472.31
400.837	475.31
401.062	455.31
401.286	420.31
401.51	443.31
401.734	442.31
401.958	448.31
402.182	429.31
402.406	435.31
402.63	450.31
402.854	428.31
403.078	445.31
403.302	447.31
403.526	450.31
403.75	479.31
403.974	447.31
404.198	450.31
404.422	458.31
404.645	447.31
404.869	473.31
405.093	473.31
405.317	481.31
405.541	517.31
405.765	479.31
405.988	466.31
406.212	478.31
406.436	471.31
406.66	484.31
406.883	486.31
407.107	487.31
407.331	496.31
407.555	575.31
407.778	562.31
408.002	494.31
408.226	478.31
408.449	490.31
408.673	468.31
408.896	511.31
409.12	526.31
409.344	486.31
409.567	462.31
409.791	439.31
410.014	450.31
410.238	454.31
410.461	444.31
410.685	459.31
410.908	461.31
411.132	469.31
411.355	487.31
411.578	478.31
411.802	446.31
412.025	443.31
412.249	450.31
412.472	449.31
412.695	498.31
412.919	489.31
413.142	444.31
413.365	432.31
413.589	439.31
413.812	442.31
414.035	417.31
414.258	430.31
414.482	419.31
414.705	409.31
414.928	423.31
415.151	423.31
415.374	401.31
415.597	424.31
415.821	407.31
416.044	419.31
416.267	404.31
416.49	431.31
416.713	404.31
416.936	424.31
417.159	420.31
417.382	430.31
417.605	425.31
417.828	424.31
418.051	428.31
418.274	420.31
418.497	419.31
418.72	412.31
418.943	408.31
419.166	414.31
419.389	479.31
419.611	454.31
419.834	450.31
420.057	422.31
420.28	432.31
420.503	423.31
420.726	422.31
420.948	427.31
421.171	462.31
421.394	481.31
421.617	420.31
421.839	423.31
422.062	427.31
422.285	419.31
422.507	458.31
422.73	518.31
422.953	503.31
423.175	454.31
423.398	459.31
423.621	431.31
423.843	437.31
424.066	438.31
424.288	459.31
424.511	436.31
424.733	480.31
424.956	554.31
425.178	517.31
425.401	505.31
425.623	555.31
425.846	430.31
426.068	432.31
426.291	429.31
426.513	438.31
426.735	423.31
426.958	448.31
427.18	491.31
427.402	600.31
427.625	634.31
427.847	542.31
428.069	476.31
428.292	422.31
428.514	419.31
428.736	419.31
428.958	411.31
429.181	403.31
429.403	396.31
429.625	386.31
429.847	428.31
430.069	455.31
430.292	446.31
430.514	394.31
430.736	406.31
430.958	405.31
431.18	415.31
431.402	395.31
431.624	404.31
431.846	405.31
432.068	398.31
432.29	386.31
432.512	396.31
432.734	412.31
432.956	388.31
433.178	413.31
433.4	396.31
433.622	400.31
433.844	394.31
434.066	378.31
434.287	394.31
434.509	410.31
434.731	425.31
434.953	418.31
435.175	416.31
435.397	439.31
435.618	426.31
435.84	454.31
436.062	523.31
436.284	546.31
436.505	452.31
436.727	424.31
436.949	425.31
437.17	421.31
437.392	397.31
437.614	401.31
437.835	423.31
438.057	457.31
438.278	549.31
438.5	534.31
438.721	612.31
438.943	548.31
439.165	446.31
439.386	424.31
439.608	415.31
439.829	446.31
440.05	459.31
440.272	459.31
440.493	447.31
440.715	403.31
440.936	402.31
441.158	401.31
441.379	389.31
441.6	438.31
441.822	440.31
442.043	446.31
442.264	502.31
442.486	524.31
442.707	454.31
442.928	441.31
443.149	439.31
443.371	448.31
443.592	477.31
443.813	534.31
444.034	579.31
444.255	484.31
444.476	451.31
444.698	458.31
444.919	438.31
445.14	562.31
445.361	508.31
445.582	470.31
445.803	487.31
446.024	567.31
446.245	530.31
446.466	506.31
446.687	466.31
446.908	426.31
447.129	406.31
447.35	397.31
447.571	395.31
447.792	383.31
448.013	387.31
448.234	409.31
448.455	432.31
448.675	514.31
448.896	583.31
449.117	484.31
449.338	468.31
449.559	551.31
449.779	614.31
450	480.31
450.221	412.31
450.442	377.31
450.662	386.31
450.883	400.31
451.104	395.31
451.324	368.31
451.545	378.31
451.766	370.31
451.986	359.31
452.207	353.31
452.428	342.31
452.648	355.31
452.869	346.31
453.089	369.31
453.31	374.31
453.53	363.31
453.751	352.31
453.971	344.31
454.192	351.31
454.412	349.31
454.633	347.31
454.853	338.31
455.073	347.31
455.294	362.31
455.514	385.31
455.734	378.31
455.955	335.31
456.175	343.31
456.395	349.31
456.616	335.31
456.836	337.31
457.056	330.31
457.276	336.31
457.497	339.31
457.717	321.31
457.937	358.31
458.157	355.31
458.377	350.31
458.598	388.31
458.818	404.31
459.038	424.31
459.258	428.31
459.478	408.31
459.698	395.31
459.918	383.31
460.138	377.31
460.358	400.31
460.578	414.31
460.798	424.31
461.018	401.31
461.238	388.31
461.458	397.31
461.678	394.31
461.898	398.31
462.118	416.31
462.338	444.31
462.558	431.31
462.777	412.31
462.997	440.31
463.217	457.31
463.437	461.31
463.657	447.31
463.876	442.31
464.096	450.31
464.316	440.31
464.536	439.31
464.755	434.31
464.975	433.31
465.195	425.31
465.414	450.31
465.634	430.31
465.854	419.31
466.073	384.31
466.293	385.31
466.512	390.31
466.732	376.31
466.951	382.31
467.171	356.31
467.391	380.31
467.61	386.31
467.829	386.31
468.049	374.31
468.268	391.31
468.488	369.31
468.707	344.31
468.927	380.31
469.146	344.31
469.365	350.31
469.585	373.31
469.804	376.31
470.023	379.31
470.243	354.31
470.462	390.31
470.681	370.31
470.901	387.31
471.12	394.31
471.339	387.31
471.558	388.31
471.777	359.31
471.997	375.31
472.216	377.31
472.435	393.31
472.654	386.31
472.873	370.31
473.092	384.31
473.311	387.31
473.53	376.31
473.749	382.31
473.968	408.31
474.187	459.31
474.406	447.31
474.625	393.31
474.844	385.31
475.063	367.31
475.282	398.31
475.501	380.31
475.72	367.31
475.939	376.31
476.158	383.31
476.377	366.31
476.596	391.31
476.814	388.31
477.033	388.31
477.252	379.31
477.471	391.31
477.69	394.31
477.908	402.31
478.127	396.31
478.346	424.31
478.564	416.31
478.783	415.31
479.002	422.31
479.22	432.31
479.439	442.31
479.658	452.31
479.876	437.31
480.095	432.31
480.313	439.31
480.532	473.31
480.751	454.31
480.969	438.31
481.188	479.31
481.406	488.31
481.624	476.31
481.843	445.31
482.061	438.31
482.28	416.31
482.498	454.31
482.717	433.31
482.935	423.31
483.153	442.31
483.372	423.31
483.59	438.31
483.808	434.31
484.027	428.31
484.245	436.31
484.463	435.31
484.681	437.31
484.9	444.31
485.118	454.31
485.336	441.31
485.554	434.31
485.772	448.31
485.99	456.31
486.209	456.31
486.427	461.31
486.645	438.31
486.863	443.31
487.081	435.31
487.299	472.31
487.517	463.31
487.735	466.31
487.953	439.31
488.171	455.31
488.389	458.31
488.607	457.31
488.825	439.31
489.043	468.31
489.261	450.31
489.479	454.31
489.696	474.31
489.914	462.31
490.132	472.31
490.35	460.31
490.568	488.31
490.786	470.31
491.003	481.31
491.221	483.31
491.439	506.31
491.657	510.31
491.874	487.31
492.092	496.31
492.31	506.31
492.527	481.31
492.745	504.31
492.963	481.31
493.18	512.31
493.398	513.31
493.615	483.31
493.833	510.31
494.05	516.31
494.268	524.31
494.485	509.31
494.703	500.31
494.92	514.31
495.138	504.31
495.355	490.31
495.573	530.31
495.79	533.31
496.008	515.31
496.225	518.31
496.442	506.31
496.66	529.31
496.877	528.31
497.094	530.31
497.312	531.31
497.529	529.31
497.746	550.31
497.963	556.31
498.181	562.31
498.398	574.31
498.615	579.31
498.832	604.31
499.049	653.31
499.267	659.31
499.484	699.31
499.701	702.31
499.918	742.31
500.135	792.31
500.352	820.31
500.569	875.31
500.786	869.31
501.003	804.31
501.22	808.31
501.437	746.31
501.654	694.31
501.871	696.31
502.088	666.31
