Data from 1964.PennyLincolnUp.Lamp.En5.5.200Scan.071719.P1._HRD10591_14-04-37-909.txt Node
Date: Thu Jul 18 14:04:37 EDT 2019
User: cochatt
Spectrometer: HR+D1059
Trigger mode: 1
Integration Time (sec): 1.000000E-1
Scans to average: 1
Electric dark correction enabled: true
Nonlinearity correction enabled: false
Boxcar width: 0
XAxis mode: Wavelengths
Number of Pixels in Spectrum: 2048
>>>>>Begin Spectral Data<<<<<
223.165	-25.44
223.4	-25.44
223.635	-25.44
223.869	-22.44
224.104	-18.44
224.338	-25.44
224.573	-8.44
224.808	-10.44
225.042	-7.44
225.277	-8.44
225.511	11.56
225.746	7.56
225.98	13.56
226.215	10.56
226.449	7.56
226.683	12.56
226.918	33.56
227.152	29.56
227.387	22.56
227.621	19.56
227.856	28.56
228.09	46.56
228.324	47.56
228.559	44.56
228.793	72.56
229.027	102.56
229.262	119.56
229.496	106.56
229.73	105.56
229.964	128.56
230.199	116.56
230.433	103.56
230.667	105.56
230.901	112.56
231.136	95.56
231.37	118.56
231.604	124.56
231.838	117.56
232.072	95.56
232.306	103.56
232.541	95.56
232.775	113.56
233.009	116.56
233.243	121.56
233.477	119.56
233.711	124.56
233.945	125.56
234.179	111.56
234.413	125.56
234.647	102.56
234.881	116.56
235.115	115.56
235.349	114.56
235.583	121.56
235.817	125.56
236.051	124.56
236.285	129.56
236.519	102.56
236.753	107.56
236.987	133.56
237.221	152.56
237.455	191.56
237.689	157.56
237.922	130.56
238.156	124.56
238.39	131.56
238.624	124.56
238.858	125.56
239.091	124.56
239.325	114.56
239.559	134.56
239.793	125.56
240.027	126.56
240.26	147.56
240.494	134.56
240.728	150.56
240.961	141.56
241.195	146.56
241.429	128.56
241.662	136.56
241.896	140.56
242.13	127.56
242.363	134.56
242.597	136.56
242.83	142.56
243.064	135.56
243.298	146.56
243.531	140.56
243.765	151.56
243.998	121.56
244.232	133.56
244.465	143.56
244.699	144.56
244.932	129.56
245.166	142.56
245.399	130.56
245.633	146.56
245.866	152.56
246.099	138.56
246.333	148.56
246.566	147.56
246.8	140.56
247.033	162.56
247.266	148.56
247.5	172.56
247.733	174.56
247.966	164.56
248.2	161.56
248.433	174.56
248.666	182.56
248.899	188.56
249.133	173.56
249.366	184.56
249.599	203.56
249.832	177.56
250.066	183.56
250.299	175.56
250.532	191.56
250.765	206.56
250.998	215.56
251.231	203.56
251.465	219.56
251.698	190.56
251.931	184.56
252.164	187.56
252.397	191.56
252.63	204.56
252.863	205.56
253.096	220.56
253.329	210.56
253.562	214.56
253.795	213.56
254.028	216.56
254.261	201.56
254.494	199.56
254.727	242.56
254.96	245.56
255.193	246.56
255.426	222.56
255.659	224.56
255.892	244.56
256.124	227.56
256.357	234.56
256.59	210.56
256.823	213.56
257.056	206.56
257.289	197.56
257.521	204.56
257.754	206.56
257.987	208.56
258.22	197.56
258.452	201.56
258.685	200.56
258.918	208.56
259.151	208.56
259.383	223.56
259.616	235.56
259.849	230.56
260.081	246.56
260.314	254.56
260.547	252.56
260.779	259.56
261.012	227.56
261.244	230.56
261.477	223.56
261.71	215.56
261.942	221.56
262.175	240.56
262.407	223.56
262.64	225.56
262.872	216.56
263.105	207.56
263.337	224.56
263.57	224.56
263.802	218.56
264.035	228.56
264.267	216.56
264.499	227.56
264.732	233.56
264.964	219.56
265.197	236.56
265.429	228.56
265.661	223.56
265.894	216.56
266.126	235.56
266.358	218.56
266.591	233.56
266.823	228.56
267.055	240.56
267.287	235.56
267.52	238.56
267.752	244.56
267.984	233.56
268.216	232.56
268.448	239.56
268.681	244.56
268.913	262.56
269.145	259.56
269.377	272.56
269.609	274.56
269.841	272.56
270.073	287.56
270.306	309.56
270.538	309.56
270.77	314.56
271.002	294.56
271.234	290.56
271.466	302.56
271.698	301.56
271.93	305.56
272.162	328.56
272.394	305.56
272.626	300.56
272.858	298.56
273.09	272.56
273.322	264.56
273.553	271.56
273.785	283.56
274.017	269.56
274.249	291.56
274.481	285.56
274.713	268.56
274.945	280.56
275.176	267.56
275.408	284.56
275.64	282.56
275.872	282.56
276.104	286.56
276.335	294.56
276.567	292.56
276.799	300.56
277.031	310.56
277.262	322.56
277.494	305.56
277.726	295.56
277.957	303.56
278.189	266.56
278.421	295.56
278.652	282.56
278.884	286.56
279.115	283.56
279.347	309.56
279.579	274.56
279.81	294.56
280.042	295.56
280.273	291.56
280.505	290.56
280.736	290.56
280.968	299.56
281.199	312.56
281.431	276.56
281.662	302.56
281.894	290.56
282.125	272.56
282.356	298.56
282.588	310.56
282.819	312.56
283.051	291.56
283.282	308.56
283.513	314.56
283.745	316.56
283.976	314.56
284.207	304.56
284.439	315.56
284.67	300.56
284.901	311.56
285.132	298.56
285.364	294.56
285.595	310.56
285.826	319.56
286.057	292.56
286.288	327.56
286.52	299.56
286.751	295.56
286.982	329.56
287.213	321.56
287.444	312.56
287.675	326.56
287.906	310.56
288.138	324.56
288.369	341.56
288.6	316.56
288.831	314.56
289.062	302.56
289.293	312.56
289.524	324.56
289.755	317.56
289.986	297.56
290.217	298.56
290.448	314.56
290.679	322.56
290.91	311.56
291.141	320.56
291.371	325.56
291.602	310.56
291.833	295.56
292.064	313.56
292.295	318.56
292.526	323.56
292.757	304.56
292.987	346.56
293.218	312.56
293.449	311.56
293.68	306.56
293.91	306.56
294.141	334.56
294.372	327.56
294.603	318.56
294.833	326.56
295.064	337.56
295.295	306.56
295.525	326.56
295.756	345.56
295.987	337.56
296.217	351.56
296.448	355.56
296.679	339.56
296.909	329.56
297.14	317.56
297.37	337.56
297.601	331.56
297.831	317.56
298.062	342.56
298.292	344.56
298.523	345.56
298.753	334.56
298.984	344.56
299.214	346.56
299.445	355.56
299.675	351.56
299.905	334.56
300.136	345.56
300.366	347.56
300.597	351.56
300.827	365.56
301.057	351.56
301.288	358.56
301.518	365.56
301.748	360.56
301.979	348.56
302.209	382.56
302.439	347.56
302.669	374.56
302.9	371.56
303.13	362.56
303.36	370.56
303.59	363.56
303.82	360.56
304.051	354.56
304.281	350.56
304.511	344.56
304.741	339.56
304.971	344.56
305.201	355.56
305.431	347.56
305.661	357.56
305.891	360.56
306.121	347.56
306.352	353.56
306.582	347.56
306.812	352.56
307.042	364.56
307.272	375.56
307.502	370.56
307.731	376.56
307.961	383.56
308.191	352.56
308.421	363.56
308.651	365.56
308.881	362.56
309.111	363.56
309.341	363.56
309.571	383.56
309.8	382.56
310.03	389.56
310.26	382.56
310.49	384.56
310.72	391.56
310.949	400.56
311.179	398.56
311.409	401.56
311.639	388.56
311.868	396.56
312.098	398.56
312.328	405.56
312.557	411.56
312.787	414.56
313.017	407.56
313.246	410.56
313.476	382.56
313.706	388.56
313.935	411.56
314.165	408.56
314.394	408.56
314.624	397.56
314.853	400.56
315.083	397.56
315.312	399.56
315.542	399.56
315.771	411.56
316.001	415.56
316.23	387.56
316.46	386.56
316.689	399.56
316.919	400.56
317.148	398.56
317.377	403.56
317.607	397.56
317.836	394.56
318.065	393.56
318.295	384.56
318.524	403.56
318.753	408.56
318.983	404.56
319.212	410.56
319.441	404.56
319.67	407.56
319.9	413.56
320.129	412.56
320.358	390.56
320.587	410.56
320.816	401.56
321.046	390.56
321.275	417.56
321.504	407.56
321.733	412.56
321.962	414.56
322.191	435.56
322.42	440.56
322.649	445.56
322.878	418.56
323.108	426.56
323.337	448.56
323.566	457.56
323.795	492.56
324.024	489.56
324.253	559.56
324.482	763.56
324.71	1119.56
324.939	1492.56
325.168	1240.56
325.397	701.56
325.626	554.56
325.855	493.56
326.084	484.56
326.313	475.56
326.542	459.56
326.77	504.56
326.999	580.56
327.228	707.56
327.457	990.56
327.686	1158.56
327.914	791.56
328.143	571.56
328.372	544.56
328.6	508.56
328.829	499.56
329.058	527.56
329.287	509.56
329.515	507.56
329.744	485.56
329.972	496.56
330.201	487.56
330.43	514.56
330.658	540.56
330.887	552.56
331.115	521.56
331.344	481.56
331.572	486.56
331.801	491.56
332.03	498.56
332.258	500.56
332.486	459.56
332.715	468.56
332.943	486.56
333.172	490.56
333.4	464.56
333.629	508.56
333.857	495.56
334.085	514.56
334.314	534.56
334.542	530.56
334.771	541.56
334.999	515.56
335.227	501.56
335.455	489.56
335.684	469.56
335.912	473.56
336.14	475.56
336.369	446.56
336.597	457.56
336.825	469.56
337.053	448.56
337.281	454.56
337.51	448.56
337.738	479.56
337.966	445.56
338.194	455.56
338.422	445.56
338.65	434.56
338.878	453.56
339.106	432.56
339.334	450.56
339.562	440.56
339.79	440.56
340.018	437.56
340.246	447.56
340.474	443.56
340.702	447.56
340.93	430.56
341.158	438.56
341.386	443.56
341.614	431.56
341.842	426.56
342.07	460.56
342.298	436.56
342.526	426.56
342.754	414.56
342.981	469.56
343.209	434.56
343.437	455.56
343.665	468.56
343.893	465.56
344.12	470.56
344.348	466.56
344.576	466.56
344.804	485.56
345.031	459.56
345.259	442.56
345.487	454.56
345.714	430.56
345.942	450.56
346.17	419.56
346.397	420.56
346.625	429.56
346.853	419.56
347.08	416.56
347.308	421.56
347.535	431.56
347.763	440.56
347.99	436.56
348.218	439.56
348.445	427.56
348.673	409.56
348.9	441.56
349.128	406.56
349.355	413.56
349.583	409.56
349.81	407.56
350.037	424.56
350.265	412.56
350.492	405.56
350.72	424.56
350.947	406.56
351.174	410.56
351.402	422.56
351.629	418.56
351.856	410.56
352.083	404.56
352.311	416.56
352.538	420.56
352.765	432.56
352.992	423.56
353.22	415.56
353.447	427.56
353.674	407.56
353.901	412.56
354.128	414.56
354.355	394.56
354.583	378.56
354.81	399.56
355.037	397.56
355.264	377.56
355.491	380.56
355.718	381.56
355.945	397.56
356.172	409.56
356.399	384.56
356.626	398.56
356.853	390.56
357.08	391.56
357.307	392.56
357.534	409.56
357.761	382.56
357.988	401.56
358.215	399.56
358.441	421.56
358.668	406.56
358.895	424.56
359.122	407.56
359.349	384.56
359.576	404.56
359.802	409.56
360.029	427.56
360.256	436.56
360.483	413.56
360.709	419.56
360.936	386.56
361.163	403.56
361.39	413.56
361.616	410.56
361.843	409.56
362.07	403.56
362.296	397.56
362.523	405.56
362.749	394.56
362.976	405.56
363.203	404.56
363.429	375.56
363.656	397.56
363.882	394.56
364.109	382.56
364.335	407.56
364.562	381.56
364.788	383.56
365.015	390.56
365.241	408.56
365.468	389.56
365.694	395.56
365.92	385.56
366.147	405.56
366.373	401.56
366.599	407.56
366.826	387.56
367.052	426.56
367.278	385.56
367.505	387.56
367.731	402.56
367.957	377.56
368.184	404.56
368.41	396.56
368.636	410.56
368.862	408.56
369.089	397.56
369.315	401.56
369.541	391.56
369.767	410.56
369.993	396.56
370.219	388.56
370.445	392.56
370.672	388.56
370.898	410.56
371.124	406.56
371.35	391.56
371.576	381.56
371.802	406.56
372.028	387.56
372.254	388.56
372.48	395.56
372.706	403.56
372.932	402.56
373.158	407.56
373.384	401.56
373.61	406.56
373.835	407.56
374.061	411.56
374.287	407.56
374.513	384.56
374.739	395.56
374.965	418.56
375.191	389.56
375.416	426.56
375.642	401.56
375.868	406.56
376.094	406.56
376.319	407.56
376.545	406.56
376.771	385.56
376.997	396.56
377.222	379.56
377.448	383.56
377.674	369.56
377.899	383.56
378.125	381.56
378.35	394.56
378.576	384.56
378.802	388.56
379.027	371.56
379.253	389.56
379.478	385.56
379.704	388.56
379.929	406.56
380.155	381.56
380.38	373.56
380.606	389.56
380.831	402.56
381.057	398.56
381.282	374.56
381.507	384.56
381.733	406.56
381.958	388.56
382.184	396.56
382.409	392.56
382.634	380.56
382.86	402.56
383.085	401.56
383.31	422.56
383.535	409.56
383.761	412.56
383.986	411.56
384.211	399.56
384.436	427.56
384.662	402.56
384.887	426.56
385.112	417.56
385.337	421.56
385.562	412.56
385.787	413.56
386.013	426.56
386.238	423.56
386.463	432.56
386.688	430.56
386.913	440.56
387.138	413.56
387.363	402.56
387.588	435.56
387.813	446.56
388.038	428.56
388.263	430.56
388.488	460.56
388.713	434.56
388.938	417.56
389.163	431.56
389.387	413.56
389.612	416.56
389.837	405.56
390.062	425.56
390.287	425.56
390.512	420.56
390.736	422.56
390.961	451.56
391.186	451.56
391.411	439.56
391.636	453.56
391.86	435.56
392.085	433.56
392.31	415.56
392.534	432.56
392.759	450.56
392.984	421.56
393.208	431.56
393.433	424.56
393.658	449.56
393.882	413.56
394.107	442.56
394.331	428.56
394.556	411.56
394.78	447.56
395.005	430.56
395.229	438.56
395.454	432.56
395.678	427.56
395.903	460.56
396.127	456.56
396.352	470.56
396.576	467.56
396.801	430.56
397.025	424.56
397.249	446.56
397.474	454.56
397.698	436.56
397.922	472.56
398.147	455.56
398.371	460.56
398.595	491.56
398.82	478.56
399.044	484.56
399.268	519.56
399.492	536.56
399.717	568.56
399.941	600.56
400.165	597.56
400.389	592.56
400.613	541.56
400.837	520.56
401.062	523.56
401.286	484.56
401.51	476.56
401.734	482.56
401.958	499.56
402.182	491.56
402.406	476.56
402.63	482.56
402.854	503.56
403.078	517.56
403.302	497.56
403.526	486.56
403.75	491.56
403.974	510.56
404.198	491.56
404.422	517.56
404.645	496.56
404.869	489.56
405.093	544.56
405.317	562.56
405.541	566.56
405.765	542.56
405.988	505.56
406.212	526.56
406.436	523.56
406.66	544.56
406.883	540.56
407.107	542.56
407.331	594.56
407.555	631.56
407.778	620.56
408.002	564.56
408.226	560.56
408.449	532.56
408.673	527.56
408.896	557.56
409.12	585.56
409.344	561.56
409.567	491.56
409.791	502.56
410.014	473.56
410.238	476.56
410.461	499.56
410.685	478.56
410.908	523.56
411.132	539.56
411.355	546.56
411.578	532.56
411.802	482.56
412.025	494.56
412.249	525.56
412.472	508.56
412.695	533.56
412.919	526.56
413.142	485.56
413.365	482.56
413.589	500.56
413.812	468.56
414.035	472.56
414.258	451.56
414.482	462.56
414.705	456.56
414.928	463.56
415.151	453.56
415.374	473.56
415.597	450.56
415.821	436.56
416.044	453.56
416.267	447.56
416.49	459.56
416.713	442.56
416.936	470.56
417.159	457.56
417.382	466.56
417.605	457.56
417.828	463.56
418.051	483.56
418.274	474.56
418.497	489.56
418.72	442.56
418.943	444.56
419.166	469.56
419.389	503.56
419.611	494.56
419.834	483.56
420.057	501.56
420.28	487.56
420.503	464.56
420.726	476.56
420.948	477.56
421.171	517.56
421.394	519.56
421.617	493.56
421.839	468.56
422.062	472.56
422.285	463.56
422.507	546.56
422.73	564.56
422.953	564.56
423.175	492.56
423.398	479.56
423.621	464.56
423.843	502.56
424.066	491.56
424.288	502.56
424.511	498.56
424.733	542.56
424.956	586.56
425.178	578.56
425.401	555.56
425.623	573.56
425.846	507.56
426.068	469.56
426.291	494.56
426.513	478.56
426.735	487.56
426.958	525.56
427.18	562.56
427.402	654.56
427.625	721.56
427.847	626.56
428.069	579.56
428.292	505.56
428.514	510.56
428.736	475.56
428.958	472.56
429.181	454.56
429.403	447.56
429.625	435.56
429.847	474.56
430.069	518.56
430.292	500.56
430.514	454.56
430.736	455.56
430.958	429.56
431.18	429.56
431.402	426.56
431.624	412.56
431.846	435.56
432.068	428.56
432.29	445.56
432.512	433.56
432.734	443.56
432.956	456.56
433.178	443.56
433.4	445.56
433.622	446.56
433.844	446.56
434.066	423.56
434.287	426.56
434.509	453.56
434.731	467.56
434.953	464.56
435.175	456.56
435.397	478.56
435.618	493.56
435.84	526.56
436.062	564.56
436.284	626.56
436.505	536.56
436.727	476.56
436.949	454.56
437.17	435.56
437.392	441.56
437.614	434.56
437.835	494.56
438.057	522.56
438.278	606.56
438.5	606.56
438.721	664.56
438.943	622.56
439.165	518.56
439.386	480.56
439.608	492.56
439.829	470.56
440.05	483.56
440.272	525.56
440.493	505.56
440.715	467.56
440.936	452.56
441.158	460.56
441.379	443.56
441.6	477.56
441.822	478.56
442.043	499.56
442.264	565.56
442.486	570.56
442.707	505.56
442.928	495.56
443.149	467.56
443.371	504.56
443.592	554.56
443.813	598.56
444.034	617.56
444.255	543.56
444.476	512.56
444.698	523.56
444.919	498.56
445.14	623.56
445.361	572.56
445.582	526.56
445.803	546.56
446.024	615.56
446.245	589.56
446.466	586.56
446.687	500.56
446.908	459.56
447.129	452.56
447.35	451.56
447.571	430.56
447.792	434.56
448.013	438.56
448.234	424.56
448.455	463.56
448.675	557.56
448.896	635.56
449.117	534.56
449.338	518.56
449.559	603.56
449.779	690.56
450	558.56
450.221	471.56
450.442	426.56
450.662	424.56
450.883	422.56
451.104	426.56
451.324	443.56
451.545	415.56
451.766	403.56
451.986	394.56
452.207	381.56
452.428	401.56
452.648	384.56
452.869	396.56
453.089	398.56
453.31	404.56
453.53	380.56
453.751	419.56
453.971	377.56
454.192	406.56
454.412	389.56
454.633	372.56
454.853	374.56
455.073	382.56
455.294	391.56
455.514	451.56
455.734	436.56
455.955	404.56
456.175	375.56
456.395	377.56
456.616	356.56
456.836	359.56
457.056	378.56
457.276	358.56
457.497	368.56
457.717	370.56
457.937	394.56
458.157	394.56
458.377	388.56
458.598	399.56
458.818	442.56
459.038	478.56
459.258	495.56
459.478	442.56
459.698	403.56
459.918	438.56
460.138	430.56
460.358	442.56
460.578	437.56
460.798	454.56
461.018	455.56
461.238	442.56
461.458	455.56
461.678	450.56
461.898	450.56
462.118	440.56
462.338	453.56
462.558	465.56
462.777	470.56
462.997	477.56
463.217	496.56
463.437	512.56
463.657	485.56
463.876	479.56
464.096	495.56
464.316	483.56
464.536	455.56
464.755	475.56
464.975	471.56
465.195	475.56
465.414	495.56
465.634	465.56
465.854	428.56
466.073	434.56
466.293	428.56
466.512	421.56
466.732	415.56
466.951	401.56
467.171	396.56
467.391	406.56
467.61	434.56
467.829	415.56
468.049	424.56
468.268	384.56
468.488	392.56
468.707	395.56
468.927	414.56
469.146	406.56
469.365	399.56
469.585	402.56
469.804	388.56
470.023	406.56
470.243	415.56
470.462	431.56
470.681	423.56
470.901	414.56
471.12	400.56
471.339	423.56
471.558	397.56
471.777	413.56
471.997	414.56
472.216	405.56
472.435	429.56
472.654	418.56
472.873	423.56
473.092	402.56
473.311	397.56
473.53	404.56
473.749	396.56
473.968	450.56
474.187	518.56
474.406	541.56
474.625	452.56
474.844	412.56
475.063	421.56
475.282	421.56
475.501	400.56
475.72	428.56
475.939	421.56
476.158	398.56
476.377	426.56
476.596	409.56
476.814	440.56
477.033	421.56
477.252	431.56
477.471	440.56
477.69	443.56
477.908	453.56
478.127	464.56
478.346	439.56
478.564	453.56
478.783	483.56
479.002	464.56
479.22	462.56
479.439	471.56
479.658	473.56
479.876	493.56
480.095	502.56
480.313	498.56
480.532	496.56
480.751	487.56
480.969	502.56
481.188	532.56
481.406	531.56
481.624	506.56
481.843	482.56
482.061	470.56
482.28	489.56
482.498	479.56
482.717	476.56
482.935	461.56
483.153	487.56
483.372	474.56
483.59	482.56
483.808	480.56
484.027	466.56
484.245	464.56
484.463	455.56
484.681	483.56
484.9	490.56
485.118	486.56
485.336	483.56
485.554	468.56
485.772	494.56
485.99	481.56
486.209	502.56
486.427	494.56
486.645	474.56
486.863	510.56
487.081	514.56
487.299	483.56
487.517	503.56
487.735	502.56
487.953	484.56
488.171	490.56
488.389	503.56
488.607	498.56
488.825	509.56
489.043	490.56
489.261	481.56
489.479	507.56
489.696	496.56
489.914	510.56
490.132	523.56
490.35	522.56
490.568	526.56
490.786	509.56
491.003	524.56
491.221	540.56
491.439	564.56
491.657	545.56
491.874	564.56
492.092	569.56
492.31	549.56
492.527	592.56
492.745	553.56
492.963	564.56
493.18	552.56
493.398	580.56
493.615	578.56
493.833	589.56
494.05	579.56
494.268	567.56
494.485	589.56
494.703	567.56
494.92	584.56
495.138	595.56
495.355	592.56
495.573	582.56
495.79	595.56
496.008	593.56
496.225	584.56
496.442	597.56
496.66	591.56
496.877	575.56
497.094	616.56
497.312	593.56
497.529	584.56
497.746	606.56
497.963	636.56
498.181	633.56
498.398	658.56
498.615	662.56
498.832	680.56
499.049	686.56
499.267	714.56
499.484	754.56
499.701	784.56
499.918	813.56
500.135	869.56
500.352	940.56
500.569	896.56
500.786	907.56
501.003	898.56
501.22	870.56
501.437	826.56
501.654	796.56
501.871	746.56
502.088	763.56
