Data from 1964.PennyLincolnUp.Lamp.En5.5.200Scan.071719.P1._HRD10591_14-03-25-908.txt Node
Date: Thu Jul 18 14:03:25 EDT 2019
User: cochatt
Spectrometer: HR+D1059
Trigger mode: 1
Integration Time (sec): 1.000000E-1
Scans to average: 1
Electric dark correction enabled: true
Nonlinearity correction enabled: false
Boxcar width: 0
XAxis mode: Wavelengths
Number of Pixels in Spectrum: 2048
>>>>>Begin Spectral Data<<<<<
223.165	-15.5
223.4	-15.5
223.635	-15.5
223.869	-17.5
224.104	-16.5
224.338	-21.5
224.573	-9.5
224.808	-10.5
225.042	-17.5
225.277	-3.5
225.511	-3.5
225.746	9.5
225.98	16.5
226.215	10.5
226.449	0.5
226.683	24.5
226.918	32.5
227.152	21.5
227.387	34.5
227.621	35.5
227.856	45.5
228.09	50.5
228.324	51.5
228.559	55.5
228.793	52.5
229.027	92.5
229.262	95.5
229.496	100.5
229.73	106.5
229.964	118.5
230.199	113.5
230.433	97.5
230.667	94.5
230.901	102.5
231.136	121.5
231.37	125.5
231.604	113.5
231.838	108.5
232.072	105.5
232.306	128.5
232.541	95.5
232.775	112.5
233.009	118.5
233.243	115.5
233.477	106.5
233.711	122.5
233.945	112.5
234.179	116.5
234.413	115.5
234.647	109.5
234.881	112.5
235.115	122.5
235.349	118.5
235.583	113.5
235.817	120.5
236.051	119.5
236.285	122.5
236.519	131.5
236.753	109.5
236.987	131.5
237.221	152.5
237.455	171.5
237.689	153.5
237.922	123.5
238.156	142.5
238.39	123.5
238.624	113.5
238.858	126.5
239.091	110.5
239.325	103.5
239.559	126.5
239.793	123.5
240.027	117.5
240.26	126.5
240.494	145.5
240.728	131.5
240.961	136.5
241.195	133.5
241.429	124.5
241.662	141.5
241.896	119.5
242.13	139.5
242.363	127.5
242.597	134.5
242.83	138.5
243.064	138.5
243.298	145.5
243.531	130.5
243.765	124.5
243.998	137.5
244.232	146.5
244.465	133.5
244.699	126.5
244.932	136.5
245.166	147.5
245.399	150.5
245.633	144.5
245.866	144.5
246.099	161.5
246.333	134.5
246.566	136.5
246.8	143.5
247.033	138.5
247.266	150.5
247.5	147.5
247.733	161.5
247.966	155.5
248.2	176.5
248.433	173.5
248.666	162.5
248.899	183.5
249.133	186.5
249.366	176.5
249.599	161.5
249.832	151.5
250.066	160.5
250.299	163.5
250.532	168.5
250.765	173.5
250.998	184.5
251.231	200.5
251.465	191.5
251.698	166.5
251.931	182.5
252.164	176.5
252.397	189.5
252.63	184.5
252.863	175.5
253.096	186.5
253.329	193.5
253.562	177.5
253.795	190.5
254.028	207.5
254.261	202.5
254.494	200.5
254.727	199.5
254.96	221.5
255.193	214.5
255.426	202.5
255.659	215.5
255.892	210.5
256.124	186.5
256.357	195.5
256.59	201.5
256.823	193.5
257.056	197.5
257.289	186.5
257.521	195.5
257.754	175.5
257.987	185.5
258.22	202.5
258.452	202.5
258.685	197.5
258.918	187.5
259.151	198.5
259.383	207.5
259.616	200.5
259.849	194.5
260.081	212.5
260.314	229.5
260.547	217.5
260.779	227.5
261.012	210.5
261.244	216.5
261.477	215.5
261.71	210.5
261.942	202.5
262.175	213.5
262.407	218.5
262.64	189.5
262.872	209.5
263.105	205.5
263.337	200.5
263.57	190.5
263.802	199.5
264.035	200.5
264.267	207.5
264.499	208.5
264.732	210.5
264.964	203.5
265.197	189.5
265.429	215.5
265.661	216.5
265.894	225.5
266.126	206.5
266.358	207.5
266.591	214.5
266.823	225.5
267.055	217.5
267.287	207.5
267.52	227.5
267.752	239.5
267.984	215.5
268.216	216.5
268.448	210.5
268.681	229.5
268.913	234.5
269.145	238.5
269.377	232.5
269.609	243.5
269.841	228.5
270.073	241.5
270.306	252.5
270.538	278.5
270.77	272.5
271.002	256.5
271.234	253.5
271.466	274.5
271.698	247.5
271.93	261.5
272.162	261.5
272.394	268.5
272.626	275.5
272.858	264.5
273.09	266.5
273.322	240.5
273.553	246.5
273.785	243.5
274.017	259.5
274.249	271.5
274.481	245.5
274.713	268.5
274.945	254.5
275.176	246.5
275.408	264.5
275.64	256.5
275.872	233.5
276.104	253.5
276.335	254.5
276.567	258.5
276.799	247.5
277.031	275.5
277.262	280.5
277.494	278.5
277.726	279.5
277.957	256.5
278.189	266.5
278.421	260.5
278.652	230.5
278.884	292.5
279.115	261.5
279.347	265.5
279.579	285.5
279.81	262.5
280.042	274.5
280.273	270.5
280.505	261.5
280.736	265.5
280.968	262.5
281.199	249.5
281.431	261.5
281.662	256.5
281.894	274.5
282.125	269.5
282.356	274.5
282.588	282.5
282.819	292.5
283.051	266.5
283.282	273.5
283.513	269.5
283.745	261.5
283.976	265.5
284.207	265.5
284.439	271.5
284.67	281.5
284.901	285.5
285.132	301.5
285.364	289.5
285.595	271.5
285.826	270.5
286.057	268.5
286.288	275.5
286.52	272.5
286.751	280.5
286.982	288.5
287.213	278.5
287.444	293.5
287.675	286.5
287.906	278.5
288.138	297.5
288.369	300.5
288.6	302.5
288.831	309.5
289.062	293.5
289.293	295.5
289.524	285.5
289.755	303.5
289.986	278.5
290.217	283.5
290.448	281.5
290.679	278.5
290.91	291.5
291.141	277.5
291.371	287.5
291.602	288.5
291.833	285.5
292.064	296.5
292.295	282.5
292.526	301.5
292.757	308.5
292.987	292.5
293.218	283.5
293.449	294.5
293.68	290.5
293.91	294.5
294.141	282.5
294.372	294.5
294.603	290.5
294.833	300.5
295.064	298.5
295.295	292.5
295.525	291.5
295.756	290.5
295.987	306.5
296.217	302.5
296.448	316.5
296.679	314.5
296.909	292.5
297.14	285.5
297.37	300.5
297.601	302.5
297.831	304.5
298.062	298.5
298.292	320.5
298.523	315.5
298.753	320.5
298.984	319.5
299.214	305.5
299.445	308.5
299.675	298.5
299.905	316.5
300.136	310.5
300.366	334.5
300.597	335.5
300.827	313.5
301.057	319.5
301.288	328.5
301.518	335.5
301.748	327.5
301.979	332.5
302.209	301.5
302.439	350.5
302.669	351.5
302.9	310.5
303.13	332.5
303.36	333.5
303.59	314.5
303.82	319.5
304.051	319.5
304.281	320.5
304.511	329.5
304.741	328.5
304.971	321.5
305.201	338.5
305.431	336.5
305.661	336.5
305.891	313.5
306.121	338.5
306.352	332.5
306.582	321.5
306.812	329.5
307.042	343.5
307.272	336.5
307.502	314.5
307.731	346.5
307.961	349.5
308.191	327.5
308.421	327.5
308.651	335.5
308.881	329.5
309.111	317.5
309.341	313.5
309.571	333.5
309.8	344.5
310.03	331.5
310.26	343.5
310.49	353.5
310.72	350.5
310.949	358.5
311.179	367.5
311.409	355.5
311.639	338.5
311.868	345.5
312.098	346.5
312.328	336.5
312.557	361.5
312.787	351.5
313.017	367.5
313.246	368.5
313.476	358.5
313.706	356.5
313.935	367.5
314.165	358.5
314.394	371.5
314.624	362.5
314.853	355.5
315.083	360.5
315.312	375.5
315.542	345.5
315.771	356.5
316.001	362.5
316.23	348.5
316.46	363.5
316.689	368.5
316.919	352.5
317.148	362.5
317.377	349.5
317.607	358.5
317.836	372.5
318.065	380.5
318.295	353.5
318.524	353.5
318.753	348.5
318.983	343.5
319.212	356.5
319.441	374.5
319.67	377.5
319.9	338.5
320.129	346.5
320.358	372.5
320.587	369.5
320.816	371.5
321.046	376.5
321.275	380.5
321.504	374.5
321.733	368.5
321.962	354.5
322.191	379.5
322.42	375.5
322.649	395.5
322.878	384.5
323.108	398.5
323.337	409.5
323.566	414.5
323.795	425.5
324.024	455.5
324.253	498.5
324.482	642.5
324.71	970.5
324.939	1317.5
325.168	1111.5
325.397	566.5
325.626	452.5
325.855	432.5
326.084	418.5
326.313	402.5
326.542	413.5
326.77	448.5
326.999	504.5
327.228	623.5
327.457	870.5
327.686	960.5
327.914	655.5
328.143	505.5
328.372	474.5
328.6	447.5
328.829	446.5
329.058	444.5
329.287	425.5
329.515	441.5
329.744	414.5
329.972	421.5
330.201	440.5
330.43	430.5
330.658	437.5
330.887	469.5
331.115	444.5
331.344	416.5
331.572	411.5
331.801	441.5
332.03	418.5
332.258	422.5
332.486	405.5
332.715	429.5
332.943	444.5
333.172	426.5
333.4	452.5
333.629	463.5
333.857	454.5
334.085	431.5
334.314	470.5
334.542	461.5
334.771	466.5
334.999	471.5
335.227	450.5
335.455	430.5
335.684	442.5
335.912	430.5
336.14	427.5
336.369	421.5
336.597	415.5
336.825	410.5
337.053	428.5
337.281	405.5
337.51	430.5
337.738	424.5
337.966	401.5
338.194	431.5
338.422	412.5
338.65	411.5
338.878	419.5
339.106	395.5
339.334	396.5
339.562	392.5
339.79	367.5
340.018	398.5
340.246	401.5
340.474	397.5
340.702	403.5
340.93	415.5
341.158	413.5
341.386	397.5
341.614	404.5
341.842	403.5
342.07	397.5
342.298	395.5
342.526	388.5
342.754	384.5
342.981	403.5
343.209	411.5
343.437	404.5
343.665	411.5
343.893	410.5
344.12	434.5
344.348	421.5
344.576	413.5
344.804	409.5
345.031	420.5
345.259	379.5
345.487	399.5
345.714	393.5
345.942	373.5
346.17	401.5
346.397	387.5
346.625	383.5
346.853	382.5
347.08	394.5
347.308	395.5
347.535	385.5
347.763	387.5
347.99	387.5
348.218	384.5
348.445	379.5
348.673	378.5
348.9	380.5
349.128	380.5
349.355	375.5
349.583	372.5
349.81	372.5
350.037	382.5
350.265	377.5
350.492	373.5
350.72	351.5
350.947	368.5
351.174	403.5
351.402	388.5
351.629	384.5
351.856	366.5
352.083	358.5
352.311	383.5
352.538	365.5
352.765	378.5
352.992	368.5
353.22	372.5
353.447	363.5
353.674	365.5
353.901	372.5
354.128	372.5
354.355	350.5
354.583	356.5
354.81	348.5
355.037	370.5
355.264	347.5
355.491	337.5
355.718	344.5
355.945	355.5
356.172	348.5
356.399	362.5
356.626	377.5
356.853	348.5
357.08	352.5
357.307	348.5
357.534	366.5
357.761	355.5
357.988	352.5
358.215	358.5
358.441	358.5
358.668	360.5
358.895	352.5
359.122	368.5
359.349	383.5
359.576	377.5
359.802	380.5
360.029	386.5
360.256	386.5
360.483	395.5
360.709	354.5
360.936	363.5
361.163	366.5
361.39	363.5
361.616	369.5
361.843	373.5
362.07	356.5
362.296	357.5
362.523	366.5
362.749	360.5
362.976	382.5
363.203	346.5
363.429	367.5
363.656	344.5
363.882	343.5
364.109	364.5
364.335	379.5
364.562	356.5
364.788	376.5
365.015	373.5
365.241	347.5
365.468	353.5
365.694	377.5
365.92	368.5
366.147	359.5
366.373	356.5
366.599	355.5
366.826	363.5
367.052	342.5
367.278	340.5
367.505	353.5
367.731	378.5
367.957	358.5
368.184	358.5
368.41	356.5
368.636	353.5
368.862	369.5
369.089	348.5
369.315	356.5
369.541	362.5
369.767	373.5
369.993	361.5
370.219	350.5
370.445	358.5
370.672	352.5
370.898	344.5
371.124	351.5
371.35	373.5
371.576	361.5
371.802	346.5
372.028	359.5
372.254	360.5
372.48	359.5
372.706	375.5
372.932	366.5
373.158	376.5
373.384	375.5
373.61	375.5
373.835	355.5
374.061	362.5
374.287	374.5
374.513	376.5
374.739	369.5
374.965	371.5
375.191	386.5
375.416	376.5
375.642	361.5
375.868	381.5
376.094	362.5
376.319	351.5
376.545	348.5
376.771	353.5
376.997	358.5
377.222	355.5
377.448	367.5
377.674	349.5
377.899	353.5
378.125	368.5
378.35	351.5
378.576	356.5
378.802	356.5
379.027	358.5
379.253	359.5
379.478	350.5
379.704	347.5
379.929	368.5
380.155	370.5
380.38	352.5
380.606	375.5
380.831	337.5
381.057	363.5
381.282	351.5
381.507	362.5
381.733	355.5
381.958	369.5
382.184	370.5
382.409	374.5
382.634	361.5
382.86	376.5
383.085	376.5
383.31	372.5
383.535	390.5
383.761	365.5
383.986	375.5
384.211	379.5
384.436	394.5
384.662	382.5
384.887	377.5
385.112	399.5
385.337	403.5
385.562	393.5
385.787	389.5
386.013	393.5
386.238	408.5
386.463	397.5
386.688	387.5
386.913	399.5
387.138	399.5
387.363	412.5
387.588	402.5
387.813	376.5
388.038	388.5
388.263	408.5
388.488	418.5
388.713	400.5
388.938	372.5
389.163	383.5
389.387	407.5
389.612	392.5
389.837	378.5
390.062	386.5
390.287	393.5
390.512	399.5
390.736	390.5
390.961	400.5
391.186	394.5
391.411	370.5
391.636	394.5
391.86	402.5
392.085	410.5
392.31	402.5
392.534	397.5
392.759	398.5
392.984	394.5
393.208	393.5
393.433	439.5
393.658	445.5
393.882	404.5
394.107	397.5
394.331	398.5
394.556	415.5
394.78	409.5
395.005	411.5
395.229	400.5
395.454	410.5
395.678	398.5
395.903	400.5
396.127	412.5
396.352	430.5
396.576	417.5
396.801	424.5
397.025	440.5
397.249	415.5
397.474	428.5
397.698	403.5
397.922	402.5
398.147	438.5
398.371	431.5
398.595	424.5
398.82	438.5
399.044	474.5
399.268	495.5
399.492	493.5
399.717	526.5
399.941	528.5
400.165	550.5
400.389	522.5
400.613	476.5
400.837	472.5
401.062	449.5
401.286	436.5
401.51	441.5
401.734	433.5
401.958	448.5
402.182	433.5
402.406	447.5
402.63	444.5
402.854	433.5
403.078	458.5
403.302	446.5
403.526	450.5
403.75	454.5
403.974	454.5
404.198	459.5
404.422	464.5
404.645	467.5
404.869	463.5
405.093	478.5
405.317	514.5
405.541	519.5
405.765	492.5
405.988	457.5
406.212	470.5
406.436	465.5
406.66	479.5
406.883	453.5
407.107	493.5
407.331	542.5
407.555	582.5
407.778	557.5
408.002	512.5
408.226	503.5
408.449	512.5
408.673	481.5
408.896	489.5
409.12	515.5
409.344	514.5
409.567	477.5
409.791	446.5
410.014	448.5
410.238	458.5
410.461	463.5
410.685	462.5
410.908	452.5
411.132	464.5
411.355	485.5
411.578	476.5
411.802	436.5
412.025	443.5
412.249	448.5
412.472	443.5
412.695	484.5
412.919	484.5
413.142	440.5
413.365	443.5
413.589	444.5
413.812	426.5
414.035	439.5
414.258	440.5
414.482	402.5
414.705	431.5
414.928	442.5
415.151	430.5
415.374	442.5
415.597	429.5
415.821	408.5
416.044	407.5
416.267	432.5
416.49	411.5
416.713	405.5
416.936	418.5
417.159	410.5
417.382	407.5
417.605	420.5
417.828	412.5
418.051	407.5
418.274	410.5
418.497	414.5
418.72	420.5
418.943	414.5
419.166	429.5
419.389	448.5
419.611	440.5
419.834	443.5
420.057	422.5
420.28	427.5
420.503	433.5
420.726	422.5
420.948	450.5
421.171	446.5
421.394	460.5
421.617	423.5
421.839	416.5
422.062	440.5
422.285	463.5
422.507	477.5
422.73	522.5
422.953	531.5
423.175	448.5
423.398	432.5
423.621	417.5
423.843	446.5
424.066	455.5
424.288	472.5
424.511	456.5
424.733	496.5
424.956	534.5
425.178	529.5
425.401	521.5
425.623	545.5
425.846	454.5
426.068	449.5
426.291	441.5
426.513	428.5
426.735	446.5
426.958	454.5
427.18	519.5
427.402	594.5
427.625	636.5
427.847	550.5
428.069	472.5
428.292	454.5
428.514	439.5
428.736	416.5
428.958	406.5
429.181	401.5
429.403	399.5
429.625	408.5
429.847	436.5
430.069	467.5
430.292	444.5
430.514	409.5
430.736	403.5
430.958	421.5
431.18	383.5
431.402	390.5
431.624	377.5
431.846	402.5
432.068	395.5
432.29	392.5
432.512	397.5
432.734	410.5
432.956	392.5
433.178	387.5
433.4	400.5
433.622	387.5
433.844	402.5
434.066	405.5
434.287	399.5
434.509	417.5
434.731	405.5
434.953	392.5
435.175	425.5
435.397	410.5
435.618	431.5
435.84	474.5
436.062	493.5
436.284	549.5
436.505	475.5
436.727	430.5
436.949	421.5
437.17	404.5
437.392	377.5
437.614	422.5
437.835	432.5
438.057	472.5
438.278	537.5
438.5	526.5
438.721	592.5
438.943	561.5
439.165	447.5
439.386	429.5
439.608	423.5
439.829	414.5
440.05	424.5
440.272	470.5
440.493	442.5
440.715	407.5
440.936	400.5
441.158	410.5
441.379	411.5
441.6	430.5
441.822	432.5
442.043	458.5
442.264	525.5
442.486	516.5
442.707	460.5
442.928	432.5
443.149	436.5
443.371	454.5
443.592	475.5
443.813	533.5
444.034	580.5
444.255	511.5
444.476	447.5
444.698	442.5
444.919	454.5
445.14	570.5
445.361	503.5
445.582	462.5
445.803	484.5
446.024	552.5
446.245	550.5
446.466	501.5
446.687	473.5
446.908	435.5
447.129	422.5
447.35	402.5
447.571	382.5
447.792	380.5
448.013	392.5
448.234	408.5
448.455	432.5
448.675	487.5
448.896	556.5
449.117	480.5
449.338	477.5
449.559	538.5
449.779	596.5
450	487.5
450.221	412.5
450.442	398.5
450.662	401.5
450.883	376.5
451.104	411.5
451.324	374.5
451.545	362.5
451.766	367.5
451.986	348.5
452.207	349.5
452.428	364.5
452.648	355.5
452.869	363.5
453.089	364.5
453.31	375.5
453.53	358.5
453.751	348.5
453.971	346.5
454.192	368.5
454.412	345.5
454.633	340.5
454.853	353.5
455.073	376.5
455.294	352.5
455.514	396.5
455.734	388.5
455.955	348.5
456.175	333.5
456.395	328.5
456.616	356.5
456.836	331.5
457.056	350.5
457.276	345.5
457.497	352.5
457.717	330.5
457.937	336.5
458.157	366.5
458.377	353.5
458.598	369.5
458.818	390.5
459.038	424.5
459.258	443.5
459.478	402.5
459.698	376.5
459.918	400.5
460.138	406.5
460.358	398.5
460.578	407.5
460.798	412.5
461.018	397.5
461.238	429.5
461.458	393.5
461.678	420.5
461.898	411.5
462.118	415.5
462.338	430.5
462.558	418.5
462.777	417.5
462.997	453.5
463.217	470.5
463.437	465.5
463.657	456.5
463.876	422.5
464.096	434.5
464.316	442.5
464.536	437.5
464.755	433.5
464.975	426.5
465.195	418.5
465.414	465.5
465.634	409.5
465.854	407.5
466.073	391.5
466.293	364.5
466.512	389.5
466.732	379.5
466.951	382.5
467.171	382.5
467.391	369.5
467.61	362.5
467.829	384.5
468.049	386.5
468.268	379.5
468.488	369.5
468.707	369.5
468.927	378.5
469.146	374.5
469.365	362.5
469.585	384.5
469.804	358.5
470.023	386.5
470.243	381.5
470.462	361.5
470.681	382.5
470.901	374.5
471.12	387.5
471.339	395.5
471.558	386.5
471.777	384.5
471.997	374.5
472.216	365.5
472.435	380.5
472.654	356.5
472.873	355.5
473.092	384.5
473.311	379.5
473.53	381.5
473.749	365.5
473.968	391.5
474.187	448.5
474.406	464.5
474.625	423.5
474.844	393.5
475.063	386.5
475.282	388.5
475.501	377.5
475.72	377.5
475.939	386.5
476.158	381.5
476.377	397.5
476.596	387.5
476.814	378.5
477.033	382.5
477.252	390.5
477.471	415.5
477.69	401.5
477.908	403.5
478.127	421.5
478.346	411.5
478.564	430.5
478.783	423.5
479.002	452.5
479.22	436.5
479.439	454.5
479.658	450.5
479.876	437.5
480.095	449.5
480.313	466.5
480.532	472.5
480.751	461.5
480.969	456.5
481.188	473.5
481.406	490.5
481.624	462.5
481.843	454.5
482.061	441.5
482.28	440.5
482.498	441.5
482.717	428.5
482.935	410.5
483.153	452.5
483.372	441.5
483.59	440.5
483.808	431.5
484.027	429.5
484.245	430.5
484.463	449.5
484.681	439.5
484.9	421.5
485.118	446.5
485.336	440.5
485.554	429.5
485.772	443.5
485.99	460.5
486.209	473.5
486.427	448.5
486.645	458.5
486.863	459.5
487.081	469.5
487.299	471.5
487.517	443.5
487.735	470.5
487.953	450.5
488.171	459.5
488.389	430.5
488.607	443.5
488.825	465.5
489.043	466.5
489.261	445.5
489.479	454.5
489.696	456.5
489.914	467.5
490.132	463.5
490.35	470.5
490.568	483.5
490.786	484.5
491.003	494.5
491.221	470.5
491.439	494.5
491.657	504.5
491.874	495.5
492.092	520.5
492.31	507.5
492.527	495.5
492.745	517.5
492.963	518.5
493.18	501.5
493.398	504.5
493.615	503.5
493.833	521.5
494.05	524.5
494.268	535.5
494.485	514.5
494.703	509.5
494.92	524.5
495.138	508.5
495.355	519.5
495.573	522.5
495.79	510.5
496.008	525.5
496.225	518.5
496.442	526.5
496.66	522.5
496.877	537.5
497.094	536.5
497.312	522.5
497.529	563.5
497.746	546.5
497.963	561.5
498.181	560.5
498.398	592.5
498.615	614.5
498.832	635.5
499.049	622.5
499.267	666.5
499.484	697.5
499.701	717.5
499.918	756.5
500.135	817.5
500.352	817.5
500.569	804.5
500.786	827.5
501.003	825.5
501.22	796.5
501.437	743.5
501.654	720.5
501.871	698.5
502.088	676.5
502.305	659.5
502.522	628.5
502.739	634.5
502.956	591.5
503.172	603.5
503.389	585.5
503.606	550.5
503.823	572.5
504.04	558.5
504.256	539.5
504.473	536.5
504.69	552.5
504.907	544.5
505.123	518.5
505.34	502.5
505.557	513.5
505.773	512.5
505.99	496.5
506.207	501.5
506.423	490.5
506.64	491.5
506.856	484.5
507.073	481.5
507.289	476.5
507.506	470.5
507.722	491.5
507.939	496.5
508.155	487.5
508.372	468.5
508.588	470.5
508.805	466.5
509.021	446.5
509.238	469.5
509.454	472.5
509.67	463.5
509.887	472.5
510.103	428.5
510.319	446.5
510.536	484.5
510.752	628.5
510.968	586.5
511.184	455.5
511.401	440.5
511.617	431.5
511.833	442.5
512.049	431.5
512.265	449.5
512.481	472.5
512.698	442.5
512.914	442.5
513.13	439.5
513.346	438.5
513.562	440.5
513.778	433.5
513.994	432.5
514.21	440.5
514.426	449.5
514.642	466.5
514.858	484.5
515.074	471.5
515.29	524.5
515.506	643.5
515.721	572.5
515.937	475.5
516.153	442.5
516.369	460.5
516.585	460.5
516.801	462.5
517.016	460.5
517.232	464.5
517.448	482.5
517.664	475.5
517.879	478.5
518.095	464.5
518.311	473.5
518.527	479.5
518.742	470.5
518.958	464.5
519.173	452.5
519.389	457.5
519.605	436.5
519.82	445.5
520.036	448.5
