Data from 1964.PennyLincolnUp.Lamp.En5.5.200Scan.071719.P1._HRD10591_14-04-24-908.txt Node
Date: Thu Jul 18 14:04:24 EDT 2019
User: cochatt
Spectrometer: HR+D1059
Trigger mode: 1
Integration Time (sec): 1.000000E-1
Scans to average: 1
Electric dark correction enabled: true
Nonlinearity correction enabled: false
Boxcar width: 0
XAxis mode: Wavelengths
Number of Pixels in Spectrum: 2048
>>>>>Begin Spectral Data<<<<<
223.165	-6.75
223.4	-6.75
223.635	-6.75
223.869	-9.75
224.104	-16.75
224.338	-11.75
224.573	-18.75
224.808	-8.75
225.042	-15.75
225.277	3.25
225.511	-8.75
225.746	-2.75
225.98	7.25
226.215	7.25
226.449	26.25
226.683	11.25
226.918	22.25
227.152	22.25
227.387	37.25
227.621	47.25
227.856	43.25
228.09	59.25
228.324	47.25
228.559	47.25
228.793	66.25
229.027	81.25
229.262	90.25
229.496	107.25
229.73	124.25
229.964	136.25
230.199	109.25
230.433	115.25
230.667	104.25
230.901	79.25
231.136	106.25
231.37	105.25
231.604	101.25
231.838	117.25
232.072	100.25
232.306	96.25
232.541	107.25
232.775	111.25
233.009	109.25
233.243	103.25
233.477	108.25
233.711	123.25
233.945	117.25
234.179	115.25
234.413	116.25
234.647	117.25
234.881	101.25
235.115	107.25
235.349	107.25
235.583	119.25
235.817	103.25
236.051	123.25
236.285	117.25
236.519	125.25
236.753	127.25
236.987	135.25
237.221	163.25
237.455	193.25
237.689	155.25
237.922	112.25
238.156	121.25
238.39	146.25
238.624	124.25
238.858	111.25
239.091	122.25
239.325	123.25
239.559	112.25
239.793	106.25
240.027	131.25
240.26	126.25
240.494	134.25
240.728	139.25
240.961	145.25
241.195	149.25
241.429	136.25
241.662	120.25
241.896	132.25
242.13	141.25
242.363	131.25
242.597	149.25
242.83	133.25
243.064	143.25
243.298	136.25
243.531	145.25
243.765	141.25
243.998	130.25
244.232	135.25
244.465	127.25
244.699	137.25
244.932	139.25
245.166	145.25
245.399	157.25
245.633	121.25
245.866	150.25
246.099	143.25
246.333	142.25
246.566	143.25
246.8	179.25
247.033	151.25
247.266	153.25
247.5	172.25
247.733	173.25
247.966	161.25
248.2	167.25
248.433	171.25
248.666	161.25
248.899	184.25
249.133	182.25
249.366	195.25
249.599	173.25
249.832	173.25
250.066	169.25
250.299	179.25
250.532	179.25
250.765	185.25
250.998	202.25
251.231	198.25
251.465	194.25
251.698	177.25
251.931	194.25
252.164	187.25
252.397	197.25
252.63	198.25
252.863	191.25
253.096	211.25
253.329	212.25
253.562	206.25
253.795	213.25
254.028	207.25
254.261	214.25
254.494	217.25
254.727	246.25
254.96	250.25
255.193	262.25
255.426	239.25
255.659	216.25
255.892	208.25
256.124	237.25
256.357	225.25
256.59	215.25
256.823	219.25
257.056	221.25
257.289	205.25
257.521	210.25
257.754	203.25
257.987	202.25
258.22	198.25
258.452	223.25
258.685	215.25
258.918	201.25
259.151	195.25
259.383	220.25
259.616	238.25
259.849	238.25
260.081	231.25
260.314	254.25
260.547	248.25
260.779	244.25
261.012	245.25
261.244	223.25
261.477	234.25
261.71	226.25
261.942	227.25
262.175	225.25
262.407	232.25
262.64	219.25
262.872	213.25
263.105	214.25
263.337	216.25
263.57	219.25
263.802	208.25
264.035	227.25
264.267	223.25
264.499	224.25
264.732	209.25
264.964	247.25
265.197	220.25
265.429	220.25
265.661	223.25
265.894	243.25
266.126	223.25
266.358	218.25
266.591	227.25
266.823	227.25
267.055	238.25
267.287	225.25
267.52	226.25
267.752	228.25
267.984	235.25
268.216	223.25
268.448	238.25
268.681	232.25
268.913	260.25
269.145	248.25
269.377	270.25
269.609	284.25
269.841	282.25
270.073	271.25
270.306	300.25
270.538	309.25
270.77	300.25
271.002	286.25
271.234	282.25
271.466	298.25
271.698	302.25
271.93	301.25
272.162	315.25
272.394	316.25
272.626	309.25
272.858	284.25
273.09	272.25
273.322	266.25
273.553	262.25
273.785	268.25
274.017	279.25
274.249	275.25
274.481	280.25
274.713	278.25
274.945	273.25
275.176	272.25
275.408	267.25
275.64	270.25
275.872	276.25
276.104	287.25
276.335	267.25
276.567	285.25
276.799	289.25
277.031	294.25
277.262	309.25
277.494	317.25
277.726	284.25
277.957	285.25
278.189	287.25
278.421	284.25
278.652	273.25
278.884	296.25
279.115	268.25
279.347	268.25
279.579	292.25
279.81	304.25
280.042	291.25
280.273	275.25
280.505	285.25
280.736	289.25
280.968	282.25
281.199	274.25
281.431	291.25
281.662	285.25
281.894	320.25
282.125	277.25
282.356	293.25
282.588	304.25
282.819	292.25
283.051	293.25
283.282	297.25
283.513	296.25
283.745	303.25
283.976	309.25
284.207	303.25
284.439	311.25
284.67	311.25
284.901	303.25
285.132	303.25
285.364	295.25
285.595	293.25
285.826	312.25
286.057	295.25
286.288	304.25
286.52	313.25
286.751	299.25
286.982	310.25
287.213	321.25
287.444	305.25
287.675	314.25
287.906	340.25
288.138	320.25
288.369	320.25
288.6	324.25
288.831	314.25
289.062	336.25
289.293	328.25
289.524	329.25
289.755	295.25
289.986	321.25
290.217	314.25
290.448	306.25
290.679	327.25
290.91	322.25
291.141	307.25
291.371	324.25
291.602	301.25
291.833	318.25
292.064	310.25
292.295	321.25
292.526	307.25
292.757	307.25
292.987	320.25
293.218	315.25
293.449	331.25
293.68	328.25
293.91	330.25
294.141	315.25
294.372	315.25
294.603	319.25
294.833	317.25
295.064	332.25
295.295	298.25
295.525	336.25
295.756	319.25
295.987	315.25
296.217	339.25
296.448	352.25
296.679	333.25
296.909	317.25
297.14	319.25
297.37	331.25
297.601	317.25
297.831	333.25
298.062	319.25
298.292	332.25
298.523	323.25
298.753	324.25
298.984	332.25
299.214	335.25
299.445	333.25
299.675	328.25
299.905	335.25
300.136	342.25
300.366	343.25
300.597	340.25
300.827	356.25
301.057	357.25
301.288	350.25
301.518	344.25
301.748	364.25
301.979	354.25
302.209	358.25
302.439	371.25
302.669	355.25
302.9	339.25
303.13	342.25
303.36	357.25
303.59	359.25
303.82	367.25
304.051	361.25
304.281	365.25
304.511	363.25
304.741	349.25
304.971	341.25
305.201	363.25
305.431	352.25
305.661	356.25
305.891	358.25
306.121	354.25
306.352	377.25
306.582	361.25
306.812	361.25
307.042	355.25
307.272	355.25
307.502	355.25
307.731	353.25
307.961	359.25
308.191	353.25
308.421	359.25
308.651	357.25
308.881	363.25
309.111	362.25
309.341	359.25
309.571	377.25
309.8	378.25
310.03	391.25
310.26	357.25
310.49	377.25
310.72	383.25
310.949	394.25
311.179	402.25
311.409	382.25
311.639	401.25
311.868	391.25
312.098	387.25
312.328	399.25
312.557	427.25
312.787	404.25
313.017	404.25
313.246	412.25
313.476	399.25
313.706	419.25
313.935	398.25
314.165	393.25
314.394	402.25
314.624	401.25
314.853	401.25
315.083	400.25
315.312	400.25
315.542	397.25
315.771	405.25
316.001	377.25
316.23	384.25
316.46	382.25
316.689	401.25
316.919	398.25
317.148	399.25
317.377	417.25
317.607	386.25
317.836	400.25
318.065	408.25
318.295	398.25
318.524	376.25
318.753	396.25
318.983	384.25
319.212	378.25
319.441	387.25
319.67	377.25
319.9	390.25
320.129	375.25
320.358	395.25
320.587	399.25
320.816	404.25
321.046	393.25
321.275	396.25
321.504	400.25
321.733	417.25
321.962	438.25
322.191	403.25
322.42	443.25
322.649	417.25
322.878	437.25
323.108	441.25
323.337	452.25
323.566	440.25
323.795	461.25
324.024	500.25
324.253	594.25
324.482	768.25
324.71	1100.25
324.939	1447.25
325.168	1240.25
325.397	668.25
325.626	534.25
325.855	475.25
326.084	457.25
326.313	454.25
326.542	442.25
326.77	507.25
326.999	545.25
327.228	698.25
327.457	983.25
327.686	1111.25
327.914	775.25
328.143	560.25
328.372	526.25
328.6	514.25
328.829	492.25
329.058	496.25
329.287	506.25
329.515	451.25
329.744	471.25
329.972	488.25
330.201	505.25
330.43	519.25
330.658	502.25
330.887	523.25
331.115	514.25
331.344	483.25
331.572	489.25
331.801	463.25
332.03	460.25
332.258	454.25
332.486	464.25
332.715	480.25
332.943	460.25
333.172	471.25
333.4	466.25
333.629	486.25
333.857	507.25
334.085	514.25
334.314	515.25
334.542	516.25
334.771	558.25
334.999	503.25
335.227	479.25
335.455	481.25
335.684	462.25
335.912	493.25
336.14	477.25
336.369	454.25
336.597	465.25
336.825	478.25
337.053	449.25
337.281	449.25
337.51	457.25
337.738	452.25
337.966	453.25
338.194	458.25
338.422	441.25
338.65	455.25
338.878	459.25
339.106	446.25
339.334	431.25
339.562	460.25
339.79	443.25
340.018	431.25
340.246	431.25
340.474	443.25
340.702	406.25
340.93	429.25
341.158	449.25
341.386	460.25
341.614	439.25
341.842	412.25
342.07	442.25
342.298	441.25
342.526	437.25
342.754	415.25
342.981	421.25
343.209	442.25
343.437	459.25
343.665	447.25
343.893	460.25
344.12	459.25
344.348	443.25
344.576	464.25
344.804	457.25
345.031	439.25
345.259	442.25
345.487	426.25
345.714	425.25
345.942	423.25
346.17	440.25
346.397	427.25
346.625	413.25
346.853	410.25
347.08	410.25
347.308	416.25
347.535	407.25
347.763	421.25
347.99	400.25
348.218	401.25
348.445	430.25
348.673	411.25
348.9	420.25
349.128	417.25
349.355	409.25
349.583	398.25
349.81	415.25
350.037	394.25
350.265	420.25
350.492	383.25
350.72	394.25
350.947	401.25
351.174	399.25
351.402	383.25
351.629	428.25
351.856	410.25
352.083	404.25
352.311	417.25
352.538	398.25
352.765	407.25
352.992	393.25
353.22	395.25
353.447	419.25
353.674	411.25
353.901	378.25
354.128	399.25
354.355	397.25
354.583	380.25
354.81	407.25
355.037	385.25
355.264	405.25
355.491	397.25
355.718	409.25
355.945	385.25
356.172	388.25
356.399	383.25
356.626	398.25
356.853	390.25
357.08	379.25
357.307	391.25
357.534	401.25
357.761	395.25
357.988	398.25
358.215	383.25
358.441	395.25
358.668	379.25
358.895	403.25
359.122	379.25
359.349	403.25
359.576	389.25
359.802	422.25
360.029	420.25
360.256	417.25
360.483	406.25
360.709	408.25
360.936	406.25
361.163	415.25
361.39	425.25
361.616	419.25
361.843	398.25
362.07	409.25
362.296	405.25
362.523	394.25
362.749	418.25
362.976	384.25
363.203	403.25
363.429	397.25
363.656	399.25
363.882	379.25
364.109	407.25
364.335	384.25
364.562	364.25
364.788	384.25
365.015	396.25
365.241	397.25
365.468	384.25
365.694	403.25
365.92	399.25
366.147	385.25
366.373	369.25
366.599	383.25
366.826	378.25
367.052	380.25
367.278	392.25
367.505	384.25
367.731	385.25
367.957	382.25
368.184	391.25
368.41	393.25
368.636	394.25
368.862	419.25
369.089	411.25
369.315	389.25
369.541	397.25
369.767	398.25
369.993	391.25
370.219	385.25
370.445	387.25
370.672	381.25
370.898	381.25
371.124	385.25
371.35	386.25
371.576	383.25
371.802	393.25
372.028	401.25
372.254	379.25
372.48	381.25
372.706	380.25
372.932	397.25
373.158	409.25
373.384	410.25
373.61	393.25
373.835	409.25
374.061	412.25
374.287	393.25
374.513	400.25
374.739	389.25
374.965	409.25
375.191	408.25
375.416	413.25
375.642	393.25
375.868	407.25
376.094	381.25
376.319	377.25
376.545	392.25
376.771	360.25
376.997	375.25
377.222	391.25
377.448	373.25
377.674	398.25
377.899	379.25
378.125	379.25
378.35	400.25
378.576	382.25
378.802	383.25
379.027	379.25
379.253	389.25
379.478	380.25
379.704	378.25
379.929	387.25
380.155	385.25
380.38	397.25
380.606	387.25
380.831	391.25
381.057	378.25
381.282	379.25
381.507	377.25
381.733	363.25
381.958	391.25
382.184	395.25
382.409	393.25
382.634	391.25
382.86	393.25
383.085	400.25
383.31	389.25
383.535	382.25
383.761	396.25
383.986	397.25
384.211	413.25
384.436	421.25
384.662	406.25
384.887	428.25
385.112	427.25
385.337	396.25
385.562	436.25
385.787	443.25
386.013	444.25
386.238	423.25
386.463	427.25
386.688	455.25
386.913	438.25
387.138	417.25
387.363	443.25
387.588	421.25
387.813	424.25
388.038	409.25
388.263	421.25
388.488	441.25
388.713	421.25
388.938	426.25
389.163	424.25
389.387	435.25
389.612	423.25
389.837	413.25
390.062	396.25
390.287	407.25
390.512	422.25
390.736	399.25
390.961	423.25
391.186	432.25
391.411	414.25
391.636	428.25
391.86	440.25
392.085	428.25
392.31	435.25
392.534	427.25
392.759	453.25
392.984	423.25
393.208	422.25
393.433	444.25
393.658	430.25
393.882	427.25
394.107	407.25
394.331	438.25
394.556	405.25
394.78	421.25
395.005	448.25
395.229	427.25
395.454	422.25
395.678	458.25
395.903	455.25
396.127	449.25
396.352	427.25
396.576	410.25
396.801	426.25
397.025	444.25
397.249	450.25
397.474	433.25
397.698	445.25
397.922	438.25
398.147	441.25
398.371	481.25
398.595	477.25
398.82	466.25
399.044	491.25
399.268	497.25
399.492	563.25
399.717	569.25
399.941	594.25
400.165	586.25
400.389	591.25
400.613	539.25
400.837	504.25
401.062	491.25
401.286	468.25
401.51	468.25
401.734	474.25
401.958	468.25
402.182	496.25
402.406	482.25
402.63	484.25
402.854	497.25
403.078	474.25
403.302	471.25
403.526	502.25
403.75	475.25
403.974	491.25
404.198	495.25
404.422	506.25
404.645	501.25
404.869	522.25
405.093	522.25
405.317	556.25
405.541	571.25
405.765	529.25
405.988	517.25
406.212	524.25
406.436	525.25
406.66	531.25
406.883	517.25
407.107	549.25
407.331	589.25
407.555	606.25
407.778	559.25
408.002	561.25
408.226	528.25
408.449	510.25
408.673	519.25
408.896	536.25
409.12	559.25
409.344	543.25
409.567	497.25
409.791	496.25
410.014	477.25
410.238	484.25
410.461	502.25
410.685	487.25
410.908	495.25
411.132	524.25
411.355	529.25
411.578	490.25
411.802	503.25
412.025	477.25
412.249	478.25
412.472	505.25
412.695	506.25
412.919	529.25
413.142	492.25
413.365	489.25
413.589	495.25
413.812	466.25
414.035	474.25
414.258	459.25
414.482	467.25
414.705	439.25
414.928	459.25
415.151	445.25
415.374	459.25
415.597	449.25
415.821	448.25
416.044	445.25
416.267	473.25
416.49	450.25
416.713	456.25
416.936	436.25
417.159	451.25
417.382	449.25
417.605	456.25
417.828	451.25
418.051	467.25
418.274	478.25
418.497	460.25
418.72	453.25
418.943	446.25
419.166	467.25
419.389	490.25
419.611	478.25
419.834	458.25
420.057	475.25
420.28	492.25
420.503	484.25
420.726	461.25
420.948	465.25
421.171	496.25
421.394	501.25
421.617	478.25
421.839	459.25
422.062	466.25
422.285	451.25
422.507	524.25
422.73	561.25
422.953	552.25
423.175	486.25
423.398	465.25
423.621	481.25
423.843	490.25
424.066	489.25
424.288	504.25
424.511	510.25
424.733	557.25
424.956	608.25
425.178	573.25
425.401	563.25
425.623	572.25
425.846	519.25
426.068	508.25
426.291	460.25
426.513	481.25
426.735	481.25
426.958	511.25
427.18	583.25
427.402	678.25
427.625	695.25
427.847	613.25
428.069	537.25
428.292	523.25
428.514	465.25
428.736	446.25
428.958	446.25
429.181	432.25
429.403	441.25
429.625	459.25
429.847	459.25
430.069	514.25
430.292	529.25
430.514	456.25
430.736	449.25
430.958	452.25
431.18	422.25
431.402	427.25
431.624	424.25
431.846	430.25
432.068	442.25
432.29	438.25
432.512	416.25
432.734	441.25
432.956	440.25
433.178	440.25
433.4	438.25
433.622	440.25
433.844	442.25
434.066	417.25
434.287	429.25
434.509	412.25
434.731	445.25
434.953	452.25
435.175	463.25
435.397	488.25
435.618	477.25
435.84	509.25
436.062	572.25
436.284	632.25
436.505	522.25
436.727	466.25
436.949	472.25
437.17	442.25
437.392	437.25
437.614	444.25
437.835	474.25
438.057	522.25
438.278	591.25
438.5	593.25
438.721	651.25
438.943	620.25
439.165	503.25
439.386	471.25
439.608	481.25
439.829	464.25
440.05	494.25
440.272	518.25
440.493	483.25
440.715	461.25
440.936	451.25
441.158	453.25
441.379	443.25
441.6	472.25
441.822	464.25
442.043	525.25
442.264	565.25
442.486	565.25
442.707	491.25
442.928	466.25
443.149	491.25
443.371	504.25
443.592	542.25
443.813	593.25
444.034	641.25
444.255	539.25
444.476	484.25
444.698	495.25
444.919	489.25
445.14	612.25
445.361	535.25
445.582	497.25
445.803	546.25
446.024	623.25
446.245	627.25
446.466	561.25
446.687	487.25
446.908	450.25
447.129	425.25
447.35	427.25
447.571	445.25
447.792	420.25
448.013	443.25
448.234	432.25
448.455	488.25
448.675	563.25
448.896	637.25
449.117	534.25
449.338	505.25
449.559	612.25
449.779	663.25
450	537.25
450.221	463.25
450.442	431.25
450.662	411.25
450.883	445.25
451.104	451.25
451.324	415.25
451.545	390.25
451.766	393.25
451.986	378.25
452.207	393.25
452.428	385.25
452.648	389.25
452.869	399.25
453.089	395.25
453.31	402.25
453.53	398.25
453.751	394.25
453.971	399.25
454.192	395.25
454.412	388.25
454.633	377.25
454.853	371.25
455.073	394.25
455.294	411.25
455.514	444.25
455.734	420.25
455.955	383.25
456.175	378.25
456.395	378.25
456.616	371.25
456.836	369.25
457.056	355.25
457.276	360.25
457.497	392.25
457.717	371.25
457.937	376.25
458.157	383.25
458.377	376.25
458.598	382.25
458.818	437.25
459.038	471.25
459.258	507.25
459.478	456.25
459.698	422.25
459.918	436.25
460.138	443.25
460.358	431.25
460.578	411.25
460.798	444.25
461.018	436.25
461.238	431.25
461.458	421.25
461.678	437.25
461.898	446.25
462.118	451.25
462.338	461.25
462.558	475.25
462.777	473.25
462.997	502.25
463.217	511.25
463.437	501.25
463.657	488.25
463.876	465.25
464.096	461.25
464.316	457.25
464.536	467.25
464.755	498.25
464.975	480.25
465.195	475.25
465.414	485.25
465.634	441.25
465.854	421.25
466.073	407.25
466.293	416.25
466.512	406.25
466.732	393.25
466.951	410.25
467.171	399.25
467.391	414.25
467.61	400.25
467.829	413.25
468.049	409.25
468.268	424.25
468.488	416.25
468.707	384.25
468.927	389.25
469.146	378.25
469.365	385.25
469.585	366.25
469.804	392.25
470.023	412.25
470.243	386.25
470.462	411.25
470.681	424.25
470.901	414.25
471.12	412.25
471.339	410.25
471.558	396.25
471.777	405.25
471.997	422.25
472.216	391.25
472.435	415.25
472.654	423.25
472.873	406.25
473.092	412.25
473.311	406.25
473.53	389.25
473.749	400.25
473.968	433.25
474.187	503.25
474.406	501.25
474.625	448.25
474.844	396.25
475.063	426.25
475.282	406.25
475.501	391.25
475.72	405.25
475.939	402.25
476.158	414.25
476.377	416.25
476.596	437.25
476.814	414.25
477.033	430.25
477.252	441.25
477.471	445.25
477.69	448.25
477.908	429.25
478.127	438.25
478.346	435.25
478.564	456.25
478.783	491.25
479.002	472.25
479.22	443.25
479.439	472.25
479.658	473.25
479.876	499.25
480.095	501.25
480.313	505.25
480.532	488.25
480.751	501.25
480.969	511.25
481.188	538.25
481.406	549.25
481.624	517.25
481.843	486.25
482.061	486.25
482.28	492.25
482.498	467.25
482.717	475.25
482.935	469.25
483.153	464.25
483.372	448.25
483.59	462.25
483.808	455.25
484.027	477.25
484.245	466.25
484.463	483.25
484.681	488.25
484.9	475.25
485.118	475.25
485.336	477.25
485.554	480.25
485.772	487.25
485.99	499.25
486.209	479.25
486.427	481.25
486.645	491.25
486.863	487.25
487.081	496.25
487.299	480.25
487.517	520.25
487.735	501.25
487.953	493.25
488.171	491.25
488.389	482.25
488.607	489.25
488.825	481.25
489.043	488.25
489.261	491.25
489.479	484.25
489.696	503.25
489.914	490.25
490.132	519.25
490.35	496.25
490.568	513.25
490.786	505.25
491.003	518.25
491.221	544.25
491.439	544.25
491.657	549.25
491.874	557.25
492.092	551.25
492.31	566.25
492.527	557.25
492.745	589.25
492.963	553.25
493.18	570.25
493.398	579.25
493.615	564.25
493.833	564.25
494.05	562.25
494.268	583.25
494.485	554.25
494.703	572.25
494.92	561.25
495.138	589.25
495.355	580.25
495.573	584.25
495.79	561.25
496.008	567.25
496.225	571.25
496.442	554.25
496.66	594.25
496.877	567.25
497.094	596.25
497.312	563.25
497.529	603.25
497.746	600.25
497.963	600.25
498.181	644.25
498.398	641.25
498.615	665.25
498.832	668.25
499.049	667.25
499.267	731.25
499.484	744.25
499.701	772.25
499.918	812.25
500.135	822.25
500.352	889.25
500.569	905.25
500.786	896.25
501.003	910.25
501.22	844.25
501.437	797.25
501.654	775.25
501.871	763.25
502.088	742.25
