Data from 1964.PennyLincolnUp.Lamp.En5.5.200Scan.071719.P1._HRD10591_14-03-47-908.txt Node
Date: Thu Jul 18 14:03:47 EDT 2019
User: cochatt
Spectrometer: HR+D1059
Trigger mode: 1
Integration Time (sec): 1.000000E-1
Scans to average: 1
Electric dark correction enabled: true
Nonlinearity correction enabled: false
Boxcar width: 0
XAxis mode: Wavelengths
Number of Pixels in Spectrum: 2048
>>>>>Begin Spectral Data<<<<<
223.165	-7.12
223.4	-7.12
223.635	-7.12
223.869	-14.12
224.104	-18.12
224.338	-11.12
224.573	-29.12
224.808	-8.12
225.042	-7.12
225.277	-2.12
225.511	2.88
225.746	5.88
225.98	0.88
226.215	12.88
226.449	5.88
226.683	21.88
226.918	15.88
227.152	30.88
227.387	27.88
227.621	37.88
227.856	40.88
228.09	42.88
228.324	71.88
228.559	44.88
228.793	85.88
229.027	83.88
229.262	102.88
229.496	100.88
229.73	113.88
229.964	118.88
230.199	126.88
230.433	102.88
230.667	98.88
230.901	127.88
231.136	109.88
231.37	109.88
231.604	116.88
231.838	116.88
232.072	122.88
232.306	107.88
232.541	103.88
232.775	108.88
233.009	114.88
233.243	114.88
233.477	111.88
233.711	113.88
233.945	120.88
234.179	107.88
234.413	128.88
234.647	101.88
234.881	113.88
235.115	118.88
235.349	108.88
235.583	124.88
235.817	120.88
236.051	111.88
236.285	113.88
236.519	126.88
236.753	112.88
236.987	128.88
237.221	145.88
237.455	193.88
237.689	152.88
237.922	131.88
238.156	128.88
238.39	120.88
238.624	109.88
238.858	114.88
239.091	118.88
239.325	121.88
239.559	125.88
239.793	138.88
240.027	128.88
240.26	145.88
240.494	124.88
240.728	140.88
240.961	131.88
241.195	144.88
241.429	132.88
241.662	128.88
241.896	137.88
242.13	138.88
242.363	128.88
242.597	124.88
242.83	127.88
243.064	124.88
243.298	143.88
243.531	134.88
243.765	138.88
243.998	153.88
244.232	144.88
244.465	142.88
244.699	137.88
244.932	141.88
245.166	155.88
245.399	149.88
245.633	143.88
245.866	137.88
246.099	144.88
246.333	156.88
246.566	139.88
246.8	151.88
247.033	152.88
247.266	134.88
247.5	160.88
247.733	167.88
247.966	152.88
248.2	151.88
248.433	160.88
248.666	165.88
248.899	161.88
249.133	188.88
249.366	190.88
249.599	172.88
249.832	168.88
250.066	164.88
250.299	164.88
250.532	175.88
250.765	183.88
250.998	210.88
251.231	203.88
251.465	191.88
251.698	188.88
251.931	183.88
252.164	181.88
252.397	182.88
252.63	186.88
252.863	196.88
253.096	190.88
253.329	205.88
253.562	203.88
253.795	199.88
254.028	202.88
254.261	201.88
254.494	192.88
254.727	228.88
254.96	244.88
255.193	239.88
255.426	215.88
255.659	226.88
255.892	219.88
256.124	215.88
256.357	225.88
256.59	206.88
256.823	194.88
257.056	222.88
257.289	205.88
257.521	208.88
257.754	197.88
257.987	208.88
258.22	202.88
258.452	220.88
258.685	201.88
258.918	199.88
259.151	208.88
259.383	197.88
259.616	215.88
259.849	227.88
260.081	225.88
260.314	253.88
260.547	232.88
260.779	217.88
261.012	222.88
261.244	217.88
261.477	203.88
261.71	216.88
261.942	219.88
262.175	229.88
262.407	229.88
262.64	223.88
262.872	216.88
263.105	218.88
263.337	224.88
263.57	210.88
263.802	210.88
264.035	211.88
264.267	208.88
264.499	210.88
264.732	215.88
264.964	213.88
265.197	211.88
265.429	227.88
265.661	217.88
265.894	208.88
266.126	220.88
266.358	206.88
266.591	210.88
266.823	230.88
267.055	220.88
267.287	247.88
267.52	214.88
267.752	217.88
267.984	215.88
268.216	215.88
268.448	240.88
268.681	236.88
268.913	236.88
269.145	241.88
269.377	254.88
269.609	255.88
269.841	245.88
270.073	262.88
270.306	255.88
270.538	289.88
270.77	269.88
271.002	295.88
271.234	261.88
271.466	277.88
271.698	278.88
271.93	283.88
272.162	287.88
272.394	286.88
272.626	286.88
272.858	273.88
273.09	271.88
273.322	268.88
273.553	236.88
273.785	267.88
274.017	276.88
274.249	267.88
274.481	270.88
274.713	273.88
274.945	261.88
275.176	267.88
275.408	258.88
275.64	262.88
275.872	266.88
276.104	262.88
276.335	258.88
276.567	270.88
276.799	273.88
277.031	297.88
277.262	292.88
277.494	299.88
277.726	288.88
277.957	287.88
278.189	255.88
278.421	284.88
278.652	270.88
278.884	298.88
279.115	273.88
279.347	273.88
279.579	266.88
279.81	291.88
280.042	264.88
280.273	282.88
280.505	286.88
280.736	287.88
280.968	278.88
281.199	268.88
281.431	278.88
281.662	279.88
281.894	270.88
282.125	268.88
282.356	281.88
282.588	296.88
282.819	292.88
283.051	296.88
283.282	285.88
283.513	272.88
283.745	307.88
283.976	293.88
284.207	296.88
284.439	308.88
284.67	288.88
284.901	293.88
285.132	301.88
285.364	298.88
285.595	282.88
285.826	302.88
286.057	292.88
286.288	285.88
286.52	293.88
286.751	294.88
286.982	276.88
287.213	274.88
287.444	306.88
287.675	310.88
287.906	306.88
288.138	308.88
288.369	316.88
288.6	310.88
288.831	314.88
289.062	287.88
289.293	312.88
289.524	293.88
289.755	296.88
289.986	309.88
290.217	316.88
290.448	295.88
290.679	320.88
290.91	303.88
291.141	296.88
291.371	301.88
291.602	297.88
291.833	314.88
292.064	328.88
292.295	317.88
292.526	319.88
292.757	298.88
292.987	292.88
293.218	282.88
293.449	305.88
293.68	302.88
293.91	311.88
294.141	314.88
294.372	297.88
294.603	333.88
294.833	317.88
295.064	320.88
295.295	306.88
295.525	295.88
295.756	323.88
295.987	328.88
296.217	326.88
296.448	313.88
296.679	328.88
296.909	310.88
297.14	325.88
297.37	318.88
297.601	337.88
297.831	287.88
298.062	320.88
298.292	333.88
298.523	331.88
298.753	329.88
298.984	322.88
299.214	316.88
299.445	329.88
299.675	327.88
299.905	349.88
300.136	315.88
300.366	303.88
300.597	327.88
300.827	372.88
301.057	339.88
301.288	336.88
301.518	337.88
301.748	327.88
301.979	318.88
302.209	359.88
302.439	344.88
302.669	355.88
302.9	360.88
303.13	336.88
303.36	351.88
303.59	358.88
303.82	360.88
304.051	360.88
304.281	352.88
304.511	350.88
304.741	330.88
304.971	349.88
305.201	333.88
305.431	334.88
305.661	345.88
305.891	342.88
306.121	357.88
306.352	346.88
306.582	351.88
306.812	341.88
307.042	357.88
307.272	336.88
307.502	338.88
307.731	336.88
307.961	349.88
308.191	336.88
308.421	334.88
308.651	341.88
308.881	347.88
309.111	337.88
309.341	350.88
309.571	351.88
309.8	371.88
310.03	358.88
310.26	380.88
310.49	348.88
310.72	359.88
310.949	369.88
311.179	362.88
311.409	362.88
311.639	373.88
311.868	358.88
312.098	375.88
312.328	362.88
312.557	396.88
312.787	372.88
313.017	394.88
313.246	389.88
313.476	386.88
313.706	362.88
313.935	372.88
314.165	377.88
314.394	381.88
314.624	383.88
314.853	383.88
315.083	382.88
315.312	392.88
315.542	381.88
315.771	377.88
316.001	345.88
316.23	385.88
316.46	358.88
316.689	374.88
316.919	392.88
317.148	395.88
317.377	394.88
317.607	380.88
317.836	358.88
318.065	373.88
318.295	364.88
318.524	377.88
318.753	374.88
318.983	378.88
319.212	378.88
319.441	385.88
319.67	390.88
319.9	381.88
320.129	376.88
320.358	388.88
320.587	377.88
320.816	370.88
321.046	392.88
321.275	387.88
321.504	409.88
321.733	375.88
321.962	397.88
322.191	392.88
322.42	393.88
322.649	392.88
322.878	419.88
323.108	394.88
323.337	416.88
323.566	439.88
323.795	436.88
324.024	456.88
324.253	530.88
324.482	682.88
324.71	985.88
324.939	1340.88
325.168	1182.88
325.397	633.88
325.626	493.88
325.855	441.88
326.084	423.88
326.313	432.88
326.542	439.88
326.77	460.88
326.999	530.88
327.228	661.88
327.457	894.88
327.686	1034.88
327.914	726.88
328.143	535.88
328.372	472.88
328.6	447.88
328.829	477.88
329.058	469.88
329.287	464.88
329.515	450.88
329.744	453.88
329.972	456.88
330.201	454.88
330.43	474.88
330.658	500.88
330.887	496.88
331.115	481.88
331.344	452.88
331.572	465.88
331.801	424.88
332.03	441.88
332.258	453.88
332.486	423.88
332.715	436.88
332.943	468.88
333.172	422.88
333.4	456.88
333.629	464.88
333.857	472.88
334.085	515.88
334.314	509.88
334.542	514.88
334.771	534.88
334.999	474.88
335.227	466.88
335.455	465.88
335.684	453.88
335.912	434.88
336.14	433.88
336.369	421.88
336.597	463.88
336.825	434.88
337.053	452.88
337.281	428.88
337.51	426.88
337.738	438.88
337.966	441.88
338.194	425.88
338.422	434.88
338.65	423.88
338.878	421.88
339.106	417.88
339.334	430.88
339.562	416.88
339.79	425.88
340.018	411.88
340.246	419.88
340.474	408.88
340.702	418.88
340.93	422.88
341.158	401.88
341.386	424.88
341.614	401.88
341.842	412.88
342.07	417.88
342.298	421.88
342.526	446.88
342.754	402.88
342.981	407.88
343.209	406.88
343.437	430.88
343.665	444.88
343.893	444.88
344.12	432.88
344.348	445.88
344.576	438.88
344.804	421.88
345.031	425.88
345.259	425.88
345.487	419.88
345.714	418.88
345.942	401.88
346.17	412.88
346.397	386.88
346.625	389.88
346.853	402.88
347.08	416.88
347.308	410.88
347.535	412.88
347.763	416.88
347.99	412.88
348.218	396.88
348.445	388.88
348.673	413.88
348.9	417.88
349.128	385.88
349.355	386.88
349.583	392.88
349.81	391.88
350.037	389.88
350.265	361.88
350.492	369.88
350.72	369.88
350.947	385.88
351.174	380.88
351.402	400.88
351.629	387.88
351.856	401.88
352.083	401.88
352.311	399.88
352.538	378.88
352.765	392.88
352.992	385.88
353.22	365.88
353.447	384.88
353.674	382.88
353.901	373.88
354.128	394.88
354.355	378.88
354.583	366.88
354.81	370.88
355.037	381.88
355.264	372.88
355.491	358.88
355.718	339.88
355.945	368.88
356.172	364.88
356.399	366.88
356.626	386.88
356.853	384.88
357.08	377.88
357.307	392.88
357.534	362.88
357.761	370.88
357.988	388.88
358.215	372.88
358.441	375.88
358.668	369.88
358.895	390.88
359.122	376.88
359.349	385.88
359.576	386.88
359.802	375.88
360.029	392.88
360.256	401.88
360.483	414.88
360.709	387.88
360.936	402.88
361.163	388.88
361.39	369.88
361.616	386.88
361.843	376.88
362.07	392.88
362.296	388.88
362.523	394.88
362.749	382.88
362.976	376.88
363.203	387.88
363.429	388.88
363.656	387.88
363.882	393.88
364.109	369.88
364.335	388.88
364.562	374.88
364.788	366.88
365.015	364.88
365.241	383.88
365.468	367.88
365.694	375.88
365.92	348.88
366.147	377.88
366.373	368.88
366.599	359.88
366.826	366.88
367.052	372.88
367.278	382.88
367.505	375.88
367.731	375.88
367.957	361.88
368.184	379.88
368.41	368.88
368.636	370.88
368.862	374.88
369.089	385.88
369.315	386.88
369.541	403.88
369.767	380.88
369.993	380.88
370.219	377.88
370.445	374.88
370.672	373.88
370.898	361.88
371.124	364.88
371.35	378.88
371.576	384.88
371.802	393.88
372.028	375.88
372.254	385.88
372.48	388.88
372.706	390.88
372.932	396.88
373.158	377.88
373.384	382.88
373.61	377.88
373.835	392.88
374.061	358.88
374.287	352.88
374.513	378.88
374.739	387.88
374.965	384.88
375.191	377.88
375.416	376.88
375.642	372.88
375.868	368.88
376.094	368.88
376.319	362.88
376.545	380.88
376.771	368.88
376.997	372.88
377.222	364.88
377.448	364.88
377.674	359.88
377.899	362.88
378.125	361.88
378.35	384.88
378.576	365.88
378.802	363.88
379.027	374.88
379.253	354.88
379.478	371.88
379.704	376.88
379.929	367.88
380.155	366.88
380.38	362.88
380.606	359.88
380.831	357.88
381.057	378.88
381.282	363.88
381.507	356.88
381.733	373.88
381.958	364.88
382.184	369.88
382.409	383.88
382.634	390.88
382.86	379.88
383.085	352.88
383.31	370.88
383.535	385.88
383.761	400.88
383.986	386.88
384.211	408.88
384.436	408.88
384.662	381.88
384.887	422.88
385.112	408.88
385.337	416.88
385.562	408.88
385.787	401.88
386.013	435.88
386.238	419.88
386.463	404.88
386.688	408.88
386.913	388.88
387.138	391.88
387.363	397.88
387.588	401.88
387.813	390.88
388.038	390.88
388.263	409.88
388.488	410.88
388.713	414.88
388.938	400.88
389.163	402.88
389.387	400.88
389.612	384.88
389.837	408.88
390.062	408.88
390.287	406.88
390.512	408.88
390.736	400.88
390.961	408.88
391.186	416.88
391.411	397.88
391.636	418.88
391.86	413.88
392.085	415.88
392.31	434.88
392.534	420.88
392.759	409.88
392.984	388.88
393.208	405.88
393.433	409.88
393.658	412.88
393.882	394.88
394.107	420.88
394.331	412.88
394.556	405.88
394.78	407.88
395.005	413.88
395.229	404.88
395.454	415.88
395.678	442.88
395.903	442.88
396.127	437.88
396.352	446.88
396.576	426.88
396.801	410.88
397.025	416.88
397.249	427.88
397.474	440.88
397.698	417.88
397.922	448.88
398.147	447.88
398.371	468.88
398.595	444.88
398.82	461.88
399.044	465.88
399.268	481.88
399.492	508.88
399.717	534.88
399.941	541.88
400.165	577.88
400.389	573.88
400.613	505.88
400.837	476.88
401.062	447.88
401.286	470.88
401.51	452.88
401.734	461.88
401.958	453.88
402.182	444.88
402.406	474.88
402.63	475.88
402.854	471.88
403.078	448.88
403.302	473.88
403.526	473.88
403.75	470.88
403.974	486.88
404.198	474.88
404.422	486.88
404.645	476.88
404.869	463.88
405.093	509.88
405.317	516.88
405.541	543.88
405.765	511.88
405.988	473.88
406.212	476.88
406.436	462.88
406.66	493.88
406.883	492.88
407.107	534.88
407.331	534.88
407.555	592.88
407.778	598.88
408.002	546.88
408.226	516.88
408.449	507.88
408.673	495.88
408.896	524.88
409.12	536.88
409.344	508.88
409.567	479.88
409.791	463.88
410.014	478.88
410.238	453.88
410.461	462.88
410.685	468.88
410.908	461.88
411.132	492.88
411.355	516.88
411.578	502.88
411.802	480.88
412.025	469.88
412.249	489.88
412.472	491.88
412.695	517.88
412.919	489.88
413.142	471.88
413.365	476.88
413.589	453.88
413.812	463.88
414.035	456.88
414.258	456.88
414.482	445.88
414.705	433.88
414.928	432.88
415.151	417.88
415.374	453.88
415.597	453.88
415.821	428.88
416.044	445.88
416.267	432.88
416.49	436.88
416.713	408.88
416.936	423.88
417.159	428.88
417.382	454.88
417.605	427.88
417.828	446.88
418.051	429.88
418.274	438.88
418.497	412.88
418.72	433.88
418.943	440.88
419.166	415.88
419.389	476.88
419.611	468.88
419.834	466.88
420.057	461.88
420.28	469.88
420.503	430.88
420.726	437.88
420.948	452.88
421.171	476.88
421.394	501.88
421.617	469.88
421.839	456.88
422.062	439.88
422.285	454.88
422.507	497.88
422.73	541.88
422.953	515.88
423.175	465.88
423.398	444.88
423.621	447.88
423.843	463.88
424.066	466.88
424.288	457.88
424.511	485.88
424.733	515.88
424.956	576.88
425.178	548.88
425.401	539.88
425.623	568.88
425.846	512.88
426.068	470.88
426.291	469.88
426.513	449.88
426.735	469.88
426.958	480.88
427.18	549.88
427.402	628.88
427.625	654.88
427.847	578.88
428.069	526.88
428.292	477.88
428.514	449.88
428.736	463.88
428.958	429.88
429.181	423.88
429.403	416.88
429.625	436.88
429.847	469.88
430.069	486.88
430.292	473.88
430.514	434.88
430.736	418.88
430.958	424.88
431.18	409.88
431.402	411.88
431.624	404.88
431.846	410.88
432.068	393.88
432.29	414.88
432.512	424.88
432.734	425.88
432.956	422.88
433.178	398.88
433.4	410.88
433.622	405.88
433.844	398.88
434.066	391.88
434.287	414.88
434.509	403.88
434.731	428.88
434.953	436.88
435.175	425.88
435.397	449.88
435.618	454.88
435.84	469.88
436.062	538.88
436.284	569.88
436.505	508.88
436.727	464.88
436.949	423.88
437.17	406.88
437.392	423.88
437.614	429.88
437.835	455.88
438.057	512.88
438.278	586.88
438.5	560.88
438.721	612.88
438.943	604.88
439.165	485.88
439.386	463.88
439.608	454.88
439.829	430.88
440.05	454.88
440.272	492.88
440.493	455.88
440.715	431.88
440.936	415.88
441.158	439.88
441.379	433.88
441.6	438.88
441.822	454.88
442.043	465.88
442.264	523.88
442.486	554.88
442.707	475.88
442.928	484.88
443.149	450.88
443.371	461.88
443.592	519.88
443.813	558.88
444.034	609.88
444.255	530.88
444.476	489.88
444.698	469.88
444.919	467.88
445.14	598.88
445.361	534.88
445.582	485.88
445.803	508.88
446.024	582.88
446.245	591.88
446.466	531.88
446.687	467.88
446.908	438.88
447.129	427.88
447.35	421.88
447.571	419.88
447.792	389.88
448.013	400.88
448.234	415.88
448.455	456.88
448.675	522.88
448.896	610.88
449.117	496.88
449.338	481.88
449.559	551.88
449.779	618.88
450	512.88
450.221	439.88
450.442	408.88
450.662	393.88
450.883	406.88
451.104	408.88
451.324	405.88
451.545	384.88
451.766	384.88
451.986	389.88
452.207	386.88
452.428	388.88
452.648	382.88
452.869	378.88
453.089	358.88
453.31	384.88
453.53	374.88
453.751	380.88
453.971	353.88
454.192	374.88
454.412	346.88
454.633	349.88
454.853	364.88
455.073	381.88
455.294	377.88
455.514	412.88
455.734	403.88
455.955	366.88
456.175	344.88
456.395	364.88
456.616	349.88
456.836	356.88
457.056	353.88
457.276	352.88
457.497	361.88
457.717	348.88
457.937	368.88
458.157	377.88
458.377	370.88
458.598	377.88
458.818	404.88
459.038	455.88
459.258	463.88
459.478	428.88
459.698	413.88
459.918	400.88
460.138	402.88
460.358	420.88
460.578	404.88
460.798	419.88
461.018	402.88
461.238	421.88
461.458	420.88
461.678	428.88
461.898	420.88
462.118	431.88
462.338	437.88
462.558	438.88
462.777	449.88
462.997	467.88
463.217	472.88
463.437	469.88
463.657	455.88
463.876	446.88
464.096	465.88
464.316	432.88
464.536	450.88
464.755	462.88
464.975	450.88
465.195	460.88
465.414	461.88
465.634	420.88
465.854	415.88
466.073	410.88
466.293	395.88
466.512	385.88
466.732	377.88
466.951	394.88
467.171	381.88
467.391	354.88
467.61	382.88
467.829	395.88
468.049	394.88
468.268	379.88
468.488	371.88
468.707	378.88
468.927	383.88
469.146	384.88
469.365	377.88
469.585	387.88
469.804	382.88
470.023	389.88
470.243	416.88
470.462	396.88
470.681	402.88
470.901	406.88
471.12	396.88
471.339	404.88
471.558	396.88
471.777	394.88
471.997	363.88
472.216	390.88
472.435	422.88
472.654	417.88
472.873	390.88
473.092	388.88
473.311	399.88
473.53	386.88
473.749	384.88
473.968	417.88
474.187	472.88
474.406	480.88
474.625	442.88
474.844	405.88
475.063	406.88
475.282	394.88
475.501	396.88
475.72	393.88
475.939	394.88
476.158	408.88
476.377	379.88
476.596	396.88
476.814	424.88
477.033	399.88
477.252	422.88
477.471	408.88
477.69	420.88
477.908	429.88
478.127	439.88
478.346	424.88
478.564	438.88
478.783	443.88
479.002	450.88
479.22	431.88
479.439	443.88
479.658	460.88
479.876	449.88
480.095	461.88
480.313	477.88
480.532	475.88
480.751	481.88
480.969	471.88
481.188	505.88
481.406	506.88
481.624	482.88
481.843	452.88
482.061	463.88
482.28	452.88
482.498	450.88
482.717	441.88
482.935	442.88
483.153	453.88
483.372	454.88
483.59	446.88
483.808	468.88
484.027	440.88
484.245	460.88
484.463	465.88
484.681	458.88
484.9	435.88
485.118	466.88
485.336	446.88
485.554	474.88
485.772	458.88
485.99	458.88
486.209	470.88
486.427	452.88
486.645	458.88
486.863	480.88
487.081	473.88
487.299	494.88
487.517	505.88
487.735	458.88
487.953	456.88
488.171	480.88
488.389	476.88
488.607	471.88
488.825	472.88
489.043	470.88
489.261	470.88
489.479	479.88
489.696	489.88
489.914	461.88
490.132	493.88
490.35	479.88
490.568	478.88
490.786	472.88
491.003	500.88
491.221	514.88
491.439	500.88
491.657	525.88
491.874	536.88
492.092	528.88
492.31	510.88
492.527	538.88
492.745	550.88
492.963	541.88
493.18	540.88
493.398	536.88
493.615	536.88
493.833	556.88
494.05	552.88
494.268	533.88
494.485	568.88
494.703	540.88
494.92	552.88
495.138	548.88
495.355	548.88
495.573	545.88
495.79	566.88
496.008	548.88
496.225	545.88
496.442	554.88
496.66	565.88
496.877	568.88
497.094	570.88
497.312	570.88
497.529	575.88
497.746	575.88
497.963	611.88
498.181	601.88
498.398	610.88
498.615	636.88
498.832	638.88
499.049	653.88
499.267	690.88
499.484	698.88
499.701	710.88
499.918	773.88
500.135	789.88
500.352	836.88
500.569	865.88
500.786	872.88
501.003	843.88
501.22	808.88
501.437	803.88
501.654	752.88
501.871	722.88
502.088	706.88
