Data from 1964.PennyLincolnUp.Lamp.En5.5.200Scan.071719.P1._HRD10591_14-04-42-908.txt Node
Date: Thu Jul 18 14:04:42 EDT 2019
User: cochatt
Spectrometer: HR+D1059
Trigger mode: 1
Integration Time (sec): 1.000000E-1
Scans to average: 1
Electric dark correction enabled: true
Nonlinearity correction enabled: false
Boxcar width: 0
XAxis mode: Wavelengths
Number of Pixels in Spectrum: 2048
>>>>>Begin Spectral Data<<<<<
223.165	-19.25
223.4	-19.25
223.635	-19.25
223.869	-22.25
224.104	-19.25
224.338	-20.25
224.573	-19.25
224.808	-8.25
225.042	-8.25
225.277	-11.25
225.511	-15.25
225.746	2.75
225.98	8.75
226.215	17.75
226.449	7.75
226.683	29.75
226.918	29.75
227.152	46.75
227.387	44.75
227.621	23.75
227.856	50.75
228.09	58.75
228.324	44.75
228.559	62.75
228.793	58.75
229.027	70.75
229.262	95.75
229.496	104.75
229.73	111.75
229.964	125.75
230.199	103.75
230.433	104.75
230.667	98.75
230.901	111.75
231.136	96.75
231.37	107.75
231.604	115.75
231.838	99.75
232.072	108.75
232.306	105.75
232.541	117.75
232.775	110.75
233.009	108.75
233.243	110.75
233.477	122.75
233.711	120.75
233.945	119.75
234.179	108.75
234.413	98.75
234.647	109.75
234.881	102.75
235.115	110.75
235.349	118.75
235.583	104.75
235.817	109.75
236.051	99.75
236.285	120.75
236.519	118.75
236.753	118.75
236.987	126.75
237.221	167.75
237.455	188.75
237.689	146.75
237.922	121.75
238.156	129.75
238.39	122.75
238.624	123.75
238.858	122.75
239.091	134.75
239.325	119.75
239.559	124.75
239.793	126.75
240.027	137.75
240.26	140.75
240.494	142.75
240.728	138.75
240.961	143.75
241.195	130.75
241.429	121.75
241.662	120.75
241.896	134.75
242.13	127.75
242.363	116.75
242.597	134.75
242.83	142.75
243.064	133.75
243.298	138.75
243.531	128.75
243.765	157.75
243.998	139.75
244.232	136.75
244.465	148.75
244.699	134.75
244.932	140.75
245.166	139.75
245.399	145.75
245.633	144.75
245.866	150.75
246.099	158.75
246.333	160.75
246.566	143.75
246.8	146.75
247.033	148.75
247.266	145.75
247.5	171.75
247.733	159.75
247.966	160.75
248.2	166.75
248.433	172.75
248.666	173.75
248.899	187.75
249.133	188.75
249.366	187.75
249.599	193.75
249.832	178.75
250.066	170.75
250.299	183.75
250.532	172.75
250.765	176.75
250.998	207.75
251.231	213.75
251.465	206.75
251.698	191.75
251.931	201.75
252.164	183.75
252.397	191.75
252.63	183.75
252.863	187.75
253.096	191.75
253.329	199.75
253.562	222.75
253.795	213.75
254.028	207.75
254.261	203.75
254.494	204.75
254.727	238.75
254.96	259.75
255.193	236.75
255.426	226.75
255.659	230.75
255.892	223.75
256.124	227.75
256.357	229.75
256.59	218.75
256.823	205.75
257.056	230.75
257.289	215.75
257.521	207.75
257.754	200.75
257.987	207.75
258.22	206.75
258.452	219.75
258.685	221.75
258.918	202.75
259.151	211.75
259.383	206.75
259.616	210.75
259.849	219.75
260.081	216.75
260.314	237.75
260.547	240.75
260.779	237.75
261.012	215.75
261.244	205.75
261.477	222.75
261.71	219.75
261.942	217.75
262.175	222.75
262.407	220.75
262.64	219.75
262.872	214.75
263.105	226.75
263.337	195.75
263.57	205.75
263.802	213.75
264.035	198.75
264.267	223.75
264.499	216.75
264.732	222.75
264.964	220.75
265.197	212.75
265.429	218.75
265.661	221.75
265.894	223.75
266.126	228.75
266.358	216.75
266.591	236.75
266.823	214.75
267.055	234.75
267.287	255.75
267.52	246.75
267.752	228.75
267.984	235.75
268.216	231.75
268.448	234.75
268.681	242.75
268.913	260.75
269.145	266.75
269.377	284.75
269.609	263.75
269.841	274.75
270.073	276.75
270.306	270.75
270.538	280.75
270.77	314.75
271.002	310.75
271.234	290.75
271.466	285.75
271.698	293.75
271.93	315.75
272.162	284.75
272.394	310.75
272.626	287.75
272.858	281.75
273.09	280.75
273.322	273.75
273.553	262.75
273.785	277.75
274.017	267.75
274.249	267.75
274.481	266.75
274.713	267.75
274.945	252.75
275.176	267.75
275.408	268.75
275.64	275.75
275.872	268.75
276.104	274.75
276.335	283.75
276.567	278.75
276.799	276.75
277.031	302.75
277.262	281.75
277.494	301.75
277.726	322.75
277.957	302.75
278.189	301.75
278.421	286.75
278.652	290.75
278.884	290.75
279.115	281.75
279.347	278.75
279.579	265.75
279.81	281.75
280.042	292.75
280.273	288.75
280.505	284.75
280.736	286.75
280.968	281.75
281.199	295.75
281.431	288.75
281.662	269.75
281.894	296.75
282.125	311.75
282.356	309.75
282.588	305.75
282.819	295.75
283.051	279.75
283.282	287.75
283.513	275.75
283.745	292.75
283.976	272.75
284.207	297.75
284.439	290.75
284.67	280.75
284.901	298.75
285.132	292.75
285.364	311.75
285.595	311.75
285.826	288.75
286.057	300.75
286.288	303.75
286.52	305.75
286.751	308.75
286.982	309.75
287.213	280.75
287.444	295.75
287.675	308.75
287.906	314.75
288.138	313.75
288.369	318.75
288.6	315.75
288.831	308.75
289.062	315.75
289.293	310.75
289.524	303.75
289.755	314.75
289.986	297.75
290.217	306.75
290.448	309.75
290.679	314.75
290.91	320.75
291.141	308.75
291.371	319.75
291.602	313.75
291.833	307.75
292.064	320.75
292.295	310.75
292.526	293.75
292.757	323.75
292.987	313.75
293.218	316.75
293.449	333.75
293.68	332.75
293.91	310.75
294.141	291.75
294.372	307.75
294.603	297.75
294.833	330.75
295.064	313.75
295.295	303.75
295.525	312.75
295.756	312.75
295.987	330.75
296.217	336.75
296.448	346.75
296.679	321.75
296.909	323.75
297.14	316.75
297.37	330.75
297.601	334.75
297.831	313.75
298.062	338.75
298.292	334.75
298.523	330.75
298.753	315.75
298.984	318.75
299.214	333.75
299.445	327.75
299.675	342.75
299.905	342.75
300.136	334.75
300.366	344.75
300.597	336.75
300.827	316.75
301.057	346.75
301.288	345.75
301.518	339.75
301.748	351.75
301.979	328.75
302.209	360.75
302.439	359.75
302.669	365.75
302.9	340.75
303.13	349.75
303.36	336.75
303.59	372.75
303.82	350.75
304.051	347.75
304.281	339.75
304.511	361.75
304.741	341.75
304.971	354.75
305.201	356.75
305.431	358.75
305.661	361.75
305.891	350.75
306.121	359.75
306.352	354.75
306.582	346.75
306.812	355.75
307.042	338.75
307.272	338.75
307.502	350.75
307.731	362.75
307.961	358.75
308.191	361.75
308.421	355.75
308.651	352.75
308.881	349.75
309.111	362.75
309.341	362.75
309.571	375.75
309.8	354.75
310.03	386.75
310.26	367.75
310.49	378.75
310.72	374.75
310.949	396.75
311.179	395.75
311.409	372.75
311.639	378.75
311.868	391.75
312.098	388.75
312.328	398.75
312.557	399.75
312.787	399.75
313.017	389.75
313.246	385.75
313.476	367.75
313.706	382.75
313.935	388.75
314.165	408.75
314.394	399.75
314.624	425.75
314.853	380.75
315.083	406.75
315.312	403.75
315.542	393.75
315.771	406.75
316.001	379.75
316.23	407.75
316.46	407.75
316.689	384.75
316.919	378.75
317.148	406.75
317.377	377.75
317.607	416.75
317.836	397.75
318.065	402.75
318.295	414.75
318.524	391.75
318.753	406.75
318.983	384.75
319.212	410.75
319.441	410.75
319.67	393.75
319.9	394.75
320.129	400.75
320.358	402.75
320.587	413.75
320.816	400.75
321.046	408.75
321.275	409.75
321.504	394.75
321.733	396.75
321.962	391.75
322.191	413.75
322.42	412.75
322.649	444.75
322.878	438.75
323.108	436.75
323.337	443.75
323.566	450.75
323.795	470.75
324.024	492.75
324.253	582.75
324.482	760.75
324.71	1092.75
324.939	1447.75
325.168	1218.75
325.397	694.75
325.626	520.75
325.855	472.75
326.084	482.75
326.313	448.75
326.542	474.75
326.77	490.75
326.999	567.75
327.228	719.75
327.457	961.75
327.686	1108.75
327.914	769.75
328.143	574.75
328.372	528.75
328.6	511.75
328.829	490.75
329.058	518.75
329.287	523.75
329.515	490.75
329.744	487.75
329.972	479.75
330.201	487.75
330.43	506.75
330.658	535.75
330.887	518.75
331.115	509.75
331.344	470.75
331.572	470.75
331.801	470.75
332.03	472.75
332.258	448.75
332.486	463.75
332.715	466.75
332.943	470.75
333.172	482.75
333.4	468.75
333.629	478.75
333.857	496.75
334.085	488.75
334.314	534.75
334.542	540.75
334.771	528.75
334.999	506.75
335.227	481.75
335.455	458.75
335.684	497.75
335.912	467.75
336.14	436.75
336.369	436.75
336.597	451.75
336.825	480.75
337.053	451.75
337.281	445.75
337.51	432.75
337.738	451.75
337.966	453.75
338.194	453.75
338.422	460.75
338.65	447.75
338.878	436.75
339.106	440.75
339.334	457.75
339.562	452.75
339.79	427.75
340.018	436.75
340.246	428.75
340.474	454.75
340.702	435.75
340.93	431.75
341.158	434.75
341.386	431.75
341.614	444.75
341.842	428.75
342.07	420.75
342.298	431.75
342.526	421.75
342.754	406.75
342.981	429.75
343.209	415.75
343.437	426.75
343.665	433.75
343.893	446.75
344.12	472.75
344.348	445.75
344.576	447.75
344.804	446.75
345.031	455.75
345.259	446.75
345.487	436.75
345.714	418.75
345.942	418.75
346.17	415.75
346.397	426.75
346.625	431.75
346.853	414.75
347.08	404.75
347.308	433.75
347.535	414.75
347.763	418.75
347.99	408.75
348.218	424.75
348.445	421.75
348.673	423.75
348.9	404.75
349.128	400.75
349.355	407.75
349.583	389.75
349.81	378.75
350.037	404.75
350.265	419.75
350.492	416.75
350.72	402.75
350.947	415.75
351.174	405.75
351.402	406.75
351.629	393.75
351.856	402.75
352.083	402.75
352.311	412.75
352.538	406.75
352.765	410.75
352.992	401.75
353.22	396.75
353.447	386.75
353.674	411.75
353.901	400.75
354.128	392.75
354.355	385.75
354.583	387.75
354.81	390.75
355.037	384.75
355.264	385.75
355.491	387.75
355.718	374.75
355.945	380.75
356.172	384.75
356.399	376.75
356.626	386.75
356.853	383.75
357.08	397.75
357.307	378.75
357.534	394.75
357.761	388.75
357.988	383.75
358.215	388.75
358.441	384.75
358.668	392.75
358.895	375.75
359.122	396.75
359.349	402.75
359.576	415.75
359.802	419.75
360.029	417.75
360.256	411.75
360.483	424.75
360.709	400.75
360.936	424.75
361.163	381.75
361.39	415.75
361.616	379.75
361.843	390.75
362.07	406.75
362.296	394.75
362.523	399.75
362.749	402.75
362.976	402.75
363.203	364.75
363.429	378.75
363.656	393.75
363.882	380.75
364.109	410.75
364.335	385.75
364.562	400.75
364.788	377.75
365.015	379.75
365.241	377.75
365.468	377.75
365.694	391.75
365.92	394.75
366.147	384.75
366.373	398.75
366.599	375.75
366.826	395.75
367.052	379.75
367.278	375.75
367.505	384.75
367.731	351.75
367.957	369.75
368.184	377.75
368.41	389.75
368.636	396.75
368.862	395.75
369.089	380.75
369.315	376.75
369.541	384.75
369.767	393.75
369.993	373.75
370.219	388.75
370.445	382.75
370.672	380.75
370.898	379.75
371.124	395.75
371.35	393.75
371.576	376.75
371.802	383.75
372.028	385.75
372.254	389.75
372.48	384.75
372.706	380.75
372.932	378.75
373.158	398.75
373.384	380.75
373.61	398.75
373.835	368.75
374.061	390.75
374.287	402.75
374.513	382.75
374.739	378.75
374.965	385.75
375.191	396.75
375.416	390.75
375.642	400.75
375.868	382.75
376.094	371.75
376.319	361.75
376.545	382.75
376.771	382.75
376.997	370.75
377.222	384.75
377.448	390.75
377.674	374.75
377.899	396.75
378.125	392.75
378.35	376.75
378.576	367.75
378.802	376.75
379.027	380.75
379.253	370.75
379.478	362.75
379.704	380.75
379.929	380.75
380.155	380.75
380.38	381.75
380.606	396.75
380.831	372.75
381.057	396.75
381.282	370.75
381.507	383.75
381.733	390.75
381.958	384.75
382.184	395.75
382.409	398.75
382.634	390.75
382.86	383.75
383.085	387.75
383.31	378.75
383.535	379.75
383.761	394.75
383.986	414.75
384.211	422.75
384.436	398.75
384.662	405.75
384.887	418.75
385.112	407.75
385.337	430.75
385.562	409.75
385.787	422.75
386.013	410.75
386.238	409.75
386.463	425.75
386.688	427.75
386.913	406.75
387.138	415.75
387.363	412.75
387.588	425.75
387.813	415.75
388.038	428.75
388.263	395.75
388.488	435.75
388.713	401.75
388.938	423.75
389.163	419.75
389.387	408.75
389.612	408.75
389.837	411.75
390.062	410.75
390.287	398.75
390.512	407.75
390.736	416.75
390.961	414.75
391.186	402.75
391.411	436.75
391.636	426.75
391.86	428.75
392.085	423.75
392.31	437.75
392.534	429.75
392.759	446.75
392.984	430.75
393.208	429.75
393.433	406.75
393.658	421.75
393.882	421.75
394.107	438.75
394.331	425.75
394.556	430.75
394.78	448.75
395.005	416.75
395.229	424.75
395.454	450.75
395.678	435.75
395.903	455.75
396.127	467.75
396.352	431.75
396.576	433.75
396.801	425.75
397.025	431.75
397.249	439.75
397.474	446.75
397.698	458.75
397.922	444.75
398.147	458.75
398.371	458.75
398.595	462.75
398.82	460.75
399.044	474.75
399.268	482.75
399.492	564.75
399.717	583.75
399.941	598.75
400.165	587.75
400.389	586.75
400.613	513.75
400.837	502.75
401.062	491.75
401.286	471.75
401.51	464.75
401.734	473.75
401.958	483.75
402.182	475.75
402.406	493.75
402.63	480.75
402.854	490.75
403.078	481.75
403.302	478.75
403.526	488.75
403.75	499.75
403.974	487.75
404.198	489.75
404.422	495.75
404.645	492.75
404.869	486.75
405.093	530.75
405.317	544.75
405.541	574.75
405.765	516.75
405.988	504.75
406.212	493.75
406.436	509.75
406.66	496.75
406.883	512.75
407.107	540.75
407.331	568.75
407.555	616.75
407.778	617.75
408.002	564.75
408.226	520.75
408.449	542.75
408.673	542.75
408.896	537.75
409.12	566.75
409.344	524.75
409.567	500.75
409.791	486.75
410.014	467.75
410.238	474.75
410.461	490.75
410.685	499.75
410.908	492.75
411.132	508.75
411.355	542.75
411.578	495.75
411.802	486.75
412.025	459.75
412.249	487.75
412.472	510.75
412.695	526.75
412.919	513.75
413.142	475.75
413.365	486.75
413.589	479.75
413.812	455.75
414.035	452.75
414.258	460.75
414.482	467.75
414.705	451.75
414.928	449.75
415.151	449.75
415.374	436.75
415.597	446.75
415.821	447.75
416.044	467.75
416.267	443.75
416.49	440.75
416.713	436.75
416.936	446.75
417.159	468.75
417.382	431.75
417.605	450.75
417.828	462.75
418.051	462.75
418.274	460.75
418.497	454.75
418.72	456.75
418.943	440.75
419.166	463.75
419.389	485.75
419.611	479.75
419.834	473.75
420.057	480.75
420.28	461.75
420.503	450.75
420.726	469.75
420.948	470.75
421.171	505.75
421.394	536.75
421.617	466.75
421.839	452.75
422.062	474.75
422.285	475.75
422.507	503.75
422.73	558.75
422.953	547.75
423.175	470.75
423.398	476.75
423.621	475.75
423.843	495.75
424.066	498.75
424.288	488.75
424.511	510.75
424.733	534.75
424.956	574.75
425.178	573.75
425.401	569.75
425.623	587.75
425.846	500.75
426.068	468.75
426.291	473.75
426.513	479.75
426.735	482.75
426.958	501.75
427.18	576.75
427.402	656.75
427.625	668.75
427.847	606.75
428.069	540.75
428.292	484.75
428.514	468.75
428.736	461.75
428.958	452.75
429.181	452.75
429.403	442.75
429.625	452.75
429.847	462.75
430.069	514.75
430.292	506.75
430.514	459.75
430.736	436.75
430.958	415.75
431.18	426.75
431.402	430.75
431.624	406.75
431.846	432.75
432.068	428.75
432.29	420.75
432.512	432.75
432.734	432.75
432.956	431.75
433.178	426.75
433.4	445.75
433.622	434.75
433.844	404.75
434.066	418.75
434.287	436.75
434.509	446.75
434.731	444.75
434.953	442.75
435.175	442.75
435.397	486.75
435.618	472.75
435.84	500.75
436.062	548.75
436.284	620.75
436.505	509.75
436.727	460.75
436.949	450.75
437.17	436.75
437.392	426.75
437.614	452.75
437.835	480.75
438.057	521.75
438.278	589.75
438.5	598.75
438.721	660.75
438.943	616.75
439.165	495.75
439.386	475.75
439.608	463.75
439.829	474.75
440.05	489.75
440.272	488.75
440.493	460.75
440.715	461.75
440.936	432.75
441.158	436.75
441.379	457.75
441.6	459.75
441.822	459.75
442.043	498.75
442.264	550.75
442.486	603.75
442.707	512.75
442.928	477.75
443.149	505.75
443.371	491.75
443.592	540.75
443.813	605.75
444.034	634.75
444.255	519.75
444.476	504.75
444.698	504.75
444.919	506.75
445.14	611.75
445.361	544.75
445.582	523.75
445.803	539.75
446.024	580.75
446.245	591.75
446.466	538.75
446.687	502.75
446.908	461.75
447.129	444.75
447.35	426.75
447.571	407.75
447.792	403.75
448.013	407.75
448.234	449.75
448.455	491.75
448.675	563.75
448.896	636.75
449.117	546.75
449.338	516.75
449.559	602.75
449.779	640.75
450	541.75
450.221	461.75
450.442	436.75
450.662	415.75
450.883	403.75
451.104	411.75
451.324	388.75
451.545	396.75
451.766	381.75
451.986	369.75
452.207	394.75
452.428	381.75
452.648	381.75
452.869	382.75
453.089	393.75
453.31	407.75
453.53	404.75
453.751	380.75
453.971	381.75
454.192	381.75
454.412	379.75
454.633	365.75
454.853	399.75
455.073	388.75
455.294	396.75
455.514	445.75
455.734	449.75
455.955	389.75
456.175	376.75
456.395	368.75
456.616	370.75
456.836	374.75
457.056	371.75
457.276	362.75
457.497	372.75
457.717	375.75
457.937	373.75
458.157	373.75
458.377	362.75
458.598	398.75
458.818	426.75
459.038	472.75
459.258	502.75
459.478	435.75
459.698	436.75
459.918	428.75
460.138	431.75
460.358	434.75
460.578	424.75
460.798	431.75
461.018	450.75
461.238	449.75
461.458	436.75
461.678	435.75
461.898	454.75
462.118	449.75
462.338	449.75
462.558	438.75
462.777	450.75
462.997	482.75
463.217	488.75
463.437	489.75
463.657	474.75
463.876	466.75
464.096	456.75
464.316	440.75
464.536	500.75
464.755	492.75
464.975	457.75
465.195	464.75
465.414	493.75
465.634	460.75
465.854	448.75
466.073	411.75
466.293	392.75
466.512	412.75
466.732	406.75
466.951	374.75
467.171	406.75
467.391	400.75
467.61	399.75
467.829	404.75
468.049	403.75
468.268	413.75
468.488	392.75
468.707	375.75
468.927	364.75
469.146	380.75
469.365	382.75
469.585	377.75
469.804	390.75
470.023	389.75
470.243	375.75
470.462	399.75
470.681	403.75
470.901	406.75
471.12	404.75
471.339	416.75
471.558	399.75
471.777	410.75
471.997	406.75
472.216	387.75
472.435	430.75
472.654	420.75
472.873	398.75
473.092	395.75
473.311	423.75
473.53	411.75
473.749	401.75
473.968	419.75
474.187	491.75
474.406	502.75
474.625	446.75
474.844	435.75
475.063	385.75
475.282	387.75
475.501	404.75
475.72	430.75
475.939	410.75
476.158	439.75
476.377	416.75
476.596	416.75
476.814	415.75
477.033	412.75
477.252	420.75
477.471	424.75
477.69	410.75
477.908	430.75
478.127	438.75
478.346	474.75
478.564	437.75
478.783	439.75
479.002	487.75
479.22	467.75
479.439	469.75
479.658	476.75
479.876	463.75
480.095	482.75
480.313	488.75
480.532	503.75
480.751	512.75
480.969	492.75
481.188	540.75
481.406	540.75
481.624	483.75
481.843	490.75
482.061	466.75
482.28	472.75
482.498	449.75
482.717	456.75
482.935	463.75
483.153	447.75
483.372	479.75
483.59	478.75
483.808	449.75
484.027	454.75
484.245	462.75
484.463	461.75
484.681	471.75
484.9	484.75
485.118	455.75
485.336	455.75
485.554	474.75
485.772	474.75
485.99	488.75
486.209	473.75
486.427	466.75
486.645	482.75
486.863	485.75
487.081	487.75
487.299	490.75
487.517	480.75
487.735	469.75
487.953	484.75
488.171	500.75
488.389	488.75
488.607	473.75
488.825	474.75
489.043	489.75
489.261	478.75
489.479	476.75
489.696	493.75
489.914	505.75
490.132	509.75
490.35	518.75
490.568	498.75
490.786	502.75
491.003	524.75
491.221	531.75
491.439	546.75
491.657	541.75
491.874	549.75
492.092	543.75
492.31	550.75
492.527	536.75
492.745	550.75
492.963	519.75
493.18	557.75
493.398	543.75
493.615	569.75
493.833	564.75
494.05	558.75
494.268	545.75
494.485	552.75
494.703	587.75
494.92	575.75
495.138	587.75
495.355	576.75
495.573	558.75
495.79	570.75
496.008	586.75
496.225	556.75
496.442	576.75
496.66	567.75
496.877	581.75
497.094	596.75
497.312	563.75
497.529	588.75
497.746	628.75
497.963	622.75
498.181	648.75
498.398	635.75
498.615	656.75
498.832	633.75
499.049	694.75
499.267	708.75
499.484	719.75
499.701	780.75
499.918	805.75
500.135	855.75
500.352	884.75
500.569	888.75
500.786	874.75
501.003	873.75
501.22	840.75
501.437	800.75
501.654	766.75
501.871	738.75
502.088	742.75
