Data from 1964.PennyLincolnUp.Lamp.En5.5.200Scan.071719.P1._HRD10591_14-05-45-910.txt Node
Date: Thu Jul 18 14:05:45 EDT 2019
User: cochatt
Spectrometer: HR+D1059
Trigger mode: 1
Integration Time (sec): 1.000000E-1
Scans to average: 1
Electric dark correction enabled: true
Nonlinearity correction enabled: false
Boxcar width: 0
XAxis mode: Wavelengths
Number of Pixels in Spectrum: 2048
>>>>>Begin Spectral Data<<<<<
223.165	-12.38
223.4	-12.38
223.635	-12.38
223.869	-4.38
224.104	-22.38
224.338	-21.38
224.573	-5.38
224.808	-7.38
225.042	-2.38
225.277	-11.38
225.511	-10.38
225.746	-1.38
225.98	4.62
226.215	27.62
226.449	19.62
226.683	15.62
226.918	10.62
227.152	20.62
227.387	27.62
227.621	30.62
227.856	37.62
228.09	32.62
228.324	62.62
228.559	60.62
228.793	77.62
229.027	83.62
229.262	95.62
229.496	98.62
229.73	105.62
229.964	139.62
230.199	127.62
230.433	131.62
230.667	107.62
230.901	93.62
231.136	108.62
231.37	108.62
231.604	106.62
231.838	117.62
232.072	98.62
232.306	120.62
232.541	115.62
232.775	102.62
233.009	107.62
233.243	111.62
233.477	131.62
233.711	106.62
233.945	123.62
234.179	107.62
234.413	111.62
234.647	117.62
234.881	109.62
235.115	111.62
235.349	119.62
235.583	108.62
235.817	121.62
236.051	135.62
236.285	108.62
236.519	128.62
236.753	117.62
236.987	143.62
237.221	161.62
237.455	200.62
237.689	169.62
237.922	144.62
238.156	127.62
238.39	119.62
238.624	124.62
238.858	106.62
239.091	128.62
239.325	124.62
239.559	121.62
239.793	142.62
240.027	147.62
240.26	149.62
240.494	142.62
240.728	161.62
240.961	153.62
241.195	153.62
241.429	140.62
241.662	137.62
241.896	144.62
242.13	129.62
242.363	137.62
242.597	137.62
242.83	138.62
243.064	141.62
243.298	127.62
243.531	137.62
243.765	135.62
243.998	146.62
244.232	143.62
244.465	151.62
244.699	148.62
244.932	146.62
245.166	156.62
245.399	137.62
245.633	165.62
245.866	161.62
246.099	143.62
246.333	145.62
246.566	157.62
246.8	163.62
247.033	157.62
247.266	168.62
247.5	157.62
247.733	168.62
247.966	174.62
248.2	189.62
248.433	181.62
248.666	183.62
248.899	164.62
249.133	189.62
249.366	205.62
249.599	213.62
249.832	201.62
250.066	189.62
250.299	171.62
250.532	209.62
250.765	214.62
250.998	228.62
251.231	237.62
251.465	224.62
251.698	215.62
251.931	206.62
252.164	196.62
252.397	203.62
252.63	190.62
252.863	203.62
253.096	214.62
253.329	236.62
253.562	245.62
253.795	208.62
254.028	227.62
254.261	214.62
254.494	210.62
254.727	247.62
254.96	253.62
255.193	270.62
255.426	251.62
255.659	240.62
255.892	236.62
256.124	236.62
256.357	222.62
256.59	224.62
256.823	224.62
257.056	228.62
257.289	232.62
257.521	209.62
257.754	207.62
257.987	217.62
258.22	212.62
258.452	223.62
258.685	236.62
258.918	225.62
259.151	208.62
259.383	230.62
259.616	221.62
259.849	233.62
260.081	252.62
260.314	248.62
260.547	230.62
260.779	247.62
261.012	248.62
261.244	245.62
261.477	227.62
261.71	232.62
261.942	233.62
262.175	240.62
262.407	246.62
262.64	228.62
262.872	233.62
263.105	218.62
263.337	240.62
263.57	231.62
263.802	217.62
264.035	229.62
264.267	235.62
264.499	222.62
264.732	223.62
264.964	228.62
265.197	223.62
265.429	234.62
265.661	228.62
265.894	248.62
266.126	234.62
266.358	248.62
266.591	236.62
266.823	236.62
267.055	250.62
267.287	254.62
267.52	249.62
267.752	248.62
267.984	233.62
268.216	244.62
268.448	252.62
268.681	251.62
268.913	235.62
269.145	276.62
269.377	291.62
269.609	269.62
269.841	293.62
270.073	286.62
270.306	316.62
270.538	327.62
270.77	330.62
271.002	291.62
271.234	301.62
271.466	308.62
271.698	320.62
271.93	304.62
272.162	335.62
272.394	341.62
272.626	317.62
272.858	298.62
273.09	308.62
273.322	267.62
273.553	280.62
273.785	276.62
274.017	280.62
274.249	289.62
274.481	285.62
274.713	292.62
274.945	285.62
275.176	291.62
275.408	296.62
275.64	295.62
275.872	281.62
276.104	286.62
276.335	282.62
276.567	301.62
276.799	301.62
277.031	312.62
277.262	337.62
277.494	340.62
277.726	317.62
277.957	305.62
278.189	302.62
278.421	307.62
278.652	311.62
278.884	303.62
279.115	299.62
279.347	321.62
279.579	294.62
279.81	307.62
280.042	295.62
280.273	277.62
280.505	287.62
280.736	292.62
280.968	287.62
281.199	294.62
281.431	299.62
281.662	283.62
281.894	286.62
282.125	320.62
282.356	298.62
282.588	317.62
282.819	333.62
283.051	302.62
283.282	300.62
283.513	316.62
283.745	312.62
283.976	316.62
284.207	311.62
284.439	307.62
284.67	317.62
284.901	316.62
285.132	328.62
285.364	321.62
285.595	303.62
285.826	311.62
286.057	319.62
286.288	318.62
286.52	313.62
286.751	322.62
286.982	311.62
287.213	311.62
287.444	312.62
287.675	317.62
287.906	341.62
288.138	315.62
288.369	347.62
288.6	349.62
288.831	335.62
289.062	336.62
289.293	332.62
289.524	320.62
289.755	342.62
289.986	341.62
290.217	332.62
290.448	331.62
290.679	331.62
290.91	323.62
291.141	321.62
291.371	329.62
291.602	353.62
291.833	325.62
292.064	334.62
292.295	315.62
292.526	331.62
292.757	319.62
292.987	332.62
293.218	334.62
293.449	335.62
293.68	341.62
293.91	329.62
294.141	332.62
294.372	327.62
294.603	331.62
294.833	347.62
295.064	316.62
295.295	351.62
295.525	331.62
295.756	339.62
295.987	312.62
296.217	336.62
296.448	359.62
296.679	329.62
296.909	344.62
297.14	336.62
297.37	341.62
297.601	363.62
297.831	351.62
298.062	353.62
298.292	358.62
298.523	348.62
298.753	348.62
298.984	353.62
299.214	341.62
299.445	352.62
299.675	375.62
299.905	349.62
300.136	362.62
300.366	371.62
300.597	354.62
300.827	353.62
301.057	375.62
301.288	365.62
301.518	342.62
301.748	334.62
301.979	362.62
302.209	363.62
302.439	368.62
302.669	369.62
302.9	368.62
303.13	358.62
303.36	350.62
303.59	374.62
303.82	376.62
304.051	390.62
304.281	379.62
304.511	379.62
304.741	365.62
304.971	369.62
305.201	356.62
305.431	360.62
305.661	362.62
305.891	362.62
306.121	374.62
306.352	362.62
306.582	371.62
306.812	363.62
307.042	378.62
307.272	379.62
307.502	366.62
307.731	350.62
307.961	381.62
308.191	366.62
308.421	366.62
308.651	381.62
308.881	352.62
309.111	375.62
309.341	389.62
309.571	389.62
309.8	408.62
310.03	383.62
310.26	396.62
310.49	400.62
310.72	415.62
310.949	420.62
311.179	441.62
311.409	390.62
311.639	411.62
311.868	419.62
312.098	406.62
312.328	414.62
312.557	416.62
312.787	414.62
313.017	438.62
313.246	402.62
313.476	410.62
313.706	411.62
313.935	410.62
314.165	429.62
314.394	434.62
314.624	413.62
314.853	414.62
315.083	408.62
315.312	402.62
315.542	406.62
315.771	405.62
316.001	405.62
316.23	419.62
316.46	394.62
316.689	428.62
316.919	400.62
317.148	436.62
317.377	425.62
317.607	446.62
317.836	407.62
318.065	415.62
318.295	416.62
318.524	411.62
318.753	408.62
318.983	415.62
319.212	424.62
319.441	418.62
319.67	415.62
319.9	414.62
320.129	404.62
320.358	409.62
320.587	423.62
320.816	426.62
321.046	409.62
321.275	435.62
321.504	423.62
321.733	413.62
321.962	437.62
322.191	426.62
322.42	429.62
322.649	454.62
322.878	451.62
323.108	456.62
323.337	486.62
323.566	495.62
323.795	494.62
324.024	548.62
324.253	621.62
324.482	857.62
324.71	1240.62
324.939	1693.62
325.168	1403.62
325.397	785.62
325.626	585.62
325.855	523.62
326.084	509.62
326.313	482.62
326.542	519.62
326.77	539.62
326.999	600.62
327.228	803.62
327.457	1107.62
327.686	1252.62
327.914	856.62
328.143	629.62
328.372	571.62
328.6	533.62
328.829	538.62
329.058	543.62
329.287	559.62
329.515	544.62
329.744	523.62
329.972	515.62
330.201	525.62
330.43	563.62
330.658	567.62
330.887	561.62
331.115	552.62
331.344	522.62
331.572	473.62
331.801	506.62
332.03	479.62
332.258	501.62
332.486	479.62
332.715	486.62
332.943	495.62
333.172	485.62
333.4	469.62
333.629	507.62
333.857	529.62
334.085	523.62
334.314	523.62
334.542	575.62
334.771	598.62
334.999	518.62
335.227	517.62
335.455	510.62
335.684	501.62
335.912	485.62
336.14	495.62
336.369	487.62
336.597	483.62
336.825	479.62
337.053	471.62
337.281	470.62
337.51	484.62
337.738	496.62
337.966	486.62
338.194	483.62
338.422	484.62
338.65	466.62
338.878	465.62
339.106	462.62
339.334	460.62
339.562	435.62
339.79	443.62
340.018	461.62
340.246	474.62
340.474	441.62
340.702	480.62
340.93	476.62
341.158	465.62
341.386	461.62
341.614	469.62
341.842	467.62
342.07	445.62
342.298	436.62
342.526	453.62
342.754	449.62
342.981	455.62
343.209	443.62
343.437	465.62
343.665	461.62
343.893	464.62
344.12	470.62
344.348	460.62
344.576	460.62
344.804	461.62
345.031	460.62
345.259	458.62
345.487	466.62
345.714	467.62
345.942	452.62
346.17	436.62
346.397	424.62
346.625	415.62
346.853	435.62
347.08	423.62
347.308	455.62
347.535	433.62
347.763	440.62
347.99	448.62
348.218	435.62
348.445	441.62
348.673	416.62
348.9	433.62
349.128	431.62
349.355	411.62
349.583	423.62
349.81	425.62
350.037	407.62
350.265	439.62
350.492	426.62
350.72	433.62
350.947	433.62
351.174	412.62
351.402	425.62
351.629	429.62
351.856	418.62
352.083	419.62
352.311	426.62
352.538	431.62
352.765	406.62
352.992	414.62
353.22	425.62
353.447	440.62
353.674	431.62
353.901	409.62
354.128	400.62
354.355	401.62
354.583	398.62
354.81	395.62
355.037	429.62
355.264	389.62
355.491	397.62
355.718	393.62
355.945	399.62
356.172	401.62
356.399	400.62
356.626	409.62
356.853	400.62
357.08	413.62
357.307	413.62
357.534	408.62
357.761	392.62
357.988	393.62
358.215	414.62
358.441	398.62
358.668	410.62
358.895	433.62
359.122	420.62
359.349	396.62
359.576	422.62
359.802	423.62
360.029	437.62
360.256	432.62
360.483	432.62
360.709	410.62
360.936	426.62
361.163	408.62
361.39	414.62
361.616	431.62
361.843	415.62
362.07	417.62
362.296	419.62
362.523	407.62
362.749	391.62
362.976	415.62
363.203	411.62
363.429	405.62
363.656	422.62
363.882	385.62
364.109	410.62
364.335	382.62
364.562	423.62
364.788	412.62
365.015	393.62
365.241	403.62
365.468	402.62
365.694	408.62
365.92	414.62
366.147	403.62
366.373	420.62
366.599	403.62
366.826	408.62
367.052	389.62
367.278	394.62
367.505	401.62
367.731	391.62
367.957	413.62
368.184	419.62
368.41	398.62
368.636	411.62
368.862	404.62
369.089	390.62
369.315	381.62
369.541	410.62
369.767	398.62
369.993	387.62
370.219	407.62
370.445	407.62
370.672	402.62
370.898	393.62
371.124	395.62
371.35	417.62
371.576	395.62
371.802	401.62
372.028	415.62
372.254	431.62
372.48	436.62
372.706	409.62
372.932	393.62
373.158	393.62
373.384	402.62
373.61	391.62
373.835	417.62
374.061	396.62
374.287	408.62
374.513	410.62
374.739	413.62
374.965	415.62
375.191	393.62
375.416	407.62
375.642	402.62
375.868	414.62
376.094	400.62
376.319	372.62
376.545	402.62
376.771	385.62
376.997	409.62
377.222	396.62
377.448	406.62
377.674	398.62
377.899	393.62
378.125	401.62
378.35	387.62
378.576	429.62
378.802	389.62
379.027	410.62
379.253	388.62
379.478	397.62
379.704	409.62
379.929	402.62
380.155	390.62
380.38	394.62
380.606	398.62
380.831	397.62
381.057	395.62
381.282	405.62
381.507	384.62
381.733	407.62
381.958	412.62
382.184	410.62
382.409	417.62
382.634	398.62
382.86	402.62
383.085	408.62
383.31	409.62
383.535	411.62
383.761	402.62
383.986	402.62
384.211	409.62
384.436	449.62
384.662	407.62
384.887	419.62
385.112	429.62
385.337	424.62
385.562	440.62
385.787	437.62
386.013	432.62
386.238	449.62
386.463	443.62
386.688	429.62
386.913	429.62
387.138	436.62
387.363	462.62
387.588	430.62
387.813	450.62
388.038	451.62
388.263	448.62
388.488	423.62
388.713	438.62
388.938	426.62
389.163	445.62
389.387	435.62
389.612	432.62
389.837	429.62
390.062	428.62
390.287	433.62
390.512	424.62
390.736	424.62
390.961	437.62
391.186	451.62
391.411	428.62
391.636	460.62
391.86	437.62
392.085	442.62
392.31	427.62
392.534	433.62
392.759	443.62
392.984	460.62
393.208	462.62
393.433	435.62
393.658	438.62
393.882	453.62
394.107	423.62
394.331	446.62
394.556	439.62
394.78	456.62
395.005	442.62
395.229	448.62
395.454	442.62
395.678	465.62
395.903	452.62
396.127	486.62
396.352	477.62
396.576	440.62
396.801	444.62
397.025	466.62
397.249	460.62
397.474	458.62
397.698	475.62
397.922	463.62
398.147	465.62
398.371	499.62
398.595	483.62
398.82	478.62
399.044	510.62
399.268	545.62
399.492	524.62
399.717	588.62
399.941	613.62
400.165	621.62
400.389	600.62
400.613	580.62
400.837	509.62
401.062	531.62
401.286	519.62
401.51	482.62
401.734	477.62
401.958	461.62
402.182	502.62
402.406	494.62
402.63	505.62
402.854	483.62
403.078	500.62
403.302	495.62
403.526	507.62
403.75	511.62
403.974	525.62
404.198	498.62
404.422	519.62
404.645	512.62
404.869	505.62
405.093	550.62
405.317	577.62
405.541	583.62
405.765	548.62
405.988	513.62
406.212	520.62
406.436	535.62
406.66	563.62
406.883	541.62
407.107	561.62
407.331	614.62
407.555	637.62
407.778	646.62
408.002	605.62
408.226	553.62
408.449	543.62
408.673	549.62
408.896	541.62
409.12	587.62
409.344	559.62
409.567	511.62
409.791	502.62
410.014	505.62
410.238	505.62
410.461	530.62
410.685	525.62
410.908	504.62
411.132	544.62
411.355	570.62
411.578	535.62
411.802	512.62
412.025	504.62
412.249	512.62
412.472	533.62
412.695	546.62
412.919	548.62
413.142	505.62
413.365	497.62
413.589	489.62
413.812	480.62
414.035	505.62
414.258	487.62
414.482	475.62
414.705	507.62
414.928	464.62
415.151	468.62
415.374	477.62
415.597	477.62
415.821	472.62
416.044	466.62
416.267	476.62
416.49	481.62
416.713	470.62
416.936	485.62
417.159	462.62
417.382	470.62
417.605	467.62
417.828	470.62
418.051	491.62
418.274	466.62
418.497	468.62
418.72	466.62
418.943	465.62
419.166	501.62
419.389	507.62
419.611	504.62
419.834	508.62
420.057	493.62
420.28	487.62
420.503	481.62
420.726	484.62
420.948	505.62
421.171	511.62
421.394	567.62
421.617	515.62
421.839	488.62
422.062	499.62
422.285	492.62
422.507	551.62
422.73	599.62
422.953	576.62
423.175	527.62
423.398	497.62
423.621	483.62
423.843	532.62
424.066	527.62
424.288	515.62
424.511	544.62
424.733	565.62
424.956	621.62
425.178	602.62
425.401	595.62
425.623	615.62
425.846	558.62
426.068	508.62
426.291	487.62
426.513	489.62
426.735	494.62
426.958	549.62
427.18	595.62
427.402	697.62
427.625	768.62
427.847	624.62
428.069	571.62
428.292	523.62
428.514	493.62
428.736	474.62
428.958	484.62
429.181	455.62
429.403	464.62
429.625	467.62
429.847	503.62
430.069	553.62
430.292	540.62
430.514	475.62
430.736	467.62
430.958	456.62
431.18	457.62
431.402	440.62
431.624	439.62
431.846	436.62
432.068	447.62
432.29	454.62
432.512	445.62
432.734	470.62
432.956	440.62
433.178	450.62
433.4	468.62
433.622	454.62
433.844	457.62
434.066	439.62
434.287	438.62
434.509	461.62
434.731	467.62
434.953	459.62
435.175	475.62
435.397	533.62
435.618	502.62
435.84	551.62
436.062	599.62
436.284	639.62
436.505	558.62
436.727	496.62
436.949	456.62
437.17	461.62
437.392	467.62
437.614	477.62
437.835	495.62
438.057	558.62
438.278	627.62
438.5	616.62
438.721	679.62
438.943	677.62
439.165	543.62
439.386	504.62
439.608	484.62
439.829	515.62
440.05	522.62
440.272	554.62
440.493	524.62
440.715	480.62
440.936	455.62
441.158	488.62
441.379	465.62
441.6	477.62
441.822	487.62
442.043	523.62
442.264	579.62
442.486	610.62
442.707	542.62
442.928	514.62
443.149	518.62
443.371	534.62
443.592	548.62
443.813	631.62
444.034	679.62
444.255	588.62
444.476	517.62
444.698	517.62
444.919	497.62
445.14	590.62
445.361	536.62
445.582	551.62
445.803	570.62
446.024	641.62
446.245	656.62
446.466	603.62
446.687	505.62
446.908	483.62
447.129	478.62
447.35	451.62
447.571	454.62
447.792	439.62
448.013	455.62
448.234	473.62
448.455	490.62
448.675	618.62
448.896	651.62
449.117	574.62
449.338	553.62
449.559	624.62
449.779	717.62
450	579.62
450.221	488.62
450.442	468.62
450.662	443.62
450.883	439.62
451.104	432.62
451.324	429.62
451.545	417.62
451.766	402.62
451.986	403.62
452.207	414.62
452.428	394.62
452.648	410.62
452.869	421.62
453.089	415.62
453.31	431.62
453.53	420.62
453.751	411.62
453.971	393.62
454.192	389.62
454.412	422.62
454.633	390.62
454.853	374.62
455.073	403.62
455.294	430.62
455.514	475.62
455.734	436.62
455.955	420.62
456.175	397.62
456.395	394.62
456.616	392.62
456.836	389.62
457.056	380.62
457.276	392.62
457.497	391.62
457.717	379.62
457.937	407.62
458.157	411.62
458.377	417.62
458.598	416.62
458.818	474.62
459.038	512.62
459.258	526.62
459.478	464.62
459.698	449.62
459.918	440.62
460.138	425.62
460.358	453.62
460.578	435.62
460.798	453.62
461.018	438.62
461.238	457.62
461.458	473.62
461.678	429.62
461.898	462.62
462.118	450.62
462.338	467.62
462.558	470.62
462.777	470.62
462.997	528.62
463.217	500.62
463.437	529.62
463.657	493.62
463.876	483.62
464.096	482.62
464.316	467.62
464.536	489.62
464.755	488.62
464.975	490.62
465.195	464.62
465.414	544.62
465.634	479.62
465.854	471.62
466.073	451.62
466.293	409.62
466.512	405.62
466.732	418.62
466.951	441.62
467.171	433.62
467.391	417.62
467.61	432.62
467.829	412.62
468.049	399.62
468.268	412.62
468.488	405.62
468.707	402.62
468.927	398.62
469.146	396.62
469.365	421.62
469.585	404.62
469.804	409.62
470.023	405.62
470.243	418.62
470.462	438.62
470.681	429.62
470.901	425.62
471.12	423.62
471.339	411.62
471.558	421.62
471.777	433.62
471.997	424.62
472.216	416.62
472.435	445.62
472.654	436.62
472.873	411.62
473.092	421.62
473.311	440.62
473.53	435.62
473.749	432.62
473.968	480.62
474.187	520.62
474.406	545.62
474.625	465.62
474.844	441.62
475.063	409.62
475.282	415.62
475.501	406.62
475.72	425.62
475.939	433.62
476.158	439.62
476.377	418.62
476.596	413.62
476.814	453.62
477.033	437.62
477.252	447.62
477.471	440.62
477.69	470.62
477.908	457.62
478.127	450.62
478.346	470.62
478.564	491.62
478.783	470.62
479.002	459.62
479.22	496.62
479.439	479.62
479.658	518.62
479.876	512.62
480.095	481.62
480.313	557.62
480.532	542.62
480.751	520.62
480.969	527.62
481.188	541.62
481.406	572.62
481.624	531.62
481.843	501.62
482.061	500.62
482.28	489.62
482.498	503.62
482.717	468.62
482.935	473.62
483.153	478.62
483.372	490.62
483.59	470.62
483.808	475.62
484.027	483.62
484.245	505.62
484.463	495.62
484.681	492.62
484.9	473.62
485.118	484.62
485.336	477.62
485.554	486.62
485.772	494.62
485.99	489.62
486.209	512.62
486.427	497.62
486.645	514.62
486.863	519.62
487.081	512.62
487.299	523.62
487.517	475.62
487.735	519.62
487.953	524.62
488.171	509.62
488.389	520.62
488.607	507.62
488.825	502.62
489.043	493.62
489.261	529.62
489.479	506.62
489.696	536.62
489.914	534.62
490.132	543.62
490.35	529.62
490.568	523.62
490.786	557.62
491.003	549.62
491.221	556.62
491.439	579.62
491.657	569.62
491.874	572.62
492.092	559.62
492.31	570.62
492.527	580.62
492.745	587.62
492.963	606.62
493.18	611.62
493.398	588.62
493.615	608.62
493.833	597.62
494.05	607.62
494.268	612.62
494.485	601.62
494.703	585.62
494.92	619.62
495.138	581.62
495.355	617.62
495.573	608.62
495.79	601.62
496.008	591.62
496.225	602.62
496.442	615.62
496.66	639.62
496.877	609.62
497.094	597.62
497.312	633.62
497.529	647.62
497.746	631.62
497.963	637.62
498.181	669.62
498.398	649.62
498.615	671.62
498.832	699.62
499.049	710.62
499.267	731.62
499.484	760.62
499.701	786.62
499.918	832.62
500.135	849.62
500.352	909.62
500.569	939.62
500.786	943.62
501.003	949.62
501.22	883.62
501.437	842.62
501.654	808.62
501.871	786.62
502.088	757.62
