Data from 1964.PennyLincolnUp.Lamp.En5.5.200Scan.071719.P1._HRD10591_14-05-54-909.txt Node
Date: Thu Jul 18 14:05:54 EDT 2019
User: cochatt
Spectrometer: HR+D1059
Trigger mode: 1
Integration Time (sec): 1.000000E-1
Scans to average: 1
Electric dark correction enabled: true
Nonlinearity correction enabled: false
Boxcar width: 0
XAxis mode: Wavelengths
Number of Pixels in Spectrum: 2048
>>>>>Begin Spectral Data<<<<<
223.165	-25.88
223.4	-25.88
223.635	-25.88
223.869	-17.88
224.104	-8.88
224.338	-17.88
224.573	-6.88
224.808	-11.88
225.042	-16.88
225.277	4.12
225.511	-2.88
225.746	8.12
225.98	7.12
226.215	2.12
226.449	14.12
226.683	13.12
226.918	24.12
227.152	36.12
227.387	27.12
227.621	57.12
227.856	45.12
228.09	50.12
228.324	60.12
228.559	54.12
228.793	63.12
229.027	78.12
229.262	80.12
229.496	101.12
229.73	120.12
229.964	134.12
230.199	123.12
230.433	118.12
230.667	118.12
230.901	109.12
231.136	104.12
231.37	101.12
231.604	117.12
231.838	111.12
232.072	108.12
232.306	114.12
232.541	114.12
232.775	125.12
233.009	135.12
233.243	110.12
233.477	113.12
233.711	122.12
233.945	115.12
234.179	104.12
234.413	124.12
234.647	125.12
234.881	122.12
235.115	119.12
235.349	130.12
235.583	115.12
235.817	127.12
236.051	118.12
236.285	107.12
236.519	124.12
236.753	122.12
236.987	141.12
237.221	160.12
237.455	196.12
237.689	168.12
237.922	124.12
238.156	120.12
238.39	128.12
238.624	115.12
238.858	113.12
239.091	109.12
239.325	120.12
239.559	130.12
239.793	123.12
240.027	136.12
240.26	136.12
240.494	134.12
240.728	137.12
240.961	149.12
241.195	140.12
241.429	141.12
241.662	126.12
241.896	134.12
242.13	141.12
242.363	134.12
242.597	133.12
242.83	135.12
243.064	138.12
243.298	142.12
243.531	149.12
243.765	142.12
243.998	145.12
244.232	150.12
244.465	117.12
244.699	142.12
244.932	137.12
245.166	149.12
245.399	152.12
245.633	144.12
245.866	145.12
246.099	156.12
246.333	155.12
246.566	150.12
246.8	139.12
247.033	162.12
247.266	161.12
247.5	165.12
247.733	170.12
247.966	180.12
248.2	170.12
248.433	159.12
248.666	176.12
248.899	188.12
249.133	202.12
249.366	196.12
249.599	181.12
249.832	180.12
250.066	164.12
250.299	189.12
250.532	186.12
250.765	190.12
250.998	227.12
251.231	218.12
251.465	218.12
251.698	210.12
251.931	199.12
252.164	189.12
252.397	226.12
252.63	223.12
252.863	203.12
253.096	207.12
253.329	235.12
253.562	221.12
253.795	219.12
254.028	222.12
254.261	229.12
254.494	234.12
254.727	247.12
254.96	268.12
255.193	251.12
255.426	226.12
255.659	238.12
255.892	229.12
256.124	251.12
256.357	236.12
256.59	239.12
256.823	231.12
257.056	221.12
257.289	238.12
257.521	214.12
257.754	206.12
257.987	213.12
258.22	196.12
258.452	214.12
258.685	197.12
258.918	228.12
259.151	213.12
259.383	212.12
259.616	224.12
259.849	228.12
260.081	242.12
260.314	252.12
260.547	243.12
260.779	267.12
261.012	228.12
261.244	218.12
261.477	224.12
261.71	208.12
261.942	237.12
262.175	228.12
262.407	225.12
262.64	226.12
262.872	235.12
263.105	224.12
263.337	227.12
263.57	233.12
263.802	208.12
264.035	216.12
264.267	236.12
264.499	241.12
264.732	233.12
264.964	244.12
265.197	260.12
265.429	217.12
265.661	229.12
265.894	224.12
266.126	217.12
266.358	226.12
266.591	234.12
266.823	229.12
267.055	221.12
267.287	239.12
267.52	227.12
267.752	248.12
267.984	252.12
268.216	244.12
268.448	238.12
268.681	260.12
268.913	262.12
269.145	258.12
269.377	294.12
269.609	285.12
269.841	275.12
270.073	256.12
270.306	295.12
270.538	296.12
270.77	342.12
271.002	293.12
271.234	301.12
271.466	302.12
271.698	309.12
271.93	313.12
272.162	328.12
272.394	321.12
272.626	311.12
272.858	297.12
273.09	278.12
273.322	280.12
273.553	289.12
273.785	298.12
274.017	299.12
274.249	285.12
274.481	274.12
274.713	278.12
274.945	304.12
275.176	278.12
275.408	280.12
275.64	293.12
275.872	286.12
276.104	290.12
276.335	282.12
276.567	293.12
276.799	306.12
277.031	328.12
277.262	327.12
277.494	324.12
277.726	304.12
277.957	310.12
278.189	314.12
278.421	303.12
278.652	285.12
278.884	290.12
279.115	306.12
279.347	287.12
279.579	292.12
279.81	295.12
280.042	306.12
280.273	284.12
280.505	299.12
280.736	285.12
280.968	294.12
281.199	302.12
281.431	309.12
281.662	309.12
281.894	297.12
282.125	304.12
282.356	315.12
282.588	317.12
282.819	321.12
283.051	298.12
283.282	300.12
283.513	293.12
283.745	318.12
283.976	320.12
284.207	298.12
284.439	332.12
284.67	313.12
284.901	311.12
285.132	320.12
285.364	329.12
285.595	308.12
285.826	318.12
286.057	309.12
286.288	315.12
286.52	330.12
286.751	315.12
286.982	309.12
287.213	312.12
287.444	311.12
287.675	322.12
287.906	330.12
288.138	331.12
288.369	328.12
288.6	326.12
288.831	325.12
289.062	363.12
289.293	323.12
289.524	315.12
289.755	322.12
289.986	327.12
290.217	334.12
290.448	321.12
290.679	320.12
290.91	327.12
291.141	321.12
291.371	331.12
291.602	316.12
291.833	334.12
292.064	317.12
292.295	323.12
292.526	306.12
292.757	317.12
292.987	327.12
293.218	340.12
293.449	326.12
293.68	327.12
293.91	326.12
294.141	316.12
294.372	326.12
294.603	344.12
294.833	345.12
295.064	316.12
295.295	329.12
295.525	322.12
295.756	340.12
295.987	342.12
296.217	344.12
296.448	353.12
296.679	331.12
296.909	330.12
297.14	348.12
297.37	355.12
297.601	338.12
297.831	327.12
298.062	340.12
298.292	339.12
298.523	323.12
298.753	359.12
298.984	339.12
299.214	360.12
299.445	343.12
299.675	366.12
299.905	347.12
300.136	331.12
300.366	352.12
300.597	357.12
300.827	356.12
301.057	355.12
301.288	368.12
301.518	356.12
301.748	357.12
301.979	368.12
302.209	388.12
302.439	378.12
302.669	381.12
302.9	374.12
303.13	363.12
303.36	374.12
303.59	378.12
303.82	373.12
304.051	386.12
304.281	374.12
304.511	375.12
304.741	386.12
304.971	380.12
305.201	352.12
305.431	370.12
305.661	349.12
305.891	358.12
306.121	361.12
306.352	380.12
306.582	379.12
306.812	375.12
307.042	378.12
307.272	377.12
307.502	365.12
307.731	365.12
307.961	373.12
308.191	368.12
308.421	372.12
308.651	366.12
308.881	379.12
309.111	390.12
309.341	368.12
309.571	387.12
309.8	393.12
310.03	402.12
310.26	391.12
310.49	396.12
310.72	406.12
310.949	403.12
311.179	410.12
311.409	388.12
311.639	395.12
311.868	417.12
312.098	409.12
312.328	397.12
312.557	444.12
312.787	427.12
313.017	435.12
313.246	412.12
313.476	377.12
313.706	404.12
313.935	438.12
314.165	429.12
314.394	421.12
314.624	428.12
314.853	418.12
315.083	403.12
315.312	421.12
315.542	406.12
315.771	424.12
316.001	427.12
316.23	405.12
316.46	401.12
316.689	418.12
316.919	414.12
317.148	414.12
317.377	426.12
317.607	416.12
317.836	408.12
318.065	436.12
318.295	420.12
318.524	401.12
318.753	379.12
318.983	412.12
319.212	406.12
319.441	412.12
319.67	427.12
319.9	405.12
320.129	425.12
320.358	427.12
320.587	415.12
320.816	425.12
321.046	416.12
321.275	426.12
321.504	427.12
321.733	443.12
321.962	421.12
322.191	418.12
322.42	447.12
322.649	453.12
322.878	437.12
323.108	470.12
323.337	481.12
323.566	466.12
323.795	514.12
324.024	527.12
324.253	650.12
324.482	843.12
324.71	1237.12
324.939	1701.12
325.168	1439.12
325.397	775.12
325.626	563.12
325.855	526.12
326.084	508.12
326.313	504.12
326.542	489.12
326.77	522.12
326.999	599.12
327.228	763.12
327.457	1115.12
327.686	1242.12
327.914	864.12
328.143	600.12
328.372	589.12
328.6	575.12
328.829	533.12
329.058	546.12
329.287	537.12
329.515	538.12
329.744	523.12
329.972	517.12
330.201	520.12
330.43	545.12
330.658	547.12
330.887	564.12
331.115	570.12
331.344	534.12
331.572	497.12
331.801	488.12
332.03	498.12
332.258	480.12
332.486	482.12
332.715	483.12
332.943	494.12
333.172	496.12
333.4	510.12
333.629	517.12
333.857	516.12
334.085	553.12
334.314	538.12
334.542	560.12
334.771	576.12
334.999	543.12
335.227	510.12
335.455	508.12
335.684	479.12
335.912	489.12
336.14	469.12
336.369	485.12
336.597	476.12
336.825	486.12
337.053	463.12
337.281	457.12
337.51	453.12
337.738	460.12
337.966	460.12
338.194	479.12
338.422	477.12
338.65	472.12
338.878	462.12
339.106	465.12
339.334	463.12
339.562	469.12
339.79	477.12
340.018	458.12
340.246	447.12
340.474	457.12
340.702	440.12
340.93	447.12
341.158	455.12
341.386	463.12
341.614	431.12
341.842	434.12
342.07	446.12
342.298	454.12
342.526	460.12
342.754	444.12
342.981	440.12
343.209	471.12
343.437	480.12
343.665	482.12
343.893	478.12
344.12	477.12
344.348	457.12
344.576	471.12
344.804	464.12
345.031	461.12
345.259	490.12
345.487	478.12
345.714	450.12
345.942	440.12
346.17	435.12
346.397	432.12
346.625	442.12
346.853	422.12
347.08	440.12
347.308	429.12
347.535	438.12
347.763	436.12
347.99	447.12
348.218	434.12
348.445	442.12
348.673	451.12
348.9	434.12
349.128	424.12
349.355	438.12
349.583	424.12
349.81	421.12
350.037	429.12
350.265	415.12
350.492	408.12
350.72	411.12
350.947	414.12
351.174	424.12
351.402	420.12
351.629	429.12
351.856	431.12
352.083	435.12
352.311	447.12
352.538	436.12
352.765	409.12
352.992	412.12
353.22	414.12
353.447	416.12
353.674	406.12
353.901	408.12
354.128	406.12
354.355	400.12
354.583	390.12
354.81	394.12
355.037	379.12
355.264	422.12
355.491	408.12
355.718	411.12
355.945	405.12
356.172	400.12
356.399	398.12
356.626	395.12
356.853	412.12
357.08	407.12
357.307	389.12
357.534	392.12
357.761	411.12
357.988	408.12
358.215	410.12
358.441	403.12
358.668	401.12
358.895	413.12
359.122	393.12
359.349	402.12
359.576	410.12
359.802	443.12
360.029	449.12
360.256	460.12
360.483	451.12
360.709	400.12
360.936	415.12
361.163	410.12
361.39	400.12
361.616	438.12
361.843	432.12
362.07	392.12
362.296	423.12
362.523	400.12
362.749	412.12
362.976	432.12
363.203	427.12
363.429	401.12
363.656	420.12
363.882	405.12
364.109	413.12
364.335	406.12
364.562	392.12
364.788	416.12
365.015	398.12
365.241	387.12
365.468	411.12
365.694	386.12
365.92	413.12
366.147	408.12
366.373	392.12
366.599	401.12
366.826	404.12
367.052	393.12
367.278	388.12
367.505	405.12
367.731	391.12
367.957	393.12
368.184	384.12
368.41	386.12
368.636	392.12
368.862	419.12
369.089	392.12
369.315	406.12
369.541	374.12
369.767	386.12
369.993	390.12
370.219	412.12
370.445	386.12
370.672	402.12
370.898	411.12
371.124	382.12
371.35	407.12
371.576	406.12
371.802	397.12
372.028	391.12
372.254	395.12
372.48	423.12
372.706	415.12
372.932	406.12
373.158	403.12
373.384	423.12
373.61	401.12
373.835	407.12
374.061	398.12
374.287	408.12
374.513	392.12
374.739	416.12
374.965	424.12
375.191	425.12
375.416	416.12
375.642	402.12
375.868	407.12
376.094	404.12
376.319	402.12
376.545	391.12
376.771	403.12
376.997	403.12
377.222	389.12
377.448	388.12
377.674	393.12
377.899	397.12
378.125	390.12
378.35	394.12
378.576	374.12
378.802	418.12
379.027	393.12
379.253	390.12
379.478	382.12
379.704	378.12
379.929	394.12
380.155	377.12
380.38	394.12
380.606	394.12
380.831	379.12
381.057	404.12
381.282	408.12
381.507	411.12
381.733	404.12
381.958	402.12
382.184	384.12
382.409	401.12
382.634	421.12
382.86	415.12
383.085	409.12
383.31	402.12
383.535	400.12
383.761	429.12
383.986	414.12
384.211	415.12
384.436	404.12
384.662	419.12
384.887	446.12
385.112	426.12
385.337	421.12
385.562	413.12
385.787	399.12
386.013	451.12
386.238	444.12
386.463	451.12
386.688	424.12
386.913	446.12
387.138	432.12
387.363	424.12
387.588	413.12
387.813	420.12
388.038	458.12
388.263	431.12
388.488	423.12
388.713	441.12
388.938	413.12
389.163	430.12
389.387	423.12
389.612	420.12
389.837	424.12
390.062	423.12
390.287	425.12
390.512	438.12
390.736	436.12
390.961	438.12
391.186	422.12
391.411	442.12
391.636	433.12
391.86	450.12
392.085	447.12
392.31	436.12
392.534	425.12
392.759	441.12
392.984	430.12
393.208	454.12
393.433	440.12
393.658	438.12
393.882	419.12
394.107	445.12
394.331	430.12
394.556	429.12
394.78	435.12
395.005	421.12
395.229	428.12
395.454	451.12
395.678	448.12
395.903	447.12
396.127	473.12
396.352	457.12
396.576	468.12
396.801	432.12
397.025	435.12
397.249	460.12
397.474	470.12
397.698	461.12
397.922	482.12
398.147	480.12
398.371	491.12
398.595	469.12
398.82	473.12
399.044	501.12
399.268	530.12
399.492	542.12
399.717	561.12
399.941	608.12
400.165	605.12
400.389	599.12
400.613	576.12
400.837	533.12
401.062	510.12
401.286	489.12
401.51	484.12
401.734	476.12
401.958	486.12
402.182	494.12
402.406	473.12
402.63	507.12
402.854	491.12
403.078	489.12
403.302	517.12
403.526	522.12
403.75	507.12
403.974	504.12
404.198	500.12
404.422	515.12
404.645	541.12
404.869	523.12
405.093	565.12
405.317	564.12
405.541	594.12
405.765	536.12
405.988	537.12
406.212	527.12
406.436	535.12
406.66	566.12
406.883	542.12
407.107	539.12
407.331	584.12
407.555	644.12
407.778	627.12
408.002	597.12
408.226	568.12
408.449	532.12
408.673	552.12
408.896	555.12
409.12	591.12
409.344	588.12
409.567	511.12
409.791	516.12
410.014	494.12
410.238	498.12
410.461	523.12
410.685	500.12
410.908	521.12
411.132	535.12
411.355	539.12
411.578	535.12
411.802	487.12
412.025	534.12
412.249	514.12
412.472	518.12
412.695	558.12
412.919	547.12
413.142	502.12
413.365	517.12
413.589	508.12
413.812	479.12
414.035	464.12
414.258	471.12
414.482	470.12
414.705	467.12
414.928	455.12
415.151	455.12
415.374	472.12
415.597	475.12
415.821	491.12
416.044	484.12
416.267	464.12
416.49	478.12
416.713	465.12
416.936	474.12
417.159	462.12
417.382	422.12
417.605	474.12
417.828	474.12
418.051	488.12
418.274	493.12
418.497	456.12
418.72	450.12
418.943	487.12
419.166	488.12
419.389	487.12
419.611	495.12
419.834	510.12
420.057	500.12
420.28	499.12
420.503	475.12
420.726	474.12
420.948	485.12
421.171	537.12
421.394	539.12
421.617	503.12
421.839	489.12
422.062	474.12
422.285	501.12
422.507	526.12
422.73	608.12
422.953	592.12
423.175	522.12
423.398	494.12
423.621	499.12
423.843	504.12
424.066	519.12
424.288	512.12
424.511	491.12
424.733	555.12
424.956	605.12
425.178	591.12
425.401	572.12
425.623	612.12
425.846	518.12
426.068	505.12
426.291	504.12
426.513	513.12
426.735	534.12
426.958	532.12
427.18	586.12
427.402	675.12
427.625	739.12
427.847	632.12
428.069	598.12
428.292	518.12
428.514	501.12
428.736	446.12
428.958	468.12
429.181	480.12
429.403	476.12
429.625	491.12
429.847	492.12
430.069	526.12
430.292	542.12
430.514	466.12
430.736	459.12
430.958	458.12
431.18	468.12
431.402	444.12
431.624	426.12
431.846	452.12
432.068	438.12
432.29	457.12
432.512	454.12
432.734	428.12
432.956	430.12
433.178	436.12
433.4	456.12
433.622	446.12
433.844	441.12
434.066	451.12
434.287	465.12
434.509	460.12
434.731	472.12
434.953	456.12
435.175	485.12
435.397	502.12
435.618	483.12
435.84	512.12
436.062	591.12
436.284	646.12
436.505	560.12
436.727	489.12
436.949	477.12
437.17	454.12
437.392	440.12
437.614	476.12
437.835	472.12
438.057	570.12
438.278	612.12
438.5	644.12
438.721	699.12
438.943	678.12
439.165	511.12
439.386	491.12
439.608	481.12
439.829	501.12
440.05	517.12
440.272	539.12
440.493	514.12
440.715	488.12
440.936	464.12
441.158	468.12
441.379	443.12
441.6	470.12
441.822	501.12
442.043	534.12
442.264	574.12
442.486	591.12
442.707	524.12
442.928	525.12
443.149	496.12
443.371	523.12
443.592	573.12
443.813	616.12
444.034	703.12
444.255	584.12
444.476	546.12
444.698	493.12
444.919	503.12
445.14	650.12
445.361	555.12
445.582	551.12
445.803	578.12
446.024	663.12
446.245	643.12
446.466	600.12
446.687	508.12
446.908	481.12
447.129	468.12
447.35	460.12
447.571	470.12
447.792	455.12
448.013	448.12
448.234	474.12
448.455	513.12
448.675	590.12
448.896	685.12
449.117	583.12
449.338	535.12
449.559	640.12
449.779	710.12
450	559.12
450.221	486.12
450.442	441.12
450.662	430.12
450.883	442.12
451.104	445.12
451.324	404.12
451.545	423.12
451.766	398.12
451.986	411.12
452.207	393.12
452.428	387.12
452.648	390.12
452.869	415.12
453.089	425.12
453.31	426.12
453.53	415.12
453.751	418.12
453.971	398.12
454.192	412.12
454.412	398.12
454.633	404.12
454.853	402.12
455.073	398.12
455.294	438.12
455.514	462.12
455.734	462.12
455.955	418.12
456.175	391.12
456.395	391.12
456.616	375.12
456.836	382.12
457.056	404.12
457.276	408.12
457.497	411.12
457.717	396.12
457.937	387.12
458.157	398.12
458.377	400.12
458.598	422.12
458.818	471.12
459.038	526.12
459.258	512.12
459.478	480.12
459.698	444.12
459.918	416.12
460.138	435.12
460.358	460.12
460.578	446.12
460.798	453.12
461.018	429.12
461.238	460.12
461.458	447.12
461.678	443.12
461.898	458.12
462.118	460.12
462.338	458.12
462.558	494.12
462.777	474.12
462.997	476.12
463.217	504.12
463.437	487.12
463.657	514.12
463.876	484.12
464.096	495.12
464.316	499.12
464.536	476.12
464.755	483.12
464.975	514.12
465.195	487.12
465.414	523.12
465.634	502.12
465.854	464.12
466.073	452.12
466.293	429.12
466.512	436.12
466.732	438.12
466.951	420.12
467.171	423.12
467.391	419.12
467.61	409.12
467.829	438.12
468.049	423.12
468.268	420.12
468.488	412.12
468.707	409.12
468.927	399.12
469.146	396.12
469.365	422.12
469.585	393.12
469.804	401.12
470.023	402.12
470.243	418.12
470.462	432.12
470.681	419.12
470.901	416.12
471.12	412.12
471.339	427.12
471.558	419.12
471.777	403.12
471.997	398.12
472.216	411.12
472.435	434.12
472.654	462.12
472.873	416.12
473.092	401.12
473.311	409.12
473.53	420.12
473.749	432.12
473.968	471.12
474.187	552.12
474.406	529.12
474.625	454.12
474.844	440.12
475.063	409.12
475.282	395.12
475.501	427.12
475.72	440.12
475.939	428.12
476.158	434.12
476.377	430.12
476.596	436.12
476.814	461.12
477.033	435.12
477.252	454.12
477.471	449.12
477.69	440.12
477.908	460.12
478.127	465.12
478.346	438.12
478.564	472.12
478.783	472.12
479.002	476.12
479.22	484.12
479.439	491.12
479.658	507.12
479.876	512.12
480.095	515.12
480.313	546.12
480.532	517.12
480.751	510.12
480.969	528.12
481.188	564.12
481.406	585.12
481.624	522.12
481.843	511.12
482.061	495.12
482.28	481.12
482.498	475.12
482.717	486.12
482.935	472.12
483.153	483.12
483.372	462.12
483.59	481.12
483.808	481.12
484.027	471.12
484.245	476.12
484.463	483.12
484.681	519.12
484.9	501.12
485.118	503.12
485.336	483.12
485.554	502.12
485.772	506.12
485.99	504.12
486.209	495.12
486.427	488.12
486.645	502.12
486.863	516.12
487.081	516.12
487.299	518.12
487.517	531.12
487.735	526.12
487.953	520.12
488.171	505.12
488.389	521.12
488.607	522.12
488.825	515.12
489.043	508.12
489.261	513.12
489.479	506.12
489.696	546.12
489.914	537.12
490.132	527.12
490.35	531.12
490.568	532.12
490.786	527.12
491.003	540.12
491.221	588.12
491.439	562.12
491.657	603.12
491.874	571.12
492.092	593.12
492.31	564.12
492.527	577.12
492.745	579.12
492.963	596.12
493.18	584.12
493.398	610.12
493.615	605.12
493.833	622.12
494.05	594.12
494.268	603.12
494.485	587.12
494.703	595.12
494.92	584.12
495.138	585.12
495.355	606.12
495.573	603.12
495.79	584.12
496.008	608.12
496.225	606.12
496.442	618.12
496.66	624.12
496.877	586.12
497.094	618.12
497.312	622.12
497.529	619.12
497.746	646.12
497.963	672.12
498.181	674.12
498.398	669.12
498.615	685.12
498.832	696.12
499.049	714.12
499.267	736.12
499.484	750.12
499.701	800.12
499.918	841.12
500.135	883.12
500.352	925.12
500.569	926.12
500.786	948.12
501.003	875.12
501.22	889.12
501.437	826.12
501.654	834.12
501.871	801.12
502.088	737.12
