Data from 1964.PennyLincolnUp.Lamp.En5.5.200Scan.071719.P1._HRD10591_14-05-12-910.txt Node
Date: Thu Jul 18 14:05:12 EDT 2019
User: cochatt
Spectrometer: HR+D1059
Trigger mode: 1
Integration Time (sec): 1.000000E-1
Scans to average: 1
Electric dark correction enabled: true
Nonlinearity correction enabled: false
Boxcar width: 0
XAxis mode: Wavelengths
Number of Pixels in Spectrum: 2048
>>>>>Begin Spectral Data<<<<<
223.165	-6.69
223.4	-6.69
223.635	-6.69
223.869	-6.69
224.104	-34.69
224.338	-11.69
224.573	-11.69
224.808	-15.69
225.042	-16.69
225.277	-9.69
225.511	3.31
225.746	3.31
225.98	4.31
226.215	8.31
226.449	21.31
226.683	18.31
226.918	24.31
227.152	30.31
227.387	42.31
227.621	27.31
227.856	45.31
228.09	46.31
228.324	43.31
228.559	52.31
228.793	67.31
229.027	90.31
229.262	93.31
229.496	104.31
229.73	122.31
229.964	133.31
230.199	115.31
230.433	118.31
230.667	101.31
230.901	110.31
231.136	97.31
231.37	122.31
231.604	117.31
231.838	107.31
232.072	109.31
232.306	106.31
232.541	117.31
232.775	116.31
233.009	122.31
233.243	128.31
233.477	108.31
233.711	115.31
233.945	111.31
234.179	117.31
234.413	117.31
234.647	122.31
234.881	120.31
235.115	126.31
235.349	106.31
235.583	113.31
235.817	131.31
236.051	136.31
236.285	138.31
236.519	116.31
236.753	136.31
236.987	132.31
237.221	167.31
237.455	192.31
237.689	151.31
237.922	133.31
238.156	127.31
238.39	120.31
238.624	134.31
238.858	114.31
239.091	119.31
239.325	121.31
239.559	122.31
239.793	128.31
240.027	133.31
240.26	150.31
240.494	141.31
240.728	147.31
240.961	131.31
241.195	142.31
241.429	140.31
241.662	135.31
241.896	123.31
242.13	139.31
242.363	134.31
242.597	153.31
242.83	147.31
243.064	134.31
243.298	144.31
243.531	139.31
243.765	133.31
243.998	150.31
244.232	145.31
244.465	144.31
244.699	155.31
244.932	149.31
245.166	139.31
245.399	163.31
245.633	157.31
245.866	153.31
246.099	156.31
246.333	145.31
246.566	156.31
246.8	175.31
247.033	175.31
247.266	169.31
247.5	170.31
247.733	187.31
247.966	172.31
248.2	179.31
248.433	176.31
248.666	176.31
248.899	180.31
249.133	198.31
249.366	200.31
249.599	188.31
249.832	168.31
250.066	187.31
250.299	184.31
250.532	195.31
250.765	193.31
250.998	209.31
251.231	222.31
251.465	215.31
251.698	200.31
251.931	210.31
252.164	214.31
252.397	197.31
252.63	225.31
252.863	205.31
253.096	229.31
253.329	219.31
253.562	208.31
253.795	221.31
254.028	217.31
254.261	219.31
254.494	230.31
254.727	236.31
254.96	262.31
255.193	255.31
255.426	220.31
255.659	218.31
255.892	240.31
256.124	244.31
256.357	246.31
256.59	240.31
256.823	227.31
257.056	221.31
257.289	228.31
257.521	244.31
257.754	230.31
257.987	208.31
258.22	221.31
258.452	220.31
258.685	214.31
258.918	225.31
259.151	207.31
259.383	227.31
259.616	224.31
259.849	242.31
260.081	243.31
260.314	267.31
260.547	243.31
260.779	246.31
261.012	239.31
261.244	219.31
261.477	221.31
261.71	248.31
261.942	231.31
262.175	234.31
262.407	230.31
262.64	240.31
262.872	223.31
263.105	231.31
263.337	229.31
263.57	222.31
263.802	228.31
264.035	227.31
264.267	218.31
264.499	211.31
264.732	223.31
264.964	219.31
265.197	235.31
265.429	223.31
265.661	229.31
265.894	221.31
266.126	233.31
266.358	230.31
266.591	248.31
266.823	240.31
267.055	217.31
267.287	227.31
267.52	242.31
267.752	251.31
267.984	244.31
268.216	240.31
268.448	263.31
268.681	257.31
268.913	268.31
269.145	260.31
269.377	289.31
269.609	265.31
269.841	276.31
270.073	285.31
270.306	301.31
270.538	323.31
270.77	341.31
271.002	310.31
271.234	299.31
271.466	299.31
271.698	327.31
271.93	320.31
272.162	323.31
272.394	331.31
272.626	321.31
272.858	283.31
273.09	275.31
273.322	293.31
273.553	282.31
273.785	278.31
274.017	269.31
274.249	289.31
274.481	296.31
274.713	269.31
274.945	294.31
275.176	287.31
275.408	277.31
275.64	278.31
275.872	284.31
276.104	294.31
276.335	284.31
276.567	301.31
276.799	301.31
277.031	296.31
277.262	316.31
277.494	331.31
277.726	336.31
277.957	324.31
278.189	300.31
278.421	308.31
278.652	286.31
278.884	316.31
279.115	307.31
279.347	280.31
279.579	271.31
279.81	293.31
280.042	295.31
280.273	301.31
280.505	312.31
280.736	307.31
280.968	299.31
281.199	289.31
281.431	306.31
281.662	280.31
281.894	293.31
282.125	299.31
282.356	311.31
282.588	310.31
282.819	308.31
283.051	302.31
283.282	311.31
283.513	312.31
283.745	312.31
283.976	318.31
284.207	305.31
284.439	317.31
284.67	329.31
284.901	323.31
285.132	313.31
285.364	316.31
285.595	318.31
285.826	312.31
286.057	310.31
286.288	305.31
286.52	296.31
286.751	328.31
286.982	334.31
287.213	311.31
287.444	322.31
287.675	335.31
287.906	341.31
288.138	323.31
288.369	315.31
288.6	325.31
288.831	336.31
289.062	320.31
289.293	312.31
289.524	331.31
289.755	319.31
289.986	308.31
290.217	320.31
290.448	327.31
290.679	318.31
290.91	325.31
291.141	333.31
291.371	317.31
291.602	313.31
291.833	332.31
292.064	324.31
292.295	328.31
292.526	332.31
292.757	316.31
292.987	302.31
293.218	314.31
293.449	328.31
293.68	333.31
293.91	325.31
294.141	320.31
294.372	336.31
294.603	334.31
294.833	345.31
295.064	327.31
295.295	327.31
295.525	328.31
295.756	326.31
295.987	340.31
296.217	331.31
296.448	342.31
296.679	340.31
296.909	331.31
297.14	349.31
297.37	349.31
297.601	337.31
297.831	347.31
298.062	342.31
298.292	344.31
298.523	336.31
298.753	328.31
298.984	332.31
299.214	330.31
299.445	347.31
299.675	350.31
299.905	327.31
300.136	345.31
300.366	356.31
300.597	356.31
300.827	352.31
301.057	359.31
301.288	367.31
301.518	376.31
301.748	348.31
301.979	357.31
302.209	362.31
302.439	361.31
302.669	376.31
302.9	362.31
303.13	339.31
303.36	366.31
303.59	366.31
303.82	371.31
304.051	379.31
304.281	375.31
304.511	383.31
304.741	363.31
304.971	374.31
305.201	377.31
305.431	373.31
305.661	353.31
305.891	361.31
306.121	360.31
306.352	359.31
306.582	371.31
306.812	363.31
307.042	369.31
307.272	400.31
307.502	373.31
307.731	366.31
307.961	365.31
308.191	355.31
308.421	372.31
308.651	370.31
308.881	376.31
309.111	369.31
309.341	365.31
309.571	377.31
309.8	359.31
310.03	387.31
310.26	391.31
310.49	394.31
310.72	397.31
310.949	392.31
311.179	429.31
311.409	402.31
311.639	390.31
311.868	384.31
312.098	409.31
312.328	404.31
312.557	430.31
312.787	424.31
313.017	426.31
313.246	414.31
313.476	392.31
313.706	413.31
313.935	414.31
314.165	406.31
314.394	449.31
314.624	419.31
314.853	402.31
315.083	421.31
315.312	393.31
315.542	415.31
315.771	407.31
316.001	407.31
316.23	400.31
316.46	427.31
316.689	397.31
316.919	400.31
317.148	401.31
317.377	429.31
317.607	401.31
317.836	408.31
318.065	425.31
318.295	416.31
318.524	416.31
318.753	386.31
318.983	405.31
319.212	394.31
319.441	431.31
319.67	424.31
319.9	412.31
320.129	396.31
320.358	412.31
320.587	408.31
320.816	409.31
321.046	417.31
321.275	428.31
321.504	415.31
321.733	411.31
321.962	432.31
322.191	454.31
322.42	437.31
322.649	465.31
322.878	439.31
323.108	466.31
323.337	482.31
323.566	488.31
323.795	519.31
324.024	530.31
324.253	598.31
324.482	842.31
324.71	1146.31
324.939	1616.31
325.168	1353.31
325.397	763.31
325.626	593.31
325.855	504.31
326.084	492.31
326.313	494.31
326.542	475.31
326.77	521.31
326.999	593.31
327.228	746.31
327.457	1072.31
327.686	1233.31
327.914	859.31
328.143	625.31
328.372	544.31
328.6	543.31
328.829	512.31
329.058	516.31
329.287	539.31
329.515	533.31
329.744	522.31
329.972	514.31
330.201	539.31
330.43	555.31
330.658	545.31
330.887	579.31
331.115	556.31
331.344	499.31
331.572	487.31
331.801	501.31
332.03	497.31
332.258	495.31
332.486	474.31
332.715	452.31
332.943	503.31
333.172	492.31
333.4	467.31
333.629	510.31
333.857	535.31
334.085	541.31
334.314	545.31
334.542	580.31
334.771	571.31
334.999	539.31
335.227	506.31
335.455	508.31
335.684	495.31
335.912	509.31
336.14	509.31
336.369	486.31
336.597	483.31
336.825	475.31
337.053	472.31
337.281	469.31
337.51	473.31
337.738	466.31
337.966	483.31
338.194	447.31
338.422	463.31
338.65	462.31
338.878	489.31
339.106	458.31
339.334	456.31
339.562	451.31
339.79	458.31
340.018	463.31
340.246	461.31
340.474	440.31
340.702	449.31
340.93	447.31
341.158	439.31
341.386	442.31
341.614	474.31
341.842	459.31
342.07	436.31
342.298	442.31
342.526	444.31
342.754	430.31
342.981	434.31
343.209	443.31
343.437	464.31
343.665	467.31
343.893	475.31
344.12	490.31
344.348	461.31
344.576	472.31
344.804	455.31
345.031	463.31
345.259	468.31
345.487	448.31
345.714	463.31
345.942	445.31
346.17	450.31
346.397	416.31
346.625	419.31
346.853	415.31
347.08	421.31
347.308	436.31
347.535	447.31
347.763	429.31
347.99	416.31
348.218	427.31
348.445	432.31
348.673	440.31
348.9	423.31
349.128	435.31
349.355	445.31
349.583	423.31
349.81	417.31
350.037	424.31
350.265	431.31
350.492	432.31
350.72	415.31
350.947	440.31
351.174	427.31
351.402	419.31
351.629	429.31
351.856	416.31
352.083	438.31
352.311	436.31
352.538	440.31
352.765	434.31
352.992	420.31
353.22	414.31
353.447	397.31
353.674	425.31
353.901	416.31
354.128	415.31
354.355	405.31
354.583	423.31
354.81	384.31
355.037	401.31
355.264	390.31
355.491	400.31
355.718	401.31
355.945	406.31
356.172	394.31
356.399	378.31
356.626	405.31
356.853	387.31
357.08	376.31
357.307	403.31
357.534	397.31
357.761	420.31
357.988	397.31
358.215	397.31
358.441	408.31
358.668	411.31
358.895	420.31
359.122	403.31
359.349	395.31
359.576	419.31
359.802	422.31
360.029	427.31
360.256	441.31
360.483	439.31
360.709	405.31
360.936	415.31
361.163	410.31
361.39	423.31
361.616	433.31
361.843	430.31
362.07	412.31
362.296	417.31
362.523	415.31
362.749	424.31
362.976	405.31
363.203	410.31
363.429	407.31
363.656	404.31
363.882	401.31
364.109	415.31
364.335	393.31
364.562	412.31
364.788	400.31
365.015	394.31
365.241	405.31
365.468	379.31
365.694	400.31
365.92	400.31
366.147	405.31
366.373	393.31
366.599	406.31
366.826	400.31
367.052	380.31
367.278	399.31
367.505	402.31
367.731	398.31
367.957	401.31
368.184	409.31
368.41	401.31
368.636	411.31
368.862	426.31
369.089	406.31
369.315	407.31
369.541	403.31
369.767	384.31
369.993	409.31
370.219	385.31
370.445	398.31
370.672	395.31
370.898	411.31
371.124	412.31
371.35	405.31
371.576	390.31
371.802	405.31
372.028	431.31
372.254	396.31
372.48	412.31
372.706	400.31
372.932	414.31
373.158	427.31
373.384	427.31
373.61	386.31
373.835	414.31
374.061	409.31
374.287	412.31
374.513	384.31
374.739	399.31
374.965	407.31
375.191	415.31
375.416	414.31
375.642	385.31
375.868	428.31
376.094	417.31
376.319	405.31
376.545	404.31
376.771	383.31
376.997	385.31
377.222	411.31
377.448	394.31
377.674	390.31
377.899	392.31
378.125	404.31
378.35	394.31
378.576	399.31
378.802	407.31
379.027	413.31
379.253	387.31
379.478	368.31
379.704	387.31
379.929	379.31
380.155	397.31
380.38	401.31
380.606	405.31
380.831	378.31
381.057	409.31
381.282	410.31
381.507	414.31
381.733	405.31
381.958	421.31
382.184	397.31
382.409	397.31
382.634	420.31
382.86	401.31
383.085	410.31
383.31	412.31
383.535	436.31
383.761	423.31
383.986	415.31
384.211	436.31
384.436	411.31
384.662	435.31
384.887	436.31
385.112	425.31
385.337	431.31
385.562	439.31
385.787	436.31
386.013	447.31
386.238	443.31
386.463	442.31
386.688	435.31
386.913	430.31
387.138	432.31
387.363	427.31
387.588	441.31
387.813	427.31
388.038	441.31
388.263	432.31
388.488	413.31
388.713	425.31
388.938	442.31
389.163	441.31
389.387	431.31
389.612	413.31
389.837	428.31
390.062	449.31
390.287	424.31
390.512	435.31
390.736	439.31
390.961	442.31
391.186	432.31
391.411	443.31
391.636	444.31
391.86	440.31
392.085	451.31
392.31	448.31
392.534	435.31
392.759	439.31
392.984	438.31
393.208	444.31
393.433	434.31
393.658	419.31
393.882	433.31
394.107	445.31
394.331	425.31
394.556	444.31
394.78	439.31
395.005	477.31
395.229	441.31
395.454	451.31
395.678	453.31
395.903	457.31
396.127	465.31
396.352	453.31
396.576	452.31
396.801	452.31
397.025	439.31
397.249	445.31
397.474	466.31
397.698	466.31
397.922	465.31
398.147	476.31
398.371	494.31
398.595	482.31
398.82	494.31
399.044	502.31
399.268	514.31
399.492	550.31
399.717	570.31
399.941	624.31
400.165	625.31
400.389	603.31
400.613	552.31
400.837	525.31
401.062	511.31
401.286	501.31
401.51	499.31
401.734	487.31
401.958	490.31
402.182	469.31
402.406	480.31
402.63	507.31
402.854	527.31
403.078	493.31
403.302	525.31
403.526	506.31
403.75	490.31
403.974	523.31
404.198	497.31
404.422	513.31
404.645	532.31
404.869	539.31
405.093	559.31
405.317	568.31
405.541	613.31
405.765	563.31
405.988	524.31
406.212	519.31
406.436	542.31
406.66	546.31
406.883	542.31
407.107	572.31
407.331	607.31
407.555	652.31
407.778	631.31
408.002	575.31
408.226	545.31
408.449	552.31
408.673	545.31
408.896	562.31
409.12	592.31
409.344	560.31
409.567	532.31
409.791	495.31
410.014	515.31
410.238	509.31
410.461	508.31
410.685	509.31
410.908	528.31
411.132	551.31
411.355	545.31
411.578	538.31
411.802	493.31
412.025	485.31
412.249	506.31
412.472	511.31
412.695	555.31
412.919	548.31
413.142	488.31
413.365	497.31
413.589	491.31
413.812	472.31
414.035	499.31
414.258	476.31
414.482	476.31
414.705	492.31
414.928	444.31
415.151	477.31
415.374	481.31
415.597	473.31
415.821	468.31
416.044	458.31
416.267	475.31
416.49	460.31
416.713	467.31
416.936	494.31
417.159	471.31
417.382	488.31
417.605	454.31
417.828	485.31
418.051	481.31
418.274	484.31
418.497	457.31
418.72	468.31
418.943	496.31
419.166	483.31
419.389	533.31
419.611	495.31
419.834	487.31
420.057	491.31
420.28	506.31
420.503	495.31
420.726	481.31
420.948	514.31
421.171	539.31
421.394	553.31
421.617	499.31
421.839	471.31
422.062	477.31
422.285	490.31
422.507	565.31
422.73	578.31
422.953	571.31
423.175	528.31
423.398	494.31
423.621	509.31
423.843	525.31
424.066	501.31
424.288	500.31
424.511	511.31
424.733	576.31
424.956	606.31
425.178	590.31
425.401	606.31
425.623	609.31
425.846	527.31
426.068	523.31
426.291	493.31
426.513	476.31
426.735	490.31
426.958	541.31
427.18	585.31
427.402	677.31
427.625	739.31
427.847	617.31
428.069	552.31
428.292	524.31
428.514	480.31
428.736	472.31
428.958	473.31
429.181	456.31
429.403	449.31
429.625	469.31
429.847	469.31
430.069	545.31
430.292	537.31
430.514	474.31
430.736	460.31
430.958	455.31
431.18	441.31
431.402	449.31
431.624	428.31
431.846	447.31
432.068	437.31
432.29	453.31
432.512	420.31
432.734	445.31
432.956	460.31
433.178	448.31
433.4	455.31
433.622	443.31
433.844	444.31
434.066	458.31
434.287	452.31
434.509	440.31
434.731	456.31
434.953	456.31
435.175	447.31
435.397	472.31
435.618	503.31
435.84	523.31
436.062	570.31
436.284	623.31
436.505	565.31
436.727	492.31
436.949	490.31
437.17	460.31
437.392	457.31
437.614	461.31
437.835	492.31
438.057	567.31
438.278	623.31
438.5	633.31
438.721	668.31
438.943	665.31
439.165	554.31
439.386	482.31
439.608	495.31
439.829	494.31
440.05	513.31
440.272	551.31
440.493	511.31
440.715	468.31
440.936	465.31
441.158	454.31
441.379	467.31
441.6	474.31
441.822	470.31
442.043	525.31
442.264	591.31
442.486	611.31
442.707	535.31
442.928	510.31
443.149	511.31
443.371	515.31
443.592	550.31
443.813	641.31
444.034	666.31
444.255	567.31
444.476	530.31
444.698	502.31
444.919	523.31
445.14	622.31
445.361	575.31
445.582	534.31
445.803	565.31
446.024	665.31
446.245	643.31
446.466	594.31
446.687	516.31
446.908	521.31
447.129	445.31
447.35	455.31
447.571	454.31
447.792	454.31
448.013	449.31
448.234	431.31
448.455	516.31
448.675	589.31
448.896	669.31
449.117	573.31
449.338	538.31
449.559	636.31
449.779	714.31
450	559.31
450.221	473.31
450.442	458.31
450.662	433.31
450.883	443.31
451.104	435.31
451.324	440.31
451.545	421.31
451.766	439.31
451.986	407.31
452.207	417.31
452.428	392.31
452.648	401.31
452.869	401.31
453.089	403.31
453.31	409.31
453.53	411.31
453.751	395.31
453.971	392.31
454.192	411.31
454.412	412.31
454.633	409.31
454.853	392.31
455.073	413.31
455.294	413.31
455.514	464.31
455.734	444.31
455.955	416.31
456.175	407.31
456.395	379.31
456.616	379.31
456.836	401.31
457.056	387.31
457.276	389.31
457.497	390.31
457.717	392.31
457.937	393.31
458.157	396.31
458.377	405.31
458.598	433.31
458.818	446.31
459.038	485.31
459.258	524.31
459.478	457.31
459.698	435.31
459.918	446.31
460.138	424.31
460.358	445.31
460.578	449.31
460.798	442.31
461.018	463.31
461.238	477.31
461.458	468.31
461.678	462.31
461.898	446.31
462.118	451.31
462.338	472.31
462.558	477.31
462.777	479.31
462.997	487.31
463.217	501.31
463.437	507.31
463.657	493.31
463.876	502.31
464.096	484.31
464.316	481.31
464.536	493.31
464.755	481.31
464.975	495.31
465.195	510.31
465.414	506.31
465.634	474.31
465.854	440.31
466.073	438.31
466.293	445.31
466.512	428.31
466.732	421.31
466.951	412.31
467.171	427.31
467.391	407.31
467.61	439.31
467.829	426.31
468.049	419.31
468.268	411.31
468.488	418.31
468.707	421.31
468.927	400.31
469.146	415.31
469.365	417.31
469.585	410.31
469.804	410.31
470.023	428.31
470.243	429.31
470.462	429.31
470.681	444.31
470.901	403.31
471.12	438.31
471.339	421.31
471.558	436.31
471.777	429.31
471.997	438.31
472.216	418.31
472.435	446.31
472.654	457.31
472.873	424.31
473.092	431.31
473.311	408.31
473.53	432.31
473.749	430.31
473.968	451.31
474.187	531.31
474.406	582.31
474.625	476.31
474.844	440.31
475.063	401.31
475.282	420.31
475.501	423.31
475.72	448.31
475.939	411.31
476.158	427.31
476.377	419.31
476.596	423.31
476.814	438.31
477.033	435.31
477.252	433.31
477.471	465.31
477.69	464.31
477.908	475.31
478.127	459.31
478.346	464.31
478.564	473.31
478.783	468.31
479.002	493.31
479.22	479.31
479.439	504.31
479.658	499.31
479.876	505.31
480.095	486.31
480.313	518.31
480.532	498.31
480.751	517.31
480.969	517.31
481.188	556.31
481.406	556.31
481.624	520.31
481.843	503.31
482.061	488.31
482.28	483.31
482.498	499.31
482.717	491.31
482.935	497.31
483.153	478.31
483.372	489.31
483.59	486.31
483.808	479.31
484.027	481.31
484.245	483.31
484.463	503.31
484.681	504.31
484.9	477.31
485.118	495.31
485.336	487.31
485.554	502.31
485.772	487.31
485.99	487.31
486.209	514.31
486.427	507.31
486.645	494.31
486.863	509.31
487.081	508.31
487.299	510.31
487.517	504.31
487.735	500.31
487.953	508.31
488.171	514.31
488.389	483.31
488.607	517.31
488.825	520.31
489.043	525.31
489.261	511.31
489.479	551.31
489.696	506.31
489.914	534.31
490.132	514.31
490.35	528.31
490.568	545.31
490.786	548.31
491.003	530.31
491.221	558.31
491.439	566.31
491.657	565.31
491.874	569.31
492.092	579.31
492.31	582.31
492.527	584.31
492.745	591.31
492.963	589.31
493.18	585.31
493.398	604.31
493.615	584.31
493.833	594.31
494.05	590.31
494.268	595.31
494.485	599.31
494.703	597.31
494.92	597.31
495.138	605.31
495.355	601.31
495.573	601.31
495.79	620.31
496.008	587.31
496.225	590.31
496.442	602.31
496.66	618.31
496.877	602.31
497.094	619.31
497.312	624.31
497.529	625.31
497.746	656.31
497.963	641.31
498.181	645.31
498.398	677.31
498.615	689.31
498.832	724.31
499.049	720.31
499.267	751.31
499.484	771.31
499.701	821.31
499.918	813.31
500.135	859.31
500.352	899.31
500.569	956.31
500.786	955.31
501.003	907.31
501.22	903.31
501.437	859.31
501.654	805.31
501.871	811.31
502.088	745.31
