Data from 1964.PennyLincolnUp.Lamp.En5.5.200Scan.071719.P1._HRD10591_14-03-59-909.txt Node
Date: Thu Jul 18 14:03:59 EDT 2019
User: cochatt
Spectrometer: HR+D1059
Trigger mode: 1
Integration Time (sec): 1.000000E-1
Scans to average: 1
Electric dark correction enabled: true
Nonlinearity correction enabled: false
Boxcar width: 0
XAxis mode: Wavelengths
Number of Pixels in Spectrum: 2048
>>>>>Begin Spectral Data<<<<<
223.165	-22.75
223.4	-22.75
223.635	-22.75
223.869	-10.75
224.104	-10.75
224.338	-4.75
224.573	2.25
224.808	-13.75
225.042	-12.75
225.277	-9.75
225.511	-7.75
225.746	0.25
225.98	17.25
226.215	-8.75
226.449	16.25
226.683	25.25
226.918	18.25
227.152	22.25
227.387	21.25
227.621	34.25
227.856	40.25
228.09	53.25
228.324	55.25
228.559	59.25
228.793	77.25
229.027	67.25
229.262	82.25
229.496	108.25
229.73	108.25
229.964	106.25
230.199	109.25
230.433	100.25
230.667	90.25
230.901	94.25
231.136	94.25
231.37	115.25
231.604	103.25
231.838	114.25
232.072	91.25
232.306	105.25
232.541	110.25
232.775	115.25
233.009	93.25
233.243	109.25
233.477	104.25
233.711	117.25
233.945	105.25
234.179	101.25
234.413	103.25
234.647	113.25
234.881	105.25
235.115	125.25
235.349	111.25
235.583	119.25
235.817	112.25
236.051	108.25
236.285	119.25
236.519	105.25
236.753	121.25
236.987	125.25
237.221	149.25
237.455	168.25
237.689	156.25
237.922	123.25
238.156	128.25
238.39	111.25
238.624	118.25
238.858	114.25
239.091	117.25
239.325	114.25
239.559	103.25
239.793	103.25
240.027	120.25
240.26	122.25
240.494	128.25
240.728	131.25
240.961	124.25
241.195	133.25
241.429	140.25
241.662	129.25
241.896	131.25
242.13	135.25
242.363	131.25
242.597	135.25
242.83	133.25
243.064	127.25
243.298	134.25
243.531	126.25
243.765	140.25
243.998	141.25
244.232	129.25
244.465	125.25
244.699	131.25
244.932	146.25
245.166	133.25
245.399	140.25
245.633	128.25
245.866	133.25
246.099	134.25
246.333	142.25
246.566	143.25
246.8	154.25
247.033	145.25
247.266	149.25
247.5	161.25
247.733	163.25
247.966	158.25
248.2	165.25
248.433	183.25
248.666	159.25
248.899	179.25
249.133	180.25
249.366	161.25
249.599	173.25
249.832	154.25
250.066	164.25
250.299	167.25
250.532	173.25
250.765	186.25
250.998	204.25
251.231	205.25
251.465	179.25
251.698	191.25
251.931	191.25
252.164	186.25
252.397	181.25
252.63	175.25
252.863	177.25
253.096	201.25
253.329	202.25
253.562	204.25
253.795	200.25
254.028	198.25
254.261	206.25
254.494	204.25
254.727	217.25
254.96	233.25
255.193	218.25
255.426	230.25
255.659	213.25
255.892	214.25
256.124	214.25
256.357	229.25
256.59	219.25
256.823	225.25
257.056	212.25
257.289	205.25
257.521	205.25
257.754	210.25
257.987	206.25
258.22	219.25
258.452	215.25
258.685	194.25
258.918	201.25
259.151	211.25
259.383	217.25
259.616	209.25
259.849	196.25
260.081	223.25
260.314	243.25
260.547	235.25
260.779	227.25
261.012	211.25
261.244	231.25
261.477	201.25
261.71	215.25
261.942	183.25
262.175	220.25
262.407	219.25
262.64	215.25
262.872	203.25
263.105	220.25
263.337	218.25
263.57	218.25
263.802	218.25
264.035	210.25
264.267	203.25
264.499	198.25
264.732	225.25
264.964	209.25
265.197	197.25
265.429	202.25
265.661	215.25
265.894	214.25
266.126	227.25
266.358	221.25
266.591	224.25
266.823	214.25
267.055	209.25
267.287	223.25
267.52	211.25
267.752	229.25
267.984	203.25
268.216	226.25
268.448	241.25
268.681	231.25
268.913	245.25
269.145	248.25
269.377	264.25
269.609	246.25
269.841	260.25
270.073	264.25
270.306	283.25
270.538	272.25
270.77	273.25
271.002	285.25
271.234	270.25
271.466	284.25
271.698	292.25
271.93	295.25
272.162	287.25
272.394	305.25
272.626	268.25
272.858	274.25
273.09	277.25
273.322	271.25
273.553	258.25
273.785	259.25
274.017	265.25
274.249	261.25
274.481	268.25
274.713	268.25
274.945	266.25
275.176	248.25
275.408	245.25
275.64	248.25
275.872	250.25
276.104	273.25
276.335	260.25
276.567	267.25
276.799	274.25
277.031	309.25
277.262	313.25
277.494	298.25
277.726	280.25
277.957	293.25
278.189	269.25
278.421	271.25
278.652	278.25
278.884	284.25
279.115	251.25
279.347	265.25
279.579	266.25
279.81	273.25
280.042	278.25
280.273	250.25
280.505	272.25
280.736	265.25
280.968	285.25
281.199	277.25
281.431	276.25
281.662	274.25
281.894	279.25
282.125	276.25
282.356	296.25
282.588	282.25
282.819	287.25
283.051	277.25
283.282	294.25
283.513	277.25
283.745	272.25
283.976	297.25
284.207	291.25
284.439	288.25
284.67	280.25
284.901	279.25
285.132	279.25
285.364	289.25
285.595	304.25
285.826	281.25
286.057	275.25
286.288	303.25
286.52	297.25
286.751	288.25
286.982	307.25
287.213	301.25
287.444	285.25
287.675	295.25
287.906	297.25
288.138	307.25
288.369	317.25
288.6	301.25
288.831	332.25
289.062	306.25
289.293	305.25
289.524	295.25
289.755	298.25
289.986	311.25
290.217	305.25
290.448	296.25
290.679	305.25
290.91	296.25
291.141	293.25
291.371	301.25
291.602	294.25
291.833	294.25
292.064	305.25
292.295	313.25
292.526	307.25
292.757	316.25
292.987	302.25
293.218	314.25
293.449	298.25
293.68	302.25
293.91	305.25
294.141	319.25
294.372	311.25
294.603	319.25
294.833	328.25
295.064	303.25
295.295	290.25
295.525	310.25
295.756	296.25
295.987	309.25
296.217	317.25
296.448	332.25
296.679	328.25
296.909	312.25
297.14	298.25
297.37	301.25
297.601	317.25
297.831	307.25
298.062	319.25
298.292	318.25
298.523	321.25
298.753	327.25
298.984	324.25
299.214	321.25
299.445	334.25
299.675	329.25
299.905	333.25
300.136	326.25
300.366	332.25
300.597	339.25
300.827	328.25
301.057	337.25
301.288	341.25
301.518	322.25
301.748	327.25
301.979	330.25
302.209	335.25
302.439	350.25
302.669	338.25
302.9	336.25
303.13	328.25
303.36	354.25
303.59	335.25
303.82	351.25
304.051	360.25
304.281	341.25
304.511	349.25
304.741	361.25
304.971	344.25
305.201	333.25
305.431	345.25
305.661	331.25
305.891	338.25
306.121	353.25
306.352	366.25
306.582	340.25
306.812	357.25
307.042	378.25
307.272	339.25
307.502	362.25
307.731	339.25
307.961	363.25
308.191	360.25
308.421	345.25
308.651	342.25
308.881	355.25
309.111	348.25
309.341	358.25
309.571	371.25
309.8	366.25
310.03	367.25
310.26	381.25
310.49	376.25
310.72	357.25
310.949	369.25
311.179	375.25
311.409	363.25
311.639	375.25
311.868	355.25
312.098	371.25
312.328	372.25
312.557	389.25
312.787	402.25
313.017	391.25
313.246	375.25
313.476	385.25
313.706	371.25
313.935	383.25
314.165	375.25
314.394	383.25
314.624	388.25
314.853	387.25
315.083	386.25
315.312	378.25
315.542	365.25
315.771	393.25
316.001	389.25
316.23	375.25
316.46	381.25
316.689	384.25
316.919	382.25
317.148	377.25
317.377	366.25
317.607	387.25
317.836	376.25
318.065	387.25
318.295	382.25
318.524	380.25
318.753	366.25
318.983	364.25
319.212	389.25
319.441	398.25
319.67	390.25
319.9	374.25
320.129	391.25
320.358	381.25
320.587	372.25
320.816	385.25
321.046	384.25
321.275	383.25
321.504	378.25
321.733	386.25
321.962	377.25
322.191	415.25
322.42	419.25
322.649	418.25
322.878	406.25
323.108	410.25
323.337	428.25
323.566	434.25
323.795	456.25
324.024	451.25
324.253	530.25
324.482	701.25
324.71	997.25
324.939	1317.25
325.168	1148.25
325.397	651.25
325.626	494.25
325.855	439.25
326.084	446.25
326.313	436.25
326.542	443.25
326.77	456.25
326.999	521.25
327.228	646.25
327.457	885.25
327.686	1020.25
327.914	717.25
328.143	524.25
328.372	492.25
328.6	474.25
328.829	477.25
329.058	471.25
329.287	491.25
329.515	457.25
329.744	458.25
329.972	467.25
330.201	459.25
330.43	488.25
330.658	491.25
330.887	505.25
331.115	492.25
331.344	484.25
331.572	453.25
331.801	456.25
332.03	452.25
332.258	440.25
332.486	446.25
332.715	426.25
332.943	477.25
333.172	451.25
333.4	445.25
333.629	466.25
333.857	461.25
334.085	479.25
334.314	494.25
334.542	496.25
334.771	501.25
334.999	478.25
335.227	469.25
335.455	439.25
335.684	446.25
335.912	452.25
336.14	463.25
336.369	454.25
336.597	429.25
336.825	425.25
337.053	437.25
337.281	428.25
337.51	427.25
337.738	427.25
337.966	450.25
338.194	441.25
338.422	437.25
338.65	420.25
338.878	443.25
339.106	423.25
339.334	417.25
339.562	425.25
339.79	429.25
340.018	418.25
340.246	413.25
340.474	412.25
340.702	408.25
340.93	425.25
341.158	406.25
341.386	421.25
341.614	403.25
341.842	411.25
342.07	407.25
342.298	411.25
342.526	404.25
342.754	420.25
342.981	416.25
343.209	432.25
343.437	427.25
343.665	418.25
343.893	456.25
344.12	460.25
344.348	444.25
344.576	426.25
344.804	454.25
345.031	429.25
345.259	422.25
345.487	431.25
345.714	430.25
345.942	409.25
346.17	407.25
346.397	407.25
346.625	407.25
346.853	397.25
347.08	407.25
347.308	397.25
347.535	396.25
347.763	393.25
347.99	408.25
348.218	393.25
348.445	413.25
348.673	405.25
348.9	400.25
349.128	381.25
349.355	373.25
349.583	382.25
349.81	364.25
350.037	381.25
350.265	395.25
350.492	363.25
350.72	394.25
350.947	378.25
351.174	380.25
351.402	394.25
351.629	388.25
351.856	380.25
352.083	390.25
352.311	388.25
352.538	396.25
352.765	392.25
352.992	391.25
353.22	381.25
353.447	393.25
353.674	378.25
353.901	375.25
354.128	399.25
354.355	403.25
354.583	379.25
354.81	384.25
355.037	377.25
355.264	385.25
355.491	376.25
355.718	392.25
355.945	383.25
356.172	367.25
356.399	364.25
356.626	377.25
356.853	360.25
357.08	362.25
357.307	377.25
357.534	377.25
357.761	385.25
357.988	402.25
358.215	386.25
358.441	395.25
358.668	366.25
358.895	391.25
359.122	392.25
359.349	392.25
359.576	386.25
359.802	378.25
360.029	396.25
360.256	424.25
360.483	387.25
360.709	386.25
360.936	388.25
361.163	381.25
361.39	381.25
361.616	373.25
361.843	400.25
362.07	369.25
362.296	394.25
362.523	389.25
362.749	377.25
362.976	372.25
363.203	356.25
363.429	352.25
363.656	358.25
363.882	399.25
364.109	371.25
364.335	379.25
364.562	378.25
364.788	381.25
365.015	394.25
365.241	382.25
365.468	379.25
365.694	384.25
365.92	379.25
366.147	394.25
366.373	393.25
366.599	354.25
366.826	364.25
367.052	353.25
367.278	383.25
367.505	381.25
367.731	372.25
367.957	378.25
368.184	376.25
368.41	381.25
368.636	389.25
368.862	377.25
369.089	378.25
369.315	352.25
369.541	379.25
369.767	364.25
369.993	383.25
370.219	365.25
370.445	387.25
370.672	375.25
370.898	367.25
371.124	370.25
371.35	379.25
371.576	409.25
371.802	391.25
372.028	383.25
372.254	358.25
372.48	385.25
372.706	356.25
372.932	385.25
373.158	380.25
373.384	389.25
373.61	379.25
373.835	364.25
374.061	392.25
374.287	387.25
374.513	402.25
374.739	394.25
374.965	397.25
375.191	373.25
375.416	376.25
375.642	390.25
375.868	382.25
376.094	368.25
376.319	385.25
376.545	395.25
376.771	370.25
376.997	356.25
377.222	383.25
377.448	365.25
377.674	377.25
377.899	363.25
378.125	389.25
378.35	358.25
378.576	354.25
378.802	346.25
379.027	360.25
379.253	366.25
379.478	371.25
379.704	371.25
379.929	372.25
380.155	382.25
380.38	358.25
380.606	381.25
380.831	367.25
381.057	378.25
381.282	358.25
381.507	360.25
381.733	369.25
381.958	349.25
382.184	373.25
382.409	368.25
382.634	366.25
382.86	383.25
383.085	382.25
383.31	381.25
383.535	372.25
383.761	380.25
383.986	399.25
384.211	394.25
384.436	402.25
384.662	384.25
384.887	405.25
385.112	393.25
385.337	403.25
385.562	430.25
385.787	404.25
386.013	417.25
386.238	413.25
386.463	422.25
386.688	403.25
386.913	386.25
387.138	402.25
387.363	411.25
387.588	409.25
387.813	399.25
388.038	419.25
388.263	389.25
388.488	412.25
388.713	402.25
388.938	383.25
389.163	400.25
389.387	409.25
389.612	398.25
389.837	407.25
390.062	397.25
390.287	389.25
390.512	401.25
390.736	394.25
390.961	414.25
391.186	404.25
391.411	419.25
391.636	434.25
391.86	417.25
392.085	435.25
392.31	434.25
392.534	423.25
392.759	421.25
392.984	404.25
393.208	406.25
393.433	424.25
393.658	414.25
393.882	409.25
394.107	417.25
394.331	407.25
394.556	409.25
394.78	405.25
395.005	421.25
395.229	414.25
395.454	418.25
395.678	432.25
395.903	420.25
396.127	457.25
396.352	435.25
396.576	405.25
396.801	429.25
397.025	418.25
397.249	433.25
397.474	438.25
397.698	441.25
397.922	452.25
398.147	466.25
398.371	451.25
398.595	477.25
398.82	454.25
399.044	482.25
399.268	482.25
399.492	550.25
399.717	561.25
399.941	587.25
400.165	567.25
400.389	534.25
400.613	497.25
400.837	482.25
401.062	463.25
401.286	473.25
401.51	467.25
401.734	454.25
401.958	463.25
402.182	447.25
402.406	458.25
402.63	466.25
402.854	485.25
403.078	470.25
403.302	471.25
403.526	475.25
403.75	473.25
403.974	475.25
404.198	490.25
404.422	478.25
404.645	471.25
404.869	484.25
405.093	519.25
405.317	529.25
405.541	537.25
405.765	507.25
405.988	491.25
406.212	502.25
406.436	493.25
406.66	515.25
406.883	528.25
407.107	550.25
407.331	551.25
407.555	588.25
407.778	587.25
408.002	527.25
408.226	524.25
408.449	495.25
408.673	499.25
408.896	521.25
409.12	564.25
409.344	525.25
409.567	472.25
409.791	484.25
410.014	482.25
410.238	472.25
410.461	470.25
410.685	464.25
410.908	474.25
411.132	515.25
411.355	521.25
411.578	495.25
411.802	451.25
412.025	460.25
412.249	483.25
412.472	475.25
412.695	511.25
412.919	505.25
413.142	475.25
413.365	453.25
413.589	461.25
413.812	454.25
414.035	459.25
414.258	430.25
414.482	455.25
414.705	438.25
414.928	438.25
415.151	446.25
415.374	437.25
415.597	440.25
415.821	443.25
416.044	441.25
416.267	428.25
416.49	429.25
416.713	439.25
416.936	447.25
417.159	437.25
417.382	445.25
417.605	413.25
417.828	455.25
418.051	436.25
418.274	451.25
418.497	437.25
418.72	438.25
418.943	420.25
419.166	443.25
419.389	463.25
419.611	483.25
419.834	451.25
420.057	451.25
420.28	439.25
420.503	437.25
420.726	463.25
420.948	458.25
421.171	503.25
421.394	516.25
421.617	443.25
421.839	448.25
422.062	437.25
422.285	459.25
422.507	494.25
422.73	545.25
422.953	509.25
423.175	464.25
423.398	454.25
423.621	449.25
423.843	487.25
424.066	479.25
424.288	466.25
424.511	453.25
424.733	515.25
424.956	568.25
425.178	548.25
425.401	542.25
425.623	530.25
425.846	507.25
426.068	455.25
426.291	457.25
426.513	437.25
426.735	472.25
426.958	498.25
427.18	557.25
427.402	636.25
427.625	660.25
427.847	573.25
428.069	537.25
428.292	474.25
428.514	461.25
428.736	439.25
428.958	434.25
429.181	433.25
429.403	407.25
429.625	423.25
429.847	428.25
430.069	472.25
430.292	472.25
430.514	428.25
430.736	445.25
430.958	431.25
431.18	385.25
431.402	417.25
431.624	403.25
431.846	407.25
432.068	414.25
432.29	421.25
432.512	445.25
432.734	421.25
432.956	404.25
433.178	419.25
433.4	416.25
433.622	436.25
433.844	425.25
434.066	398.25
434.287	412.25
434.509	421.25
434.731	434.25
434.953	425.25
435.175	430.25
435.397	445.25
435.618	441.25
435.84	486.25
436.062	547.25
436.284	595.25
436.505	477.25
436.727	449.25
436.949	443.25
437.17	434.25
437.392	427.25
437.614	399.25
437.835	457.25
438.057	518.25
438.278	550.25
438.5	590.25
438.721	633.25
438.943	601.25
439.165	478.25
439.386	447.25
439.608	461.25
439.829	444.25
440.05	477.25
440.272	466.25
440.493	467.25
440.715	455.25
440.936	448.25
441.158	433.25
441.379	436.25
441.6	401.25
441.822	433.25
442.043	470.25
442.264	538.25
442.486	542.25
442.707	488.25
442.928	457.25
443.149	470.25
443.371	473.25
443.592	496.25
443.813	563.25
444.034	586.25
444.255	503.25
444.476	468.25
444.698	467.25
444.919	490.25
445.14	603.25
445.361	547.25
445.582	487.25
445.803	518.25
446.024	565.25
446.245	571.25
446.466	553.25
446.687	460.25
446.908	433.25
447.129	424.25
447.35	415.25
447.571	423.25
447.792	403.25
448.013	413.25
448.234	409.25
448.455	461.25
448.675	521.25
448.896	625.25
449.117	514.25
449.338	483.25
449.559	566.25
449.779	642.25
450	519.25
450.221	457.25
450.442	404.25
450.662	391.25
450.883	412.25
451.104	405.25
451.324	401.25
451.545	405.25
451.766	381.25
451.986	374.25
452.207	383.25
452.428	377.25
452.648	380.25
452.869	365.25
453.089	358.25
453.31	375.25
453.53	375.25
453.751	365.25
453.971	375.25
454.192	367.25
454.412	385.25
454.633	365.25
454.853	379.25
455.073	353.25
455.294	385.25
455.514	427.25
455.734	417.25
455.955	389.25
456.175	369.25
456.395	370.25
456.616	355.25
456.836	362.25
457.056	348.25
457.276	339.25
457.497	349.25
457.717	361.25
457.937	382.25
458.157	346.25
458.377	381.25
458.598	387.25
458.818	415.25
459.038	462.25
459.258	467.25
459.478	435.25
459.698	414.25
459.918	393.25
460.138	410.25
460.358	414.25
460.578	394.25
460.798	419.25
461.018	423.25
461.238	425.25
461.458	409.25
461.678	430.25
461.898	431.25
462.118	423.25
462.338	440.25
462.558	453.25
462.777	458.25
462.997	468.25
463.217	490.25
463.437	470.25
463.657	493.25
463.876	470.25
464.096	463.25
464.316	452.25
464.536	463.25
464.755	479.25
464.975	451.25
465.195	463.25
465.414	463.25
465.634	452.25
465.854	421.25
466.073	424.25
466.293	404.25
466.512	382.25
466.732	406.25
466.951	386.25
467.171	376.25
467.391	385.25
467.61	403.25
467.829	373.25
468.049	389.25
468.268	384.25
468.488	387.25
468.707	382.25
468.927	378.25
469.146	379.25
469.365	372.25
469.585	369.25
469.804	371.25
470.023	397.25
470.243	366.25
470.462	379.25
470.681	405.25
470.901	405.25
471.12	399.25
471.339	389.25
471.558	409.25
471.777	385.25
471.997	394.25
472.216	411.25
472.435	401.25
472.654	395.25
472.873	391.25
473.092	390.25
473.311	415.25
473.53	385.25
473.749	398.25
473.968	422.25
474.187	493.25
474.406	475.25
474.625	425.25
474.844	393.25
475.063	382.25
475.282	392.25
475.501	403.25
475.72	418.25
475.939	379.25
476.158	390.25
476.377	411.25
476.596	406.25
476.814	395.25
477.033	408.25
477.252	411.25
477.471	409.25
477.69	411.25
477.908	416.25
478.127	438.25
478.346	449.25
478.564	427.25
478.783	435.25
479.002	457.25
479.22	421.25
479.439	485.25
479.658	446.25
479.876	461.25
480.095	479.25
480.313	495.25
480.532	497.25
480.751	465.25
480.969	482.25
481.188	524.25
481.406	513.25
481.624	499.25
481.843	467.25
482.061	461.25
482.28	461.25
482.498	462.25
482.717	448.25
482.935	457.25
483.153	451.25
483.372	421.25
483.59	464.25
483.808	438.25
484.027	441.25
484.245	469.25
484.463	454.25
484.681	484.25
484.9	473.25
485.118	473.25
485.336	448.25
485.554	457.25
485.772	469.25
485.99	458.25
486.209	462.25
486.427	445.25
486.645	477.25
486.863	489.25
487.081	479.25
487.299	456.25
487.517	498.25
487.735	477.25
487.953	467.25
488.171	481.25
488.389	484.25
488.607	475.25
488.825	480.25
489.043	477.25
489.261	484.25
489.479	484.25
489.696	483.25
489.914	492.25
490.132	495.25
490.35	513.25
490.568	509.25
490.786	509.25
491.003	498.25
491.221	531.25
491.439	530.25
491.657	522.25
491.874	539.25
492.092	537.25
492.31	551.25
492.527	518.25
492.745	532.25
492.963	535.25
493.18	527.25
493.398	549.25
493.615	545.25
493.833	532.25
494.05	546.25
494.268	535.25
494.485	535.25
494.703	538.25
494.92	550.25
495.138	565.25
495.355	536.25
495.573	559.25
495.79	571.25
496.008	552.25
496.225	551.25
496.442	549.25
496.66	569.25
496.877	556.25
497.094	555.25
497.312	567.25
497.529	586.25
497.746	590.25
497.963	587.25
498.181	599.25
498.398	629.25
498.615	637.25
498.832	651.25
499.049	694.25
499.267	679.25
499.484	716.25
499.701	735.25
499.918	776.25
500.135	832.25
500.352	851.25
500.569	857.25
500.786	870.25
501.003	853.25
501.22	846.25
501.437	779.25
501.654	761.25
501.871	731.25
502.088	696.25
