Data from 1964.PennyLincolnUp.Lamp.En5.5.200Scan.071719.P1._HRD10591_14-06-36-910.txt Node
Date: Thu Jul 18 14:06:36 EDT 2019
User: cochatt
Spectrometer: HR+D1059
Trigger mode: 1
Integration Time (sec): 1.000000E-1
Scans to average: 1
Electric dark correction enabled: true
Nonlinearity correction enabled: false
Boxcar width: 0
XAxis mode: Wavelengths
Number of Pixels in Spectrum: 2048
>>>>>Begin Spectral Data<<<<<
223.165	-12.44
223.4	-12.44
223.635	-12.44
223.869	-22.44
224.104	-2.44
224.338	-11.44
224.573	-23.44
224.808	-20.44
225.042	3.56
225.277	-12.44
225.511	2.56
225.746	-2.44
225.98	13.56
226.215	6.56
226.449	25.56
226.683	16.56
226.918	18.56
227.152	20.56
227.387	20.56
227.621	28.56
227.856	38.56
228.09	52.56
228.324	56.56
228.559	54.56
228.793	62.56
229.027	98.56
229.262	94.56
229.496	121.56
229.73	122.56
229.964	127.56
230.199	108.56
230.433	113.56
230.667	117.56
230.901	120.56
231.136	119.56
231.37	107.56
231.604	111.56
231.838	112.56
232.072	110.56
232.306	107.56
232.541	100.56
232.775	118.56
233.009	114.56
233.243	100.56
233.477	116.56
233.711	110.56
233.945	109.56
234.179	126.56
234.413	127.56
234.647	115.56
234.881	127.56
235.115	106.56
235.349	127.56
235.583	113.56
235.817	134.56
236.051	122.56
236.285	103.56
236.519	119.56
236.753	129.56
236.987	131.56
237.221	166.56
237.455	205.56
237.689	170.56
237.922	122.56
238.156	135.56
238.39	125.56
238.624	127.56
238.858	127.56
239.091	126.56
239.325	115.56
239.559	139.56
239.793	135.56
240.027	124.56
240.26	137.56
240.494	161.56
240.728	142.56
240.961	147.56
241.195	127.56
241.429	136.56
241.662	135.56
241.896	146.56
242.13	130.56
242.363	124.56
242.597	146.56
242.83	121.56
243.064	134.56
243.298	125.56
243.531	138.56
243.765	150.56
243.998	137.56
244.232	140.56
244.465	145.56
244.699	157.56
244.932	154.56
245.166	154.56
245.399	163.56
245.633	156.56
245.866	142.56
246.099	157.56
246.333	152.56
246.566	154.56
246.8	159.56
247.033	156.56
247.266	156.56
247.5	172.56
247.733	184.56
247.966	190.56
248.2	179.56
248.433	185.56
248.666	188.56
248.899	187.56
249.133	193.56
249.366	218.56
249.599	194.56
249.832	202.56
250.066	181.56
250.299	195.56
250.532	202.56
250.765	199.56
250.998	220.56
251.231	217.56
251.465	213.56
251.698	221.56
251.931	212.56
252.164	203.56
252.397	196.56
252.63	199.56
252.863	200.56
253.096	229.56
253.329	222.56
253.562	229.56
253.795	225.56
254.028	218.56
254.261	223.56
254.494	238.56
254.727	247.56
254.96	305.56
255.193	258.56
255.426	234.56
255.659	244.56
255.892	256.56
256.124	241.56
256.357	250.56
256.59	223.56
256.823	233.56
257.056	236.56
257.289	225.56
257.521	227.56
257.754	221.56
257.987	223.56
258.22	224.56
258.452	201.56
258.685	225.56
258.918	227.56
259.151	228.56
259.383	233.56
259.616	248.56
259.849	243.56
260.081	234.56
260.314	269.56
260.547	267.56
260.779	260.56
261.012	238.56
261.244	239.56
261.477	236.56
261.71	230.56
261.942	231.56
262.175	244.56
262.407	229.56
262.64	236.56
262.872	234.56
263.105	233.56
263.337	234.56
263.57	230.56
263.802	237.56
264.035	236.56
264.267	249.56
264.499	232.56
264.732	221.56
264.964	226.56
265.197	226.56
265.429	215.56
265.661	232.56
265.894	235.56
266.126	234.56
266.358	220.56
266.591	245.56
266.823	255.56
267.055	269.56
267.287	243.56
267.52	232.56
267.752	231.56
267.984	277.56
268.216	257.56
268.448	268.56
268.681	282.56
268.913	285.56
269.145	266.56
269.377	295.56
269.609	295.56
269.841	286.56
270.073	309.56
270.306	325.56
270.538	335.56
270.77	350.56
271.002	321.56
271.234	315.56
271.466	329.56
271.698	317.56
271.93	345.56
272.162	335.56
272.394	326.56
272.626	319.56
272.858	314.56
273.09	305.56
273.322	287.56
273.553	290.56
273.785	282.56
274.017	284.56
274.249	288.56
274.481	296.56
274.713	293.56
274.945	284.56
275.176	310.56
275.408	290.56
275.64	295.56
275.872	283.56
276.104	281.56
276.335	301.56
276.567	300.56
276.799	293.56
277.031	302.56
277.262	355.56
277.494	341.56
277.726	319.56
277.957	306.56
278.189	306.56
278.421	308.56
278.652	308.56
278.884	313.56
279.115	294.56
279.347	292.56
279.579	300.56
279.81	299.56
280.042	295.56
280.273	311.56
280.505	301.56
280.736	316.56
280.968	299.56
281.199	292.56
281.431	289.56
281.662	313.56
281.894	303.56
282.125	327.56
282.356	337.56
282.588	324.56
282.819	339.56
283.051	313.56
283.282	314.56
283.513	298.56
283.745	306.56
283.976	307.56
284.207	330.56
284.439	315.56
284.67	305.56
284.901	319.56
285.132	319.56
285.364	301.56
285.595	324.56
285.826	305.56
286.057	338.56
286.288	317.56
286.52	312.56
286.751	321.56
286.982	325.56
287.213	329.56
287.444	325.56
287.675	328.56
287.906	339.56
288.138	335.56
288.369	353.56
288.6	323.56
288.831	341.56
289.062	326.56
289.293	346.56
289.524	343.56
289.755	338.56
289.986	302.56
290.217	349.56
290.448	326.56
290.679	331.56
290.91	333.56
291.141	340.56
291.371	331.56
291.602	318.56
291.833	332.56
292.064	320.56
292.295	341.56
292.526	342.56
292.757	312.56
292.987	328.56
293.218	331.56
293.449	343.56
293.68	335.56
293.91	338.56
294.141	329.56
294.372	343.56
294.603	341.56
294.833	365.56
295.064	337.56
295.295	354.56
295.525	359.56
295.756	334.56
295.987	355.56
296.217	363.56
296.448	370.56
296.679	335.56
296.909	345.56
297.14	331.56
297.37	354.56
297.601	352.56
297.831	353.56
298.062	347.56
298.292	350.56
298.523	332.56
298.753	358.56
298.984	352.56
299.214	357.56
299.445	349.56
299.675	350.56
299.905	352.56
300.136	349.56
300.366	361.56
300.597	355.56
300.827	363.56
301.057	372.56
301.288	379.56
301.518	376.56
301.748	354.56
301.979	362.56
302.209	381.56
302.439	379.56
302.669	372.56
302.9	372.56
303.13	371.56
303.36	376.56
303.59	383.56
303.82	380.56
304.051	377.56
304.281	379.56
304.511	355.56
304.741	367.56
304.971	379.56
305.201	379.56
305.431	358.56
305.661	367.56
305.891	375.56
306.121	365.56
306.352	393.56
306.582	377.56
306.812	366.56
307.042	377.56
307.272	389.56
307.502	378.56
307.731	383.56
307.961	372.56
308.191	361.56
308.421	373.56
308.651	387.56
308.881	389.56
309.111	389.56
309.341	380.56
309.571	407.56
309.8	391.56
310.03	400.56
310.26	403.56
310.49	404.56
310.72	399.56
310.949	423.56
311.179	421.56
311.409	395.56
311.639	417.56
311.868	417.56
312.098	407.56
312.328	409.56
312.557	439.56
312.787	419.56
313.017	428.56
313.246	445.56
313.476	407.56
313.706	418.56
313.935	423.56
314.165	425.56
314.394	437.56
314.624	414.56
314.853	414.56
315.083	410.56
315.312	422.56
315.542	398.56
315.771	417.56
316.001	415.56
316.23	405.56
316.46	417.56
316.689	439.56
316.919	417.56
317.148	416.56
317.377	422.56
317.607	412.56
317.836	430.56
318.065	422.56
318.295	437.56
318.524	405.56
318.753	399.56
318.983	411.56
319.212	428.56
319.441	426.56
319.67	424.56
319.9	419.56
320.129	406.56
320.358	428.56
320.587	422.56
320.816	428.56
321.046	451.56
321.275	437.56
321.504	433.56
321.733	448.56
321.962	441.56
322.191	453.56
322.42	483.56
322.649	476.56
322.878	469.56
323.108	485.56
323.337	507.56
323.566	497.56
323.795	528.56
324.024	566.56
324.253	657.56
324.482	897.56
324.71	1296.56
324.939	1788.56
325.168	1528.56
325.397	832.56
325.626	606.56
325.855	523.56
326.084	527.56
326.313	515.56
326.542	503.56
326.77	541.56
326.999	617.56
327.228	824.56
327.457	1140.56
327.686	1347.56
327.914	909.56
328.143	652.56
328.372	603.56
328.6	570.56
328.829	551.56
329.058	577.56
329.287	570.56
329.515	549.56
329.744	494.56
329.972	535.56
330.201	547.56
330.43	564.56
330.658	569.56
330.887	588.56
331.115	573.56
331.344	524.56
331.572	515.56
331.801	526.56
332.03	503.56
332.258	510.56
332.486	513.56
332.715	505.56
332.943	515.56
333.172	494.56
333.4	496.56
333.629	514.56
333.857	535.56
334.085	544.56
334.314	558.56
334.542	572.56
334.771	579.56
334.999	534.56
335.227	519.56
335.455	505.56
335.684	507.56
335.912	509.56
336.14	506.56
336.369	507.56
336.597	503.56
336.825	499.56
337.053	479.56
337.281	471.56
337.51	471.56
337.738	475.56
337.966	493.56
338.194	474.56
338.422	477.56
338.65	466.56
338.878	503.56
339.106	489.56
339.334	485.56
339.562	468.56
339.79	451.56
340.018	479.56
340.246	470.56
340.474	461.56
340.702	481.56
340.93	462.56
341.158	466.56
341.386	458.56
341.614	465.56
341.842	471.56
342.07	460.56
342.298	456.56
342.526	470.56
342.754	445.56
342.981	435.56
343.209	460.56
343.437	462.56
343.665	468.56
343.893	478.56
344.12	492.56
344.348	467.56
344.576	470.56
344.804	466.56
345.031	474.56
345.259	472.56
345.487	460.56
345.714	463.56
345.942	440.56
346.17	454.56
346.397	447.56
346.625	455.56
346.853	445.56
347.08	446.56
347.308	452.56
347.535	440.56
347.763	455.56
347.99	434.56
348.218	457.56
348.445	443.56
348.673	425.56
348.9	429.56
349.128	422.56
349.355	435.56
349.583	413.56
349.81	428.56
350.037	447.56
350.265	430.56
350.492	415.56
350.72	430.56
350.947	430.56
351.174	427.56
351.402	402.56
351.629	412.56
351.856	427.56
352.083	444.56
352.311	465.56
352.538	462.56
352.765	444.56
352.992	417.56
353.22	405.56
353.447	407.56
353.674	415.56
353.901	428.56
354.128	406.56
354.355	414.56
354.583	430.56
354.81	425.56
355.037	415.56
355.264	421.56
355.491	401.56
355.718	427.56
355.945	415.56
356.172	411.56
356.399	418.56
356.626	424.56
356.853	398.56
357.08	396.56
357.307	402.56
357.534	403.56
357.761	401.56
357.988	405.56
358.215	397.56
358.441	390.56
358.668	390.56
358.895	421.56
359.122	439.56
359.349	411.56
359.576	419.56
359.802	437.56
360.029	443.56
360.256	441.56
360.483	459.56
360.709	440.56
360.936	418.56
361.163	438.56
361.39	437.56
361.616	442.56
361.843	431.56
362.07	425.56
362.296	439.56
362.523	441.56
362.749	438.56
362.976	434.56
363.203	425.56
363.429	409.56
363.656	412.56
363.882	414.56
364.109	418.56
364.335	410.56
364.562	408.56
364.788	399.56
365.015	406.56
365.241	430.56
365.468	435.56
365.694	406.56
365.92	406.56
366.147	405.56
366.373	432.56
366.599	401.56
366.826	394.56
367.052	409.56
367.278	397.56
367.505	399.56
367.731	406.56
367.957	400.56
368.184	397.56
368.41	400.56
368.636	406.56
368.862	423.56
369.089	423.56
369.315	397.56
369.541	427.56
369.767	394.56
369.993	390.56
370.219	398.56
370.445	426.56
370.672	401.56
370.898	427.56
371.124	398.56
371.35	399.56
371.576	413.56
371.802	404.56
372.028	398.56
372.254	415.56
372.48	399.56
372.706	404.56
372.932	439.56
373.158	415.56
373.384	419.56
373.61	399.56
373.835	412.56
374.061	403.56
374.287	420.56
374.513	414.56
374.739	420.56
374.965	425.56
375.191	437.56
375.416	420.56
375.642	410.56
375.868	400.56
376.094	417.56
376.319	399.56
376.545	401.56
376.771	423.56
376.997	405.56
377.222	408.56
377.448	415.56
377.674	398.56
377.899	378.56
378.125	414.56
378.35	383.56
378.576	375.56
378.802	411.56
379.027	419.56
379.253	402.56
379.478	400.56
379.704	412.56
379.929	390.56
380.155	389.56
380.38	396.56
380.606	390.56
380.831	395.56
381.057	389.56
381.282	396.56
381.507	387.56
381.733	404.56
381.958	375.56
382.184	398.56
382.409	397.56
382.634	421.56
382.86	409.56
383.085	411.56
383.31	411.56
383.535	427.56
383.761	421.56
383.986	421.56
384.211	418.56
384.436	421.56
384.662	412.56
384.887	431.56
385.112	438.56
385.337	445.56
385.562	456.56
385.787	441.56
386.013	450.56
386.238	448.56
386.463	450.56
386.688	446.56
386.913	440.56
387.138	433.56
387.363	443.56
387.588	453.56
387.813	426.56
388.038	429.56
388.263	438.56
388.488	455.56
388.713	452.56
388.938	455.56
389.163	459.56
389.387	431.56
389.612	437.56
389.837	441.56
390.062	434.56
390.287	430.56
390.512	439.56
390.736	429.56
390.961	432.56
391.186	424.56
391.411	467.56
391.636	447.56
391.86	451.56
392.085	463.56
392.31	442.56
392.534	464.56
392.759	466.56
392.984	456.56
393.208	438.56
393.433	449.56
393.658	426.56
393.882	417.56
394.107	438.56
394.331	449.56
394.556	465.56
394.78	451.56
395.005	448.56
395.229	443.56
395.454	483.56
395.678	457.56
395.903	469.56
396.127	482.56
396.352	473.56
396.576	446.56
396.801	455.56
397.025	457.56
397.249	462.56
397.474	470.56
397.698	453.56
397.922	474.56
398.147	507.56
398.371	478.56
398.595	496.56
398.82	507.56
399.044	505.56
399.268	529.56
399.492	543.56
399.717	594.56
399.941	608.56
400.165	623.56
400.389	621.56
400.613	577.56
400.837	527.56
401.062	492.56
401.286	502.56
401.51	482.56
401.734	489.56
401.958	493.56
402.182	512.56
402.406	503.56
402.63	515.56
402.854	484.56
403.078	511.56
403.302	523.56
403.526	527.56
403.75	537.56
403.974	498.56
404.198	506.56
404.422	529.56
404.645	499.56
404.869	530.56
405.093	559.56
405.317	579.56
405.541	601.56
405.765	561.56
405.988	533.56
406.212	533.56
406.436	541.56
406.66	571.56
406.883	545.56
407.107	580.56
407.331	580.56
407.555	660.56
407.778	659.56
408.002	613.56
408.226	585.56
408.449	570.56
408.673	553.56
408.896	577.56
409.12	603.56
409.344	575.56
409.567	518.56
409.791	519.56
410.014	505.56
410.238	502.56
410.461	516.56
410.685	489.56
410.908	525.56
411.132	542.56
411.355	575.56
411.578	565.56
411.802	506.56
412.025	502.56
412.249	522.56
412.472	537.56
412.695	565.56
412.919	555.56
413.142	519.56
413.365	513.56
413.589	498.56
413.812	483.56
414.035	487.56
414.258	453.56
414.482	483.56
414.705	480.56
414.928	486.56
415.151	456.56
415.374	481.56
415.597	475.56
415.821	478.56
416.044	468.56
416.267	456.56
416.49	478.56
416.713	481.56
416.936	460.56
417.159	474.56
417.382	490.56
417.605	486.56
417.828	467.56
418.051	504.56
418.274	474.56
418.497	476.56
418.72	473.56
418.943	482.56
419.166	493.56
419.389	504.56
419.611	519.56
419.834	502.56
420.057	513.56
420.28	528.56
420.503	509.56
420.726	488.56
420.948	507.56
421.171	534.56
421.394	503.56
421.617	495.56
421.839	491.56
422.062	501.56
422.285	533.56
422.507	560.56
422.73	613.56
422.953	587.56
423.175	525.56
423.398	521.56
423.621	521.56
423.843	490.56
424.066	541.56
424.288	515.56
424.511	522.56
424.733	574.56
424.956	643.56
425.178	607.56
425.401	611.56
425.623	620.56
425.846	541.56
426.068	551.56
426.291	500.56
426.513	531.56
426.735	520.56
426.958	545.56
427.18	603.56
427.402	718.56
427.625	780.56
427.847	666.56
428.069	595.56
428.292	529.56
428.514	510.56
428.736	469.56
428.958	472.56
429.181	463.56
429.403	456.56
429.625	490.56
429.847	497.56
430.069	569.56
430.292	551.56
430.514	486.56
430.736	471.56
430.958	483.56
431.18	458.56
431.402	444.56
431.624	447.56
431.846	454.56
432.068	449.56
432.29	465.56
432.512	451.56
432.734	436.56
432.956	443.56
433.178	458.56
433.4	485.56
433.622	474.56
433.844	457.56
434.066	446.56
434.287	442.56
434.509	454.56
434.731	462.56
434.953	490.56
435.175	476.56
435.397	510.56
435.618	507.56
435.84	549.56
436.062	574.56
436.284	650.56
436.505	561.56
436.727	523.56
436.949	483.56
437.17	478.56
437.392	459.56
437.614	471.56
437.835	524.56
438.057	547.56
438.278	626.56
438.5	649.56
438.721	732.56
438.943	695.56
439.165	559.56
439.386	524.56
439.608	525.56
439.829	480.56
440.05	519.56
440.272	559.56
440.493	521.56
440.715	486.56
440.936	515.56
441.158	483.56
441.379	486.56
441.6	492.56
441.822	503.56
442.043	535.56
442.264	602.56
442.486	626.56
442.707	554.56
442.928	520.56
443.149	533.56
443.371	534.56
443.592	572.56
443.813	669.56
444.034	699.56
444.255	587.56
444.476	527.56
444.698	515.56
444.919	522.56
445.14	605.56
445.361	571.56
445.582	556.56
445.803	599.56
446.024	655.56
446.245	669.56
446.466	605.56
446.687	521.56
446.908	487.56
447.129	454.56
447.35	463.56
447.571	441.56
447.792	455.56
448.013	452.56
448.234	471.56
448.455	500.56
448.675	595.56
448.896	710.56
449.117	601.56
449.338	550.56
449.559	655.56
449.779	725.56
450	581.56
450.221	496.56
450.442	453.56
450.662	434.56
450.883	449.56
451.104	463.56
451.324	433.56
451.545	428.56
451.766	425.56
451.986	435.56
452.207	405.56
452.428	412.56
452.648	424.56
452.869	417.56
453.089	409.56
453.31	416.56
453.53	405.56
453.751	395.56
453.971	401.56
454.192	430.56
454.412	419.56
454.633	409.56
454.853	430.56
455.073	422.56
455.294	448.56
455.514	469.56
455.734	460.56
455.955	422.56
456.175	402.56
456.395	378.56
456.616	388.56
456.836	396.56
457.056	384.56
457.276	390.56
457.497	408.56
457.717	392.56
457.937	412.56
458.157	387.56
458.377	391.56
458.598	411.56
458.818	467.56
459.038	539.56
459.258	530.56
459.478	459.56
459.698	454.56
459.918	452.56
460.138	436.56
460.358	447.56
460.578	478.56
460.798	458.56
461.018	435.56
461.238	459.56
461.458	458.56
461.678	452.56
461.898	467.56
462.118	471.56
462.338	478.56
462.558	485.56
462.777	495.56
462.997	518.56
463.217	493.56
463.437	518.56
463.657	489.56
463.876	489.56
464.096	513.56
464.316	468.56
464.536	484.56
464.755	473.56
464.975	501.56
465.195	506.56
465.414	533.56
465.634	489.56
465.854	451.56
466.073	443.56
466.293	445.56
466.512	442.56
466.732	444.56
466.951	432.56
467.171	402.56
467.391	438.56
467.61	436.56
467.829	430.56
468.049	444.56
468.268	419.56
468.488	405.56
468.707	420.56
468.927	396.56
469.146	395.56
469.365	413.56
469.585	406.56
469.804	412.56
470.023	413.56
470.243	424.56
470.462	436.56
470.681	423.56
470.901	430.56
471.12	425.56
471.339	425.56
471.558	429.56
471.777	420.56
471.997	416.56
472.216	430.56
472.435	449.56
472.654	450.56
472.873	430.56
473.092	430.56
473.311	429.56
473.53	440.56
473.749	427.56
473.968	477.56
474.187	550.56
474.406	561.56
474.625	470.56
474.844	444.56
475.063	444.56
475.282	419.56
475.501	439.56
475.72	441.56
475.939	421.56
476.158	441.56
476.377	450.56
476.596	445.56
476.814	437.56
477.033	462.56
477.252	430.56
477.471	471.56
477.69	461.56
477.908	467.56
478.127	466.56
478.346	491.56
478.564	482.56
478.783	494.56
479.002	513.56
479.22	473.56
479.439	504.56
479.658	490.56
479.876	522.56
480.095	498.56
480.313	527.56
480.532	545.56
480.751	539.56
480.969	524.56
481.188	573.56
481.406	596.56
481.624	520.56
481.843	524.56
482.061	506.56
482.28	505.56
482.498	495.56
482.717	513.56
482.935	492.56
483.153	498.56
483.372	490.56
483.59	494.56
483.808	498.56
484.027	479.56
484.245	500.56
484.463	482.56
484.681	497.56
484.9	490.56
485.118	502.56
485.336	527.56
485.554	522.56
485.772	498.56
485.99	510.56
486.209	521.56
486.427	513.56
486.645	527.56
486.863	533.56
487.081	531.56
487.299	522.56
487.517	526.56
487.735	533.56
487.953	515.56
488.171	514.56
488.389	533.56
488.607	538.56
488.825	541.56
489.043	524.56
489.261	525.56
489.479	555.56
489.696	537.56
489.914	534.56
490.132	553.56
490.35	574.56
490.568	547.56
490.786	549.56
491.003	549.56
491.221	580.56
491.439	582.56
491.657	597.56
491.874	575.56
492.092	599.56
492.31	602.56
492.527	602.56
492.745	615.56
492.963	588.56
493.18	590.56
493.398	627.56
493.615	614.56
493.833	619.56
494.05	605.56
494.268	621.56
494.485	601.56
494.703	606.56
494.92	613.56
495.138	604.56
495.355	603.56
495.573	620.56
495.79	621.56
496.008	604.56
496.225	631.56
496.442	610.56
496.66	637.56
496.877	625.56
497.094	636.56
497.312	646.56
497.529	631.56
497.746	633.56
497.963	659.56
498.181	675.56
498.398	684.56
498.615	686.56
498.832	720.56
499.049	746.56
499.267	777.56
499.484	785.56
499.701	803.56
499.918	848.56
500.135	883.56
500.352	921.56
500.569	955.56
500.786	935.56
501.003	926.56
501.22	909.56
501.437	862.56
501.654	827.56
501.871	781.56
