Data from 1964.PennyLincolnUp.Lamp.En5.5.200Scan.071719.P1._HRD10591_14-06-16-910.txt Node
Date: Thu Jul 18 14:06:16 EDT 2019
User: cochatt
Spectrometer: HR+D1059
Trigger mode: 1
Integration Time (sec): 1.000000E-1
Scans to average: 1
Electric dark correction enabled: true
Nonlinearity correction enabled: false
Boxcar width: 0
XAxis mode: Wavelengths
Number of Pixels in Spectrum: 2048
>>>>>Begin Spectral Data<<<<<
223.165	-19.44
223.4	-19.44
223.635	-19.44
223.869	-23.44
224.104	-18.44
224.338	-13.44
224.573	-27.44
224.808	-6.44
225.042	-9.44
225.277	-7.44
225.511	-2.44
225.746	-6.44
225.98	3.56
226.215	17.56
226.449	26.56
226.683	8.56
226.918	22.56
227.152	55.56
227.387	38.56
227.621	38.56
227.856	34.56
228.09	51.56
228.324	40.56
228.559	46.56
228.793	81.56
229.027	101.56
229.262	93.56
229.496	107.56
229.73	118.56
229.964	126.56
230.199	125.56
230.433	89.56
230.667	103.56
230.901	103.56
231.136	101.56
231.37	102.56
231.604	119.56
231.838	105.56
232.072	93.56
232.306	107.56
232.541	100.56
232.775	102.56
233.009	124.56
233.243	108.56
233.477	122.56
233.711	123.56
233.945	111.56
234.179	118.56
234.413	110.56
234.647	124.56
234.881	121.56
235.115	102.56
235.349	126.56
235.583	115.56
235.817	113.56
236.051	122.56
236.285	125.56
236.519	129.56
236.753	127.56
236.987	123.56
237.221	170.56
237.455	208.56
237.689	170.56
237.922	115.56
238.156	139.56
238.39	123.56
238.624	130.56
238.858	113.56
239.091	116.56
239.325	137.56
239.559	114.56
239.793	116.56
240.027	135.56
240.26	139.56
240.494	147.56
240.728	132.56
240.961	136.56
241.195	136.56
241.429	129.56
241.662	127.56
241.896	136.56
242.13	124.56
242.363	122.56
242.597	137.56
242.83	153.56
243.064	141.56
243.298	154.56
243.531	142.56
243.765	144.56
243.998	135.56
244.232	144.56
244.465	152.56
244.699	155.56
244.932	152.56
245.166	145.56
245.399	158.56
245.633	161.56
245.866	152.56
246.099	156.56
246.333	155.56
246.566	149.56
246.8	158.56
247.033	150.56
247.266	170.56
247.5	161.56
247.733	190.56
247.966	173.56
248.2	170.56
248.433	170.56
248.666	170.56
248.899	179.56
249.133	188.56
249.366	205.56
249.599	201.56
249.832	195.56
250.066	181.56
250.299	177.56
250.532	200.56
250.765	214.56
250.998	215.56
251.231	223.56
251.465	195.56
251.698	197.56
251.931	196.56
252.164	195.56
252.397	196.56
252.63	200.56
252.863	203.56
253.096	215.56
253.329	222.56
253.562	222.56
253.795	222.56
254.028	220.56
254.261	226.56
254.494	227.56
254.727	252.56
254.96	256.56
255.193	270.56
255.426	250.56
255.659	230.56
255.892	216.56
256.124	230.56
256.357	230.56
256.59	228.56
256.823	231.56
257.056	235.56
257.289	231.56
257.521	223.56
257.754	200.56
257.987	218.56
258.22	216.56
258.452	217.56
258.685	216.56
258.918	227.56
259.151	230.56
259.383	218.56
259.616	230.56
259.849	235.56
260.081	242.56
260.314	257.56
260.547	261.56
260.779	246.56
261.012	240.56
261.244	238.56
261.477	229.56
261.71	234.56
261.942	229.56
262.175	234.56
262.407	233.56
262.64	238.56
262.872	223.56
263.105	216.56
263.337	234.56
263.57	230.56
263.802	233.56
264.035	219.56
264.267	222.56
264.499	224.56
264.732	247.56
264.964	231.56
265.197	237.56
265.429	223.56
265.661	230.56
265.894	227.56
266.126	240.56
266.358	230.56
266.591	221.56
266.823	255.56
267.055	244.56
267.287	253.56
267.52	238.56
267.752	235.56
267.984	237.56
268.216	239.56
268.448	237.56
268.681	256.56
268.913	254.56
269.145	281.56
269.377	294.56
269.609	292.56
269.841	275.56
270.073	278.56
270.306	295.56
270.538	314.56
270.77	317.56
271.002	326.56
271.234	309.56
271.466	320.56
271.698	317.56
271.93	314.56
272.162	341.56
272.394	315.56
272.626	313.56
272.858	312.56
273.09	296.56
273.322	308.56
273.553	277.56
273.785	277.56
274.017	282.56
274.249	297.56
274.481	284.56
274.713	268.56
274.945	298.56
275.176	279.56
275.408	267.56
275.64	286.56
275.872	288.56
276.104	291.56
276.335	292.56
276.567	283.56
276.799	280.56
277.031	328.56
277.262	325.56
277.494	326.56
277.726	302.56
277.957	300.56
278.189	305.56
278.421	294.56
278.652	286.56
278.884	291.56
279.115	285.56
279.347	297.56
279.579	298.56
279.81	318.56
280.042	318.56
280.273	287.56
280.505	319.56
280.736	293.56
280.968	278.56
281.199	275.56
281.431	296.56
281.662	295.56
281.894	283.56
282.125	304.56
282.356	328.56
282.588	310.56
282.819	312.56
283.051	301.56
283.282	314.56
283.513	309.56
283.745	298.56
283.976	301.56
284.207	316.56
284.439	322.56
284.67	299.56
284.901	315.56
285.132	314.56
285.364	323.56
285.595	310.56
285.826	308.56
286.057	319.56
286.288	318.56
286.52	299.56
286.751	318.56
286.982	302.56
287.213	321.56
287.444	326.56
287.675	325.56
287.906	340.56
288.138	322.56
288.369	335.56
288.6	320.56
288.831	323.56
289.062	322.56
289.293	299.56
289.524	358.56
289.755	322.56
289.986	322.56
290.217	309.56
290.448	330.56
290.679	324.56
290.91	326.56
291.141	327.56
291.371	325.56
291.602	335.56
291.833	315.56
292.064	321.56
292.295	315.56
292.526	317.56
292.757	336.56
292.987	328.56
293.218	324.56
293.449	334.56
293.68	320.56
293.91	334.56
294.141	330.56
294.372	359.56
294.603	339.56
294.833	336.56
295.064	327.56
295.295	349.56
295.525	341.56
295.756	348.56
295.987	333.56
296.217	355.56
296.448	364.56
296.679	355.56
296.909	356.56
297.14	337.56
297.37	324.56
297.601	325.56
297.831	326.56
298.062	336.56
298.292	342.56
298.523	354.56
298.753	354.56
298.984	341.56
299.214	334.56
299.445	363.56
299.675	347.56
299.905	370.56
300.136	350.56
300.366	375.56
300.597	339.56
300.827	338.56
301.057	346.56
301.288	367.56
301.518	372.56
301.748	332.56
301.979	371.56
302.209	359.56
302.439	357.56
302.669	365.56
302.9	360.56
303.13	378.56
303.36	379.56
303.59	346.56
303.82	380.56
304.051	378.56
304.281	375.56
304.511	365.56
304.741	377.56
304.971	379.56
305.201	361.56
305.431	378.56
305.661	375.56
305.891	372.56
306.121	362.56
306.352	369.56
306.582	362.56
306.812	366.56
307.042	379.56
307.272	382.56
307.502	390.56
307.731	373.56
307.961	349.56
308.191	368.56
308.421	391.56
308.651	370.56
308.881	389.56
309.111	384.56
309.341	392.56
309.571	365.56
309.8	388.56
310.03	392.56
310.26	383.56
310.49	400.56
310.72	416.56
310.949	399.56
311.179	411.56
311.409	406.56
311.639	396.56
311.868	409.56
312.098	409.56
312.328	411.56
312.557	406.56
312.787	418.56
313.017	434.56
313.246	425.56
313.476	425.56
313.706	413.56
313.935	413.56
314.165	428.56
314.394	434.56
314.624	414.56
314.853	409.56
315.083	404.56
315.312	410.56
315.542	417.56
315.771	410.56
316.001	424.56
316.23	405.56
316.46	406.56
316.689	417.56
316.919	431.56
317.148	439.56
317.377	406.56
317.607	422.56
317.836	407.56
318.065	400.56
318.295	413.56
318.524	404.56
318.753	400.56
318.983	428.56
319.212	407.56
319.441	400.56
319.67	410.56
319.9	429.56
320.129	414.56
320.358	416.56
320.587	404.56
320.816	405.56
321.046	438.56
321.275	414.56
321.504	427.56
321.733	424.56
321.962	437.56
322.191	445.56
322.42	452.56
322.649	454.56
322.878	463.56
323.108	453.56
323.337	486.56
323.566	484.56
323.795	521.56
324.024	539.56
324.253	644.56
324.482	846.56
324.71	1286.56
324.939	1758.56
325.168	1451.56
325.397	794.56
325.626	582.56
325.855	533.56
326.084	488.56
326.313	507.56
326.542	486.56
326.77	532.56
326.999	632.56
327.228	788.56
327.457	1107.56
327.686	1274.56
327.914	904.56
328.143	636.56
328.372	574.56
328.6	553.56
328.829	542.56
329.058	569.56
329.287	549.56
329.515	537.56
329.744	519.56
329.972	512.56
330.201	525.56
330.43	549.56
330.658	576.56
330.887	584.56
331.115	562.56
331.344	526.56
331.572	498.56
331.801	517.56
332.03	513.56
332.258	490.56
332.486	465.56
332.715	488.56
332.943	489.56
333.172	504.56
333.4	520.56
333.629	502.56
333.857	533.56
334.085	511.56
334.314	567.56
334.542	557.56
334.771	549.56
334.999	549.56
335.227	527.56
335.455	522.56
335.684	496.56
335.912	487.56
336.14	487.56
336.369	493.56
336.597	485.56
336.825	479.56
337.053	479.56
337.281	490.56
337.51	472.56
337.738	499.56
337.966	482.56
338.194	480.56
338.422	478.56
338.65	465.56
338.878	475.56
339.106	472.56
339.334	464.56
339.562	468.56
339.79	446.56
340.018	461.56
340.246	431.56
340.474	444.56
340.702	448.56
340.93	453.56
341.158	456.56
341.386	457.56
341.614	447.56
341.842	454.56
342.07	451.56
342.298	426.56
342.526	426.56
342.754	437.56
342.981	446.56
343.209	442.56
343.437	454.56
343.665	456.56
343.893	476.56
344.12	490.56
344.348	460.56
344.576	474.56
344.804	467.56
345.031	475.56
345.259	456.56
345.487	437.56
345.714	462.56
345.942	442.56
346.17	458.56
346.397	446.56
346.625	414.56
346.853	407.56
347.08	422.56
347.308	449.56
347.535	458.56
347.763	450.56
347.99	440.56
348.218	450.56
348.445	431.56
348.673	424.56
348.9	419.56
349.128	410.56
349.355	422.56
349.583	437.56
349.81	414.56
350.037	414.56
350.265	421.56
350.492	446.56
350.72	425.56
350.947	406.56
351.174	422.56
351.402	425.56
351.629	433.56
351.856	443.56
352.083	438.56
352.311	441.56
352.538	442.56
352.765	442.56
352.992	412.56
353.22	406.56
353.447	428.56
353.674	421.56
353.901	436.56
354.128	438.56
354.355	404.56
354.583	407.56
354.81	419.56
355.037	422.56
355.264	382.56
355.491	426.56
355.718	418.56
355.945	419.56
356.172	415.56
356.399	419.56
356.626	401.56
356.853	399.56
357.08	399.56
357.307	412.56
357.534	404.56
357.761	406.56
357.988	400.56
358.215	423.56
358.441	396.56
358.668	412.56
358.895	410.56
359.122	421.56
359.349	397.56
359.576	403.56
359.802	437.56
360.029	437.56
360.256	437.56
360.483	430.56
360.709	441.56
360.936	419.56
361.163	428.56
361.39	415.56
361.616	409.56
361.843	407.56
362.07	429.56
362.296	440.56
362.523	409.56
362.749	424.56
362.976	406.56
363.203	409.56
363.429	394.56
363.656	400.56
363.882	416.56
364.109	422.56
364.335	405.56
364.562	397.56
364.788	397.56
365.015	404.56
365.241	400.56
365.468	412.56
365.694	403.56
365.92	396.56
366.147	407.56
366.373	410.56
366.599	412.56
366.826	399.56
367.052	398.56
367.278	407.56
367.505	392.56
367.731	407.56
367.957	391.56
368.184	396.56
368.41	406.56
368.636	398.56
368.862	436.56
369.089	419.56
369.315	391.56
369.541	403.56
369.767	403.56
369.993	419.56
370.219	392.56
370.445	409.56
370.672	386.56
370.898	388.56
371.124	404.56
371.35	399.56
371.576	398.56
371.802	400.56
372.028	424.56
372.254	404.56
372.48	391.56
372.706	415.56
372.932	383.56
373.158	406.56
373.384	388.56
373.61	389.56
373.835	405.56
374.061	410.56
374.287	397.56
374.513	408.56
374.739	411.56
374.965	416.56
375.191	422.56
375.416	419.56
375.642	408.56
375.868	406.56
376.094	418.56
376.319	393.56
376.545	389.56
376.771	389.56
376.997	388.56
377.222	400.56
377.448	394.56
377.674	405.56
377.899	390.56
378.125	383.56
378.35	388.56
378.576	392.56
378.802	377.56
379.027	392.56
379.253	386.56
379.478	383.56
379.704	395.56
379.929	377.56
380.155	376.56
380.38	371.56
380.606	380.56
380.831	394.56
381.057	395.56
381.282	385.56
381.507	411.56
381.733	397.56
381.958	397.56
382.184	414.56
382.409	414.56
382.634	418.56
382.86	407.56
383.085	402.56
383.31	427.56
383.535	419.56
383.761	404.56
383.986	409.56
384.211	437.56
384.436	440.56
384.662	414.56
384.887	415.56
385.112	437.56
385.337	442.56
385.562	413.56
385.787	427.56
386.013	451.56
386.238	432.56
386.463	450.56
386.688	460.56
386.913	425.56
387.138	441.56
387.363	439.56
387.588	442.56
387.813	420.56
388.038	414.56
388.263	423.56
388.488	456.56
388.713	431.56
388.938	423.56
389.163	423.56
389.387	430.56
389.612	430.56
389.837	419.56
390.062	415.56
390.287	447.56
390.512	440.56
390.736	431.56
390.961	426.56
391.186	427.56
391.411	439.56
391.636	447.56
391.86	451.56
392.085	442.56
392.31	449.56
392.534	452.56
392.759	439.56
392.984	436.56
393.208	437.56
393.433	435.56
393.658	442.56
393.882	434.56
394.107	437.56
394.331	430.56
394.556	446.56
394.78	422.56
395.005	450.56
395.229	438.56
395.454	464.56
395.678	449.56
395.903	455.56
396.127	457.56
396.352	469.56
396.576	471.56
396.801	442.56
397.025	439.56
397.249	450.56
397.474	469.56
397.698	444.56
397.922	490.56
398.147	477.56
398.371	482.56
398.595	487.56
398.82	472.56
399.044	520.56
399.268	540.56
399.492	547.56
399.717	599.56
399.941	606.56
400.165	598.56
400.389	601.56
400.613	541.56
400.837	518.56
401.062	519.56
401.286	485.56
401.51	469.56
401.734	485.56
401.958	484.56
402.182	492.56
402.406	513.56
402.63	503.56
402.854	511.56
403.078	527.56
403.302	514.56
403.526	522.56
403.75	513.56
403.974	524.56
404.198	512.56
404.422	498.56
404.645	526.56
404.869	522.56
405.093	543.56
405.317	572.56
405.541	593.56
405.765	562.56
405.988	540.56
406.212	534.56
406.436	533.56
406.66	552.56
406.883	524.56
407.107	537.56
407.331	591.56
407.555	645.56
407.778	648.56
408.002	596.56
408.226	560.56
408.449	539.56
408.673	555.56
408.896	591.56
409.12	588.56
409.344	540.56
409.567	506.56
409.791	522.56
410.014	495.56
410.238	509.56
410.461	491.56
410.685	501.56
410.908	512.56
411.132	548.56
411.355	576.56
411.578	539.56
411.802	516.56
412.025	496.56
412.249	506.56
412.472	526.56
412.695	556.56
412.919	558.56
413.142	506.56
413.365	491.56
413.589	494.56
413.812	475.56
414.035	466.56
414.258	466.56
414.482	469.56
414.705	472.56
414.928	461.56
415.151	470.56
415.374	497.56
415.597	468.56
415.821	479.56
416.044	451.56
416.267	461.56
416.49	450.56
416.713	448.56
416.936	459.56
417.159	442.56
417.382	466.56
417.605	480.56
417.828	486.56
418.051	486.56
418.274	468.56
418.497	467.56
418.72	476.56
418.943	458.56
419.166	477.56
419.389	503.56
419.611	494.56
419.834	481.56
420.057	493.56
420.28	481.56
420.503	488.56
420.726	484.56
420.948	475.56
421.171	519.56
421.394	540.56
421.617	519.56
421.839	493.56
422.062	482.56
422.285	492.56
422.507	531.56
422.73	600.56
422.953	564.56
423.175	523.56
423.398	505.56
423.621	486.56
423.843	502.56
424.066	521.56
424.288	504.56
424.511	506.56
424.733	539.56
424.956	619.56
425.178	583.56
425.401	597.56
425.623	613.56
425.846	565.56
426.068	514.56
426.291	491.56
426.513	500.56
426.735	508.56
426.958	544.56
427.18	601.56
427.402	682.56
427.625	718.56
427.847	652.56
428.069	579.56
428.292	519.56
428.514	491.56
428.736	465.56
428.958	454.56
429.181	469.56
429.403	466.56
429.625	446.56
429.847	507.56
430.069	538.56
430.292	533.56
430.514	476.56
430.736	442.56
430.958	446.56
431.18	451.56
431.402	434.56
431.624	426.56
431.846	441.56
432.068	442.56
432.29	455.56
432.512	438.56
432.734	464.56
432.956	447.56
433.178	450.56
433.4	442.56
433.622	458.56
433.844	435.56
434.066	458.56
434.287	449.56
434.509	449.56
434.731	452.56
434.953	480.56
435.175	474.56
435.397	504.56
435.618	505.56
435.84	538.56
436.062	602.56
436.284	637.56
436.505	549.56
436.727	482.56
436.949	470.56
437.17	446.56
437.392	459.56
437.614	457.56
437.835	491.56
438.057	554.56
438.278	616.56
438.5	626.56
438.721	675.56
438.943	666.56
439.165	527.56
439.386	514.56
439.608	480.56
439.829	475.56
440.05	501.56
440.272	526.56
440.493	480.56
440.715	504.56
440.936	458.56
441.158	478.56
441.379	460.56
441.6	458.56
441.822	493.56
442.043	530.56
442.264	572.56
442.486	600.56
442.707	538.56
442.928	510.56
443.149	496.56
443.371	515.56
443.592	542.56
443.813	620.56
444.034	650.56
444.255	568.56
444.476	500.56
444.698	512.56
444.919	502.56
445.14	599.56
445.361	542.56
445.582	543.56
445.803	573.56
446.024	643.56
446.245	660.56
446.466	592.56
446.687	544.56
446.908	494.56
447.129	462.56
447.35	468.56
447.571	462.56
447.792	442.56
448.013	448.56
448.234	461.56
448.455	487.56
448.675	572.56
448.896	668.56
449.117	542.56
449.338	529.56
449.559	644.56
449.779	703.56
450	562.56
450.221	502.56
450.442	442.56
450.662	430.56
450.883	436.56
451.104	454.56
451.324	451.56
451.545	416.56
451.766	414.56
451.986	431.56
452.207	401.56
452.428	407.56
452.648	407.56
452.869	423.56
453.089	420.56
453.31	420.56
453.53	418.56
453.751	418.56
453.971	419.56
454.192	396.56
454.412	398.56
454.633	414.56
454.853	398.56
455.073	408.56
455.294	442.56
455.514	463.56
455.734	452.56
455.955	405.56
456.175	394.56
456.395	379.56
456.616	392.56
456.836	392.56
457.056	374.56
457.276	371.56
457.497	380.56
457.717	393.56
457.937	392.56
458.157	404.56
458.377	402.56
458.598	418.56
458.818	437.56
459.038	514.56
459.258	510.56
459.478	467.56
459.698	428.56
459.918	437.56
460.138	447.56
460.358	452.56
460.578	454.56
460.798	445.56
461.018	479.56
461.238	450.56
461.458	444.56
461.678	441.56
461.898	462.56
462.118	433.56
462.338	466.56
462.558	475.56
462.777	471.56
462.997	503.56
463.217	505.56
463.437	503.56
463.657	492.56
463.876	478.56
464.096	475.56
464.316	474.56
464.536	486.56
464.755	505.56
464.975	488.56
465.195	508.56
465.414	528.56
465.634	467.56
465.854	428.56
466.073	436.56
466.293	423.56
466.512	420.56
466.732	403.56
466.951	411.56
467.171	429.56
467.391	414.56
467.61	426.56
467.829	428.56
468.049	407.56
468.268	414.56
468.488	408.56
468.707	397.56
468.927	400.56
469.146	427.56
469.365	403.56
469.585	418.56
469.804	407.56
470.023	427.56
470.243	413.56
470.462	425.56
470.681	440.56
470.901	429.56
471.12	415.56
471.339	419.56
471.558	416.56
471.777	407.56
471.997	407.56
472.216	409.56
472.435	448.56
472.654	442.56
472.873	443.56
473.092	426.56
473.311	418.56
473.53	420.56
473.749	424.56
473.968	466.56
474.187	546.56
474.406	536.56
474.625	464.56
474.844	426.56
475.063	429.56
475.282	420.56
475.501	430.56
475.72	442.56
475.939	425.56
476.158	433.56
476.377	436.56
476.596	420.56
476.814	431.56
477.033	453.56
477.252	446.56
477.471	454.56
477.69	460.56
477.908	452.56
478.127	461.56
478.346	453.56
478.564	479.56
478.783	447.56
479.002	468.56
479.22	469.56
479.439	479.56
479.658	500.56
479.876	478.56
480.095	505.56
480.313	544.56
480.532	515.56
480.751	511.56
480.969	514.56
481.188	559.56
481.406	595.56
481.624	527.56
481.843	527.56
482.061	483.56
482.28	483.56
482.498	482.56
482.717	491.56
482.935	488.56
483.153	483.56
483.372	492.56
483.59	489.56
483.808	461.56
484.027	470.56
484.245	461.56
484.463	472.56
484.681	499.56
484.9	473.56
485.118	492.56
485.336	509.56
485.554	499.56
485.772	500.56
485.99	491.56
486.209	506.56
486.427	504.56
486.645	520.56
486.863	534.56
487.081	517.56
487.299	508.56
487.517	527.56
487.735	533.56
487.953	491.56
488.171	514.56
488.389	521.56
488.607	506.56
488.825	492.56
489.043	499.56
489.261	520.56
489.479	517.56
489.696	541.56
489.914	526.56
490.132	528.56
490.35	556.56
490.568	547.56
490.786	559.56
491.003	539.56
491.221	555.56
491.439	570.56
491.657	558.56
491.874	595.56
492.092	562.56
492.31	561.56
492.527	598.56
492.745	591.56
492.963	604.56
493.18	573.56
493.398	585.56
493.615	568.56
493.833	586.56
494.05	586.56
494.268	617.56
494.485	579.56
494.703	588.56
494.92	578.56
495.138	600.56
495.355	607.56
495.573	587.56
495.79	605.56
496.008	618.56
496.225	583.56
496.442	598.56
496.66	612.56
496.877	568.56
497.094	605.56
497.312	635.56
497.529	639.56
497.746	636.56
497.963	653.56
498.181	678.56
498.398	679.56
498.615	690.56
498.832	701.56
499.049	725.56
499.267	740.56
499.484	778.56
499.701	822.56
499.918	835.56
500.135	854.56
500.352	912.56
500.569	958.56
500.786	952.56
501.003	915.56
501.22	875.56
501.437	818.56
501.654	816.56
501.871	800.56
