Data from 1964.PennyLincolnUp.Lamp.En5.5.200Scan.071719.P1._HRD10591_14-04-46-908.txt Node
Date: Thu Jul 18 14:04:46 EDT 2019
User: cochatt
Spectrometer: HR+D1059
Trigger mode: 1
Integration Time (sec): 1.000000E-1
Scans to average: 1
Electric dark correction enabled: true
Nonlinearity correction enabled: false
Boxcar width: 0
XAxis mode: Wavelengths
Number of Pixels in Spectrum: 2048
>>>>>Begin Spectral Data<<<<<
223.165	-10.19
223.4	-10.19
223.635	-10.19
223.869	-22.19
224.104	-18.19
224.338	-19.19
224.573	-15.19
224.808	-4.19
225.042	2.81
225.277	-9.19
225.511	-19.19
225.746	16.81
225.98	11.81
226.215	19.81
226.449	14.81
226.683	12.81
226.918	22.81
227.152	15.81
227.387	34.81
227.621	38.81
227.856	48.81
228.09	56.81
228.324	42.81
228.559	44.81
228.793	77.81
229.027	95.81
229.262	91.81
229.496	106.81
229.73	132.81
229.964	146.81
230.199	122.81
230.433	104.81
230.667	108.81
230.901	101.81
231.136	98.81
231.37	114.81
231.604	120.81
231.838	107.81
232.072	103.81
232.306	115.81
232.541	117.81
232.775	111.81
233.009	110.81
233.243	124.81
233.477	112.81
233.711	113.81
233.945	108.81
234.179	118.81
234.413	114.81
234.647	120.81
234.881	119.81
235.115	121.81
235.349	124.81
235.583	111.81
235.817	126.81
236.051	122.81
236.285	126.81
236.519	119.81
236.753	133.81
236.987	151.81
237.221	170.81
237.455	174.81
237.689	169.81
237.922	126.81
238.156	128.81
238.39	135.81
238.624	125.81
238.858	119.81
239.091	115.81
239.325	126.81
239.559	135.81
239.793	136.81
240.027	125.81
240.26	139.81
240.494	142.81
240.728	157.81
240.961	140.81
241.195	131.81
241.429	141.81
241.662	150.81
241.896	132.81
242.13	132.81
242.363	127.81
242.597	136.81
242.83	150.81
243.064	139.81
243.298	125.81
243.531	126.81
243.765	157.81
243.998	140.81
244.232	141.81
244.465	154.81
244.699	128.81
244.932	130.81
245.166	140.81
245.399	150.81
245.633	147.81
245.866	155.81
246.099	165.81
246.333	160.81
246.566	150.81
246.8	141.81
247.033	158.81
247.266	160.81
247.5	139.81
247.733	166.81
247.966	172.81
248.2	179.81
248.433	176.81
248.666	161.81
248.899	172.81
249.133	192.81
249.366	188.81
249.599	173.81
249.832	180.81
250.066	163.81
250.299	186.81
250.532	196.81
250.765	202.81
250.998	206.81
251.231	210.81
251.465	203.81
251.698	200.81
251.931	183.81
252.164	195.81
252.397	201.81
252.63	200.81
252.863	189.81
253.096	201.81
253.329	220.81
253.562	215.81
253.795	216.81
254.028	194.81
254.261	220.81
254.494	224.81
254.727	251.81
254.96	252.81
255.193	279.81
255.426	233.81
255.659	216.81
255.892	235.81
256.124	226.81
256.357	231.81
256.59	246.81
256.823	229.81
257.056	206.81
257.289	223.81
257.521	215.81
257.754	219.81
257.987	212.81
258.22	226.81
258.452	224.81
258.685	208.81
258.918	208.81
259.151	226.81
259.383	211.81
259.616	212.81
259.849	221.81
260.081	230.81
260.314	238.81
260.547	248.81
260.779	240.81
261.012	239.81
261.244	244.81
261.477	231.81
261.71	204.81
261.942	226.81
262.175	223.81
262.407	230.81
262.64	222.81
262.872	220.81
263.105	208.81
263.337	223.81
263.57	202.81
263.802	214.81
264.035	209.81
264.267	211.81
264.499	223.81
264.732	227.81
264.964	227.81
265.197	214.81
265.429	219.81
265.661	216.81
265.894	215.81
266.126	227.81
266.358	237.81
266.591	223.81
266.823	233.81
267.055	243.81
267.287	242.81
267.52	229.81
267.752	250.81
267.984	265.81
268.216	246.81
268.448	262.81
268.681	247.81
268.913	267.81
269.145	258.81
269.377	282.81
269.609	272.81
269.841	261.81
270.073	256.81
270.306	285.81
270.538	300.81
270.77	308.81
271.002	286.81
271.234	296.81
271.466	315.81
271.698	314.81
271.93	306.81
272.162	320.81
272.394	299.81
272.626	304.81
272.858	289.81
273.09	278.81
273.322	277.81
273.553	269.81
273.785	270.81
274.017	292.81
274.249	264.81
274.481	278.81
274.713	286.81
274.945	253.81
275.176	275.81
275.408	290.81
275.64	270.81
275.872	266.81
276.104	279.81
276.335	281.81
276.567	266.81
276.799	291.81
277.031	311.81
277.262	324.81
277.494	330.81
277.726	311.81
277.957	278.81
278.189	287.81
278.421	284.81
278.652	303.81
278.884	279.81
279.115	295.81
279.347	299.81
279.579	284.81
279.81	309.81
280.042	268.81
280.273	280.81
280.505	287.81
280.736	286.81
280.968	295.81
281.199	295.81
281.431	284.81
281.662	292.81
281.894	293.81
282.125	299.81
282.356	318.81
282.588	313.81
282.819	312.81
283.051	293.81
283.282	286.81
283.513	309.81
283.745	310.81
283.976	299.81
284.207	293.81
284.439	301.81
284.67	280.81
284.901	300.81
285.132	306.81
285.364	302.81
285.595	307.81
285.826	301.81
286.057	307.81
286.288	320.81
286.52	328.81
286.751	312.81
286.982	309.81
287.213	327.81
287.444	317.81
287.675	315.81
287.906	324.81
288.138	322.81
288.369	327.81
288.6	331.81
288.831	339.81
289.062	336.81
289.293	322.81
289.524	318.81
289.755	311.81
289.986	321.81
290.217	321.81
290.448	312.81
290.679	313.81
290.91	332.81
291.141	333.81
291.371	320.81
291.602	331.81
291.833	314.81
292.064	324.81
292.295	323.81
292.526	321.81
292.757	335.81
292.987	324.81
293.218	327.81
293.449	313.81
293.68	327.81
293.91	315.81
294.141	307.81
294.372	331.81
294.603	324.81
294.833	302.81
295.064	321.81
295.295	312.81
295.525	336.81
295.756	327.81
295.987	337.81
296.217	349.81
296.448	343.81
296.679	328.81
296.909	328.81
297.14	339.81
297.37	317.81
297.601	329.81
297.831	324.81
298.062	328.81
298.292	334.81
298.523	343.81
298.753	341.81
298.984	339.81
299.214	349.81
299.445	325.81
299.675	328.81
299.905	343.81
300.136	350.81
300.366	337.81
300.597	346.81
300.827	359.81
301.057	365.81
301.288	364.81
301.518	366.81
301.748	342.81
301.979	354.81
302.209	364.81
302.439	367.81
302.669	365.81
302.9	350.81
303.13	356.81
303.36	353.81
303.59	361.81
303.82	358.81
304.051	363.81
304.281	344.81
304.511	351.81
304.741	346.81
304.971	356.81
305.201	344.81
305.431	352.81
305.661	361.81
305.891	362.81
306.121	366.81
306.352	356.81
306.582	334.81
306.812	341.81
307.042	382.81
307.272	356.81
307.502	370.81
307.731	370.81
307.961	364.81
308.191	367.81
308.421	383.81
308.651	382.81
308.881	375.81
309.111	372.81
309.341	357.81
309.571	372.81
309.8	388.81
310.03	375.81
310.26	384.81
310.49	379.81
310.72	384.81
310.949	403.81
311.179	413.81
311.409	370.81
311.639	375.81
311.868	394.81
312.098	390.81
312.328	406.81
312.557	397.81
312.787	421.81
313.017	411.81
313.246	398.81
313.476	373.81
313.706	397.81
313.935	412.81
314.165	416.81
314.394	415.81
314.624	399.81
314.853	415.81
315.083	403.81
315.312	406.81
315.542	387.81
315.771	391.81
316.001	414.81
316.23	396.81
316.46	388.81
316.689	408.81
316.919	393.81
317.148	418.81
317.377	404.81
317.607	419.81
317.836	399.81
318.065	402.81
318.295	408.81
318.524	415.81
318.753	409.81
318.983	406.81
319.212	379.81
319.441	416.81
319.67	405.81
319.9	418.81
320.129	400.81
320.358	396.81
320.587	407.81
320.816	399.81
321.046	414.81
321.275	408.81
321.504	398.81
321.733	430.81
321.962	425.81
322.191	419.81
322.42	424.81
322.649	410.81
322.878	438.81
323.108	452.81
323.337	466.81
323.566	458.81
323.795	458.81
324.024	516.81
324.253	572.81
324.482	777.81
324.71	1083.81
324.939	1461.81
325.168	1282.81
325.397	716.81
325.626	553.81
325.855	482.81
326.084	470.81
326.313	480.81
326.542	483.81
326.77	511.81
326.999	558.81
327.228	728.81
327.457	980.81
327.686	1146.81
327.914	788.81
328.143	600.81
328.372	529.81
328.6	516.81
328.829	498.81
329.058	508.81
329.287	524.81
329.515	505.81
329.744	503.81
329.972	492.81
330.201	484.81
330.43	522.81
330.658	548.81
330.887	547.81
331.115	528.81
331.344	502.81
331.572	489.81
331.801	475.81
332.03	487.81
332.258	468.81
332.486	472.81
332.715	467.81
332.943	468.81
333.172	473.81
333.4	478.81
333.629	490.81
333.857	512.81
334.085	526.81
334.314	524.81
334.542	542.81
334.771	564.81
334.999	517.81
335.227	497.81
335.455	500.81
335.684	486.81
335.912	504.81
336.14	481.81
336.369	474.81
336.597	461.81
336.825	474.81
337.053	465.81
337.281	459.81
337.51	485.81
337.738	452.81
337.966	452.81
338.194	458.81
338.422	445.81
338.65	449.81
338.878	446.81
339.106	454.81
339.334	464.81
339.562	446.81
339.79	432.81
340.018	470.81
340.246	464.81
340.474	464.81
340.702	478.81
340.93	453.81
341.158	435.81
341.386	425.81
341.614	420.81
341.842	440.81
342.07	449.81
342.298	455.81
342.526	453.81
342.754	456.81
342.981	421.81
343.209	431.81
343.437	432.81
343.665	455.81
343.893	468.81
344.12	474.81
344.348	497.81
344.576	485.81
344.804	481.81
345.031	438.81
345.259	459.81
345.487	456.81
345.714	443.81
345.942	422.81
346.17	434.81
346.397	432.81
346.625	450.81
346.853	435.81
347.08	422.81
347.308	417.81
347.535	426.81
347.763	438.81
347.99	438.81
348.218	425.81
348.445	442.81
348.673	420.81
348.9	416.81
349.128	419.81
349.355	436.81
349.583	425.81
349.81	428.81
350.037	406.81
350.265	414.81
350.492	400.81
350.72	410.81
350.947	418.81
351.174	438.81
351.402	423.81
351.629	415.81
351.856	426.81
352.083	404.81
352.311	412.81
352.538	425.81
352.765	411.81
352.992	404.81
353.22	408.81
353.447	397.81
353.674	416.81
353.901	399.81
354.128	402.81
354.355	413.81
354.583	395.81
354.81	378.81
355.037	372.81
355.264	393.81
355.491	404.81
355.718	386.81
355.945	401.81
356.172	393.81
356.399	377.81
356.626	400.81
356.853	413.81
357.08	388.81
357.307	396.81
357.534	410.81
357.761	377.81
357.988	400.81
358.215	404.81
358.441	415.81
358.668	396.81
358.895	399.81
359.122	411.81
359.349	408.81
359.576	416.81
359.802	424.81
360.029	418.81
360.256	438.81
360.483	414.81
360.709	418.81
360.936	404.81
361.163	409.81
361.39	393.81
361.616	415.81
361.843	420.81
362.07	422.81
362.296	412.81
362.523	397.81
362.749	397.81
362.976	390.81
363.203	399.81
363.429	379.81
363.656	407.81
363.882	393.81
364.109	389.81
364.335	390.81
364.562	392.81
364.788	388.81
365.015	389.81
365.241	391.81
365.468	402.81
365.694	407.81
365.92	394.81
366.147	383.81
366.373	377.81
366.599	399.81
366.826	374.81
367.052	380.81
367.278	407.81
367.505	384.81
367.731	416.81
367.957	401.81
368.184	384.81
368.41	392.81
368.636	395.81
368.862	402.81
369.089	409.81
369.315	400.81
369.541	379.81
369.767	384.81
369.993	392.81
370.219	390.81
370.445	403.81
370.672	382.81
370.898	390.81
371.124	389.81
371.35	408.81
371.576	402.81
371.802	387.81
372.028	393.81
372.254	384.81
372.48	386.81
372.706	413.81
372.932	426.81
373.158	403.81
373.384	409.81
373.61	404.81
373.835	404.81
374.061	394.81
374.287	397.81
374.513	399.81
374.739	398.81
374.965	415.81
375.191	414.81
375.416	412.81
375.642	406.81
375.868	410.81
376.094	405.81
376.319	397.81
376.545	395.81
376.771	391.81
376.997	405.81
377.222	409.81
377.448	388.81
377.674	396.81
377.899	384.81
378.125	371.81
378.35	374.81
378.576	384.81
378.802	377.81
379.027	391.81
379.253	394.81
379.478	394.81
379.704	391.81
379.929	382.81
380.155	377.81
380.38	397.81
380.606	382.81
380.831	390.81
381.057	418.81
381.282	394.81
381.507	392.81
381.733	399.81
381.958	384.81
382.184	386.81
382.409	394.81
382.634	415.81
382.86	385.81
383.085	392.81
383.31	409.81
383.535	408.81
383.761	406.81
383.986	418.81
384.211	420.81
384.436	420.81
384.662	410.81
384.887	428.81
385.112	410.81
385.337	439.81
385.562	427.81
385.787	447.81
386.013	419.81
386.238	425.81
386.463	417.81
386.688	434.81
386.913	431.81
387.138	413.81
387.363	411.81
387.588	430.81
387.813	431.81
388.038	411.81
388.263	406.81
388.488	431.81
388.713	415.81
388.938	421.81
389.163	437.81
389.387	437.81
389.612	438.81
389.837	415.81
390.062	413.81
390.287	420.81
390.512	410.81
390.736	402.81
390.961	424.81
391.186	444.81
391.411	427.81
391.636	429.81
391.86	457.81
392.085	428.81
392.31	453.81
392.534	438.81
392.759	452.81
392.984	410.81
393.208	437.81
393.433	426.81
393.658	434.81
393.882	441.81
394.107	450.81
394.331	427.81
394.556	430.81
394.78	430.81
395.005	422.81
395.229	447.81
395.454	442.81
395.678	454.81
395.903	460.81
396.127	464.81
396.352	462.81
396.576	431.81
396.801	429.81
397.025	442.81
397.249	430.81
397.474	458.81
397.698	449.81
397.922	448.81
398.147	464.81
398.371	504.81
398.595	484.81
398.82	472.81
399.044	478.81
399.268	507.81
399.492	540.81
399.717	576.81
399.941	602.81
400.165	621.81
400.389	586.81
400.613	540.81
400.837	507.81
401.062	495.81
401.286	481.81
401.51	497.81
401.734	472.81
401.958	472.81
402.182	476.81
402.406	490.81
402.63	476.81
402.854	516.81
403.078	494.81
403.302	486.81
403.526	524.81
403.75	490.81
403.974	500.81
404.198	520.81
404.422	512.81
404.645	522.81
404.869	517.81
405.093	521.81
405.317	557.81
405.541	574.81
405.765	533.81
405.988	523.81
406.212	520.81
406.436	541.81
406.66	546.81
406.883	520.81
407.107	552.81
407.331	572.81
407.555	621.81
407.778	614.81
408.002	592.81
408.226	537.81
408.449	549.81
408.673	521.81
408.896	555.81
409.12	545.81
409.344	554.81
409.567	512.81
409.791	515.81
410.014	490.81
410.238	473.81
410.461	499.81
410.685	503.81
410.908	514.81
411.132	540.81
411.355	530.81
411.578	527.81
411.802	504.81
412.025	510.81
412.249	484.81
412.472	514.81
412.695	517.81
412.919	551.81
413.142	475.81
413.365	498.81
413.589	466.81
413.812	491.81
414.035	472.81
414.258	467.81
414.482	460.81
414.705	461.81
414.928	436.81
415.151	464.81
415.374	449.81
415.597	441.81
415.821	455.81
416.044	443.81
416.267	459.81
416.49	458.81
416.713	450.81
416.936	460.81
417.159	436.81
417.382	458.81
417.605	460.81
417.828	471.81
418.051	456.81
418.274	461.81
418.497	452.81
418.72	462.81
418.943	456.81
419.166	471.81
419.389	491.81
419.611	485.81
419.834	473.81
420.057	483.81
420.28	500.81
420.503	471.81
420.726	470.81
420.948	495.81
421.171	493.81
421.394	517.81
421.617	470.81
421.839	468.81
422.062	462.81
422.285	462.81
422.507	521.81
422.73	577.81
422.953	544.81
423.175	506.81
423.398	482.81
423.621	480.81
423.843	476.81
424.066	495.81
424.288	486.81
424.511	502.81
424.733	543.81
424.956	598.81
425.178	598.81
425.401	570.81
425.623	592.81
425.846	533.81
426.068	498.81
426.291	478.81
426.513	482.81
426.735	492.81
426.958	518.81
427.18	572.81
427.402	678.81
427.625	722.81
427.847	620.81
428.069	568.81
428.292	519.81
428.514	500.81
428.736	482.81
428.958	454.81
429.181	459.81
429.403	450.81
429.625	435.81
429.847	473.81
430.069	514.81
430.292	507.81
430.514	436.81
430.736	452.81
430.958	443.81
431.18	442.81
431.402	415.81
431.624	435.81
431.846	421.81
432.068	445.81
432.29	427.81
432.512	429.81
432.734	441.81
432.956	431.81
433.178	445.81
433.4	435.81
433.622	445.81
433.844	442.81
434.066	429.81
434.287	446.81
434.509	449.81
434.731	450.81
434.953	475.81
435.175	452.81
435.397	478.81
435.618	470.81
435.84	514.81
436.062	603.81
436.284	632.81
436.505	518.81
436.727	487.81
436.949	457.81
437.17	448.81
437.392	442.81
437.614	459.81
437.835	478.81
438.057	528.81
438.278	627.81
438.5	592.81
438.721	662.81
438.943	636.81
439.165	501.81
439.386	479.81
439.608	469.81
439.829	491.81
440.05	487.81
440.272	539.81
440.493	500.81
440.715	472.81
440.936	453.81
441.158	444.81
441.379	441.81
441.6	458.81
441.822	475.81
442.043	501.81
442.264	572.81
442.486	578.81
442.707	515.81
442.928	473.81
443.149	494.81
443.371	499.81
443.592	534.81
443.813	627.81
444.034	646.81
444.255	573.81
444.476	534.81
444.698	512.81
444.919	511.81
445.14	614.81
445.361	546.81
445.582	513.81
445.803	536.81
446.024	610.81
446.245	611.81
446.466	559.81
446.687	504.81
446.908	461.81
447.129	446.81
447.35	420.81
447.571	446.81
447.792	437.81
448.013	446.81
448.234	448.81
448.455	470.81
448.675	558.81
448.896	644.81
449.117	551.81
449.338	536.81
449.559	616.81
449.779	672.81
450	564.81
450.221	464.81
450.442	426.81
450.662	424.81
450.883	432.81
451.104	415.81
451.324	404.81
451.545	389.81
451.766	381.81
451.986	383.81
452.207	397.81
452.428	394.81
452.648	400.81
452.869	401.81
453.089	394.81
453.31	404.81
453.53	409.81
453.751	382.81
453.971	392.81
454.192	401.81
454.412	406.81
454.633	394.81
454.853	388.81
455.073	397.81
455.294	404.81
455.514	444.81
455.734	450.81
455.955	404.81
456.175	394.81
456.395	378.81
456.616	385.81
456.836	377.81
457.056	377.81
457.276	382.81
457.497	378.81
457.717	375.81
457.937	389.81
458.157	370.81
458.377	386.81
458.598	411.81
458.818	440.81
459.038	485.81
459.258	483.81
459.478	455.81
459.698	455.81
459.918	435.81
460.138	443.81
460.358	441.81
460.578	449.81
460.798	439.81
461.018	441.81
461.238	443.81
461.458	452.81
461.678	448.81
461.898	452.81
462.118	450.81
462.338	440.81
462.558	459.81
462.777	466.81
462.997	489.81
463.217	491.81
463.437	510.81
463.657	471.81
463.876	494.81
464.096	484.81
464.316	487.81
464.536	472.81
464.755	460.81
464.975	475.81
465.195	489.81
465.414	512.81
465.634	461.81
465.854	438.81
466.073	422.81
466.293	428.81
466.512	404.81
466.732	417.81
466.951	425.81
467.171	401.81
467.391	406.81
467.61	424.81
467.829	404.81
468.049	428.81
468.268	421.81
468.488	391.81
468.707	405.81
468.927	385.81
469.146	407.81
469.365	384.81
469.585	385.81
469.804	404.81
470.023	392.81
470.243	408.81
470.462	424.81
470.681	426.81
470.901	408.81
471.12	408.81
471.339	404.81
471.558	413.81
471.777	406.81
471.997	393.81
472.216	407.81
472.435	434.81
472.654	412.81
472.873	406.81
473.092	415.81
473.311	410.81
473.53	401.81
473.749	416.81
473.968	463.81
474.187	507.81
474.406	519.81
474.625	451.81
474.844	426.81
475.063	411.81
475.282	406.81
475.501	418.81
475.72	404.81
475.939	439.81
476.158	428.81
476.377	433.81
476.596	406.81
476.814	423.81
477.033	408.81
477.252	453.81
477.471	438.81
477.69	447.81
477.908	422.81
478.127	448.81
478.346	435.81
478.564	459.81
478.783	457.81
479.002	467.81
479.22	485.81
479.439	495.81
479.658	499.81
479.876	486.81
480.095	478.81
480.313	523.81
480.532	486.81
480.751	512.81
480.969	504.81
481.188	547.81
481.406	544.81
481.624	519.81
481.843	493.81
482.061	472.81
482.28	491.81
482.498	480.81
482.717	457.81
482.935	460.81
483.153	446.81
483.372	479.81
483.59	479.81
483.808	493.81
484.027	467.81
484.245	460.81
484.463	462.81
484.681	478.81
484.9	487.81
485.118	500.81
485.336	499.81
485.554	487.81
485.772	479.81
485.99	472.81
486.209	474.81
486.427	475.81
486.645	501.81
486.863	491.81
487.081	511.81
487.299	522.81
487.517	482.81
487.735	526.81
487.953	491.81
488.171	518.81
488.389	523.81
488.607	502.81
488.825	496.81
489.043	509.81
489.261	488.81
489.479	487.81
489.696	512.81
489.914	515.81
490.132	509.81
490.35	515.81
490.568	524.81
490.786	541.81
491.003	528.81
491.221	543.81
491.439	546.81
491.657	552.81
491.874	564.81
492.092	558.81
492.31	572.81
492.527	545.81
492.745	551.81
492.963	553.81
493.18	564.81
493.398	584.81
493.615	561.81
493.833	583.81
494.05	552.81
494.268	557.81
494.485	570.81
494.703	581.81
494.92	614.81
495.138	576.81
495.355	582.81
495.573	595.81
495.79	580.81
496.008	598.81
496.225	582.81
496.442	578.81
496.66	591.81
496.877	567.81
497.094	574.81
497.312	598.81
497.529	597.81
497.746	598.81
497.963	600.81
498.181	657.81
498.398	652.81
498.615	668.81
498.832	704.81
499.049	720.81
499.267	714.81
499.484	757.81
499.701	774.81
499.918	815.81
500.135	843.81
500.352	893.81
500.569	910.81
500.786	933.81
501.003	911.81
501.22	878.81
501.437	826.81
501.654	797.81
501.871	784.81
