Data from 1964.PennyLincolnUp.Lamp.En5.5.200Scan.071719.P1._HRD10591_14-03-29-908.txt Node
Date: Thu Jul 18 14:03:29 EDT 2019
User: cochatt
Spectrometer: HR+D1059
Trigger mode: 1
Integration Time (sec): 1.000000E-1
Scans to average: 1
Electric dark correction enabled: true
Nonlinearity correction enabled: false
Boxcar width: 0
XAxis mode: Wavelengths
Number of Pixels in Spectrum: 2048
>>>>>Begin Spectral Data<<<<<
223.165	-10.56
223.4	-10.56
223.635	-10.56
223.869	-15.56
224.104	-24.56
224.338	-7.56
224.573	-6.56
224.808	-23.56
225.042	-6.56
225.277	-22.56
225.511	3.44
225.746	11.44
225.98	9.44
226.215	11.44
226.449	9.44
226.683	17.44
226.918	22.44
227.152	32.44
227.387	47.44
227.621	40.44
227.856	44.44
228.09	36.44
228.324	56.44
228.559	54.44
228.793	79.44
229.027	84.44
229.262	91.44
229.496	97.44
229.73	108.44
229.964	131.44
230.199	102.44
230.433	107.44
230.667	120.44
230.901	102.44
231.136	102.44
231.37	105.44
231.604	100.44
231.838	110.44
232.072	107.44
232.306	111.44
232.541	107.44
232.775	107.44
233.009	110.44
233.243	116.44
233.477	117.44
233.711	129.44
233.945	123.44
234.179	111.44
234.413	106.44
234.647	108.44
234.881	116.44
235.115	101.44
235.349	107.44
235.583	113.44
235.817	107.44
236.051	119.44
236.285	120.44
236.519	114.44
236.753	125.44
236.987	143.44
237.221	133.44
237.455	177.44
237.689	165.44
237.922	140.44
238.156	139.44
238.39	142.44
238.624	119.44
238.858	107.44
239.091	116.44
239.325	137.44
239.559	120.44
239.793	107.44
240.027	131.44
240.26	137.44
240.494	136.44
240.728	128.44
240.961	143.44
241.195	125.44
241.429	117.44
241.662	136.44
241.896	118.44
242.13	123.44
242.363	120.44
242.597	127.44
242.83	136.44
243.064	135.44
243.298	142.44
243.531	134.44
243.765	141.44
243.998	146.44
244.232	145.44
244.465	153.44
244.699	160.44
244.932	130.44
245.166	134.44
245.399	151.44
245.633	144.44
245.866	133.44
246.099	136.44
246.333	130.44
246.566	135.44
246.8	135.44
247.033	164.44
247.266	163.44
247.5	159.44
247.733	151.44
247.966	151.44
248.2	167.44
248.433	169.44
248.666	172.44
248.899	189.44
249.133	189.44
249.366	186.44
249.599	183.44
249.832	174.44
250.066	181.44
250.299	165.44
250.532	192.44
250.765	191.44
250.998	203.44
251.231	216.44
251.465	195.44
251.698	189.44
251.931	185.44
252.164	198.44
252.397	197.44
252.63	202.44
252.863	186.44
253.096	197.44
253.329	205.44
253.562	206.44
253.795	201.44
254.028	219.44
254.261	208.44
254.494	200.44
254.727	225.44
254.96	238.44
255.193	218.44
255.426	243.44
255.659	211.44
255.892	218.44
256.124	225.44
256.357	200.44
256.59	218.44
256.823	211.44
257.056	202.44
257.289	210.44
257.521	207.44
257.754	191.44
257.987	197.44
258.22	224.44
258.452	218.44
258.685	212.44
258.918	194.44
259.151	203.44
259.383	212.44
259.616	199.44
259.849	197.44
260.081	214.44
260.314	228.44
260.547	222.44
260.779	216.44
261.012	203.44
261.244	223.44
261.477	226.44
261.71	215.44
261.942	219.44
262.175	209.44
262.407	221.44
262.64	199.44
262.872	230.44
263.105	191.44
263.337	219.44
263.57	206.44
263.802	205.44
264.035	221.44
264.267	205.44
264.499	215.44
264.732	218.44
264.964	197.44
265.197	217.44
265.429	216.44
265.661	206.44
265.894	219.44
266.126	208.44
266.358	235.44
266.591	218.44
266.823	229.44
267.055	216.44
267.287	245.44
267.52	217.44
267.752	202.44
267.984	215.44
268.216	230.44
268.448	226.44
268.681	237.44
268.913	222.44
269.145	248.44
269.377	264.44
269.609	255.44
269.841	251.44
270.073	254.44
270.306	260.44
270.538	289.44
270.77	283.44
271.002	278.44
271.234	263.44
271.466	260.44
271.698	271.44
271.93	296.44
272.162	289.44
272.394	303.44
272.626	275.44
272.858	260.44
273.09	269.44
273.322	272.44
273.553	270.44
273.785	266.44
274.017	255.44
274.249	272.44
274.481	273.44
274.713	261.44
274.945	272.44
275.176	272.44
275.408	241.44
275.64	264.44
275.872	264.44
276.104	268.44
276.335	259.44
276.567	259.44
276.799	267.44
277.031	284.44
277.262	318.44
277.494	310.44
277.726	292.44
277.957	296.44
278.189	276.44
278.421	257.44
278.652	280.44
278.884	279.44
279.115	273.44
279.347	296.44
279.579	275.44
279.81	281.44
280.042	282.44
280.273	284.44
280.505	269.44
280.736	278.44
280.968	267.44
281.199	279.44
281.431	259.44
281.662	268.44
281.894	288.44
282.125	279.44
282.356	263.44
282.588	299.44
282.819	291.44
283.051	303.44
283.282	277.44
283.513	278.44
283.745	291.44
283.976	296.44
284.207	290.44
284.439	284.44
284.67	283.44
284.901	284.44
285.132	292.44
285.364	303.44
285.595	296.44
285.826	307.44
286.057	310.44
286.288	284.44
286.52	302.44
286.751	287.44
286.982	283.44
287.213	291.44
287.444	300.44
287.675	286.44
287.906	309.44
288.138	316.44
288.369	312.44
288.6	332.44
288.831	302.44
289.062	321.44
289.293	314.44
289.524	318.44
289.755	314.44
289.986	303.44
290.217	290.44
290.448	282.44
290.679	310.44
290.91	309.44
291.141	294.44
291.371	313.44
291.602	293.44
291.833	304.44
292.064	294.44
292.295	315.44
292.526	300.44
292.757	307.44
292.987	313.44
293.218	310.44
293.449	291.44
293.68	314.44
293.91	310.44
294.141	306.44
294.372	303.44
294.603	316.44
294.833	323.44
295.064	329.44
295.295	312.44
295.525	287.44
295.756	311.44
295.987	318.44
296.217	312.44
296.448	324.44
296.679	308.44
296.909	310.44
297.14	329.44
297.37	317.44
297.601	312.44
297.831	328.44
298.062	323.44
298.292	310.44
298.523	335.44
298.753	326.44
298.984	328.44
299.214	308.44
299.445	325.44
299.675	317.44
299.905	329.44
300.136	307.44
300.366	333.44
300.597	329.44
300.827	317.44
301.057	346.44
301.288	348.44
301.518	337.44
301.748	341.44
301.979	342.44
302.209	336.44
302.439	337.44
302.669	338.44
302.9	343.44
303.13	351.44
303.36	330.44
303.59	350.44
303.82	355.44
304.051	359.44
304.281	339.44
304.511	358.44
304.741	319.44
304.971	338.44
305.201	350.44
305.431	335.44
305.661	342.44
305.891	346.44
306.121	352.44
306.352	364.44
306.582	349.44
306.812	341.44
307.042	375.44
307.272	350.44
307.502	349.44
307.731	343.44
307.961	332.44
308.191	342.44
308.421	340.44
308.651	360.44
308.881	332.44
309.111	351.44
309.341	325.44
309.571	340.44
309.8	375.44
310.03	345.44
310.26	357.44
310.49	365.44
310.72	348.44
310.949	364.44
311.179	369.44
311.409	371.44
311.639	367.44
311.868	372.44
312.098	379.44
312.328	366.44
312.557	371.44
312.787	363.44
313.017	367.44
313.246	363.44
313.476	364.44
313.706	379.44
313.935	387.44
314.165	392.44
314.394	380.44
314.624	369.44
314.853	364.44
315.083	399.44
315.312	383.44
315.542	389.44
315.771	383.44
316.001	376.44
316.23	388.44
316.46	367.44
316.689	373.44
316.919	379.44
317.148	395.44
317.377	377.44
317.607	369.44
317.836	370.44
318.065	376.44
318.295	368.44
318.524	373.44
318.753	373.44
318.983	374.44
319.212	383.44
319.441	397.44
319.67	387.44
319.9	375.44
320.129	374.44
320.358	410.44
320.587	374.44
320.816	365.44
321.046	379.44
321.275	398.44
321.504	399.44
321.733	379.44
321.962	378.44
322.191	418.44
322.42	417.44
322.649	415.44
322.878	424.44
323.108	404.44
323.337	437.44
323.566	441.44
323.795	423.44
324.024	457.44
324.253	523.44
324.482	695.44
324.71	1008.44
324.939	1363.44
325.168	1148.44
325.397	631.44
325.626	479.44
325.855	453.44
326.084	443.44
326.313	421.44
326.542	443.44
326.77	449.44
326.999	531.44
327.228	654.44
327.457	877.44
327.686	992.44
327.914	696.44
328.143	537.44
328.372	491.44
328.6	457.44
328.829	469.44
329.058	462.44
329.287	469.44
329.515	468.44
329.744	455.44
329.972	448.44
330.201	443.44
330.43	484.44
330.658	494.44
330.887	484.44
331.115	472.44
331.344	456.44
331.572	439.44
331.801	438.44
332.03	446.44
332.258	433.44
332.486	438.44
332.715	445.44
332.943	452.44
333.172	456.44
333.4	457.44
333.629	466.44
333.857	480.44
334.085	467.44
334.314	500.44
334.542	505.44
334.771	501.44
334.999	459.44
335.227	463.44
335.455	451.44
335.684	462.44
335.912	457.44
336.14	453.44
336.369	455.44
336.597	414.44
336.825	447.44
337.053	463.44
337.281	441.44
337.51	439.44
337.738	450.44
337.966	441.44
338.194	438.44
338.422	441.44
338.65	441.44
338.878	439.44
339.106	424.44
339.334	441.44
339.562	437.44
339.79	427.44
340.018	415.44
340.246	416.44
340.474	434.44
340.702	428.44
340.93	427.44
341.158	413.44
341.386	408.44
341.614	429.44
341.842	411.44
342.07	410.44
342.298	395.44
342.526	430.44
342.754	419.44
342.981	408.44
343.209	394.44
343.437	419.44
343.665	433.44
343.893	445.44
344.12	439.44
344.348	441.44
344.576	408.44
344.804	443.44
345.031	415.44
345.259	428.44
345.487	435.44
345.714	413.44
345.942	402.44
346.17	425.44
346.397	401.44
346.625	397.44
346.853	404.44
347.08	406.44
347.308	408.44
347.535	393.44
347.763	395.44
347.99	400.44
348.218	394.44
348.445	392.44
348.673	387.44
348.9	390.44
349.128	392.44
349.355	388.44
349.583	382.44
349.81	362.44
350.037	393.44
350.265	387.44
350.492	392.44
350.72	373.44
350.947	384.44
351.174	412.44
351.402	409.44
351.629	410.44
351.856	385.44
352.083	388.44
352.311	390.44
352.538	384.44
352.765	405.44
352.992	371.44
353.22	384.44
353.447	378.44
353.674	398.44
353.901	377.44
354.128	395.44
354.355	383.44
354.583	380.44
354.81	375.44
355.037	373.44
355.264	375.44
355.491	377.44
355.718	367.44
355.945	387.44
356.172	369.44
356.399	369.44
356.626	377.44
356.853	374.44
357.08	380.44
357.307	368.44
357.534	365.44
357.761	369.44
357.988	380.44
358.215	371.44
358.441	391.44
358.668	371.44
358.895	376.44
359.122	381.44
359.349	385.44
359.576	384.44
359.802	404.44
360.029	384.44
360.256	393.44
360.483	391.44
360.709	388.44
360.936	394.44
361.163	381.44
361.39	368.44
361.616	397.44
361.843	393.44
362.07	402.44
362.296	367.44
362.523	368.44
362.749	384.44
362.976	391.44
363.203	393.44
363.429	397.44
363.656	390.44
363.882	379.44
364.109	387.44
364.335	365.44
364.562	373.44
364.788	391.44
365.015	355.44
365.241	339.44
365.468	373.44
365.694	375.44
365.92	393.44
366.147	373.44
366.373	358.44
366.599	387.44
366.826	383.44
367.052	377.44
367.278	373.44
367.505	377.44
367.731	380.44
367.957	361.44
368.184	373.44
368.41	371.44
368.636	362.44
368.862	397.44
369.089	362.44
369.315	379.44
369.541	373.44
369.767	388.44
369.993	392.44
370.219	383.44
370.445	366.44
370.672	366.44
370.898	381.44
371.124	377.44
371.35	380.44
371.576	374.44
371.802	363.44
372.028	383.44
372.254	378.44
372.48	361.44
372.706	378.44
372.932	381.44
373.158	390.44
373.384	396.44
373.61	382.44
373.835	379.44
374.061	393.44
374.287	366.44
374.513	385.44
374.739	400.44
374.965	395.44
375.191	388.44
375.416	363.44
375.642	395.44
375.868	379.44
376.094	368.44
376.319	383.44
376.545	376.44
376.771	373.44
376.997	360.44
377.222	373.44
377.448	375.44
377.674	391.44
377.899	369.44
378.125	377.44
378.35	381.44
378.576	374.44
378.802	378.44
379.027	392.44
379.253	382.44
379.478	355.44
379.704	387.44
379.929	372.44
380.155	371.44
380.38	383.44
380.606	392.44
380.831	385.44
381.057	380.44
381.282	360.44
381.507	368.44
381.733	371.44
381.958	389.44
382.184	392.44
382.409	378.44
382.634	388.44
382.86	379.44
383.085	376.44
383.31	377.44
383.535	402.44
383.761	378.44
383.986	390.44
384.211	410.44
384.436	381.44
384.662	392.44
384.887	412.44
385.112	399.44
385.337	399.44
385.562	397.44
385.787	398.44
386.013	420.44
386.238	407.44
386.463	410.44
386.688	428.44
386.913	410.44
387.138	417.44
387.363	412.44
387.588	388.44
387.813	424.44
388.038	414.44
388.263	418.44
388.488	412.44
388.713	425.44
388.938	398.44
389.163	401.44
389.387	415.44
389.612	405.44
389.837	399.44
390.062	411.44
390.287	409.44
390.512	409.44
390.736	402.44
390.961	396.44
391.186	418.44
391.411	416.44
391.636	404.44
391.86	429.44
392.085	415.44
392.31	413.44
392.534	413.44
392.759	423.44
392.984	414.44
393.208	415.44
393.433	415.44
393.658	420.44
393.882	417.44
394.107	408.44
394.331	423.44
394.556	415.44
394.78	404.44
395.005	405.44
395.229	414.44
395.454	425.44
395.678	429.44
395.903	415.44
396.127	455.44
396.352	448.44
396.576	453.44
396.801	406.44
397.025	453.44
397.249	430.44
397.474	435.44
397.698	426.44
397.922	435.44
398.147	438.44
398.371	448.44
398.595	454.44
398.82	459.44
399.044	472.44
399.268	493.44
399.492	523.44
399.717	557.44
399.941	579.44
400.165	549.44
400.389	598.44
400.613	511.44
400.837	493.44
401.062	484.44
401.286	476.44
401.51	454.44
401.734	463.44
401.958	451.44
402.182	469.44
402.406	465.44
402.63	472.44
402.854	469.44
403.078	459.44
403.302	465.44
403.526	492.44
403.75	453.44
403.974	455.44
404.198	474.44
404.422	471.44
404.645	473.44
404.869	498.44
405.093	522.44
405.317	560.44
405.541	547.44
405.765	505.44
405.988	483.44
406.212	483.44
406.436	488.44
406.66	515.44
406.883	499.44
407.107	518.44
407.331	551.44
407.555	587.44
407.778	592.44
408.002	552.44
408.226	533.44
408.449	525.44
408.673	517.44
408.896	536.44
409.12	553.44
409.344	524.44
409.567	472.44
409.791	484.44
410.014	472.44
410.238	471.44
410.461	464.44
410.685	452.44
410.908	481.44
411.132	492.44
411.355	530.44
411.578	511.44
411.802	477.44
412.025	458.44
412.249	469.44
412.472	496.44
412.695	523.44
412.919	521.44
413.142	465.44
413.365	471.44
413.589	464.44
413.812	457.44
414.035	463.44
414.258	447.44
414.482	465.44
414.705	455.44
414.928	456.44
415.151	447.44
415.374	426.44
415.597	421.44
415.821	420.44
416.044	432.44
416.267	440.44
416.49	431.44
416.713	424.44
416.936	450.44
417.159	419.44
417.382	426.44
417.605	458.44
417.828	430.44
418.051	450.44
418.274	440.44
418.497	440.44
418.72	459.44
418.943	437.44
419.166	436.44
419.389	476.44
419.611	484.44
419.834	458.44
420.057	468.44
420.28	446.44
420.503	437.44
420.726	437.44
420.948	458.44
421.171	475.44
421.394	500.44
421.617	453.44
421.839	456.44
422.062	448.44
422.285	462.44
422.507	493.44
422.73	555.44
422.953	543.44
423.175	477.44
423.398	472.44
423.621	464.44
423.843	465.44
424.066	459.44
424.288	473.44
424.511	479.44
424.733	520.44
424.956	556.44
425.178	555.44
425.401	527.44
425.623	547.44
425.846	493.44
426.068	466.44
426.291	449.44
426.513	452.44
426.735	463.44
426.958	478.44
427.18	525.44
427.402	629.44
427.625	683.44
427.847	578.44
428.069	504.44
428.292	481.44
428.514	458.44
428.736	417.44
428.958	446.44
429.181	440.44
429.403	433.44
429.625	437.44
429.847	435.44
430.069	486.44
430.292	500.44
430.514	404.44
430.736	412.44
430.958	423.44
431.18	416.44
431.402	423.44
431.624	412.44
431.846	423.44
432.068	412.44
432.29	401.44
432.512	429.44
432.734	409.44
432.956	420.44
433.178	439.44
433.4	428.44
433.622	424.44
433.844	421.44
434.066	432.44
434.287	401.44
434.509	437.44
434.731	420.44
434.953	431.44
435.175	455.44
435.397	442.44
435.618	452.44
435.84	497.44
436.062	537.44
436.284	565.44
436.505	490.44
436.727	439.44
436.949	425.44
437.17	435.44
437.392	420.44
437.614	402.44
437.835	429.44
438.057	493.44
438.278	548.44
438.5	581.44
438.721	621.44
438.943	581.44
439.165	502.44
439.386	457.44
439.608	440.44
439.829	440.44
440.05	427.44
440.272	471.44
440.493	453.44
440.715	431.44
440.936	421.44
441.158	415.44
441.379	430.44
441.6	444.44
441.822	448.44
442.043	467.44
442.264	533.44
442.486	553.44
442.707	487.44
442.928	458.44
443.149	473.44
443.371	464.44
443.592	512.44
443.813	579.44
444.034	601.44
444.255	494.44
444.476	489.44
444.698	470.44
444.919	463.44
445.14	587.44
445.361	535.44
445.582	474.44
445.803	525.44
446.024	571.44
446.245	557.44
446.466	537.44
446.687	464.44
446.908	449.44
447.129	430.44
447.35	435.44
447.571	441.44
447.792	394.44
448.013	411.44
448.234	426.44
448.455	442.44
448.675	540.44
448.896	585.44
449.117	512.44
449.338	488.44
449.559	579.44
449.779	631.44
450	525.44
450.221	421.44
450.442	381.44
450.662	409.44
450.883	391.44
451.104	407.44
451.324	378.44
451.545	387.44
451.766	392.44
451.986	372.44
452.207	381.44
452.428	398.44
452.648	363.44
452.869	372.44
453.089	367.44
453.31	379.44
453.53	369.44
453.751	348.44
453.971	384.44
454.192	385.44
454.412	360.44
454.633	379.44
454.853	361.44
455.073	351.44
455.294	392.44
455.514	429.44
455.734	399.44
455.955	342.44
456.175	365.44
456.395	366.44
456.616	362.44
456.836	356.44
457.056	372.44
457.276	351.44
457.497	369.44
457.717	369.44
457.937	366.44
458.157	377.44
458.377	361.44
458.598	379.44
458.818	421.44
459.038	440.44
459.258	452.44
459.478	416.44
459.698	423.44
459.918	391.44
460.138	409.44
460.358	431.44
460.578	404.44
460.798	444.44
461.018	425.44
461.238	409.44
461.458	426.44
461.678	419.44
461.898	430.44
462.118	425.44
462.338	457.44
462.558	435.44
462.777	476.44
462.997	472.44
463.217	478.44
463.437	470.44
463.657	464.44
463.876	439.44
464.096	441.44
464.316	438.44
464.536	452.44
464.755	475.44
464.975	453.44
465.195	471.44
465.414	456.44
465.634	429.44
465.854	421.44
466.073	402.44
466.293	392.44
466.512	395.44
466.732	395.44
466.951	399.44
467.171	398.44
467.391	393.44
467.61	372.44
467.829	396.44
468.049	391.44
468.268	387.44
468.488	378.44
468.707	385.44
468.927	357.44
469.146	393.44
469.365	387.44
469.585	386.44
469.804	395.44
470.023	382.44
470.243	383.44
470.462	397.44
470.681	397.44
470.901	412.44
471.12	388.44
471.339	381.44
471.558	401.44
471.777	393.44
471.997	374.44
472.216	397.44
472.435	398.44
472.654	403.44
472.873	363.44
473.092	387.44
473.311	387.44
473.53	389.44
473.749	394.44
473.968	439.44
474.187	477.44
474.406	502.44
474.625	421.44
474.844	393.44
475.063	398.44
475.282	375.44
475.501	395.44
475.72	404.44
475.939	407.44
476.158	433.44
476.377	392.44
476.596	407.44
476.814	429.44
477.033	435.44
477.252	411.44
477.471	399.44
477.69	420.44
477.908	431.44
478.127	431.44
478.346	409.44
478.564	446.44
478.783	421.44
479.002	445.44
479.22	464.44
479.439	447.44
479.658	478.44
479.876	470.44
480.095	480.44
480.313	490.44
480.532	485.44
480.751	493.44
480.969	489.44
481.188	509.44
481.406	506.44
481.624	482.44
481.843	461.44
482.061	463.44
482.28	460.44
482.498	425.44
482.717	439.44
482.935	453.44
483.153	458.44
483.372	452.44
483.59	460.44
483.808	443.44
484.027	441.44
484.245	462.44
484.463	479.44
484.681	484.44
484.9	492.44
485.118	472.44
485.336	455.44
485.554	484.44
485.772	479.44
485.99	482.44
486.209	489.44
486.427	457.44
486.645	475.44
486.863	480.44
487.081	495.44
487.299	487.44
487.517	473.44
487.735	479.44
487.953	492.44
488.171	489.44
488.389	464.44
488.607	474.44
488.825	485.44
489.043	475.44
489.261	487.44
489.479	477.44
489.696	490.44
489.914	494.44
490.132	484.44
490.35	509.44
490.568	499.44
490.786	510.44
491.003	512.44
491.221	503.44
491.439	504.44
491.657	519.44
491.874	514.44
492.092	524.44
492.31	520.44
492.527	513.44
492.745	532.44
492.963	513.44
493.18	539.44
493.398	530.44
493.615	548.44
493.833	543.44
494.05	520.44
494.268	545.44
494.485	534.44
494.703	525.44
494.92	557.44
495.138	532.44
495.355	531.44
495.573	551.44
495.79	516.44
496.008	560.44
496.225	537.44
496.442	551.44
496.66	570.44
496.877	572.44
497.094	561.44
497.312	587.44
497.529	577.44
497.746	575.44
497.963	588.44
498.181	601.44
498.398	636.44
498.615	617.44
498.832	629.44
499.049	671.44
499.267	682.44
499.484	708.44
499.701	735.44
499.918	771.44
500.135	807.44
500.352	856.44
500.569	882.44
500.786	892.44
501.003	880.44
501.22	822.44
501.437	784.44
501.654	733.44
501.871	705.44
502.088	705.44
