Data from 1964.PennyLincolnUp.Lamp.En5.5.200Scan.071719.P1._HRD10591_14-04-14-909.txt Node
Date: Thu Jul 18 14:04:14 EDT 2019
User: cochatt
Spectrometer: HR+D1059
Trigger mode: 1
Integration Time (sec): 1.000000E-1
Scans to average: 1
Electric dark correction enabled: true
Nonlinearity correction enabled: false
Boxcar width: 0
XAxis mode: Wavelengths
Number of Pixels in Spectrum: 2048
>>>>>Begin Spectral Data<<<<<
223.165	-11.25
223.4	-11.25
223.635	-11.25
223.869	-11.25
224.104	1.75
224.338	-21.25
224.573	-19.25
224.808	-9.25
225.042	-5.25
225.277	-8.25
225.511	-5.25
225.746	3.75
225.98	-8.25
226.215	6.75
226.449	7.75
226.683	20.75
226.918	27.75
227.152	30.75
227.387	35.75
227.621	33.75
227.856	44.75
228.09	44.75
228.324	32.75
228.559	61.75
228.793	65.75
229.027	88.75
229.262	100.75
229.496	90.75
229.73	126.75
229.964	140.75
230.199	110.75
230.433	114.75
230.667	129.75
230.901	110.75
231.136	102.75
231.37	102.75
231.604	102.75
231.838	102.75
232.072	114.75
232.306	119.75
232.541	120.75
232.775	117.75
233.009	112.75
233.243	109.75
233.477	122.75
233.711	110.75
233.945	117.75
234.179	115.75
234.413	111.75
234.647	100.75
234.881	85.75
235.115	119.75
235.349	119.75
235.583	128.75
235.817	121.75
236.051	132.75
236.285	114.75
236.519	110.75
236.753	112.75
236.987	131.75
237.221	153.75
237.455	181.75
237.689	152.75
237.922	121.75
238.156	121.75
238.39	115.75
238.624	117.75
238.858	117.75
239.091	130.75
239.325	135.75
239.559	130.75
239.793	105.75
240.027	137.75
240.26	137.75
240.494	132.75
240.728	138.75
240.961	128.75
241.195	142.75
241.429	135.75
241.662	133.75
241.896	127.75
242.13	123.75
242.363	134.75
242.597	139.75
242.83	138.75
243.064	144.75
243.298	141.75
243.531	116.75
243.765	142.75
243.998	133.75
244.232	149.75
244.465	136.75
244.699	141.75
244.932	143.75
245.166	139.75
245.399	142.75
245.633	125.75
245.866	138.75
246.099	144.75
246.333	151.75
246.566	159.75
246.8	146.75
247.033	143.75
247.266	158.75
247.5	135.75
247.733	170.75
247.966	168.75
248.2	172.75
248.433	161.75
248.666	179.75
248.899	183.75
249.133	184.75
249.366	183.75
249.599	197.75
249.832	159.75
250.066	170.75
250.299	174.75
250.532	189.75
250.765	186.75
250.998	213.75
251.231	217.75
251.465	197.75
251.698	191.75
251.931	195.75
252.164	189.75
252.397	184.75
252.63	200.75
252.863	204.75
253.096	193.75
253.329	217.75
253.562	231.75
253.795	217.75
254.028	226.75
254.261	197.75
254.494	223.75
254.727	234.75
254.96	237.75
255.193	239.75
255.426	238.75
255.659	202.75
255.892	224.75
256.124	225.75
256.357	255.75
256.59	228.75
256.823	207.75
257.056	196.75
257.289	217.75
257.521	227.75
257.754	217.75
257.987	218.75
258.22	205.75
258.452	198.75
258.685	198.75
258.918	206.75
259.151	223.75
259.383	218.75
259.616	214.75
259.849	223.75
260.081	227.75
260.314	240.75
260.547	254.75
260.779	232.75
261.012	234.75
261.244	234.75
261.477	220.75
261.71	220.75
261.942	234.75
262.175	217.75
262.407	219.75
262.64	215.75
262.872	214.75
263.105	228.75
263.337	220.75
263.57	229.75
263.802	213.75
264.035	206.75
264.267	234.75
264.499	220.75
264.732	224.75
264.964	221.75
265.197	203.75
265.429	240.75
265.661	223.75
265.894	231.75
266.126	243.75
266.358	229.75
266.591	220.75
266.823	226.75
267.055	232.75
267.287	247.75
267.52	237.75
267.752	225.75
267.984	255.75
268.216	247.75
268.448	238.75
268.681	251.75
268.913	255.75
269.145	256.75
269.377	271.75
269.609	257.75
269.841	270.75
270.073	267.75
270.306	264.75
270.538	297.75
270.77	299.75
271.002	288.75
271.234	310.75
271.466	316.75
271.698	300.75
271.93	323.75
272.162	308.75
272.394	308.75
272.626	309.75
272.858	284.75
273.09	261.75
273.322	270.75
273.553	279.75
273.785	265.75
274.017	261.75
274.249	268.75
274.481	263.75
274.713	280.75
274.945	291.75
275.176	279.75
275.408	266.75
275.64	277.75
275.872	276.75
276.104	293.75
276.335	284.75
276.567	301.75
276.799	291.75
277.031	311.75
277.262	330.75
277.494	308.75
277.726	331.75
277.957	299.75
278.189	291.75
278.421	288.75
278.652	274.75
278.884	293.75
279.115	283.75
279.347	279.75
279.579	276.75
279.81	291.75
280.042	276.75
280.273	282.75
280.505	288.75
280.736	284.75
280.968	296.75
281.199	278.75
281.431	277.75
281.662	288.75
281.894	286.75
282.125	288.75
282.356	298.75
282.588	329.75
282.819	315.75
283.051	295.75
283.282	300.75
283.513	305.75
283.745	306.75
283.976	312.75
284.207	296.75
284.439	297.75
284.67	312.75
284.901	300.75
285.132	299.75
285.364	310.75
285.595	297.75
285.826	303.75
286.057	315.75
286.288	296.75
286.52	307.75
286.751	312.75
286.982	321.75
287.213	324.75
287.444	311.75
287.675	313.75
287.906	301.75
288.138	317.75
288.369	339.75
288.6	324.75
288.831	317.75
289.062	323.75
289.293	325.75
289.524	320.75
289.755	318.75
289.986	319.75
290.217	309.75
290.448	331.75
290.679	307.75
290.91	307.75
291.141	294.75
291.371	336.75
291.602	312.75
291.833	320.75
292.064	328.75
292.295	332.75
292.526	315.75
292.757	311.75
292.987	312.75
293.218	314.75
293.449	319.75
293.68	315.75
293.91	323.75
294.141	313.75
294.372	316.75
294.603	312.75
294.833	310.75
295.064	323.75
295.295	331.75
295.525	327.75
295.756	325.75
295.987	319.75
296.217	331.75
296.448	335.75
296.679	311.75
296.909	300.75
297.14	340.75
297.37	324.75
297.601	325.75
297.831	324.75
298.062	324.75
298.292	343.75
298.523	334.75
298.753	329.75
298.984	326.75
299.214	338.75
299.445	349.75
299.675	346.75
299.905	335.75
300.136	332.75
300.366	349.75
300.597	344.75
300.827	349.75
301.057	350.75
301.288	363.75
301.518	358.75
301.748	354.75
301.979	382.75
302.209	347.75
302.439	343.75
302.669	359.75
302.9	348.75
303.13	358.75
303.36	368.75
303.59	357.75
303.82	379.75
304.051	359.75
304.281	356.75
304.511	360.75
304.741	354.75
304.971	359.75
305.201	351.75
305.431	352.75
305.661	357.75
305.891	343.75
306.121	339.75
306.352	368.75
306.582	363.75
306.812	353.75
307.042	333.75
307.272	345.75
307.502	343.75
307.731	360.75
307.961	347.75
308.191	360.75
308.421	340.75
308.651	371.75
308.881	375.75
309.111	381.75
309.341	356.75
309.571	363.75
309.8	385.75
310.03	375.75
310.26	376.75
310.49	383.75
310.72	389.75
310.949	390.75
311.179	393.75
311.409	399.75
311.639	379.75
311.868	374.75
312.098	382.75
312.328	390.75
312.557	380.75
312.787	368.75
313.017	403.75
313.246	397.75
313.476	390.75
313.706	404.75
313.935	416.75
314.165	404.75
314.394	411.75
314.624	409.75
314.853	399.75
315.083	394.75
315.312	392.75
315.542	397.75
315.771	373.75
316.001	380.75
316.23	399.75
316.46	407.75
316.689	396.75
316.919	401.75
317.148	410.75
317.377	418.75
317.607	421.75
317.836	405.75
318.065	379.75
318.295	400.75
318.524	409.75
318.753	378.75
318.983	420.75
319.212	424.75
319.441	367.75
319.67	383.75
319.9	403.75
320.129	391.75
320.358	389.75
320.587	409.75
320.816	403.75
321.046	426.75
321.275	415.75
321.504	410.75
321.733	419.75
321.962	406.75
322.191	419.75
322.42	422.75
322.649	424.75
322.878	446.75
323.108	435.75
323.337	448.75
323.566	463.75
323.795	470.75
324.024	490.75
324.253	552.75
324.482	746.75
324.71	1060.75
324.939	1434.75
325.168	1227.75
325.397	688.75
325.626	524.75
325.855	493.75
326.084	446.75
326.313	466.75
326.542	483.75
326.77	483.75
326.999	546.75
327.228	714.75
327.457	957.75
327.686	1111.75
327.914	771.75
328.143	565.75
328.372	523.75
328.6	529.75
328.829	508.75
329.058	525.75
329.287	510.75
329.515	496.75
329.744	488.75
329.972	474.75
330.201	475.75
330.43	511.75
330.658	517.75
330.887	533.75
331.115	490.75
331.344	496.75
331.572	471.75
331.801	479.75
332.03	487.75
332.258	478.75
332.486	453.75
332.715	454.75
332.943	488.75
333.172	464.75
333.4	481.75
333.629	464.75
333.857	523.75
334.085	504.75
334.314	519.75
334.542	532.75
334.771	523.75
334.999	503.75
335.227	491.75
335.455	493.75
335.684	495.75
335.912	482.75
336.14	452.75
336.369	471.75
336.597	485.75
336.825	464.75
337.053	467.75
337.281	463.75
337.51	437.75
337.738	451.75
337.966	436.75
338.194	447.75
338.422	452.75
338.65	455.75
338.878	443.75
339.106	446.75
339.334	451.75
339.562	447.75
339.79	440.75
340.018	447.75
340.246	438.75
340.474	419.75
340.702	447.75
340.93	422.75
341.158	440.75
341.386	445.75
341.614	447.75
341.842	454.75
342.07	431.75
342.298	438.75
342.526	442.75
342.754	424.75
342.981	425.75
343.209	429.75
343.437	429.75
343.665	449.75
343.893	462.75
344.12	477.75
344.348	443.75
344.576	477.75
344.804	447.75
345.031	442.75
345.259	456.75
345.487	436.75
345.714	433.75
345.942	443.75
346.17	435.75
346.397	416.75
346.625	429.75
346.853	439.75
347.08	423.75
347.308	423.75
347.535	425.75
347.763	392.75
347.99	413.75
348.218	400.75
348.445	429.75
348.673	428.75
348.9	432.75
349.128	410.75
349.355	404.75
349.583	391.75
349.81	393.75
350.037	427.75
350.265	390.75
350.492	399.75
350.72	385.75
350.947	412.75
351.174	405.75
351.402	401.75
351.629	418.75
351.856	409.75
352.083	407.75
352.311	416.75
352.538	415.75
352.765	415.75
352.992	413.75
353.22	409.75
353.447	409.75
353.674	410.75
353.901	401.75
354.128	387.75
354.355	406.75
354.583	393.75
354.81	387.75
355.037	408.75
355.264	380.75
355.491	383.75
355.718	379.75
355.945	412.75
356.172	393.75
356.399	389.75
356.626	381.75
356.853	376.75
357.08	400.75
357.307	391.75
357.534	369.75
357.761	386.75
357.988	406.75
358.215	399.75
358.441	399.75
358.668	396.75
358.895	377.75
359.122	401.75
359.349	391.75
359.576	407.75
359.802	416.75
360.029	430.75
360.256	449.75
360.483	429.75
360.709	415.75
360.936	416.75
361.163	410.75
361.39	411.75
361.616	398.75
361.843	393.75
362.07	403.75
362.296	395.75
362.523	418.75
362.749	393.75
362.976	407.75
363.203	404.75
363.429	399.75
363.656	383.75
363.882	387.75
364.109	376.75
364.335	396.75
364.562	408.75
364.788	370.75
365.015	393.75
365.241	409.75
365.468	393.75
365.694	384.75
365.92	391.75
366.147	393.75
366.373	395.75
366.599	373.75
366.826	391.75
367.052	385.75
367.278	395.75
367.505	403.75
367.731	393.75
367.957	367.75
368.184	374.75
368.41	387.75
368.636	406.75
368.862	399.75
369.089	389.75
369.315	395.75
369.541	399.75
369.767	391.75
369.993	381.75
370.219	383.75
370.445	390.75
370.672	395.75
370.898	387.75
371.124	378.75
371.35	397.75
371.576	394.75
371.802	407.75
372.028	387.75
372.254	386.75
372.48	402.75
372.706	395.75
372.932	405.75
373.158	394.75
373.384	387.75
373.61	385.75
373.835	387.75
374.061	402.75
374.287	376.75
374.513	377.75
374.739	405.75
374.965	404.75
375.191	390.75
375.416	399.75
375.642	373.75
375.868	388.75
376.094	381.75
376.319	381.75
376.545	388.75
376.771	393.75
376.997	372.75
377.222	397.75
377.448	389.75
377.674	405.75
377.899	399.75
378.125	377.75
378.35	383.75
378.576	379.75
378.802	379.75
379.027	389.75
379.253	379.75
379.478	389.75
379.704	382.75
379.929	391.75
380.155	373.75
380.38	387.75
380.606	393.75
380.831	384.75
381.057	387.75
381.282	381.75
381.507	393.75
381.733	393.75
381.958	386.75
382.184	382.75
382.409	422.75
382.634	398.75
382.86	399.75
383.085	390.75
383.31	389.75
383.535	405.75
383.761	394.75
383.986	415.75
384.211	417.75
384.436	401.75
384.662	404.75
384.887	388.75
385.112	412.75
385.337	430.75
385.562	436.75
385.787	423.75
386.013	429.75
386.238	432.75
386.463	429.75
386.688	455.75
386.913	435.75
387.138	426.75
387.363	430.75
387.588	404.75
387.813	426.75
388.038	419.75
388.263	431.75
388.488	421.75
388.713	427.75
388.938	428.75
389.163	426.75
389.387	423.75
389.612	420.75
389.837	431.75
390.062	393.75
390.287	446.75
390.512	411.75
390.736	442.75
390.961	447.75
391.186	429.75
391.411	441.75
391.636	447.75
391.86	428.75
392.085	440.75
392.31	431.75
392.534	431.75
392.759	451.75
392.984	447.75
393.208	440.75
393.433	433.75
393.658	431.75
393.882	432.75
394.107	438.75
394.331	449.75
394.556	413.75
394.78	424.75
395.005	441.75
395.229	440.75
395.454	419.75
395.678	451.75
395.903	439.75
396.127	467.75
396.352	459.75
396.576	473.75
396.801	438.75
397.025	441.75
397.249	445.75
397.474	431.75
397.698	469.75
397.922	457.75
398.147	452.75
398.371	463.75
398.595	462.75
398.82	483.75
399.044	492.75
399.268	527.75
399.492	543.75
399.717	568.75
399.941	586.75
400.165	595.75
400.389	585.75
400.613	552.75
400.837	504.75
401.062	496.75
401.286	481.75
401.51	497.75
401.734	456.75
401.958	486.75
402.182	459.75
402.406	473.75
402.63	477.75
402.854	494.75
403.078	477.75
403.302	496.75
403.526	489.75
403.75	489.75
403.974	529.75
404.198	484.75
404.422	492.75
404.645	506.75
404.869	514.75
405.093	546.75
405.317	558.75
405.541	581.75
405.765	539.75
405.988	527.75
406.212	504.75
406.436	527.75
406.66	533.75
406.883	531.75
407.107	553.75
407.331	588.75
407.555	617.75
407.778	623.75
408.002	569.75
408.226	547.75
408.449	537.75
408.673	523.75
408.896	551.75
409.12	599.75
409.344	561.75
409.567	506.75
409.791	512.75
410.014	499.75
410.238	500.75
410.461	476.75
410.685	499.75
410.908	507.75
411.132	523.75
411.355	555.75
411.578	530.75
411.802	501.75
412.025	494.75
412.249	504.75
412.472	506.75
412.695	549.75
412.919	532.75
413.142	495.75
413.365	479.75
413.589	463.75
413.812	475.75
414.035	477.75
414.258	477.75
414.482	458.75
414.705	471.75
414.928	468.75
415.151	465.75
415.374	441.75
415.597	456.75
415.821	457.75
416.044	490.75
416.267	477.75
416.49	447.75
416.713	450.75
416.936	449.75
417.159	481.75
417.382	466.75
417.605	460.75
417.828	475.75
418.051	488.75
418.274	492.75
418.497	464.75
418.72	457.75
418.943	469.75
419.166	480.75
419.389	512.75
419.611	487.75
419.834	476.75
420.057	499.75
420.28	485.75
420.503	491.75
420.726	464.75
420.948	481.75
421.171	523.75
421.394	521.75
421.617	486.75
421.839	481.75
422.062	476.75
422.285	486.75
422.507	501.75
422.73	571.75
422.953	553.75
423.175	493.75
423.398	462.75
423.621	475.75
423.843	516.75
424.066	488.75
424.288	485.75
424.511	521.75
424.733	556.75
424.956	596.75
425.178	579.75
425.401	586.75
425.623	597.75
425.846	515.75
426.068	483.75
426.291	495.75
426.513	475.75
426.735	501.75
426.958	515.75
427.18	592.75
427.402	666.75
427.625	711.75
427.847	639.75
428.069	554.75
428.292	495.75
428.514	461.75
428.736	480.75
428.958	459.75
429.181	467.75
429.403	476.75
429.625	466.75
429.847	495.75
430.069	525.75
430.292	504.75
430.514	448.75
430.736	444.75
430.958	425.75
431.18	423.75
431.402	431.75
431.624	423.75
431.846	449.75
432.068	412.75
432.29	415.75
432.512	440.75
432.734	468.75
432.956	461.75
433.178	441.75
433.4	446.75
433.622	447.75
433.844	462.75
434.066	435.75
434.287	423.75
434.509	444.75
434.731	447.75
434.953	445.75
435.175	470.75
435.397	499.75
435.618	489.75
435.84	516.75
436.062	569.75
436.284	616.75
436.505	522.75
436.727	471.75
436.949	488.75
437.17	467.75
437.392	455.75
437.614	450.75
437.835	480.75
438.057	533.75
438.278	606.75
438.5	579.75
438.721	663.75
438.943	622.75
439.165	508.75
439.386	486.75
439.608	480.75
439.829	487.75
440.05	467.75
440.272	519.75
440.493	484.75
440.715	439.75
440.936	454.75
441.158	462.75
441.379	441.75
441.6	483.75
441.822	450.75
442.043	490.75
442.264	565.75
442.486	620.75
442.707	512.75
442.928	500.75
443.149	494.75
443.371	499.75
443.592	553.75
443.813	576.75
444.034	625.75
444.255	551.75
444.476	499.75
444.698	488.75
444.919	481.75
445.14	616.75
445.361	523.75
445.582	515.75
445.803	552.75
446.024	603.75
446.245	621.75
446.466	571.75
446.687	493.75
446.908	448.75
447.129	439.75
447.35	428.75
447.571	448.75
447.792	437.75
448.013	431.75
448.234	443.75
448.455	493.75
448.675	568.75
448.896	603.75
449.117	540.75
449.338	535.75
449.559	605.75
449.779	683.75
450	545.75
450.221	468.75
450.442	448.75
450.662	425.75
450.883	413.75
451.104	435.75
451.324	393.75
451.545	411.75
451.766	413.75
451.986	402.75
452.207	392.75
452.428	389.75
452.648	384.75
452.869	365.75
453.089	410.75
453.31	394.75
453.53	432.75
453.751	400.75
453.971	386.75
454.192	401.75
454.412	385.75
454.633	374.75
454.853	368.75
455.073	383.75
455.294	396.75
455.514	431.75
455.734	439.75
455.955	383.75
456.175	352.75
456.395	377.75
456.616	374.75
456.836	367.75
457.056	360.75
457.276	384.75
457.497	369.75
457.717	375.75
457.937	380.75
458.157	359.75
458.377	403.75
458.598	399.75
458.818	439.75
459.038	488.75
459.258	478.75
459.478	460.75
459.698	420.75
459.918	432.75
460.138	420.75
460.358	444.75
460.578	444.75
460.798	431.75
461.018	444.75
461.238	425.75
461.458	453.75
461.678	449.75
461.898	450.75
462.118	437.75
462.338	448.75
462.558	447.75
462.777	488.75
462.997	471.75
463.217	495.75
463.437	491.75
463.657	472.75
463.876	460.75
464.096	469.75
464.316	501.75
464.536	506.75
464.755	475.75
464.975	462.75
465.195	485.75
465.414	473.75
465.634	456.75
465.854	429.75
466.073	417.75
466.293	428.75
466.512	429.75
466.732	405.75
466.951	397.75
467.171	406.75
467.391	419.75
467.61	414.75
467.829	421.75
468.049	405.75
468.268	398.75
468.488	401.75
468.707	393.75
468.927	405.75
469.146	403.75
469.365	400.75
469.585	387.75
469.804	396.75
470.023	425.75
470.243	406.75
470.462	407.75
470.681	408.75
470.901	423.75
471.12	421.75
471.339	392.75
471.558	422.75
471.777	412.75
471.997	417.75
472.216	415.75
472.435	428.75
472.654	435.75
472.873	409.75
473.092	402.75
473.311	401.75
473.53	410.75
473.749	421.75
473.968	458.75
474.187	515.75
474.406	511.75
474.625	449.75
474.844	405.75
475.063	405.75
475.282	418.75
475.501	444.75
475.72	448.75
475.939	421.75
476.158	405.75
476.377	411.75
476.596	430.75
476.814	440.75
477.033	413.75
477.252	423.75
477.471	420.75
477.69	416.75
477.908	436.75
478.127	451.75
478.346	433.75
478.564	463.75
478.783	453.75
479.002	475.75
479.22	489.75
479.439	489.75
479.658	470.75
479.876	493.75
480.095	487.75
480.313	511.75
480.532	522.75
480.751	496.75
480.969	499.75
481.188	539.75
481.406	534.75
481.624	510.75
481.843	511.75
482.061	503.75
482.28	465.75
482.498	459.75
482.717	458.75
482.935	475.75
483.153	467.75
483.372	466.75
483.59	475.75
483.808	463.75
484.027	464.75
484.245	478.75
484.463	462.75
484.681	474.75
484.9	484.75
485.118	495.75
485.336	480.75
485.554	501.75
485.772	495.75
485.99	490.75
486.209	490.75
486.427	486.75
486.645	511.75
486.863	507.75
487.081	494.75
487.299	500.75
487.517	511.75
487.735	504.75
487.953	480.75
488.171	491.75
488.389	490.75
488.607	510.75
488.825	519.75
489.043	495.75
489.261	522.75
489.479	488.75
489.696	517.75
489.914	519.75
490.132	516.75
490.35	526.75
490.568	522.75
490.786	524.75
491.003	548.75
491.221	536.75
491.439	533.75
491.657	545.75
491.874	563.75
492.092	549.75
492.31	576.75
492.527	553.75
492.745	575.75
492.963	571.75
493.18	567.75
493.398	565.75
493.615	574.75
493.833	565.75
494.05	568.75
494.268	563.75
494.485	563.75
494.703	571.75
494.92	587.75
495.138	582.75
495.355	560.75
495.573	583.75
495.79	571.75
496.008	589.75
496.225	579.75
496.442	596.75
496.66	581.75
496.877	617.75
497.094	596.75
497.312	604.75
497.529	600.75
497.746	615.75
497.963	616.75
498.181	634.75
498.398	658.75
498.615	698.75
498.832	686.75
499.049	687.75
499.267	723.75
499.484	756.75
499.701	797.75
499.918	809.75
500.135	845.75
500.352	896.75
500.569	909.75
500.786	945.75
501.003	904.75
501.22	856.75
501.437	846.75
501.654	800.75
501.871	765.75
502.088	720.75
