Data from 1964.PennyLincolnUp.Lamp.En5.5.200Scan.071719.P1._HRD10591_14-05-29-909.txt Node
Date: Thu Jul 18 14:05:29 EDT 2019
User: cochatt
Spectrometer: HR+D1059
Trigger mode: 1
Integration Time (sec): 1.000000E-1
Scans to average: 1
Electric dark correction enabled: true
Nonlinearity correction enabled: false
Boxcar width: 0
XAxis mode: Wavelengths
Number of Pixels in Spectrum: 2048
>>>>>Begin Spectral Data<<<<<
223.165	-28.31
223.4	-28.31
223.635	-28.31
223.869	-21.31
224.104	-23.31
224.338	-4.31
224.573	-16.31
224.808	4.69
225.042	-3.31
225.277	-5.31
225.511	1.69
225.746	-9.31
225.98	9.69
226.215	16.69
226.449	-7.31
226.683	16.69
226.918	31.69
227.152	37.69
227.387	47.69
227.621	39.69
227.856	34.69
228.09	52.69
228.324	38.69
228.559	62.69
228.793	69.69
229.027	90.69
229.262	103.69
229.496	106.69
229.73	126.69
229.964	140.69
230.199	111.69
230.433	124.69
230.667	109.69
230.901	101.69
231.136	112.69
231.37	103.69
231.604	106.69
231.838	124.69
232.072	104.69
232.306	101.69
232.541	115.69
232.775	106.69
233.009	124.69
233.243	115.69
233.477	121.69
233.711	106.69
233.945	122.69
234.179	115.69
234.413	119.69
234.647	112.69
234.881	126.69
235.115	120.69
235.349	117.69
235.583	122.69
235.817	123.69
236.051	111.69
236.285	131.69
236.519	111.69
236.753	146.69
236.987	126.69
237.221	170.69
237.455	221.69
237.689	164.69
237.922	131.69
238.156	126.69
238.39	118.69
238.624	114.69
238.858	127.69
239.091	132.69
239.325	130.69
239.559	131.69
239.793	138.69
240.027	126.69
240.26	127.69
240.494	134.69
240.728	163.69
240.961	150.69
241.195	157.69
241.429	140.69
241.662	142.69
241.896	139.69
242.13	134.69
242.363	141.69
242.597	137.69
242.83	133.69
243.064	130.69
243.298	152.69
243.531	149.69
243.765	142.69
243.998	132.69
244.232	162.69
244.465	150.69
244.699	150.69
244.932	139.69
245.166	156.69
245.399	138.69
245.633	156.69
245.866	147.69
246.099	151.69
246.333	181.69
246.566	143.69
246.8	159.69
247.033	159.69
247.266	163.69
247.5	179.69
247.733	170.69
247.966	175.69
248.2	170.69
248.433	166.69
248.666	168.69
248.899	181.69
249.133	213.69
249.366	211.69
249.599	187.69
249.832	191.69
250.066	197.69
250.299	184.69
250.532	203.69
250.765	203.69
250.998	214.69
251.231	218.69
251.465	217.69
251.698	201.69
251.931	192.69
252.164	208.69
252.397	203.69
252.63	210.69
252.863	202.69
253.096	213.69
253.329	230.69
253.562	212.69
253.795	233.69
254.028	221.69
254.261	214.69
254.494	211.69
254.727	246.69
254.96	263.69
255.193	254.69
255.426	240.69
255.659	258.69
255.892	231.69
256.124	227.69
256.357	252.69
256.59	245.69
256.823	243.69
257.056	211.69
257.289	213.69
257.521	196.69
257.754	223.69
257.987	210.69
258.22	229.69
258.452	222.69
258.685	214.69
258.918	218.69
259.151	218.69
259.383	240.69
259.616	249.69
259.849	231.69
260.081	252.69
260.314	260.69
260.547	285.69
260.779	250.69
261.012	244.69
261.244	230.69
261.477	232.69
261.71	224.69
261.942	220.69
262.175	234.69
262.407	227.69
262.64	222.69
262.872	232.69
263.105	226.69
263.337	232.69
263.57	251.69
263.802	229.69
264.035	239.69
264.267	221.69
264.499	234.69
264.732	242.69
264.964	234.69
265.197	225.69
265.429	226.69
265.661	228.69
265.894	243.69
266.126	238.69
266.358	232.69
266.591	228.69
266.823	247.69
267.055	250.69
267.287	237.69
267.52	253.69
267.752	254.69
267.984	248.69
268.216	255.69
268.448	232.69
268.681	248.69
268.913	264.69
269.145	264.69
269.377	304.69
269.609	292.69
269.841	286.69
270.073	285.69
270.306	318.69
270.538	302.69
270.77	314.69
271.002	303.69
271.234	299.69
271.466	331.69
271.698	325.69
271.93	331.69
272.162	344.69
272.394	333.69
272.626	314.69
272.858	304.69
273.09	278.69
273.322	299.69
273.553	290.69
273.785	294.69
274.017	295.69
274.249	284.69
274.481	286.69
274.713	296.69
274.945	291.69
275.176	310.69
275.408	289.69
275.64	303.69
275.872	287.69
276.104	303.69
276.335	300.69
276.567	304.69
276.799	304.69
277.031	319.69
277.262	326.69
277.494	326.69
277.726	324.69
277.957	307.69
278.189	329.69
278.421	321.69
278.652	290.69
278.884	313.69
279.115	284.69
279.347	293.69
279.579	311.69
279.81	278.69
280.042	299.69
280.273	294.69
280.505	295.69
280.736	289.69
280.968	292.69
281.199	296.69
281.431	266.69
281.662	314.69
281.894	287.69
282.125	312.69
282.356	314.69
282.588	310.69
282.819	301.69
283.051	302.69
283.282	306.69
283.513	303.69
283.745	293.69
283.976	307.69
284.207	316.69
284.439	320.69
284.67	320.69
284.901	317.69
285.132	320.69
285.364	317.69
285.595	329.69
285.826	309.69
286.057	325.69
286.288	314.69
286.52	316.69
286.751	329.69
286.982	324.69
287.213	315.69
287.444	335.69
287.675	334.69
287.906	330.69
288.138	329.69
288.369	333.69
288.6	338.69
288.831	332.69
289.062	345.69
289.293	319.69
289.524	331.69
289.755	342.69
289.986	325.69
290.217	329.69
290.448	317.69
290.679	315.69
290.91	330.69
291.141	316.69
291.371	320.69
291.602	323.69
291.833	342.69
292.064	334.69
292.295	332.69
292.526	330.69
292.757	327.69
292.987	312.69
293.218	315.69
293.449	326.69
293.68	333.69
293.91	340.69
294.141	347.69
294.372	326.69
294.603	336.69
294.833	340.69
295.064	328.69
295.295	336.69
295.525	340.69
295.756	325.69
295.987	348.69
296.217	346.69
296.448	375.69
296.679	346.69
296.909	325.69
297.14	325.69
297.37	330.69
297.601	349.69
297.831	337.69
298.062	338.69
298.292	344.69
298.523	362.69
298.753	343.69
298.984	363.69
299.214	351.69
299.445	326.69
299.675	370.69
299.905	344.69
300.136	358.69
300.366	354.69
300.597	368.69
300.827	354.69
301.057	375.69
301.288	372.69
301.518	370.69
301.748	365.69
301.979	346.69
302.209	365.69
302.439	359.69
302.669	382.69
302.9	380.69
303.13	370.69
303.36	367.69
303.59	372.69
303.82	396.69
304.051	380.69
304.281	376.69
304.511	380.69
304.741	386.69
304.971	360.69
305.201	370.69
305.431	383.69
305.661	380.69
305.891	372.69
306.121	367.69
306.352	374.69
306.582	378.69
306.812	358.69
307.042	374.69
307.272	374.69
307.502	352.69
307.731	382.69
307.961	369.69
308.191	380.69
308.421	400.69
308.651	377.69
308.881	375.69
309.111	361.69
309.341	388.69
309.571	386.69
309.8	391.69
310.03	392.69
310.26	395.69
310.49	401.69
310.72	402.69
310.949	395.69
311.179	415.69
311.409	375.69
311.639	418.69
311.868	402.69
312.098	412.69
312.328	418.69
312.557	431.69
312.787	430.69
313.017	439.69
313.246	420.69
313.476	429.69
313.706	433.69
313.935	420.69
314.165	406.69
314.394	417.69
314.624	432.69
314.853	426.69
315.083	414.69
315.312	399.69
315.542	398.69
315.771	407.69
316.001	420.69
316.23	412.69
316.46	417.69
316.689	407.69
316.919	422.69
317.148	418.69
317.377	429.69
317.607	413.69
317.836	419.69
318.065	415.69
318.295	407.69
318.524	412.69
318.753	424.69
318.983	428.69
319.212	418.69
319.441	427.69
319.67	438.69
319.9	424.69
320.129	415.69
320.358	407.69
320.587	411.69
320.816	419.69
321.046	420.69
321.275	439.69
321.504	425.69
321.733	467.69
321.962	436.69
322.191	440.69
322.42	451.69
322.649	448.69
322.878	447.69
323.108	468.69
323.337	481.69
323.566	485.69
323.795	490.69
324.024	523.69
324.253	626.69
324.482	828.69
324.71	1226.69
324.939	1653.69
325.168	1395.69
325.397	783.69
325.626	579.69
325.855	524.69
326.084	510.69
326.313	474.69
326.542	485.69
326.77	527.69
326.999	596.69
327.228	771.69
327.457	1079.69
327.686	1237.69
327.914	838.69
328.143	614.69
328.372	567.69
328.6	560.69
328.829	527.69
329.058	559.69
329.287	558.69
329.515	517.69
329.744	517.69
329.972	517.69
330.201	517.69
330.43	550.69
330.658	546.69
330.887	571.69
331.115	567.69
331.344	523.69
331.572	498.69
331.801	518.69
332.03	483.69
332.258	500.69
332.486	480.69
332.715	490.69
332.943	491.69
333.172	496.69
333.4	511.69
333.629	500.69
333.857	531.69
334.085	540.69
334.314	554.69
334.542	575.69
334.771	564.69
334.999	510.69
335.227	522.69
335.455	487.69
335.684	506.69
335.912	495.69
336.14	461.69
336.369	518.69
336.597	491.69
336.825	484.69
337.053	483.69
337.281	488.69
337.51	476.69
337.738	476.69
337.966	471.69
338.194	484.69
338.422	457.69
338.65	451.69
338.878	461.69
339.106	463.69
339.334	476.69
339.562	471.69
339.79	472.69
340.018	469.69
340.246	446.69
340.474	469.69
340.702	465.69
340.93	446.69
341.158	446.69
341.386	460.69
341.614	456.69
341.842	460.69
342.07	456.69
342.298	448.69
342.526	456.69
342.754	427.69
342.981	452.69
343.209	442.69
343.437	464.69
343.665	491.69
343.893	469.69
344.12	492.69
344.348	519.69
344.576	475.69
344.804	483.69
345.031	455.69
345.259	458.69
345.487	461.69
345.714	467.69
345.942	450.69
346.17	440.69
346.397	432.69
346.625	429.69
346.853	449.69
347.08	432.69
347.308	407.69
347.535	447.69
347.763	439.69
347.99	439.69
348.218	448.69
348.445	432.69
348.673	431.69
348.9	428.69
349.128	429.69
349.355	416.69
349.583	440.69
349.81	417.69
350.037	416.69
350.265	413.69
350.492	418.69
350.72	426.69
350.947	425.69
351.174	440.69
351.402	429.69
351.629	442.69
351.856	430.69
352.083	430.69
352.311	434.69
352.538	442.69
352.765	445.69
352.992	418.69
353.22	440.69
353.447	430.69
353.674	397.69
353.901	412.69
354.128	413.69
354.355	422.69
354.583	401.69
354.81	422.69
355.037	405.69
355.264	402.69
355.491	418.69
355.718	415.69
355.945	423.69
356.172	414.69
356.399	410.69
356.626	420.69
356.853	411.69
357.08	392.69
357.307	405.69
357.534	407.69
357.761	397.69
357.988	419.69
358.215	413.69
358.441	411.69
358.668	398.69
358.895	393.69
359.122	418.69
359.349	411.69
359.576	428.69
359.802	432.69
360.029	441.69
360.256	444.69
360.483	446.69
360.709	424.69
360.936	424.69
361.163	419.69
361.39	428.69
361.616	426.69
361.843	415.69
362.07	408.69
362.296	437.69
362.523	412.69
362.749	419.69
362.976	408.69
363.203	399.69
363.429	389.69
363.656	410.69
363.882	421.69
364.109	399.69
364.335	410.69
364.562	414.69
364.788	396.69
365.015	402.69
365.241	410.69
365.468	395.69
365.694	410.69
365.92	398.69
366.147	406.69
366.373	404.69
366.599	397.69
366.826	392.69
367.052	375.69
367.278	409.69
367.505	396.69
367.731	427.69
367.957	403.69
368.184	414.69
368.41	412.69
368.636	407.69
368.862	406.69
369.089	423.69
369.315	407.69
369.541	402.69
369.767	399.69
369.993	416.69
370.219	422.69
370.445	405.69
370.672	395.69
370.898	393.69
371.124	414.69
371.35	380.69
371.576	417.69
371.802	399.69
372.028	396.69
372.254	414.69
372.48	403.69
372.706	411.69
372.932	401.69
373.158	414.69
373.384	422.69
373.61	400.69
373.835	416.69
374.061	408.69
374.287	431.69
374.513	439.69
374.739	422.69
374.965	424.69
375.191	434.69
375.416	418.69
375.642	410.69
375.868	425.69
376.094	417.69
376.319	408.69
376.545	382.69
376.771	401.69
376.997	405.69
377.222	414.69
377.448	402.69
377.674	380.69
377.899	412.69
378.125	408.69
378.35	394.69
378.576	410.69
378.802	406.69
379.027	392.69
379.253	390.69
379.478	409.69
379.704	408.69
379.929	391.69
380.155	398.69
380.38	392.69
380.606	411.69
380.831	382.69
381.057	383.69
381.282	398.69
381.507	414.69
381.733	407.69
381.958	409.69
382.184	388.69
382.409	427.69
382.634	402.69
382.86	388.69
383.085	412.69
383.31	423.69
383.535	434.69
383.761	425.69
383.986	418.69
384.211	413.69
384.436	423.69
384.662	432.69
384.887	440.69
385.112	419.69
385.337	442.69
385.562	442.69
385.787	434.69
386.013	442.69
386.238	431.69
386.463	438.69
386.688	446.69
386.913	412.69
387.138	439.69
387.363	440.69
387.588	457.69
387.813	427.69
388.038	446.69
388.263	435.69
388.488	419.69
388.713	431.69
388.938	450.69
389.163	425.69
389.387	438.69
389.612	431.69
389.837	447.69
390.062	411.69
390.287	454.69
390.512	440.69
390.736	447.69
390.961	426.69
391.186	427.69
391.411	428.69
391.636	434.69
391.86	438.69
392.085	448.69
392.31	451.69
392.534	458.69
392.759	451.69
392.984	444.69
393.208	444.69
393.433	450.69
393.658	448.69
393.882	432.69
394.107	436.69
394.331	446.69
394.556	432.69
394.78	458.69
395.005	449.69
395.229	443.69
395.454	446.69
395.678	448.69
395.903	445.69
396.127	475.69
396.352	437.69
396.576	451.69
396.801	476.69
397.025	461.69
397.249	457.69
397.474	471.69
397.698	472.69
397.922	470.69
398.147	501.69
398.371	487.69
398.595	491.69
398.82	502.69
399.044	520.69
399.268	546.69
399.492	562.69
399.717	601.69
399.941	588.69
400.165	621.69
400.389	593.69
400.613	576.69
400.837	527.69
401.062	507.69
401.286	496.69
401.51	503.69
401.734	489.69
401.958	498.69
402.182	476.69
402.406	488.69
402.63	505.69
402.854	499.69
403.078	484.69
403.302	504.69
403.526	521.69
403.75	496.69
403.974	520.69
404.198	517.69
404.422	515.69
404.645	510.69
404.869	542.69
405.093	539.69
405.317	564.69
405.541	614.69
405.765	570.69
405.988	534.69
406.212	550.69
406.436	554.69
406.66	546.69
406.883	533.69
407.107	571.69
407.331	616.69
407.555	643.69
407.778	668.69
408.002	604.69
408.226	564.69
408.449	537.69
408.673	548.69
408.896	572.69
409.12	592.69
409.344	562.69
409.567	549.69
409.791	518.69
410.014	512.69
410.238	484.69
410.461	491.69
410.685	528.69
410.908	535.69
411.132	538.69
411.355	543.69
411.578	542.69
411.802	504.69
412.025	518.69
412.249	533.69
412.472	520.69
412.695	550.69
412.919	550.69
413.142	515.69
413.365	515.69
413.589	488.69
413.812	501.69
414.035	493.69
414.258	496.69
414.482	467.69
414.705	484.69
414.928	466.69
415.151	496.69
415.374	466.69
415.597	467.69
415.821	469.69
416.044	477.69
416.267	471.69
416.49	478.69
416.713	468.69
416.936	470.69
417.159	468.69
417.382	466.69
417.605	477.69
417.828	492.69
418.051	470.69
418.274	483.69
418.497	470.69
418.72	467.69
418.943	466.69
419.166	482.69
419.389	518.69
419.611	514.69
419.834	493.69
420.057	466.69
420.28	502.69
420.503	487.69
420.726	501.69
420.948	498.69
421.171	505.69
421.394	552.69
421.617	492.69
421.839	500.69
422.062	499.69
422.285	499.69
422.507	531.69
422.73	590.69
422.953	566.69
423.175	523.69
423.398	504.69
423.621	505.69
423.843	537.69
424.066	516.69
424.288	511.69
424.511	505.69
424.733	552.69
424.956	626.69
425.178	599.69
425.401	574.69
425.623	620.69
425.846	531.69
426.068	530.69
426.291	506.69
426.513	497.69
426.735	501.69
426.958	534.69
427.18	610.69
427.402	688.69
427.625	732.69
427.847	649.69
428.069	570.69
428.292	538.69
428.514	502.69
428.736	491.69
428.958	474.69
429.181	483.69
429.403	464.69
429.625	466.69
429.847	492.69
430.069	555.69
430.292	538.69
430.514	484.69
430.736	492.69
430.958	451.69
431.18	447.69
431.402	445.69
431.624	420.69
431.846	428.69
432.068	441.69
432.29	444.69
432.512	451.69
432.734	463.69
432.956	447.69
433.178	462.69
433.4	452.69
433.622	459.69
433.844	446.69
434.066	444.69
434.287	448.69
434.509	459.69
434.731	482.69
434.953	451.69
435.175	488.69
435.397	487.69
435.618	522.69
435.84	524.69
436.062	592.69
436.284	643.69
436.505	544.69
436.727	502.69
436.949	454.69
437.17	459.69
437.392	456.69
437.614	457.69
437.835	493.69
438.057	575.69
438.278	639.69
438.5	639.69
438.721	694.69
438.943	666.69
439.165	532.69
439.386	525.69
439.608	512.69
439.829	513.69
440.05	540.69
440.272	543.69
440.493	529.69
440.715	464.69
440.936	476.69
441.158	468.69
441.379	449.69
441.6	490.69
441.822	479.69
442.043	536.69
442.264	592.69
442.486	605.69
442.707	554.69
442.928	528.69
443.149	517.69
443.371	507.69
443.592	534.69
443.813	632.69
444.034	685.69
444.255	565.69
444.476	516.69
444.698	529.69
444.919	505.69
445.14	592.69
445.361	557.69
445.582	527.69
445.803	578.69
446.024	637.69
446.245	655.69
446.466	597.69
446.687	520.69
446.908	479.69
447.129	459.69
447.35	453.69
447.571	450.69
447.792	446.69
448.013	445.69
448.234	466.69
448.455	510.69
448.675	599.69
448.896	672.69
449.117	572.69
449.338	576.69
449.559	647.69
449.779	716.69
450	574.69
450.221	488.69
450.442	453.69
450.662	445.69
450.883	429.69
451.104	454.69
451.324	431.69
451.545	411.69
451.766	399.69
451.986	408.69
452.207	398.69
452.428	404.69
452.648	425.69
452.869	399.69
453.089	414.69
453.31	415.69
453.53	393.69
453.751	398.69
453.971	397.69
454.192	414.69
454.412	409.69
454.633	419.69
454.853	395.69
455.073	402.69
455.294	444.69
455.514	464.69
455.734	464.69
455.955	417.69
456.175	392.69
456.395	384.69
456.616	377.69
456.836	388.69
457.056	396.69
457.276	400.69
457.497	432.69
457.717	398.69
457.937	389.69
458.157	400.69
458.377	414.69
458.598	422.69
458.818	449.69
459.038	508.69
459.258	529.69
459.478	475.69
459.698	453.69
459.918	429.69
460.138	424.69
460.358	438.69
460.578	452.69
460.798	458.69
461.018	454.69
461.238	462.69
461.458	477.69
461.678	459.69
461.898	475.69
462.118	462.69
462.338	461.69
462.558	491.69
462.777	495.69
462.997	500.69
463.217	500.69
463.437	517.69
463.657	520.69
463.876	492.69
464.096	471.69
464.316	483.69
464.536	503.69
464.755	490.69
464.975	488.69
465.195	491.69
465.414	521.69
465.634	493.69
465.854	451.69
466.073	422.69
466.293	430.69
466.512	414.69
466.732	417.69
466.951	391.69
467.171	416.69
467.391	424.69
467.61	415.69
467.829	440.69
468.049	419.69
468.268	416.69
468.488	423.69
468.707	400.69
468.927	411.69
469.146	392.69
469.365	412.69
469.585	405.69
469.804	413.69
470.023	407.69
470.243	422.69
470.462	430.69
470.681	440.69
470.901	441.69
471.12	439.69
471.339	438.69
471.558	423.69
471.777	407.69
471.997	418.69
472.216	424.69
472.435	451.69
472.654	453.69
472.873	418.69
473.092	420.69
473.311	420.69
473.53	418.69
473.749	427.69
473.968	467.69
474.187	547.69
474.406	550.69
474.625	459.69
474.844	435.69
475.063	411.69
475.282	454.69
475.501	424.69
475.72	457.69
475.939	448.69
476.158	421.69
476.377	447.69
476.596	420.69
476.814	449.69
477.033	447.69
477.252	456.69
477.471	467.69
477.69	454.69
477.908	466.69
478.127	458.69
478.346	451.69
478.564	473.69
478.783	485.69
479.002	495.69
479.22	495.69
479.439	482.69
479.658	507.69
479.876	496.69
480.095	526.69
480.313	554.69
480.532	531.69
480.751	515.69
480.969	539.69
481.188	586.69
481.406	578.69
481.624	535.69
481.843	500.69
482.061	501.69
482.28	470.69
482.498	473.69
482.717	500.69
482.935	491.69
483.153	484.69
483.372	483.69
483.59	488.69
483.808	477.69
484.027	492.69
484.245	463.69
484.463	502.69
484.681	494.69
484.9	490.69
485.118	497.69
485.336	494.69
485.554	490.69
485.772	502.69
485.99	510.69
486.209	495.69
486.427	507.69
486.645	502.69
486.863	522.69
487.081	526.69
487.299	499.69
487.517	530.69
487.735	531.69
487.953	536.69
488.171	495.69
488.389	520.69
488.607	521.69
488.825	528.69
489.043	492.69
489.261	526.69
489.479	525.69
489.696	535.69
489.914	510.69
490.132	574.69
490.35	534.69
490.568	542.69
490.786	538.69
491.003	554.69
491.221	556.69
491.439	564.69
491.657	579.69
491.874	587.69
492.092	575.69
492.31	572.69
492.527	567.69
492.745	572.69
492.963	593.69
493.18	578.69
493.398	605.69
493.615	596.69
493.833	611.69
494.05	585.69
494.268	614.69
494.485	578.69
494.703	609.69
494.92	609.69
495.138	587.69
495.355	619.69
495.573	614.69
495.79	612.69
496.008	606.69
496.225	599.69
496.442	620.69
496.66	598.69
496.877	616.69
497.094	598.69
497.312	623.69
497.529	603.69
497.746	632.69
497.963	644.69
498.181	684.69
498.398	684.69
498.615	679.69
498.832	671.69
499.049	707.69
499.267	731.69
499.484	756.69
499.701	806.69
499.918	807.69
500.135	893.69
500.352	937.69
500.569	953.69
500.786	932.69
501.003	931.69
501.22	871.69
501.437	845.69
501.654	820.69
501.871	807.69
