Data from 1964.PennyLincolnUp.Lamp.En5.5.200Scan.071719.P1._HRD10591_14-03-36-908.txt Node
Date: Thu Jul 18 14:03:36 EDT 2019
User: cochatt
Spectrometer: HR+D1059
Trigger mode: 1
Integration Time (sec): 1.000000E-1
Scans to average: 1
Electric dark correction enabled: true
Nonlinearity correction enabled: false
Boxcar width: 0
XAxis mode: Wavelengths
Number of Pixels in Spectrum: 2048
>>>>>Begin Spectral Data<<<<<
223.165	-20.94
223.4	-20.94
223.635	-20.94
223.869	-21.94
224.104	-25.94
224.338	-13.94
224.573	-19.94
224.808	1.06
225.042	-26.94
225.277	4.06
225.511	5.06
225.746	6.06
225.98	12.06
226.215	1.06
226.449	10.06
226.683	16.06
226.918	34.06
227.152	40.06
227.387	35.06
227.621	31.06
227.856	55.06
228.09	46.06
228.324	62.06
228.559	62.06
228.793	47.06
229.027	80.06
229.262	89.06
229.496	98.06
229.73	115.06
229.964	129.06
230.199	89.06
230.433	105.06
230.667	78.06
230.901	103.06
231.136	95.06
231.37	102.06
231.604	110.06
231.838	114.06
232.072	108.06
232.306	103.06
232.541	111.06
232.775	94.06
233.009	114.06
233.243	117.06
233.477	93.06
233.711	98.06
233.945	120.06
234.179	115.06
234.413	108.06
234.647	115.06
234.881	113.06
235.115	119.06
235.349	105.06
235.583	115.06
235.817	110.06
236.051	115.06
236.285	115.06
236.519	100.06
236.753	101.06
236.987	115.06
237.221	146.06
237.455	168.06
237.689	133.06
237.922	110.06
238.156	125.06
238.39	117.06
238.624	110.06
238.858	125.06
239.091	105.06
239.325	115.06
239.559	121.06
239.793	123.06
240.027	119.06
240.26	126.06
240.494	136.06
240.728	127.06
240.961	132.06
241.195	122.06
241.429	113.06
241.662	130.06
241.896	127.06
242.13	110.06
242.363	102.06
242.597	104.06
242.83	129.06
243.064	132.06
243.298	126.06
243.531	122.06
243.765	124.06
243.998	134.06
244.232	146.06
244.465	133.06
244.699	139.06
244.932	133.06
245.166	140.06
245.399	133.06
245.633	137.06
245.866	134.06
246.099	141.06
246.333	142.06
246.566	141.06
246.8	149.06
247.033	159.06
247.266	151.06
247.5	161.06
247.733	138.06
247.966	167.06
248.2	166.06
248.433	147.06
248.666	162.06
248.899	180.06
249.133	175.06
249.366	198.06
249.599	192.06
249.832	161.06
250.066	167.06
250.299	183.06
250.532	182.06
250.765	178.06
250.998	173.06
251.231	202.06
251.465	183.06
251.698	192.06
251.931	180.06
252.164	169.06
252.397	171.06
252.63	184.06
252.863	193.06
253.096	179.06
253.329	195.06
253.562	192.06
253.795	189.06
254.028	194.06
254.261	195.06
254.494	190.06
254.727	225.06
254.96	229.06
255.193	210.06
255.426	233.06
255.659	201.06
255.892	216.06
256.124	193.06
256.357	198.06
256.59	217.06
256.823	231.06
257.056	181.06
257.289	185.06
257.521	181.06
257.754	173.06
257.987	187.06
258.22	203.06
258.452	189.06
258.685	191.06
258.918	196.06
259.151	196.06
259.383	205.06
259.616	213.06
259.849	180.06
260.081	197.06
260.314	226.06
260.547	204.06
260.779	226.06
261.012	211.06
261.244	199.06
261.477	201.06
261.71	180.06
261.942	185.06
262.175	220.06
262.407	201.06
262.64	191.06
262.872	206.06
263.105	205.06
263.337	199.06
263.57	202.06
263.802	208.06
264.035	203.06
264.267	207.06
264.499	191.06
264.732	201.06
264.964	205.06
265.197	205.06
265.429	215.06
265.661	206.06
265.894	203.06
266.126	226.06
266.358	210.06
266.591	216.06
266.823	223.06
267.055	213.06
267.287	218.06
267.52	214.06
267.752	228.06
267.984	229.06
268.216	230.06
268.448	230.06
268.681	248.06
268.913	229.06
269.145	212.06
269.377	237.06
269.609	238.06
269.841	251.06
270.073	247.06
270.306	262.06
270.538	275.06
270.77	267.06
271.002	273.06
271.234	264.06
271.466	261.06
271.698	269.06
271.93	283.06
272.162	278.06
272.394	263.06
272.626	243.06
272.858	261.06
273.09	261.06
273.322	246.06
273.553	245.06
273.785	270.06
274.017	258.06
274.249	245.06
274.481	233.06
274.713	243.06
274.945	252.06
275.176	257.06
275.408	265.06
275.64	254.06
275.872	247.06
276.104	264.06
276.335	263.06
276.567	257.06
276.799	262.06
277.031	275.06
277.262	283.06
277.494	285.06
277.726	289.06
277.957	276.06
278.189	262.06
278.421	252.06
278.652	255.06
278.884	278.06
279.115	262.06
279.347	254.06
279.579	251.06
279.81	260.06
280.042	267.06
280.273	270.06
280.505	272.06
280.736	259.06
280.968	277.06
281.199	271.06
281.431	260.06
281.662	276.06
281.894	256.06
282.125	277.06
282.356	291.06
282.588	293.06
282.819	292.06
283.051	271.06
283.282	257.06
283.513	280.06
283.745	279.06
283.976	279.06
284.207	265.06
284.439	288.06
284.67	287.06
284.901	275.06
285.132	266.06
285.364	265.06
285.595	292.06
285.826	265.06
286.057	281.06
286.288	296.06
286.52	292.06
286.751	278.06
286.982	291.06
287.213	278.06
287.444	285.06
287.675	291.06
287.906	289.06
288.138	300.06
288.369	285.06
288.6	287.06
288.831	290.06
289.062	292.06
289.293	296.06
289.524	288.06
289.755	289.06
289.986	279.06
290.217	271.06
290.448	307.06
290.679	298.06
290.91	277.06
291.141	295.06
291.371	283.06
291.602	293.06
291.833	285.06
292.064	282.06
292.295	291.06
292.526	294.06
292.757	305.06
292.987	289.06
293.218	291.06
293.449	293.06
293.68	281.06
293.91	289.06
294.141	297.06
294.372	297.06
294.603	299.06
294.833	312.06
295.064	313.06
295.295	318.06
295.525	308.06
295.756	311.06
295.987	294.06
296.217	313.06
296.448	298.06
296.679	306.06
296.909	289.06
297.14	294.06
297.37	305.06
297.601	314.06
297.831	314.06
298.062	302.06
298.292	308.06
298.523	323.06
298.753	314.06
298.984	287.06
299.214	309.06
299.445	296.06
299.675	313.06
299.905	307.06
300.136	321.06
300.366	313.06
300.597	304.06
300.827	320.06
301.057	316.06
301.288	323.06
301.518	317.06
301.748	335.06
301.979	332.06
302.209	333.06
302.439	341.06
302.669	334.06
302.9	342.06
303.13	331.06
303.36	332.06
303.59	325.06
303.82	323.06
304.051	346.06
304.281	329.06
304.511	342.06
304.741	307.06
304.971	320.06
305.201	334.06
305.431	330.06
305.661	322.06
305.891	332.06
306.121	317.06
306.352	322.06
306.582	321.06
306.812	330.06
307.042	319.06
307.272	341.06
307.502	325.06
307.731	332.06
307.961	323.06
308.191	329.06
308.421	340.06
308.651	341.06
308.881	327.06
309.111	333.06
309.341	336.06
309.571	354.06
309.8	347.06
310.03	328.06
310.26	358.06
310.49	351.06
310.72	350.06
310.949	352.06
311.179	349.06
311.409	350.06
311.639	357.06
311.868	355.06
312.098	360.06
312.328	361.06
312.557	365.06
312.787	378.06
313.017	377.06
313.246	373.06
313.476	372.06
313.706	349.06
313.935	360.06
314.165	375.06
314.394	387.06
314.624	390.06
314.853	363.06
315.083	366.06
315.312	353.06
315.542	353.06
315.771	348.06
316.001	367.06
316.23	372.06
316.46	347.06
316.689	369.06
316.919	360.06
317.148	369.06
317.377	379.06
317.607	375.06
317.836	359.06
318.065	347.06
318.295	370.06
318.524	369.06
318.753	365.06
318.983	358.06
319.212	373.06
319.441	358.06
319.67	359.06
319.9	356.06
320.129	356.06
320.358	355.06
320.587	364.06
320.816	360.06
321.046	384.06
321.275	377.06
321.504	376.06
321.733	389.06
321.962	373.06
322.191	396.06
322.42	385.06
322.649	385.06
322.878	390.06
323.108	421.06
323.337	408.06
323.566	393.06
323.795	441.06
324.024	445.06
324.253	522.06
324.482	663.06
324.71	947.06
324.939	1257.06
325.168	1100.06
325.397	594.06
325.626	473.06
325.855	455.06
326.084	392.06
326.313	405.06
326.542	409.06
326.77	451.06
326.999	480.06
327.228	620.06
327.457	855.06
327.686	958.06
327.914	695.06
328.143	501.06
328.372	488.06
328.6	460.06
328.829	458.06
329.058	443.06
329.287	469.06
329.515	449.06
329.744	401.06
329.972	415.06
330.201	459.06
330.43	477.06
330.658	471.06
330.887	472.06
331.115	463.06
331.344	447.06
331.572	420.06
331.801	407.06
332.03	429.06
332.258	408.06
332.486	411.06
332.715	450.06
332.943	421.06
333.172	448.06
333.4	450.06
333.629	444.06
333.857	462.06
334.085	468.06
334.314	484.06
334.542	478.06
334.771	482.06
334.999	458.06
335.227	445.06
335.455	437.06
335.684	446.06
335.912	443.06
336.14	452.06
336.369	428.06
336.597	427.06
336.825	419.06
337.053	413.06
337.281	403.06
337.51	415.06
337.738	419.06
337.966	436.06
338.194	397.06
338.422	427.06
338.65	413.06
338.878	417.06
339.106	432.06
339.334	410.06
339.562	397.06
339.79	403.06
340.018	393.06
340.246	405.06
340.474	410.06
340.702	415.06
340.93	402.06
341.158	410.06
341.386	394.06
341.614	407.06
341.842	400.06
342.07	397.06
342.298	388.06
342.526	409.06
342.754	379.06
342.981	405.06
343.209	399.06
343.437	411.06
343.665	401.06
343.893	400.06
344.12	435.06
344.348	414.06
344.576	438.06
344.804	404.06
345.031	421.06
345.259	404.06
345.487	410.06
345.714	379.06
345.942	383.06
346.17	404.06
346.397	363.06
346.625	377.06
346.853	382.06
347.08	350.06
347.308	383.06
347.535	379.06
347.763	373.06
347.99	370.06
348.218	398.06
348.445	387.06
348.673	383.06
348.9	360.06
349.128	378.06
349.355	351.06
349.583	375.06
349.81	367.06
350.037	377.06
350.265	381.06
350.492	373.06
350.72	385.06
350.947	360.06
351.174	375.06
351.402	385.06
351.629	389.06
351.856	376.06
352.083	395.06
352.311	387.06
352.538	400.06
352.765	366.06
352.992	365.06
353.22	369.06
353.447	363.06
353.674	360.06
353.901	375.06
354.128	364.06
354.355	381.06
354.583	366.06
354.81	362.06
355.037	360.06
355.264	350.06
355.491	355.06
355.718	357.06
355.945	357.06
356.172	359.06
356.399	359.06
356.626	356.06
356.853	367.06
357.08	352.06
357.307	372.06
357.534	333.06
357.761	342.06
357.988	369.06
358.215	377.06
358.441	364.06
358.668	361.06
358.895	356.06
359.122	365.06
359.349	364.06
359.576	381.06
359.802	385.06
360.029	382.06
360.256	378.06
360.483	370.06
360.709	376.06
360.936	382.06
361.163	354.06
361.39	373.06
361.616	353.06
361.843	359.06
362.07	381.06
362.296	376.06
362.523	361.06
362.749	363.06
362.976	391.06
363.203	376.06
363.429	351.06
363.656	379.06
363.882	347.06
364.109	342.06
364.335	360.06
364.562	359.06
364.788	345.06
365.015	359.06
365.241	382.06
365.468	358.06
365.694	368.06
365.92	359.06
366.147	355.06
366.373	351.06
366.599	354.06
366.826	334.06
367.052	363.06
367.278	358.06
367.505	361.06
367.731	355.06
367.957	351.06
368.184	359.06
368.41	348.06
368.636	350.06
368.862	372.06
369.089	375.06
369.315	342.06
369.541	356.06
369.767	341.06
369.993	350.06
370.219	347.06
370.445	346.06
370.672	356.06
370.898	383.06
371.124	368.06
371.35	377.06
371.576	369.06
371.802	354.06
372.028	371.06
372.254	357.06
372.48	367.06
372.706	369.06
372.932	371.06
373.158	354.06
373.384	375.06
373.61	385.06
373.835	367.06
374.061	374.06
374.287	377.06
374.513	365.06
374.739	390.06
374.965	393.06
375.191	383.06
375.416	390.06
375.642	370.06
375.868	361.06
376.094	365.06
376.319	356.06
376.545	367.06
376.771	366.06
376.997	359.06
377.222	361.06
377.448	375.06
377.674	359.06
377.899	363.06
378.125	369.06
378.35	375.06
378.576	361.06
378.802	351.06
379.027	377.06
379.253	357.06
379.478	355.06
379.704	350.06
379.929	373.06
380.155	369.06
380.38	354.06
380.606	349.06
380.831	366.06
381.057	359.06
381.282	360.06
381.507	354.06
381.733	357.06
381.958	373.06
382.184	349.06
382.409	373.06
382.634	369.06
382.86	375.06
383.085	377.06
383.31	377.06
383.535	362.06
383.761	371.06
383.986	392.06
384.211	388.06
384.436	390.06
384.662	411.06
384.887	412.06
385.112	387.06
385.337	377.06
385.562	382.06
385.787	399.06
386.013	403.06
386.238	399.06
386.463	399.06
386.688	404.06
386.913	388.06
387.138	375.06
387.363	400.06
387.588	381.06
387.813	406.06
388.038	395.06
388.263	387.06
388.488	389.06
388.713	385.06
388.938	388.06
389.163	385.06
389.387	387.06
389.612	366.06
389.837	385.06
390.062	378.06
390.287	391.06
390.512	379.06
390.736	402.06
390.961	400.06
391.186	382.06
391.411	374.06
391.636	393.06
391.86	388.06
392.085	378.06
392.31	399.06
392.534	423.06
392.759	398.06
392.984	399.06
393.208	416.06
393.433	397.06
393.658	420.06
393.882	385.06
394.107	395.06
394.331	390.06
394.556	406.06
394.78	396.06
395.005	403.06
395.229	387.06
395.454	405.06
395.678	420.06
395.903	407.06
396.127	429.06
396.352	430.06
396.576	397.06
396.801	398.06
397.025	418.06
397.249	402.06
397.474	408.06
397.698	399.06
397.922	435.06
398.147	422.06
398.371	421.06
398.595	425.06
398.82	446.06
399.044	457.06
399.268	478.06
399.492	486.06
399.717	519.06
399.941	544.06
400.165	555.06
400.389	539.06
400.613	493.06
400.837	468.06
401.062	454.06
401.286	434.06
401.51	446.06
401.734	446.06
401.958	468.06
402.182	443.06
402.406	456.06
402.63	437.06
402.854	451.06
403.078	461.06
403.302	467.06
403.526	472.06
403.75	439.06
403.974	452.06
404.198	459.06
404.422	456.06
404.645	471.06
404.869	460.06
405.093	486.06
405.317	493.06
405.541	519.06
405.765	503.06
405.988	469.06
406.212	487.06
406.436	474.06
406.66	507.06
406.883	487.06
407.107	486.06
407.331	548.06
407.555	581.06
407.778	586.06
408.002	516.06
408.226	490.06
408.449	491.06
408.673	477.06
408.896	494.06
409.12	535.06
409.344	489.06
409.567	484.06
409.791	439.06
410.014	455.06
410.238	452.06
410.461	442.06
410.685	440.06
410.908	481.06
411.132	474.06
411.355	500.06
411.578	477.06
411.802	450.06
412.025	446.06
412.249	461.06
412.472	474.06
412.695	494.06
412.919	476.06
413.142	439.06
413.365	422.06
413.589	435.06
413.812	433.06
414.035	429.06
414.258	440.06
414.482	430.06
414.705	422.06
414.928	439.06
415.151	439.06
415.374	430.06
415.597	440.06
415.821	423.06
416.044	422.06
416.267	420.06
416.49	425.06
416.713	419.06
416.936	410.06
417.159	417.06
417.382	420.06
417.605	436.06
417.828	415.06
418.051	433.06
418.274	433.06
418.497	420.06
418.72	401.06
418.943	427.06
419.166	436.06
419.389	461.06
419.611	441.06
419.834	448.06
420.057	453.06
420.28	444.06
420.503	431.06
420.726	445.06
420.948	419.06
421.171	457.06
421.394	460.06
421.617	443.06
421.839	441.06
422.062	422.06
422.285	439.06
422.507	444.06
422.73	485.06
422.953	506.06
423.175	452.06
423.398	449.06
423.621	446.06
423.843	441.06
424.066	449.06
424.288	468.06
424.511	458.06
424.733	492.06
424.956	562.06
425.178	533.06
425.401	503.06
425.623	543.06
425.846	470.06
426.068	443.06
426.291	426.06
426.513	433.06
426.735	443.06
426.958	469.06
427.18	519.06
427.402	603.06
427.625	637.06
427.847	550.06
428.069	508.06
428.292	456.06
428.514	412.06
428.736	419.06
428.958	410.06
429.181	417.06
429.403	409.06
429.625	397.06
429.847	443.06
430.069	473.06
430.292	470.06
430.514	419.06
430.736	423.06
430.958	388.06
431.18	400.06
431.402	402.06
431.624	396.06
431.846	400.06
432.068	393.06
432.29	393.06
432.512	385.06
432.734	395.06
432.956	397.06
433.178	409.06
433.4	406.06
433.622	410.06
433.844	384.06
434.066	389.06
434.287	389.06
434.509	407.06
434.731	409.06
434.953	424.06
435.175	407.06
435.397	418.06
435.618	443.06
435.84	467.06
436.062	500.06
436.284	557.06
436.505	481.06
436.727	445.06
436.949	413.06
437.17	413.06
437.392	397.06
437.614	397.06
437.835	404.06
438.057	482.06
438.278	531.06
438.5	552.06
438.721	583.06
438.943	577.06
439.165	454.06
439.386	407.06
439.608	446.06
439.829	417.06
440.05	439.06
440.272	468.06
440.493	446.06
440.715	417.06
440.936	415.06
441.158	401.06
441.379	414.06
441.6	419.06
441.822	445.06
442.043	473.06
442.264	522.06
442.486	525.06
442.707	471.06
442.928	450.06
443.149	441.06
443.371	456.06
443.592	470.06
443.813	547.06
444.034	582.06
444.255	496.06
444.476	472.06
444.698	455.06
444.919	445.06
445.14	541.06
445.361	502.06
445.582	445.06
445.803	474.06
446.024	541.06
446.245	562.06
446.466	508.06
446.687	430.06
446.908	430.06
447.129	420.06
447.35	397.06
447.571	402.06
447.792	377.06
448.013	386.06
448.234	413.06
448.455	460.06
448.675	509.06
448.896	563.06
449.117	482.06
449.338	462.06
449.559	534.06
449.779	586.06
450	492.06
450.221	430.06
450.442	383.06
450.662	377.06
450.883	381.06
451.104	388.06
451.324	379.06
451.545	357.06
451.766	364.06
451.986	361.06
452.207	362.06
452.428	376.06
452.648	343.06
452.869	342.06
453.089	364.06
453.31	360.06
453.53	375.06
453.751	364.06
453.971	366.06
454.192	358.06
454.412	352.06
454.633	347.06
454.853	351.06
455.073	347.06
455.294	375.06
455.514	431.06
455.734	409.06
455.955	366.06
456.175	339.06
456.395	332.06
456.616	326.06
456.836	345.06
457.056	347.06
457.276	329.06
457.497	350.06
457.717	349.06
457.937	364.06
458.157	360.06
458.377	346.06
458.598	376.06
458.818	390.06
459.038	421.06
459.258	448.06
459.478	419.06
459.698	401.06
459.918	399.06
460.138	382.06
460.358	406.06
460.578	395.06
460.798	419.06
461.018	404.06
461.238	397.06
461.458	381.06
461.678	422.06
461.898	403.06
462.118	391.06
462.338	418.06
462.558	410.06
462.777	419.06
462.997	454.06
463.217	447.06
463.437	471.06
463.657	440.06
463.876	431.06
464.096	429.06
464.316	418.06
464.536	443.06
464.755	451.06
464.975	439.06
465.195	439.06
465.414	465.06
465.634	437.06
465.854	397.06
466.073	372.06
466.293	391.06
466.512	381.06
466.732	371.06
466.951	387.06
467.171	382.06
467.391	393.06
467.61	363.06
467.829	373.06
468.049	377.06
468.268	375.06
468.488	384.06
468.707	373.06
468.927	383.06
469.146	374.06
469.365	369.06
469.585	356.06
469.804	363.06
470.023	373.06
470.243	375.06
470.462	373.06
470.681	375.06
470.901	374.06
471.12	403.06
471.339	389.06
471.558	382.06
471.777	349.06
471.997	367.06
472.216	369.06
472.435	401.06
472.654	371.06
472.873	374.06
473.092	378.06
473.311	399.06
473.53	361.06
473.749	379.06
473.968	397.06
474.187	430.06
474.406	467.06
474.625	403.06
474.844	385.06
475.063	397.06
475.282	394.06
475.501	364.06
475.72	362.06
475.939	395.06
476.158	375.06
476.377	377.06
476.596	365.06
476.814	366.06
477.033	411.06
477.252	403.06
477.471	389.06
477.69	414.06
477.908	409.06
478.127	424.06
478.346	427.06
478.564	430.06
478.783	427.06
479.002	430.06
479.22	468.06
479.439	436.06
479.658	426.06
479.876	444.06
480.095	431.06
480.313	462.06
480.532	467.06
480.751	458.06
480.969	468.06
481.188	476.06
481.406	489.06
481.624	471.06
481.843	439.06
482.061	452.06
482.28	454.06
482.498	442.06
482.717	435.06
482.935	413.06
483.153	443.06
483.372	411.06
483.59	452.06
483.808	451.06
484.027	436.06
484.245	429.06
484.463	415.06
484.681	430.06
484.9	442.06
485.118	423.06
485.336	433.06
485.554	445.06
485.772	434.06
485.99	455.06
486.209	447.06
486.427	446.06
486.645	455.06
486.863	471.06
487.081	469.06
487.299	454.06
487.517	459.06
487.735	452.06
487.953	451.06
488.171	467.06
488.389	465.06
488.607	464.06
488.825	476.06
489.043	439.06
489.261	477.06
489.479	448.06
489.696	448.06
489.914	477.06
490.132	486.06
490.35	444.06
490.568	445.06
490.786	485.06
491.003	477.06
491.221	485.06
491.439	499.06
491.657	499.06
491.874	490.06
492.092	502.06
492.31	493.06
492.527	499.06
492.745	506.06
492.963	491.06
493.18	513.06
493.398	517.06
493.615	524.06
493.833	518.06
494.05	501.06
494.268	531.06
494.485	514.06
494.703	530.06
494.92	527.06
495.138	519.06
495.355	527.06
495.573	529.06
495.79	507.06
496.008	524.06
496.225	533.06
496.442	549.06
496.66	539.06
496.877	553.06
497.094	541.06
497.312	553.06
497.529	563.06
497.746	553.06
497.963	565.06
498.181	552.06
498.398	586.06
498.615	606.06
498.832	623.06
499.049	623.06
499.267	658.06
499.484	675.06
499.701	690.06
499.918	742.06
500.135	775.06
500.352	832.06
500.569	859.06
500.786	815.06
501.003	819.06
501.22	774.06
501.437	766.06
501.654	721.06
501.871	683.06
502.088	696.06
