Data from 1964.PennyLincolnUp.Lamp.En5.5.200Scan.071719.P1._HRD10591_14-03-24-909.txt Node
Date: Thu Jul 18 14:03:24 EDT 2019
User: cochatt
Spectrometer: HR+D1059
Trigger mode: 1
Integration Time (sec): 1.000000E-1
Scans to average: 1
Electric dark correction enabled: true
Nonlinearity correction enabled: false
Boxcar width: 0
XAxis mode: Wavelengths
Number of Pixels in Spectrum: 2048
>>>>>Begin Spectral Data<<<<<
223.165	-18.12
223.4	-18.12
223.635	-18.12
223.869	-26.12
224.104	-17.12
224.338	-14.12
224.573	-22.12
224.808	-1.12
225.042	-7.12
225.277	1.88
225.511	8.88
225.746	8.88
225.98	-8.12
226.215	8.88
226.449	9.88
226.683	20.88
226.918	20.88
227.152	33.88
227.387	42.88
227.621	41.88
227.856	44.88
228.09	55.88
228.324	45.88
228.559	66.88
228.793	65.88
229.027	82.88
229.262	95.88
229.496	107.88
229.73	101.88
229.964	117.88
230.199	109.88
230.433	119.88
230.667	116.88
230.901	106.88
231.136	88.88
231.37	107.88
231.604	111.88
231.838	99.88
232.072	104.88
232.306	99.88
232.541	114.88
232.775	118.88
233.009	113.88
233.243	102.88
233.477	123.88
233.711	110.88
233.945	108.88
234.179	107.88
234.413	109.88
234.647	134.88
234.881	92.88
235.115	103.88
235.349	109.88
235.583	113.88
235.817	105.88
236.051	133.88
236.285	122.88
236.519	125.88
236.753	114.88
236.987	112.88
237.221	160.88
237.455	164.88
237.689	147.88
237.922	120.88
238.156	122.88
238.39	122.88
238.624	129.88
238.858	107.88
239.091	116.88
239.325	124.88
239.559	126.88
239.793	126.88
240.027	124.88
240.26	138.88
240.494	125.88
240.728	138.88
240.961	118.88
241.195	128.88
241.429	108.88
241.662	119.88
241.896	134.88
242.13	135.88
242.363	124.88
242.597	136.88
242.83	130.88
243.064	124.88
243.298	120.88
243.531	133.88
243.765	118.88
243.998	135.88
244.232	137.88
244.465	150.88
244.699	137.88
244.932	132.88
245.166	151.88
245.399	137.88
245.633	128.88
245.866	140.88
246.099	146.88
246.333	143.88
246.566	148.88
246.8	133.88
247.033	140.88
247.266	142.88
247.5	153.88
247.733	155.88
247.966	170.88
248.2	157.88
248.433	170.88
248.666	162.88
248.899	176.88
249.133	161.88
249.366	178.88
249.599	171.88
249.832	139.88
250.066	173.88
250.299	146.88
250.532	169.88
250.765	198.88
250.998	198.88
251.231	200.88
251.465	173.88
251.698	170.88
251.931	186.88
252.164	177.88
252.397	176.88
252.63	175.88
252.863	200.88
253.096	193.88
253.329	192.88
253.562	217.88
253.795	195.88
254.028	197.88
254.261	199.88
254.494	203.88
254.727	196.88
254.96	236.88
255.193	224.88
255.426	208.88
255.659	198.88
255.892	204.88
256.124	216.88
256.357	190.88
256.59	199.88
256.823	194.88
257.056	184.88
257.289	183.88
257.521	193.88
257.754	192.88
257.987	209.88
258.22	197.88
258.452	185.88
258.685	213.88
258.918	208.88
259.151	198.88
259.383	213.88
259.616	214.88
259.849	197.88
260.081	215.88
260.314	225.88
260.547	232.88
260.779	227.88
261.012	226.88
261.244	202.88
261.477	211.88
261.71	214.88
261.942	217.88
262.175	238.88
262.407	202.88
262.64	207.88
262.872	218.88
263.105	207.88
263.337	217.88
263.57	200.88
263.802	215.88
264.035	204.88
264.267	204.88
264.499	204.88
264.732	219.88
264.964	203.88
265.197	213.88
265.429	221.88
265.661	212.88
265.894	212.88
266.126	215.88
266.358	213.88
266.591	201.88
266.823	221.88
267.055	216.88
267.287	206.88
267.52	226.88
267.752	223.88
267.984	235.88
268.216	221.88
268.448	221.88
268.681	225.88
268.913	233.88
269.145	261.88
269.377	238.88
269.609	250.88
269.841	240.88
270.073	261.88
270.306	272.88
270.538	267.88
270.77	282.88
271.002	287.88
271.234	257.88
271.466	276.88
271.698	285.88
271.93	287.88
272.162	277.88
272.394	289.88
272.626	269.88
272.858	259.88
273.09	253.88
273.322	268.88
273.553	263.88
273.785	250.88
274.017	270.88
274.249	229.88
274.481	247.88
274.713	260.88
274.945	262.88
275.176	265.88
275.408	263.88
275.64	255.88
275.872	260.88
276.104	264.88
276.335	274.88
276.567	264.88
276.799	271.88
277.031	275.88
277.262	286.88
277.494	288.88
277.726	281.88
277.957	282.88
278.189	268.88
278.421	270.88
278.652	281.88
278.884	273.88
279.115	276.88
279.347	280.88
279.579	277.88
279.81	274.88
280.042	285.88
280.273	282.88
280.505	285.88
280.736	265.88
280.968	258.88
281.199	277.88
281.431	273.88
281.662	281.88
281.894	280.88
282.125	274.88
282.356	311.88
282.588	303.88
282.819	292.88
283.051	282.88
283.282	268.88
283.513	284.88
283.745	284.88
283.976	281.88
284.207	282.88
284.439	271.88
284.67	292.88
284.901	289.88
285.132	297.88
285.364	296.88
285.595	296.88
285.826	274.88
286.057	279.88
286.288	276.88
286.52	308.88
286.751	299.88
286.982	298.88
287.213	290.88
287.444	292.88
287.675	286.88
287.906	303.88
288.138	290.88
288.369	308.88
288.6	314.88
288.831	291.88
289.062	316.88
289.293	288.88
289.524	290.88
289.755	275.88
289.986	289.88
290.217	307.88
290.448	285.88
290.679	311.88
290.91	320.88
291.141	295.88
291.371	286.88
291.602	317.88
291.833	303.88
292.064	306.88
292.295	296.88
292.526	302.88
292.757	298.88
292.987	293.88
293.218	310.88
293.449	296.88
293.68	303.88
293.91	324.88
294.141	308.88
294.372	318.88
294.603	315.88
294.833	304.88
295.064	309.88
295.295	312.88
295.525	285.88
295.756	296.88
295.987	315.88
296.217	316.88
296.448	341.88
296.679	310.88
296.909	316.88
297.14	328.88
297.37	324.88
297.601	311.88
297.831	318.88
298.062	325.88
298.292	318.88
298.523	334.88
298.753	322.88
298.984	306.88
299.214	328.88
299.445	317.88
299.675	321.88
299.905	322.88
300.136	322.88
300.366	316.88
300.597	319.88
300.827	325.88
301.057	333.88
301.288	327.88
301.518	319.88
301.748	329.88
301.979	332.88
302.209	332.88
302.439	342.88
302.669	346.88
302.9	335.88
303.13	321.88
303.36	353.88
303.59	354.88
303.82	343.88
304.051	351.88
304.281	339.88
304.511	345.88
304.741	341.88
304.971	339.88
305.201	317.88
305.431	329.88
305.661	325.88
305.891	335.88
306.121	325.88
306.352	344.88
306.582	339.88
306.812	328.88
307.042	337.88
307.272	331.88
307.502	301.88
307.731	333.88
307.961	330.88
308.191	338.88
308.421	356.88
308.651	351.88
308.881	331.88
309.111	347.88
309.341	352.88
309.571	373.88
309.8	359.88
310.03	354.88
310.26	355.88
310.49	361.88
310.72	362.88
310.949	386.88
311.179	374.88
311.409	344.88
311.639	351.88
311.868	361.88
312.098	366.88
312.328	377.88
312.557	364.88
312.787	374.88
313.017	359.88
313.246	366.88
313.476	376.88
313.706	367.88
313.935	384.88
314.165	367.88
314.394	372.88
314.624	380.88
314.853	368.88
315.083	396.88
315.312	376.88
315.542	377.88
315.771	362.88
316.001	378.88
316.23	377.88
316.46	363.88
316.689	350.88
316.919	377.88
317.148	376.88
317.377	379.88
317.607	366.88
317.836	378.88
318.065	373.88
318.295	388.88
318.524	363.88
318.753	367.88
318.983	369.88
319.212	370.88
319.441	379.88
319.67	373.88
319.9	379.88
320.129	376.88
320.358	384.88
320.587	408.88
320.816	369.88
321.046	378.88
321.275	380.88
321.504	379.88
321.733	385.88
321.962	385.88
322.191	396.88
322.42	406.88
322.649	397.88
322.878	401.88
323.108	401.88
323.337	411.88
323.566	417.88
323.795	431.88
324.024	469.88
324.253	538.88
324.482	696.88
324.71	1006.88
324.939	1350.88
325.168	1156.88
325.397	616.88
325.626	482.88
325.855	436.88
326.084	424.88
326.313	414.88
326.542	414.88
326.77	464.88
326.999	505.88
327.228	629.88
327.457	916.88
327.686	1052.88
327.914	695.88
328.143	522.88
328.372	470.88
328.6	461.88
328.829	428.88
329.058	456.88
329.287	455.88
329.515	461.88
329.744	427.88
329.972	426.88
330.201	432.88
330.43	462.88
330.658	474.88
330.887	492.88
331.115	466.88
331.344	448.88
331.572	440.88
331.801	440.88
332.03	444.88
332.258	438.88
332.486	421.88
332.715	414.88
332.943	427.88
333.172	430.88
333.4	448.88
333.629	480.88
333.857	486.88
334.085	469.88
334.314	500.88
334.542	507.88
334.771	496.88
334.999	478.88
335.227	466.88
335.455	446.88
335.684	448.88
335.912	447.88
336.14	432.88
336.369	443.88
336.597	420.88
336.825	418.88
337.053	434.88
337.281	432.88
337.51	431.88
337.738	430.88
337.966	415.88
338.194	439.88
338.422	442.88
338.65	427.88
338.878	450.88
339.106	422.88
339.334	408.88
339.562	406.88
339.79	420.88
340.018	414.88
340.246	431.88
340.474	410.88
340.702	423.88
340.93	419.88
341.158	405.88
341.386	406.88
341.614	424.88
341.842	426.88
342.07	412.88
342.298	404.88
342.526	400.88
342.754	420.88
342.981	397.88
343.209	408.88
343.437	444.88
343.665	416.88
343.893	417.88
344.12	439.88
344.348	444.88
344.576	444.88
344.804	410.88
345.031	437.88
345.259	433.88
345.487	418.88
345.714	437.88
345.942	395.88
346.17	402.88
346.397	401.88
346.625	381.88
346.853	386.88
347.08	375.88
347.308	397.88
347.535	380.88
347.763	398.88
347.99	401.88
348.218	398.88
348.445	414.88
348.673	393.88
348.9	382.88
349.128	402.88
349.355	384.88
349.583	383.88
349.81	402.88
350.037	387.88
350.265	383.88
350.492	369.88
350.72	385.88
350.947	376.88
351.174	388.88
351.402	391.88
351.629	402.88
351.856	393.88
352.083	383.88
352.311	394.88
352.538	381.88
352.765	382.88
352.992	397.88
353.22	382.88
353.447	380.88
353.674	384.88
353.901	376.88
354.128	375.88
354.355	377.88
354.583	372.88
354.81	372.88
355.037	376.88
355.264	381.88
355.491	365.88
355.718	370.88
355.945	359.88
356.172	354.88
356.399	369.88
356.626	379.88
356.853	358.88
357.08	382.88
357.307	363.88
357.534	355.88
357.761	345.88
357.988	360.88
358.215	370.88
358.441	366.88
358.668	377.88
358.895	372.88
359.122	361.88
359.349	386.88
359.576	371.88
359.802	374.88
360.029	401.88
360.256	389.88
360.483	379.88
360.709	382.88
360.936	385.88
361.163	369.88
361.39	380.88
361.616	394.88
361.843	376.88
362.07	376.88
362.296	373.88
362.523	365.88
362.749	385.88
362.976	376.88
363.203	372.88
363.429	366.88
363.656	388.88
363.882	352.88
364.109	367.88
364.335	371.88
364.562	378.88
364.788	371.88
365.015	372.88
365.241	367.88
365.468	363.88
365.694	368.88
365.92	360.88
366.147	368.88
366.373	374.88
366.599	356.88
366.826	380.88
367.052	365.88
367.278	367.88
367.505	376.88
367.731	355.88
367.957	374.88
368.184	339.88
368.41	372.88
368.636	366.88
368.862	376.88
369.089	363.88
369.315	368.88
369.541	366.88
369.767	380.88
369.993	350.88
370.219	386.88
370.445	367.88
370.672	378.88
370.898	375.88
371.124	380.88
371.35	378.88
371.576	373.88
371.802	377.88
372.028	395.88
372.254	386.88
372.48	379.88
372.706	390.88
372.932	392.88
373.158	358.88
373.384	361.88
373.61	354.88
373.835	372.88
374.061	367.88
374.287	378.88
374.513	374.88
374.739	383.88
374.965	378.88
375.191	368.88
375.416	400.88
375.642	376.88
375.868	385.88
376.094	381.88
376.319	373.88
376.545	363.88
376.771	374.88
376.997	391.88
377.222	357.88
377.448	335.88
377.674	374.88
377.899	374.88
378.125	361.88
378.35	352.88
378.576	369.88
378.802	367.88
379.027	358.88
379.253	363.88
379.478	368.88
379.704	375.88
379.929	376.88
380.155	376.88
380.38	352.88
380.606	381.88
380.831	369.88
381.057	376.88
381.282	388.88
381.507	386.88
381.733	374.88
381.958	380.88
382.184	386.88
382.409	388.88
382.634	366.88
382.86	369.88
383.085	399.88
383.31	366.88
383.535	384.88
383.761	396.88
383.986	388.88
384.211	385.88
384.436	394.88
384.662	384.88
384.887	408.88
385.112	418.88
385.337	407.88
385.562	409.88
385.787	410.88
386.013	402.88
386.238	399.88
386.463	428.88
386.688	409.88
386.913	423.88
387.138	408.88
387.363	399.88
387.588	398.88
387.813	401.88
388.038	412.88
388.263	408.88
388.488	422.88
388.713	413.88
388.938	395.88
389.163	418.88
389.387	415.88
389.612	398.88
389.837	391.88
390.062	393.88
390.287	393.88
390.512	393.88
390.736	377.88
390.961	383.88
391.186	410.88
391.411	390.88
391.636	414.88
391.86	413.88
392.085	429.88
392.31	407.88
392.534	408.88
392.759	424.88
392.984	411.88
393.208	400.88
393.433	439.88
393.658	449.88
393.882	406.88
394.107	414.88
394.331	405.88
394.556	410.88
394.78	403.88
395.005	408.88
395.229	396.88
395.454	410.88
395.678	418.88
395.903	415.88
396.127	451.88
396.352	429.88
396.576	437.88
396.801	434.88
397.025	458.88
397.249	460.88
397.474	427.88
397.698	425.88
397.922	462.88
398.147	447.88
398.371	444.88
398.595	437.88
398.82	450.88
399.044	486.88
399.268	477.88
399.492	510.88
399.717	536.88
399.941	537.88
400.165	548.88
400.389	542.88
400.613	522.88
400.837	484.88
401.062	461.88
401.286	475.88
401.51	452.88
401.734	469.88
401.958	445.88
402.182	472.88
402.406	466.88
402.63	445.88
402.854	479.88
403.078	469.88
403.302	471.88
403.526	476.88
403.75	465.88
403.974	481.88
404.198	456.88
404.422	491.88
404.645	480.88
404.869	481.88
405.093	499.88
405.317	556.88
405.541	524.88
405.765	511.88
405.988	468.88
406.212	482.88
406.436	500.88
406.66	503.88
406.883	515.88
407.107	527.88
407.331	557.88
407.555	581.88
407.778	568.88
408.002	537.88
408.226	517.88
408.449	509.88
408.673	521.88
408.896	519.88
409.12	537.88
409.344	518.88
409.567	498.88
409.791	478.88
410.014	454.88
410.238	455.88
410.461	472.88
410.685	446.88
410.908	473.88
411.132	498.88
411.355	504.88
411.578	504.88
411.802	474.88
412.025	425.88
412.249	450.88
412.472	480.88
412.695	492.88
412.919	477.88
413.142	460.88
413.365	449.88
413.589	455.88
413.812	444.88
414.035	431.88
414.258	447.88
414.482	460.88
414.705	443.88
414.928	438.88
415.151	438.88
415.374	434.88
415.597	431.88
415.821	418.88
416.044	444.88
416.267	436.88
416.49	442.88
416.713	430.88
416.936	409.88
417.159	424.88
417.382	432.88
417.605	431.88
417.828	440.88
418.051	439.88
418.274	439.88
418.497	437.88
418.72	444.88
418.943	416.88
419.166	426.88
419.389	464.88
419.611	463.88
419.834	438.88
420.057	469.88
420.28	462.88
420.503	430.88
420.726	443.88
420.948	446.88
421.171	471.88
421.394	476.88
421.617	446.88
421.839	441.88
422.062	450.88
422.285	452.88
422.507	492.88
422.73	525.88
422.953	530.88
423.175	482.88
423.398	454.88
423.621	450.88
423.843	469.88
424.066	477.88
424.288	460.88
424.511	468.88
424.733	517.88
424.956	538.88
425.178	534.88
425.401	524.88
425.623	550.88
425.846	482.88
426.068	457.88
426.291	441.88
426.513	466.88
426.735	459.88
426.958	480.88
427.18	532.88
427.402	605.88
427.625	692.88
427.847	589.88
428.069	508.88
428.292	474.88
428.514	428.88
428.736	430.88
428.958	417.88
429.181	423.88
429.403	403.88
429.625	414.88
429.847	452.88
430.069	491.88
430.292	486.88
430.514	425.88
430.736	414.88
430.958	418.88
431.18	397.88
431.402	397.88
431.624	402.88
431.846	421.88
432.068	382.88
432.29	429.88
432.512	399.88
432.734	413.88
432.956	403.88
433.178	431.88
433.4	400.88
433.622	423.88
433.844	410.88
434.066	416.88
434.287	406.88
434.509	413.88
434.731	430.88
434.953	430.88
435.175	421.88
435.397	441.88
435.618	452.88
435.84	479.88
436.062	516.88
436.284	572.88
436.505	500.88
436.727	453.88
436.949	422.88
437.17	418.88
437.392	420.88
437.614	420.88
437.835	440.88
438.057	480.88
438.278	547.88
438.5	532.88
438.721	606.88
438.943	560.88
439.165	497.88
439.386	439.88
439.608	437.88
439.829	442.88
440.05	453.88
440.272	486.88
440.493	439.88
440.715	454.88
440.936	425.88
441.158	431.88
441.379	443.88
441.6	429.88
441.822	436.88
442.043	474.88
442.264	510.88
442.486	556.88
442.707	478.88
442.928	452.88
443.149	453.88
443.371	470.88
443.592	502.88
443.813	548.88
444.034	609.88
444.255	494.88
444.476	460.88
444.698	464.88
444.919	471.88
445.14	562.88
445.361	504.88
445.582	463.88
445.803	481.88
446.024	567.88
446.245	558.88
446.466	539.88
446.687	467.88
446.908	431.88
447.129	400.88
447.35	403.88
447.571	407.88
447.792	402.88
448.013	385.88
448.234	421.88
448.455	434.88
448.675	518.88
448.896	585.88
449.117	515.88
449.338	489.88
449.559	552.88
449.779	633.88
450	513.88
450.221	431.88
450.442	413.88
450.662	391.88
450.883	384.88
451.104	386.88
451.324	381.88
451.545	397.88
451.766	397.88
451.986	377.88
452.207	371.88
452.428	354.88
452.648	359.88
452.869	387.88
453.089	353.88
453.31	374.88
453.53	379.88
453.751	348.88
453.971	373.88
454.192	390.88
454.412	354.88
454.633	366.88
454.853	341.88
455.073	372.88
455.294	391.88
455.514	421.88
455.734	420.88
455.955	388.88
456.175	355.88
456.395	344.88
456.616	350.88
456.836	339.88
457.056	348.88
457.276	348.88
457.497	381.88
457.717	342.88
457.937	368.88
458.157	360.88
458.377	377.88
458.598	365.88
458.818	402.88
459.038	441.88
459.258	457.88
459.478	410.88
459.698	399.88
459.918	402.88
460.138	406.88
460.358	421.88
460.578	415.88
460.798	425.88
461.018	419.88
461.238	429.88
461.458	439.88
461.678	419.88
461.898	423.88
462.118	443.88
462.338	447.88
462.558	438.88
462.777	454.88
462.997	449.88
463.217	478.88
463.437	460.88
463.657	476.88
463.876	466.88
464.096	444.88
464.316	441.88
464.536	467.88
464.755	447.88
464.975	458.88
465.195	465.88
465.414	454.88
465.634	454.88
465.854	417.88
466.073	416.88
466.293	390.88
466.512	388.88
466.732	373.88
466.951	407.88
467.171	395.88
467.391	390.88
467.61	378.88
467.829	350.88
468.049	380.88
468.268	384.88
468.488	379.88
468.707	375.88
468.927	383.88
469.146	372.88
469.365	370.88
469.585	367.88
469.804	368.88
470.023	400.88
470.243	393.88
470.462	369.88
470.681	408.88
470.901	378.88
471.12	379.88
471.339	394.88
471.558	385.88
471.777	382.88
471.997	401.88
472.216	420.88
472.435	413.88
472.654	403.88
472.873	377.88
473.092	378.88
473.311	393.88
473.53	398.88
473.749	392.88
473.968	406.88
474.187	507.88
474.406	485.88
474.625	414.88
474.844	422.88
475.063	387.88
475.282	390.88
475.501	410.88
475.72	409.88
475.939	400.88
476.158	417.88
476.377	396.88
476.596	387.88
476.814	402.88
477.033	400.88
477.252	432.88
477.471	423.88
477.69	402.88
477.908	408.88
478.127	446.88
478.346	426.88
478.564	418.88
478.783	430.88
479.002	458.88
479.22	454.88
479.439	462.88
479.658	475.88
479.876	458.88
480.095	457.88
480.313	489.88
480.532	469.88
480.751	483.88
480.969	479.88
481.188	507.88
481.406	506.88
481.624	473.88
481.843	465.88
482.061	470.88
482.28	462.88
482.498	456.88
482.717	439.88
482.935	457.88
483.153	449.88
483.372	442.88
483.59	448.88
483.808	447.88
484.027	418.88
484.245	466.88
484.463	443.88
484.681	454.88
484.9	441.88
485.118	440.88
485.336	457.88
485.554	448.88
485.772	468.88
485.99	457.88
486.209	480.88
486.427	480.88
486.645	465.88
486.863	470.88
487.081	458.88
487.299	464.88
487.517	488.88
487.735	477.88
487.953	468.88
488.171	467.88
488.389	472.88
488.607	486.88
488.825	482.88
489.043	469.88
489.261	479.88
489.479	477.88
489.696	466.88
489.914	480.88
490.132	470.88
490.35	484.88
490.568	469.88
490.786	485.88
491.003	506.88
491.221	508.88
491.439	522.88
491.657	505.88
491.874	501.88
492.092	510.88
492.31	523.88
492.527	493.88
492.745	512.88
492.963	505.88
493.18	513.88
493.398	523.88
493.615	523.88
493.833	519.88
494.05	556.88
494.268	514.88
494.485	526.88
494.703	529.88
494.92	540.88
495.138	543.88
495.355	536.88
495.573	511.88
495.79	536.88
496.008	556.88
496.225	550.88
496.442	553.88
496.66	550.88
496.877	555.88
497.094	560.88
497.312	548.88
497.529	564.88
497.746	586.88
497.963	588.88
498.181	601.88
498.398	618.88
498.615	615.88
498.832	659.88
499.049	654.88
499.267	689.88
499.484	705.88
499.701	732.88
499.918	794.88
500.135	829.88
500.352	830.88
500.569	837.88
500.786	865.88
501.003	872.88
501.22	803.88
501.437	776.88
501.654	748.88
501.871	712.88
502.088	684.88
