Data from 1964.PennyLincolnUp.Lamp.En5.5.200Scan.071719.P1._HRD10591_14-06-23-909.txt Node
Date: Thu Jul 18 14:06:23 EDT 2019
User: cochatt
Spectrometer: HR+D1059
Trigger mode: 1
Integration Time (sec): 1.000000E-1
Scans to average: 1
Electric dark correction enabled: true
Nonlinearity correction enabled: false
Boxcar width: 0
XAxis mode: Wavelengths
Number of Pixels in Spectrum: 2048
>>>>>Begin Spectral Data<<<<<
223.165	-7.38
223.4	-7.38
223.635	-7.38
223.869	-9.38
224.104	-24.38
224.338	-14.38
224.573	-10.38
224.808	-12.38
225.042	-6.38
225.277	-2.38
225.511	-1.38
225.746	2.62
225.98	12.62
226.215	-0.38
226.449	21.62
226.683	19.62
226.918	9.62
227.152	22.62
227.387	20.62
227.621	36.62
227.856	48.62
228.09	43.62
228.324	51.62
228.559	65.62
228.793	68.62
229.027	88.62
229.262	98.62
229.496	108.62
229.73	116.62
229.964	122.62
230.199	117.62
230.433	117.62
230.667	114.62
230.901	116.62
231.136	124.62
231.37	99.62
231.604	111.62
231.838	118.62
232.072	120.62
232.306	127.62
232.541	122.62
232.775	112.62
233.009	108.62
233.243	129.62
233.477	119.62
233.711	111.62
233.945	116.62
234.179	128.62
234.413	132.62
234.647	126.62
234.881	122.62
235.115	107.62
235.349	108.62
235.583	118.62
235.817	120.62
236.051	123.62
236.285	120.62
236.519	132.62
236.753	137.62
236.987	134.62
237.221	182.62
237.455	209.62
237.689	177.62
237.922	143.62
238.156	156.62
238.39	119.62
238.624	126.62
238.858	141.62
239.091	133.62
239.325	139.62
239.559	139.62
239.793	124.62
240.027	154.62
240.26	137.62
240.494	146.62
240.728	149.62
240.961	153.62
241.195	144.62
241.429	139.62
241.662	129.62
241.896	152.62
242.13	157.62
242.363	141.62
242.597	146.62
242.83	141.62
243.064	135.62
243.298	141.62
243.531	152.62
243.765	136.62
243.998	136.62
244.232	143.62
244.465	137.62
244.699	153.62
244.932	131.62
245.166	146.62
245.399	162.62
245.633	170.62
245.866	167.62
246.099	152.62
246.333	139.62
246.566	142.62
246.8	160.62
247.033	166.62
247.266	153.62
247.5	156.62
247.733	183.62
247.966	173.62
248.2	180.62
248.433	150.62
248.666	159.62
248.899	187.62
249.133	201.62
249.366	194.62
249.599	175.62
249.832	190.62
250.066	188.62
250.299	182.62
250.532	205.62
250.765	218.62
250.998	213.62
251.231	235.62
251.465	229.62
251.698	204.62
251.931	210.62
252.164	199.62
252.397	188.62
252.63	215.62
252.863	220.62
253.096	219.62
253.329	239.62
253.562	248.62
253.795	214.62
254.028	215.62
254.261	215.62
254.494	219.62
254.727	245.62
254.96	274.62
255.193	268.62
255.426	265.62
255.659	231.62
255.892	238.62
256.124	218.62
256.357	233.62
256.59	222.62
256.823	220.62
257.056	220.62
257.289	217.62
257.521	230.62
257.754	220.62
257.987	222.62
258.22	239.62
258.452	216.62
258.685	225.62
258.918	210.62
259.151	215.62
259.383	235.62
259.616	239.62
259.849	241.62
260.081	254.62
260.314	270.62
260.547	263.62
260.779	235.62
261.012	241.62
261.244	255.62
261.477	244.62
261.71	252.62
261.942	239.62
262.175	244.62
262.407	240.62
262.64	204.62
262.872	232.62
263.105	229.62
263.337	242.62
263.57	220.62
263.802	227.62
264.035	233.62
264.267	229.62
264.499	230.62
264.732	238.62
264.964	227.62
265.197	222.62
265.429	244.62
265.661	226.62
265.894	234.62
266.126	237.62
266.358	233.62
266.591	229.62
266.823	255.62
267.055	256.62
267.287	248.62
267.52	244.62
267.752	247.62
267.984	252.62
268.216	240.62
268.448	267.62
268.681	268.62
268.913	253.62
269.145	279.62
269.377	296.62
269.609	301.62
269.841	274.62
270.073	304.62
270.306	299.62
270.538	316.62
270.77	320.62
271.002	301.62
271.234	312.62
271.466	329.62
271.698	318.62
271.93	324.62
272.162	314.62
272.394	336.62
272.626	314.62
272.858	296.62
273.09	297.62
273.322	312.62
273.553	282.62
273.785	307.62
274.017	310.62
274.249	301.62
274.481	292.62
274.713	285.62
274.945	285.62
275.176	295.62
275.408	301.62
275.64	305.62
275.872	287.62
276.104	297.62
276.335	285.62
276.567	301.62
276.799	314.62
277.031	327.62
277.262	333.62
277.494	322.62
277.726	330.62
277.957	315.62
278.189	296.62
278.421	285.62
278.652	286.62
278.884	312.62
279.115	310.62
279.347	301.62
279.579	288.62
279.81	311.62
280.042	290.62
280.273	310.62
280.505	299.62
280.736	298.62
280.968	296.62
281.199	318.62
281.431	317.62
281.662	303.62
281.894	300.62
282.125	305.62
282.356	321.62
282.588	325.62
282.819	310.62
283.051	309.62
283.282	301.62
283.513	304.62
283.745	300.62
283.976	338.62
284.207	321.62
284.439	305.62
284.67	327.62
284.901	336.62
285.132	307.62
285.364	317.62
285.595	326.62
285.826	318.62
286.057	322.62
286.288	300.62
286.52	313.62
286.751	321.62
286.982	318.62
287.213	320.62
287.444	315.62
287.675	332.62
287.906	339.62
288.138	358.62
288.369	323.62
288.6	334.62
288.831	356.62
289.062	341.62
289.293	328.62
289.524	344.62
289.755	328.62
289.986	318.62
290.217	326.62
290.448	312.62
290.679	321.62
290.91	347.62
291.141	336.62
291.371	350.62
291.602	342.62
291.833	330.62
292.064	330.62
292.295	336.62
292.526	339.62
292.757	336.62
292.987	324.62
293.218	336.62
293.449	331.62
293.68	348.62
293.91	334.62
294.141	334.62
294.372	332.62
294.603	335.62
294.833	333.62
295.064	336.62
295.295	330.62
295.525	335.62
295.756	344.62
295.987	337.62
296.217	349.62
296.448	364.62
296.679	368.62
296.909	329.62
297.14	352.62
297.37	356.62
297.601	354.62
297.831	366.62
298.062	345.62
298.292	370.62
298.523	345.62
298.753	337.62
298.984	342.62
299.214	368.62
299.445	343.62
299.675	352.62
299.905	354.62
300.136	330.62
300.366	382.62
300.597	360.62
300.827	358.62
301.057	370.62
301.288	380.62
301.518	345.62
301.748	357.62
301.979	354.62
302.209	362.62
302.439	377.62
302.669	372.62
302.9	377.62
303.13	361.62
303.36	374.62
303.59	407.62
303.82	390.62
304.051	389.62
304.281	391.62
304.511	369.62
304.741	366.62
304.971	365.62
305.201	377.62
305.431	376.62
305.661	369.62
305.891	369.62
306.121	374.62
306.352	394.62
306.582	394.62
306.812	380.62
307.042	395.62
307.272	404.62
307.502	383.62
307.731	379.62
307.961	381.62
308.191	375.62
308.421	374.62
308.651	384.62
308.881	371.62
309.111	381.62
309.341	380.62
309.571	385.62
309.8	392.62
310.03	400.62
310.26	403.62
310.49	401.62
310.72	409.62
310.949	406.62
311.179	426.62
311.409	399.62
311.639	407.62
311.868	419.62
312.098	415.62
312.328	426.62
312.557	447.62
312.787	426.62
313.017	460.62
313.246	425.62
313.476	414.62
313.706	418.62
313.935	424.62
314.165	425.62
314.394	426.62
314.624	433.62
314.853	424.62
315.083	440.62
315.312	433.62
315.542	416.62
315.771	415.62
316.001	413.62
316.23	407.62
316.46	409.62
316.689	419.62
316.919	425.62
317.148	434.62
317.377	435.62
317.607	438.62
317.836	423.62
318.065	418.62
318.295	419.62
318.524	408.62
318.753	411.62
318.983	414.62
319.212	412.62
319.441	408.62
319.67	429.62
319.9	430.62
320.129	424.62
320.358	430.62
320.587	398.62
320.816	431.62
321.046	437.62
321.275	441.62
321.504	443.62
321.733	453.62
321.962	445.62
322.191	431.62
322.42	449.62
322.649	445.62
322.878	450.62
323.108	498.62
323.337	470.62
323.566	512.62
323.795	522.62
324.024	568.62
324.253	658.62
324.482	878.62
324.71	1264.62
324.939	1761.62
325.168	1500.62
325.397	804.62
325.626	609.62
325.855	528.62
326.084	489.62
326.313	492.62
326.542	512.62
326.77	550.62
326.999	600.62
327.228	818.62
327.457	1118.62
327.686	1334.62
327.914	909.62
328.143	646.62
328.372	595.62
328.6	562.62
328.829	546.62
329.058	542.62
329.287	547.62
329.515	534.62
329.744	540.62
329.972	529.62
330.201	556.62
330.43	571.62
330.658	581.62
330.887	602.62
331.115	560.62
331.344	500.62
331.572	512.62
331.801	488.62
332.03	511.62
332.258	481.62
332.486	491.62
332.715	496.62
332.943	506.62
333.172	505.62
333.4	515.62
333.629	526.62
333.857	526.62
334.085	526.62
334.314	538.62
334.542	592.62
334.771	560.62
334.999	554.62
335.227	509.62
335.455	514.62
335.684	475.62
335.912	472.62
336.14	488.62
336.369	484.62
336.597	496.62
336.825	509.62
337.053	496.62
337.281	465.62
337.51	489.62
337.738	495.62
337.966	492.62
338.194	450.62
338.422	467.62
338.65	480.62
338.878	502.62
339.106	478.62
339.334	461.62
339.562	472.62
339.79	488.62
340.018	453.62
340.246	452.62
340.474	476.62
340.702	456.62
340.93	462.62
341.158	475.62
341.386	445.62
341.614	473.62
341.842	474.62
342.07	462.62
342.298	477.62
342.526	450.62
342.754	457.62
342.981	437.62
343.209	455.62
343.437	464.62
343.665	486.62
343.893	482.62
344.12	489.62
344.348	468.62
344.576	480.62
344.804	480.62
345.031	482.62
345.259	472.62
345.487	451.62
345.714	440.62
345.942	455.62
346.17	455.62
346.397	431.62
346.625	427.62
346.853	443.62
347.08	441.62
347.308	448.62
347.535	454.62
347.763	489.62
347.99	460.62
348.218	445.62
348.445	450.62
348.673	452.62
348.9	429.62
349.128	438.62
349.355	427.62
349.583	442.62
349.81	433.62
350.037	418.62
350.265	455.62
350.492	410.62
350.72	436.62
350.947	437.62
351.174	446.62
351.402	448.62
351.629	448.62
351.856	442.62
352.083	431.62
352.311	438.62
352.538	432.62
352.765	449.62
352.992	442.62
353.22	395.62
353.447	416.62
353.674	412.62
353.901	413.62
354.128	415.62
354.355	414.62
354.583	412.62
354.81	419.62
355.037	396.62
355.264	416.62
355.491	422.62
355.718	402.62
355.945	427.62
356.172	400.62
356.399	421.62
356.626	414.62
356.853	416.62
357.08	416.62
357.307	408.62
357.534	402.62
357.761	414.62
357.988	405.62
358.215	413.62
358.441	392.62
358.668	418.62
358.895	432.62
359.122	426.62
359.349	442.62
359.576	416.62
359.802	444.62
360.029	451.62
360.256	455.62
360.483	441.62
360.709	412.62
360.936	437.62
361.163	396.62
361.39	425.62
361.616	402.62
361.843	425.62
362.07	454.62
362.296	436.62
362.523	433.62
362.749	435.62
362.976	411.62
363.203	423.62
363.429	408.62
363.656	398.62
363.882	431.62
364.109	427.62
364.335	423.62
364.562	417.62
364.788	409.62
365.015	414.62
365.241	412.62
365.468	411.62
365.694	428.62
365.92	429.62
366.147	405.62
366.373	418.62
366.599	389.62
366.826	409.62
367.052	394.62
367.278	411.62
367.505	392.62
367.731	398.62
367.957	409.62
368.184	408.62
368.41	400.62
368.636	412.62
368.862	402.62
369.089	400.62
369.315	402.62
369.541	412.62
369.767	443.62
369.993	379.62
370.219	403.62
370.445	394.62
370.672	396.62
370.898	421.62
371.124	417.62
371.35	417.62
371.576	402.62
371.802	400.62
372.028	411.62
372.254	402.62
372.48	401.62
372.706	409.62
372.932	392.62
373.158	409.62
373.384	416.62
373.61	413.62
373.835	409.62
374.061	413.62
374.287	432.62
374.513	421.62
374.739	422.62
374.965	426.62
375.191	421.62
375.416	428.62
375.642	388.62
375.868	411.62
376.094	414.62
376.319	420.62
376.545	406.62
376.771	390.62
376.997	399.62
377.222	392.62
377.448	401.62
377.674	403.62
377.899	419.62
378.125	383.62
378.35	407.62
378.576	412.62
378.802	412.62
379.027	419.62
379.253	423.62
379.478	415.62
379.704	403.62
379.929	426.62
380.155	408.62
380.38	396.62
380.606	406.62
380.831	383.62
381.057	388.62
381.282	390.62
381.507	405.62
381.733	412.62
381.958	414.62
382.184	397.62
382.409	389.62
382.634	408.62
382.86	426.62
383.085	428.62
383.31	418.62
383.535	435.62
383.761	420.62
383.986	451.62
384.211	404.62
384.436	417.62
384.662	440.62
384.887	446.62
385.112	430.62
385.337	429.62
385.562	451.62
385.787	432.62
386.013	434.62
386.238	440.62
386.463	454.62
386.688	442.62
386.913	442.62
387.138	444.62
387.363	433.62
387.588	447.62
387.813	428.62
388.038	429.62
388.263	438.62
388.488	443.62
388.713	448.62
388.938	486.62
389.163	436.62
389.387	438.62
389.612	443.62
389.837	443.62
390.062	429.62
390.287	433.62
390.512	418.62
390.736	457.62
390.961	431.62
391.186	436.62
391.411	459.62
391.636	455.62
391.86	454.62
392.085	452.62
392.31	461.62
392.534	459.62
392.759	433.62
392.984	446.62
393.208	444.62
393.433	460.62
393.658	437.62
393.882	461.62
394.107	456.62
394.331	440.62
394.556	440.62
394.78	466.62
395.005	444.62
395.229	445.62
395.454	444.62
395.678	453.62
395.903	475.62
396.127	465.62
396.352	454.62
396.576	471.62
396.801	460.62
397.025	470.62
397.249	475.62
397.474	484.62
397.698	468.62
397.922	485.62
398.147	485.62
398.371	499.62
398.595	512.62
398.82	503.62
399.044	534.62
399.268	543.62
399.492	573.62
399.717	589.62
399.941	594.62
400.165	585.62
400.389	609.62
400.613	586.62
400.837	532.62
401.062	512.62
401.286	497.62
401.51	509.62
401.734	474.62
401.958	519.62
402.182	509.62
402.406	513.62
402.63	501.62
402.854	528.62
403.078	518.62
403.302	529.62
403.526	546.62
403.75	518.62
403.974	514.62
404.198	527.62
404.422	525.62
404.645	527.62
404.869	549.62
405.093	537.62
405.317	554.62
405.541	589.62
405.765	556.62
405.988	528.62
406.212	526.62
406.436	545.62
406.66	573.62
406.883	561.62
407.107	592.62
407.331	593.62
407.555	657.62
407.778	652.62
408.002	601.62
408.226	572.62
408.449	562.62
408.673	564.62
408.896	589.62
409.12	614.62
409.344	575.62
409.567	542.62
409.791	504.62
410.014	521.62
410.238	504.62
410.461	495.62
410.685	526.62
410.908	534.62
411.132	543.62
411.355	565.62
411.578	553.62
411.802	509.62
412.025	504.62
412.249	519.62
412.472	538.62
412.695	547.62
412.919	556.62
413.142	534.62
413.365	511.62
413.589	526.62
413.812	496.62
414.035	479.62
414.258	492.62
414.482	470.62
414.705	468.62
414.928	513.62
415.151	479.62
415.374	467.62
415.597	468.62
415.821	470.62
416.044	462.62
416.267	468.62
416.49	459.62
416.713	477.62
416.936	466.62
417.159	453.62
417.382	469.62
417.605	495.62
417.828	493.62
418.051	495.62
418.274	500.62
418.497	493.62
418.72	484.62
418.943	464.62
419.166	497.62
419.389	516.62
419.611	528.62
419.834	511.62
420.057	508.62
420.28	517.62
420.503	495.62
420.726	502.62
420.948	495.62
421.171	530.62
421.394	568.62
421.617	505.62
421.839	494.62
422.062	507.62
422.285	502.62
422.507	552.62
422.73	592.62
422.953	551.62
423.175	524.62
423.398	513.62
423.621	497.62
423.843	525.62
424.066	534.62
424.288	515.62
424.511	514.62
424.733	577.62
424.956	640.62
425.178	609.62
425.401	600.62
425.623	610.62
425.846	526.62
426.068	516.62
426.291	522.62
426.513	509.62
426.735	521.62
426.958	565.62
427.18	630.62
427.402	724.62
427.625	768.62
427.847	662.62
428.069	588.62
428.292	534.62
428.514	501.62
428.736	501.62
428.958	467.62
429.181	462.62
429.403	455.62
429.625	474.62
429.847	503.62
430.069	546.62
430.292	535.62
430.514	463.62
430.736	476.62
430.958	426.62
431.18	451.62
431.402	455.62
431.624	448.62
431.846	442.62
432.068	436.62
432.29	446.62
432.512	433.62
432.734	462.62
432.956	460.62
433.178	457.62
433.4	458.62
433.622	457.62
433.844	447.62
434.066	452.62
434.287	478.62
434.509	450.62
434.731	477.62
434.953	489.62
435.175	486.62
435.397	492.62
435.618	488.62
435.84	527.62
436.062	611.62
436.284	667.62
436.505	571.62
436.727	492.62
436.949	480.62
437.17	448.62
437.392	488.62
437.614	477.62
437.835	497.62
438.057	554.62
438.278	633.62
438.5	645.62
438.721	690.62
438.943	654.62
439.165	546.62
439.386	525.62
439.608	514.62
439.829	495.62
440.05	530.62
440.272	560.62
440.493	531.62
440.715	477.62
440.936	492.62
441.158	461.62
441.379	478.62
441.6	492.62
441.822	479.62
442.043	553.62
442.264	610.62
442.486	625.62
442.707	544.62
442.928	488.62
443.149	518.62
443.371	525.62
443.592	600.62
443.813	648.62
444.034	684.62
444.255	570.62
444.476	527.62
444.698	525.62
444.919	530.62
445.14	619.62
445.361	555.62
445.582	542.62
445.803	584.62
446.024	662.62
446.245	664.62
446.466	617.62
446.687	531.62
446.908	487.62
447.129	464.62
447.35	475.62
447.571	458.62
447.792	454.62
448.013	441.62
448.234	464.62
448.455	514.62
448.675	604.62
448.896	704.62
449.117	574.62
449.338	561.62
449.559	644.62
449.779	716.62
450	589.62
450.221	506.62
450.442	491.62
450.662	470.62
450.883	473.62
451.104	451.62
451.324	458.62
451.545	424.62
451.766	429.62
451.986	421.62
452.207	431.62
452.428	412.62
452.648	413.62
452.869	414.62
453.089	434.62
453.31	433.62
453.53	404.62
453.751	415.62
453.971	417.62
454.192	433.62
454.412	424.62
454.633	402.62
454.853	393.62
455.073	419.62
455.294	418.62
455.514	471.62
455.734	478.62
455.955	398.62
456.175	388.62
456.395	418.62
456.616	374.62
456.836	380.62
457.056	388.62
457.276	394.62
457.497	410.62
457.717	393.62
457.937	397.62
458.157	397.62
458.377	412.62
458.598	412.62
458.818	464.62
459.038	529.62
459.258	532.62
459.478	470.62
459.698	446.62
459.918	441.62
460.138	458.62
460.358	454.62
460.578	457.62
460.798	441.62
461.018	465.62
461.238	458.62
461.458	478.62
461.678	450.62
461.898	470.62
462.118	470.62
462.338	480.62
462.558	463.62
462.777	457.62
462.997	501.62
463.217	520.62
463.437	516.62
463.657	484.62
463.876	508.62
464.096	487.62
464.316	481.62
464.536	490.62
464.755	502.62
464.975	474.62
465.195	502.62
465.414	513.62
465.634	488.62
465.854	465.62
466.073	460.62
466.293	434.62
466.512	422.62
466.732	428.62
466.951	442.62
467.171	414.62
467.391	421.62
467.61	436.62
467.829	437.62
468.049	439.62
468.268	428.62
468.488	440.62
468.707	410.62
468.927	416.62
469.146	403.62
469.365	403.62
469.585	412.62
469.804	432.62
470.023	423.62
470.243	426.62
470.462	431.62
470.681	460.62
470.901	450.62
471.12	426.62
471.339	409.62
471.558	428.62
471.777	444.62
471.997	423.62
472.216	422.62
472.435	458.62
472.654	469.62
472.873	424.62
473.092	431.62
473.311	432.62
473.53	431.62
473.749	433.62
473.968	472.62
474.187	558.62
474.406	564.62
474.625	484.62
474.844	437.62
475.063	448.62
475.282	434.62
475.501	400.62
475.72	426.62
475.939	415.62
476.158	441.62
476.377	436.62
476.596	448.62
476.814	449.62
477.033	459.62
477.252	454.62
477.471	448.62
477.69	448.62
477.908	456.62
478.127	463.62
478.346	458.62
478.564	466.62
478.783	469.62
479.002	486.62
479.22	488.62
479.439	490.62
479.658	501.62
479.876	518.62
480.095	500.62
480.313	562.62
480.532	538.62
480.751	518.62
480.969	536.62
481.188	548.62
481.406	575.62
481.624	560.62
481.843	503.62
482.061	507.62
482.28	487.62
482.498	491.62
482.717	501.62
482.935	508.62
483.153	505.62
483.372	504.62
483.59	511.62
483.808	519.62
484.027	501.62
484.245	487.62
484.463	480.62
484.681	493.62
484.9	508.62
485.118	490.62
485.336	485.62
485.554	493.62
485.772	503.62
485.99	502.62
486.209	500.62
486.427	525.62
486.645	498.62
486.863	528.62
487.081	544.62
487.299	518.62
487.517	529.62
487.735	535.62
487.953	538.62
488.171	507.62
488.389	528.62
488.607	523.62
488.825	524.62
489.043	523.62
489.261	536.62
489.479	541.62
489.696	518.62
489.914	527.62
490.132	536.62
490.35	552.62
490.568	527.62
490.786	561.62
491.003	540.62
491.221	570.62
491.439	584.62
491.657	570.62
491.874	600.62
492.092	581.62
492.31	587.62
492.527	585.62
492.745	593.62
492.963	605.62
493.18	608.62
493.398	594.62
493.615	585.62
493.833	600.62
494.05	574.62
494.268	585.62
494.485	617.62
494.703	601.62
494.92	612.62
495.138	613.62
495.355	603.62
495.573	596.62
495.79	593.62
496.008	628.62
496.225	600.62
496.442	618.62
496.66	595.62
496.877	608.62
497.094	629.62
497.312	628.62
497.529	637.62
497.746	624.62
497.963	640.62
498.181	678.62
498.398	671.62
498.615	676.62
498.832	706.62
499.049	720.62
499.267	748.62
499.484	774.62
499.701	805.62
499.918	834.62
500.135	876.62
500.352	920.62
500.569	936.62
500.786	951.62
501.003	918.62
501.22	888.62
501.437	834.62
501.654	813.62
501.871	782.62
502.088	766.62
