Data from 1964.PennyLincolnUp.Lamp.En5.5.200Scan.071719.P1._HRD10591_14-03-46-908.txt Node
Date: Thu Jul 18 14:03:46 EDT 2019
User: cochatt
Spectrometer: HR+D1059
Trigger mode: 1
Integration Time (sec): 1.000000E-1
Scans to average: 1
Electric dark correction enabled: true
Nonlinearity correction enabled: false
Boxcar width: 0
XAxis mode: Wavelengths
Number of Pixels in Spectrum: 2048
>>>>>Begin Spectral Data<<<<<
223.165	-19.88
223.4	-19.88
223.635	-19.88
223.869	-18.88
224.104	-22.88
224.338	-15.88
224.573	2.12
224.808	-9.88
225.042	-9.88
225.277	-3.88
225.511	-7.88
225.746	3.12
225.98	16.12
226.215	10.12
226.449	5.12
226.683	25.12
226.918	9.12
227.152	38.12
227.387	25.12
227.621	52.12
227.856	31.12
228.09	52.12
228.324	46.12
228.559	59.12
228.793	70.12
229.027	78.12
229.262	100.12
229.496	94.12
229.73	113.12
229.964	126.12
230.199	113.12
230.433	103.12
230.667	111.12
230.901	101.12
231.136	94.12
231.37	116.12
231.604	105.12
231.838	101.12
232.072	115.12
232.306	116.12
232.541	116.12
232.775	124.12
233.009	106.12
233.243	118.12
233.477	116.12
233.711	98.12
233.945	121.12
234.179	110.12
234.413	108.12
234.647	107.12
234.881	112.12
235.115	112.12
235.349	116.12
235.583	116.12
235.817	123.12
236.051	123.12
236.285	119.12
236.519	112.12
236.753	119.12
236.987	131.12
237.221	148.12
237.455	169.12
237.689	164.12
237.922	134.12
238.156	137.12
238.39	107.12
238.624	116.12
238.858	121.12
239.091	120.12
239.325	117.12
239.559	118.12
239.793	124.12
240.027	127.12
240.26	139.12
240.494	145.12
240.728	141.12
240.961	140.12
241.195	132.12
241.429	137.12
241.662	141.12
241.896	134.12
242.13	136.12
242.363	113.12
242.597	142.12
242.83	136.12
243.064	130.12
243.298	130.12
243.531	150.12
243.765	128.12
243.998	140.12
244.232	138.12
244.465	124.12
244.699	132.12
244.932	130.12
245.166	139.12
245.399	141.12
245.633	142.12
245.866	138.12
246.099	143.12
246.333	142.12
246.566	153.12
246.8	153.12
247.033	168.12
247.266	164.12
247.5	164.12
247.733	173.12
247.966	164.12
248.2	157.12
248.433	176.12
248.666	176.12
248.899	167.12
249.133	180.12
249.366	185.12
249.599	187.12
249.832	173.12
250.066	184.12
250.299	186.12
250.532	189.12
250.765	171.12
250.998	209.12
251.231	217.12
251.465	195.12
251.698	192.12
251.931	194.12
252.164	190.12
252.397	182.12
252.63	184.12
252.863	192.12
253.096	193.12
253.329	205.12
253.562	221.12
253.795	217.12
254.028	204.12
254.261	220.12
254.494	210.12
254.727	243.12
254.96	247.12
255.193	242.12
255.426	242.12
255.659	219.12
255.892	225.12
256.124	216.12
256.357	225.12
256.59	217.12
256.823	212.12
257.056	207.12
257.289	190.12
257.521	229.12
257.754	202.12
257.987	202.12
258.22	218.12
258.452	201.12
258.685	204.12
258.918	192.12
259.151	207.12
259.383	227.12
259.616	205.12
259.849	219.12
260.081	211.12
260.314	237.12
260.547	237.12
260.779	217.12
261.012	227.12
261.244	232.12
261.477	234.12
261.71	217.12
261.942	225.12
262.175	224.12
262.407	216.12
262.64	224.12
262.872	214.12
263.105	202.12
263.337	213.12
263.57	210.12
263.802	224.12
264.035	221.12
264.267	200.12
264.499	221.12
264.732	221.12
264.964	229.12
265.197	205.12
265.429	219.12
265.661	218.12
265.894	232.12
266.126	225.12
266.358	215.12
266.591	234.12
266.823	223.12
267.055	244.12
267.287	244.12
267.52	231.12
267.752	237.12
267.984	221.12
268.216	230.12
268.448	228.12
268.681	248.12
268.913	245.12
269.145	271.12
269.377	257.12
269.609	258.12
269.841	272.12
270.073	263.12
270.306	286.12
270.538	260.12
270.77	280.12
271.002	270.12
271.234	277.12
271.466	272.12
271.698	292.12
271.93	291.12
272.162	298.12
272.394	314.12
272.626	286.12
272.858	286.12
273.09	278.12
273.322	275.12
273.553	253.12
273.785	250.12
274.017	274.12
274.249	270.12
274.481	268.12
274.713	267.12
274.945	270.12
275.176	277.12
275.408	265.12
275.64	274.12
275.872	259.12
276.104	268.12
276.335	265.12
276.567	283.12
276.799	290.12
277.031	295.12
277.262	294.12
277.494	292.12
277.726	292.12
277.957	305.12
278.189	304.12
278.421	266.12
278.652	280.12
278.884	272.12
279.115	277.12
279.347	284.12
279.579	276.12
279.81	287.12
280.042	299.12
280.273	279.12
280.505	285.12
280.736	281.12
280.968	269.12
281.199	269.12
281.431	288.12
281.662	279.12
281.894	276.12
282.125	291.12
282.356	297.12
282.588	314.12
282.819	309.12
283.051	302.12
283.282	281.12
283.513	296.12
283.745	290.12
283.976	299.12
284.207	305.12
284.439	274.12
284.67	304.12
284.901	309.12
285.132	276.12
285.364	299.12
285.595	326.12
285.826	299.12
286.057	290.12
286.288	294.12
286.52	304.12
286.751	288.12
286.982	296.12
287.213	291.12
287.444	296.12
287.675	315.12
287.906	323.12
288.138	314.12
288.369	338.12
288.6	332.12
288.831	324.12
289.062	310.12
289.293	316.12
289.524	309.12
289.755	311.12
289.986	304.12
290.217	294.12
290.448	296.12
290.679	320.12
290.91	308.12
291.141	299.12
291.371	304.12
291.602	310.12
291.833	297.12
292.064	306.12
292.295	325.12
292.526	321.12
292.757	323.12
292.987	306.12
293.218	324.12
293.449	305.12
293.68	320.12
293.91	328.12
294.141	319.12
294.372	309.12
294.603	319.12
294.833	304.12
295.064	300.12
295.295	317.12
295.525	332.12
295.756	333.12
295.987	343.12
296.217	334.12
296.448	334.12
296.679	346.12
296.909	331.12
297.14	339.12
297.37	328.12
297.601	343.12
297.831	316.12
298.062	339.12
298.292	338.12
298.523	337.12
298.753	332.12
298.984	328.12
299.214	330.12
299.445	338.12
299.675	343.12
299.905	332.12
300.136	341.12
300.366	329.12
300.597	346.12
300.827	341.12
301.057	345.12
301.288	355.12
301.518	346.12
301.748	355.12
301.979	346.12
302.209	361.12
302.439	338.12
302.669	336.12
302.9	354.12
303.13	358.12
303.36	368.12
303.59	351.12
303.82	365.12
304.051	368.12
304.281	354.12
304.511	335.12
304.741	328.12
304.971	365.12
305.201	334.12
305.431	360.12
305.661	354.12
305.891	350.12
306.121	335.12
306.352	369.12
306.582	372.12
306.812	355.12
307.042	359.12
307.272	346.12
307.502	355.12
307.731	346.12
307.961	356.12
308.191	363.12
308.421	350.12
308.651	356.12
308.881	333.12
309.111	349.12
309.341	352.12
309.571	360.12
309.8	365.12
310.03	379.12
310.26	380.12
310.49	378.12
310.72	384.12
310.949	392.12
311.179	393.12
311.409	374.12
311.639	353.12
311.868	380.12
312.098	376.12
312.328	380.12
312.557	394.12
312.787	388.12
313.017	396.12
313.246	401.12
313.476	376.12
313.706	381.12
313.935	377.12
314.165	393.12
314.394	382.12
314.624	379.12
314.853	379.12
315.083	375.12
315.312	391.12
315.542	402.12
315.771	383.12
316.001	396.12
316.23	383.12
316.46	382.12
316.689	408.12
316.919	394.12
317.148	386.12
317.377	389.12
317.607	373.12
317.836	401.12
318.065	394.12
318.295	393.12
318.524	386.12
318.753	393.12
318.983	390.12
319.212	396.12
319.441	402.12
319.67	392.12
319.9	407.12
320.129	397.12
320.358	389.12
320.587	375.12
320.816	397.12
321.046	413.12
321.275	393.12
321.504	404.12
321.733	418.12
321.962	403.12
322.191	406.12
322.42	411.12
322.649	410.12
322.878	410.12
323.108	433.12
323.337	460.12
323.566	433.12
323.795	456.12
324.024	492.12
324.253	548.12
324.482	743.12
324.71	1058.12
324.939	1430.12
325.168	1208.12
325.397	650.12
325.626	516.12
325.855	471.12
326.084	470.12
326.313	453.12
326.542	450.12
326.77	474.12
326.999	535.12
327.228	694.12
327.457	960.12
327.686	1081.12
327.914	758.12
328.143	558.12
328.372	503.12
328.6	489.12
328.829	486.12
329.058	483.12
329.287	493.12
329.515	474.12
329.744	470.12
329.972	456.12
330.201	494.12
330.43	509.12
330.658	502.12
330.887	511.12
331.115	516.12
331.344	475.12
331.572	462.12
331.801	469.12
332.03	468.12
332.258	459.12
332.486	447.12
332.715	470.12
332.943	442.12
333.172	470.12
333.4	478.12
333.629	478.12
333.857	497.12
334.085	489.12
334.314	523.12
334.542	532.12
334.771	528.12
334.999	505.12
335.227	484.12
335.455	478.12
335.684	469.12
335.912	476.12
336.14	461.12
336.369	453.12
336.597	477.12
336.825	445.12
337.053	462.12
337.281	441.12
337.51	448.12
337.738	471.12
337.966	448.12
338.194	450.12
338.422	480.12
338.65	453.12
338.878	441.12
339.106	421.12
339.334	408.12
339.562	420.12
339.79	429.12
340.018	419.12
340.246	440.12
340.474	444.12
340.702	431.12
340.93	429.12
341.158	442.12
341.386	427.12
341.614	434.12
341.842	430.12
342.07	416.12
342.298	433.12
342.526	432.12
342.754	416.12
342.981	419.12
343.209	410.12
343.437	434.12
343.665	427.12
343.893	440.12
344.12	458.12
344.348	462.12
344.576	436.12
344.804	449.12
345.031	453.12
345.259	439.12
345.487	433.12
345.714	453.12
345.942	434.12
346.17	408.12
346.397	398.12
346.625	408.12
346.853	419.12
347.08	404.12
347.308	406.12
347.535	393.12
347.763	418.12
347.99	408.12
348.218	395.12
348.445	420.12
348.673	406.12
348.9	402.12
349.128	412.12
349.355	387.12
349.583	408.12
349.81	412.12
350.037	388.12
350.265	408.12
350.492	396.12
350.72	396.12
350.947	386.12
351.174	382.12
351.402	411.12
351.629	401.12
351.856	405.12
352.083	389.12
352.311	409.12
352.538	399.12
352.765	421.12
352.992	392.12
353.22	410.12
353.447	397.12
353.674	381.12
353.901	394.12
354.128	396.12
354.355	388.12
354.583	397.12
354.81	382.12
355.037	388.12
355.264	386.12
355.491	385.12
355.718	379.12
355.945	372.12
356.172	387.12
356.399	404.12
356.626	396.12
356.853	400.12
357.08	384.12
357.307	380.12
357.534	374.12
357.761	393.12
357.988	384.12
358.215	387.12
358.441	391.12
358.668	381.12
358.895	393.12
359.122	386.12
359.349	387.12
359.576	400.12
359.802	402.12
360.029	432.12
360.256	401.12
360.483	408.12
360.709	385.12
360.936	382.12
361.163	402.12
361.39	402.12
361.616	391.12
361.843	384.12
362.07	398.12
362.296	402.12
362.523	392.12
362.749	402.12
362.976	406.12
363.203	403.12
363.429	378.12
363.656	390.12
363.882	381.12
364.109	384.12
364.335	378.12
364.562	376.12
364.788	394.12
365.015	391.12
365.241	369.12
365.468	397.12
365.694	391.12
365.92	389.12
366.147	378.12
366.373	389.12
366.599	372.12
366.826	387.12
367.052	384.12
367.278	388.12
367.505	373.12
367.731	391.12
367.957	362.12
368.184	368.12
368.41	376.12
368.636	403.12
368.862	387.12
369.089	414.12
369.315	380.12
369.541	388.12
369.767	392.12
369.993	374.12
370.219	388.12
370.445	382.12
370.672	399.12
370.898	389.12
371.124	385.12
371.35	376.12
371.576	382.12
371.802	391.12
372.028	393.12
372.254	397.12
372.48	375.12
372.706	402.12
372.932	381.12
373.158	395.12
373.384	403.12
373.61	388.12
373.835	378.12
374.061	363.12
374.287	396.12
374.513	380.12
374.739	397.12
374.965	397.12
375.191	401.12
375.416	379.12
375.642	386.12
375.868	403.12
376.094	399.12
376.319	388.12
376.545	398.12
376.771	393.12
376.997	375.12
377.222	402.12
377.448	380.12
377.674	381.12
377.899	387.12
378.125	363.12
378.35	376.12
378.576	377.12
378.802	389.12
379.027	375.12
379.253	376.12
379.478	391.12
379.704	375.12
379.929	390.12
380.155	376.12
380.38	386.12
380.606	369.12
380.831	368.12
381.057	388.12
381.282	402.12
381.507	368.12
381.733	401.12
381.958	401.12
382.184	391.12
382.409	395.12
382.634	373.12
382.86	377.12
383.085	407.12
383.31	393.12
383.535	402.12
383.761	399.12
383.986	383.12
384.211	382.12
384.436	408.12
384.662	412.12
384.887	398.12
385.112	432.12
385.337	410.12
385.562	415.12
385.787	438.12
386.013	434.12
386.238	433.12
386.463	414.12
386.688	429.12
386.913	413.12
387.138	415.12
387.363	421.12
387.588	394.12
387.813	393.12
388.038	443.12
388.263	408.12
388.488	397.12
388.713	417.12
388.938	421.12
389.163	417.12
389.387	428.12
389.612	418.12
389.837	412.12
390.062	401.12
390.287	426.12
390.512	389.12
390.736	410.12
390.961	404.12
391.186	411.12
391.411	436.12
391.636	441.12
391.86	423.12
392.085	429.12
392.31	438.12
392.534	429.12
392.759	421.12
392.984	433.12
393.208	429.12
393.433	426.12
393.658	440.12
393.882	423.12
394.107	406.12
394.331	424.12
394.556	419.12
394.78	417.12
395.005	439.12
395.229	448.12
395.454	445.12
395.678	428.12
395.903	445.12
396.127	456.12
396.352	442.12
396.576	433.12
396.801	448.12
397.025	440.12
397.249	436.12
397.474	432.12
397.698	431.12
397.922	436.12
398.147	475.12
398.371	457.12
398.595	466.12
398.82	483.12
399.044	481.12
399.268	518.12
399.492	545.12
399.717	576.12
399.941	590.12
400.165	602.12
400.389	570.12
400.613	539.12
400.837	488.12
401.062	485.12
401.286	499.12
401.51	467.12
401.734	493.12
401.958	471.12
402.182	470.12
402.406	491.12
402.63	484.12
402.854	458.12
403.078	496.12
403.302	495.12
403.526	485.12
403.75	490.12
403.974	475.12
404.198	506.12
404.422	505.12
404.645	504.12
404.869	498.12
405.093	525.12
405.317	558.12
405.541	548.12
405.765	514.12
405.988	503.12
406.212	503.12
406.436	521.12
406.66	515.12
406.883	512.12
407.107	546.12
407.331	576.12
407.555	605.12
407.778	607.12
408.002	565.12
408.226	564.12
408.449	538.12
408.673	498.12
408.896	537.12
409.12	549.12
409.344	526.12
409.567	506.12
409.791	470.12
410.014	488.12
410.238	487.12
410.461	474.12
410.685	490.12
410.908	482.12
411.132	516.12
411.355	531.12
411.578	524.12
411.802	498.12
412.025	491.12
412.249	500.12
412.472	499.12
412.695	531.12
412.919	506.12
413.142	476.12
413.365	475.12
413.589	460.12
413.812	441.12
414.035	424.12
414.258	465.12
414.482	447.12
414.705	451.12
414.928	438.12
415.151	442.12
415.374	459.12
415.597	458.12
415.821	451.12
416.044	452.12
416.267	433.12
416.49	430.12
416.713	446.12
416.936	440.12
417.159	448.12
417.382	451.12
417.605	463.12
417.828	474.12
418.051	466.12
418.274	471.12
418.497	455.12
418.72	456.12
418.943	440.12
419.166	469.12
419.389	477.12
419.611	494.12
419.834	476.12
420.057	470.12
420.28	459.12
420.503	468.12
420.726	470.12
420.948	491.12
421.171	499.12
421.394	503.12
421.617	502.12
421.839	461.12
422.062	460.12
422.285	470.12
422.507	501.12
422.73	551.12
422.953	530.12
423.175	499.12
423.398	483.12
423.621	462.12
423.843	475.12
424.066	489.12
424.288	501.12
424.511	496.12
424.733	541.12
424.956	582.12
425.178	539.12
425.401	544.12
425.623	569.12
425.846	503.12
426.068	454.12
426.291	475.12
426.513	487.12
426.735	496.12
426.958	498.12
427.18	558.12
427.402	648.12
427.625	710.12
427.847	608.12
428.069	572.12
428.292	490.12
428.514	464.12
428.736	449.12
428.958	464.12
429.181	424.12
429.403	448.12
429.625	436.12
429.847	468.12
430.069	498.12
430.292	491.12
430.514	450.12
430.736	436.12
430.958	429.12
431.18	420.12
431.402	424.12
431.624	411.12
431.846	438.12
432.068	414.12
432.29	416.12
432.512	427.12
432.734	416.12
432.956	430.12
433.178	425.12
433.4	445.12
433.622	415.12
433.844	434.12
434.066	442.12
434.287	446.12
434.509	438.12
434.731	445.12
434.953	436.12
435.175	462.12
435.397	486.12
435.618	476.12
435.84	503.12
436.062	578.12
436.284	613.12
436.505	517.12
436.727	476.12
436.949	474.12
437.17	452.12
437.392	427.12
437.614	442.12
437.835	474.12
438.057	515.12
438.278	594.12
438.5	621.12
438.721	660.12
438.943	610.12
439.165	512.12
439.386	472.12
439.608	437.12
439.829	454.12
440.05	461.12
440.272	501.12
440.493	474.12
440.715	437.12
440.936	448.12
441.158	455.12
441.379	439.12
441.6	469.12
441.822	483.12
442.043	469.12
442.264	562.12
442.486	574.12
442.707	490.12
442.928	469.12
443.149	485.12
443.371	491.12
443.592	521.12
443.813	589.12
444.034	646.12
444.255	526.12
444.476	468.12
444.698	505.12
444.919	511.12
445.14	596.12
445.361	538.12
445.582	497.12
445.803	541.12
446.024	613.12
446.245	608.12
446.466	549.12
446.687	496.12
446.908	471.12
447.129	447.12
447.35	417.12
447.571	438.12
447.792	423.12
448.013	418.12
448.234	446.12
448.455	481.12
448.675	547.12
448.896	650.12
449.117	534.12
449.338	516.12
449.559	606.12
449.779	644.12
450	542.12
450.221	440.12
450.442	432.12
450.662	413.12
450.883	408.12
451.104	407.12
451.324	402.12
451.545	386.12
451.766	392.12
451.986	408.12
452.207	406.12
452.428	386.12
452.648	392.12
452.869	370.12
453.089	382.12
453.31	372.12
453.53	368.12
453.751	370.12
453.971	376.12
454.192	386.12
454.412	380.12
454.633	385.12
454.853	365.12
455.073	380.12
455.294	388.12
455.514	432.12
455.734	428.12
455.955	379.12
456.175	374.12
456.395	349.12
456.616	363.12
456.836	364.12
457.056	345.12
457.276	359.12
457.497	375.12
457.717	380.12
457.937	387.12
458.157	395.12
458.377	363.12
458.598	395.12
458.818	416.12
459.038	468.12
459.258	490.12
459.478	458.12
459.698	414.12
459.918	429.12
460.138	412.12
460.358	421.12
460.578	420.12
460.798	425.12
461.018	446.12
461.238	446.12
461.458	421.12
461.678	437.12
461.898	440.12
462.118	423.12
462.338	451.12
462.558	476.12
462.777	470.12
462.997	486.12
463.217	480.12
463.437	499.12
463.657	450.12
463.876	467.12
464.096	472.12
464.316	468.12
464.536	468.12
464.755	461.12
464.975	457.12
465.195	476.12
465.414	480.12
465.634	459.12
465.854	421.12
466.073	436.12
466.293	420.12
466.512	393.12
466.732	381.12
466.951	394.12
467.171	384.12
467.391	401.12
467.61	412.12
467.829	426.12
468.049	418.12
468.268	408.12
468.488	378.12
468.707	393.12
468.927	380.12
469.146	386.12
469.365	393.12
469.585	378.12
469.804	412.12
470.023	392.12
470.243	385.12
470.462	393.12
470.681	424.12
470.901	428.12
471.12	397.12
471.339	398.12
471.558	405.12
471.777	413.12
471.997	401.12
472.216	436.12
472.435	405.12
472.654	403.12
472.873	398.12
473.092	406.12
473.311	376.12
473.53	402.12
473.749	401.12
473.968	411.12
474.187	482.12
474.406	503.12
474.625	440.12
474.844	413.12
475.063	406.12
475.282	403.12
475.501	396.12
475.72	414.12
475.939	421.12
476.158	408.12
476.377	416.12
476.596	426.12
476.814	412.12
477.033	421.12
477.252	409.12
477.471	432.12
477.69	436.12
477.908	414.12
478.127	446.12
478.346	450.12
478.564	448.12
478.783	446.12
479.002	470.12
479.22	462.12
479.439	466.12
479.658	461.12
479.876	457.12
480.095	473.12
480.313	503.12
480.532	490.12
480.751	455.12
480.969	496.12
481.188	532.12
481.406	545.12
481.624	491.12
481.843	493.12
482.061	476.12
482.28	480.12
482.498	483.12
482.717	464.12
482.935	472.12
483.153	477.12
483.372	481.12
483.59	477.12
483.808	464.12
484.027	480.12
484.245	462.12
484.463	462.12
484.681	467.12
484.9	482.12
485.118	482.12
485.336	491.12
485.554	498.12
485.772	494.12
485.99	469.12
486.209	477.12
486.427	469.12
486.645	473.12
486.863	496.12
487.081	478.12
487.299	471.12
487.517	503.12
487.735	486.12
487.953	487.12
488.171	476.12
488.389	502.12
488.607	516.12
488.825	490.12
489.043	495.12
489.261	508.12
489.479	499.12
489.696	513.12
489.914	518.12
490.132	526.12
490.35	527.12
490.568	516.12
490.786	505.12
491.003	536.12
491.221	544.12
491.439	527.12
491.657	546.12
491.874	575.12
492.092	571.12
492.31	560.12
492.527	561.12
492.745	529.12
492.963	561.12
493.18	566.12
493.398	585.12
493.615	588.12
493.833	576.12
494.05	561.12
494.268	580.12
494.485	578.12
494.703	556.12
494.92	574.12
495.138	584.12
495.355	555.12
495.573	544.12
495.79	557.12
496.008	576.12
496.225	566.12
496.442	567.12
496.66	586.12
496.877	572.12
497.094	580.12
497.312	570.12
497.529	595.12
497.746	616.12
497.963	621.12
498.181	632.12
498.398	627.12
498.615	651.12
498.832	667.12
499.049	673.12
499.267	711.12
499.484	740.12
499.701	779.12
499.918	794.12
500.135	845.12
500.352	878.12
500.569	898.12
500.786	892.12
501.003	890.12
501.22	849.12
501.437	829.12
501.654	778.12
501.871	763.12
502.088	708.12
