Data from 1964.PennyLincolnUp.Lamp.En5.5.200Scan.071719.P1._HRD10591_14-04-16-915.txt Node
Date: Thu Jul 18 14:04:16 EDT 2019
User: cochatt
Spectrometer: HR+D1059
Trigger mode: 1
Integration Time (sec): 1.000000E-1
Scans to average: 1
Electric dark correction enabled: true
Nonlinearity correction enabled: false
Boxcar width: 0
XAxis mode: Wavelengths
Number of Pixels in Spectrum: 2048
>>>>>Begin Spectral Data<<<<<
223.165	-13.06
223.4	-13.06
223.635	-13.06
223.869	-27.06
224.104	-20.06
224.338	-15.06
224.573	-10.06
224.808	-13.06
225.042	8.94
225.277	6.94
225.511	-16.06
225.746	8.94
225.98	-7.06
226.215	3.94
226.449	10.94
226.683	19.94
226.918	28.94
227.152	32.94
227.387	28.94
227.621	35.94
227.856	47.94
228.09	47.94
228.324	63.94
228.559	59.94
228.793	65.94
229.027	83.94
229.262	91.94
229.496	88.94
229.73	100.94
229.964	127.94
230.199	109.94
230.433	102.94
230.667	96.94
230.901	93.94
231.136	98.94
231.37	100.94
231.604	104.94
231.838	98.94
232.072	106.94
232.306	102.94
232.541	107.94
232.775	109.94
233.009	118.94
233.243	104.94
233.477	91.94
233.711	113.94
233.945	109.94
234.179	102.94
234.413	114.94
234.647	99.94
234.881	97.94
235.115	114.94
235.349	109.94
235.583	121.94
235.817	131.94
236.051	109.94
236.285	97.94
236.519	121.94
236.753	118.94
236.987	127.94
237.221	149.94
237.455	165.94
237.689	160.94
237.922	125.94
238.156	120.94
238.39	105.94
238.624	113.94
238.858	121.94
239.091	124.94
239.325	113.94
239.559	114.94
239.793	123.94
240.027	105.94
240.26	129.94
240.494	143.94
240.728	131.94
240.961	136.94
241.195	133.94
241.429	139.94
241.662	130.94
241.896	126.94
242.13	128.94
242.363	124.94
242.597	124.94
242.83	118.94
243.064	138.94
243.298	138.94
243.531	136.94
243.765	138.94
243.998	136.94
244.232	144.94
244.465	134.94
244.699	130.94
244.932	127.94
245.166	133.94
245.399	157.94
245.633	149.94
245.866	135.94
246.099	135.94
246.333	164.94
246.566	138.94
246.8	158.94
247.033	165.94
247.266	145.94
247.5	162.94
247.733	152.94
247.966	147.94
248.2	151.94
248.433	153.94
248.666	160.94
248.899	180.94
249.133	185.94
249.366	187.94
249.599	175.94
249.832	168.94
250.066	163.94
250.299	180.94
250.532	175.94
250.765	188.94
250.998	201.94
251.231	187.94
251.465	189.94
251.698	200.94
251.931	194.94
252.164	184.94
252.397	181.94
252.63	196.94
252.863	192.94
253.096	186.94
253.329	199.94
253.562	211.94
253.795	209.94
254.028	201.94
254.261	196.94
254.494	216.94
254.727	215.94
254.96	229.94
255.193	240.94
255.426	239.94
255.659	199.94
255.892	206.94
256.124	193.94
256.357	191.94
256.59	217.94
256.823	212.94
257.056	204.94
257.289	187.94
257.521	196.94
257.754	190.94
257.987	212.94
258.22	218.94
258.452	204.94
258.685	183.94
258.918	201.94
259.151	199.94
259.383	199.94
259.616	204.94
259.849	218.94
260.081	211.94
260.314	233.94
260.547	233.94
260.779	223.94
261.012	234.94
261.244	210.94
261.477	207.94
261.71	207.94
261.942	210.94
262.175	223.94
262.407	210.94
262.64	205.94
262.872	202.94
263.105	213.94
263.337	210.94
263.57	216.94
263.802	197.94
264.035	199.94
264.267	225.94
264.499	208.94
264.732	210.94
264.964	207.94
265.197	223.94
265.429	205.94
265.661	211.94
265.894	205.94
266.126	211.94
266.358	225.94
266.591	214.94
266.823	228.94
267.055	223.94
267.287	233.94
267.52	231.94
267.752	228.94
267.984	237.94
268.216	227.94
268.448	216.94
268.681	252.94
268.913	245.94
269.145	251.94
269.377	258.94
269.609	262.94
269.841	262.94
270.073	260.94
270.306	267.94
270.538	284.94
270.77	285.94
271.002	277.94
271.234	265.94
271.466	263.94
271.698	286.94
271.93	287.94
272.162	281.94
272.394	282.94
272.626	291.94
272.858	277.94
273.09	262.94
273.322	245.94
273.553	262.94
273.785	257.94
274.017	262.94
274.249	264.94
274.481	266.94
274.713	268.94
274.945	262.94
275.176	263.94
275.408	253.94
275.64	258.94
275.872	257.94
276.104	262.94
276.335	258.94
276.567	276.94
276.799	263.94
277.031	268.94
277.262	304.94
277.494	305.94
277.726	285.94
277.957	288.94
278.189	255.94
278.421	281.94
278.652	267.94
278.884	286.94
279.115	262.94
279.347	279.94
279.579	271.94
279.81	256.94
280.042	267.94
280.273	258.94
280.505	259.94
280.736	283.94
280.968	260.94
281.199	275.94
281.431	292.94
281.662	281.94
281.894	264.94
282.125	278.94
282.356	293.94
282.588	286.94
282.819	288.94
283.051	268.94
283.282	261.94
283.513	287.94
283.745	300.94
283.976	277.94
284.207	278.94
284.439	285.94
284.67	298.94
284.901	285.94
285.132	285.94
285.364	280.94
285.595	288.94
285.826	278.94
286.057	284.94
286.288	276.94
286.52	291.94
286.751	292.94
286.982	301.94
287.213	298.94
287.444	276.94
287.675	290.94
287.906	310.94
288.138	296.94
288.369	300.94
288.6	300.94
288.831	307.94
289.062	298.94
289.293	323.94
289.524	294.94
289.755	300.94
289.986	281.94
290.217	298.94
290.448	307.94
290.679	315.94
290.91	303.94
291.141	300.94
291.371	295.94
291.602	309.94
291.833	292.94
292.064	307.94
292.295	301.94
292.526	308.94
292.757	315.94
292.987	303.94
293.218	299.94
293.449	315.94
293.68	294.94
293.91	297.94
294.141	316.94
294.372	309.94
294.603	300.94
294.833	289.94
295.064	311.94
295.295	317.94
295.525	298.94
295.756	291.94
295.987	326.94
296.217	315.94
296.448	309.94
296.679	316.94
296.909	328.94
297.14	317.94
297.37	310.94
297.601	332.94
297.831	314.94
298.062	314.94
298.292	315.94
298.523	316.94
298.753	303.94
298.984	314.94
299.214	319.94
299.445	320.94
299.675	306.94
299.905	309.94
300.136	325.94
300.366	314.94
300.597	343.94
300.827	305.94
301.057	334.94
301.288	347.94
301.518	346.94
301.748	355.94
301.979	331.94
302.209	349.94
302.439	335.94
302.669	327.94
302.9	340.94
303.13	329.94
303.36	348.94
303.59	349.94
303.82	329.94
304.051	349.94
304.281	345.94
304.511	331.94
304.741	342.94
304.971	329.94
305.201	351.94
305.431	349.94
305.661	357.94
305.891	362.94
306.121	348.94
306.352	348.94
306.582	341.94
306.812	344.94
307.042	366.94
307.272	344.94
307.502	351.94
307.731	328.94
307.961	327.94
308.191	356.94
308.421	353.94
308.651	351.94
308.881	336.94
309.111	338.94
309.341	357.94
309.571	342.94
309.8	369.94
310.03	373.94
310.26	357.94
310.49	346.94
310.72	367.94
310.949	371.94
311.179	377.94
311.409	384.94
311.639	372.94
311.868	377.94
312.098	378.94
312.328	380.94
312.557	392.94
312.787	374.94
313.017	371.94
313.246	395.94
313.476	389.94
313.706	379.94
313.935	360.94
314.165	381.94
314.394	385.94
314.624	360.94
314.853	362.94
315.083	374.94
315.312	373.94
315.542	373.94
315.771	384.94
316.001	372.94
316.23	379.94
316.46	364.94
316.689	379.94
316.919	371.94
317.148	377.94
317.377	390.94
317.607	371.94
317.836	378.94
318.065	394.94
318.295	383.94
318.524	376.94
318.753	370.94
318.983	378.94
319.212	380.94
319.441	379.94
319.67	389.94
319.9	383.94
320.129	375.94
320.358	385.94
320.587	370.94
320.816	371.94
321.046	388.94
321.275	393.94
321.504	387.94
321.733	415.94
321.962	377.94
322.191	403.94
322.42	418.94
322.649	383.94
322.878	410.94
323.108	419.94
323.337	415.94
323.566	427.94
323.795	461.94
324.024	489.94
324.253	553.94
324.482	703.94
324.71	1000.94
324.939	1383.94
325.168	1171.94
325.397	650.94
325.626	487.94
325.855	443.94
326.084	424.94
326.313	455.94
326.542	453.94
326.77	479.94
326.999	500.94
327.228	659.94
327.457	941.94
327.686	1028.94
327.914	734.94
328.143	539.94
328.372	505.94
328.6	488.94
328.829	469.94
329.058	470.94
329.287	479.94
329.515	466.94
329.744	419.94
329.972	450.94
330.201	465.94
330.43	477.94
330.658	512.94
330.887	509.94
331.115	502.94
331.344	452.94
331.572	453.94
331.801	443.94
332.03	447.94
332.258	459.94
332.486	435.94
332.715	444.94
332.943	459.94
333.172	475.94
333.4	441.94
333.629	475.94
333.857	477.94
334.085	489.94
334.314	466.94
334.542	498.94
334.771	519.94
334.999	501.94
335.227	481.94
335.455	443.94
335.684	471.94
335.912	456.94
336.14	466.94
336.369	447.94
336.597	451.94
336.825	457.94
337.053	451.94
337.281	434.94
337.51	458.94
337.738	423.94
337.966	426.94
338.194	427.94
338.422	432.94
338.65	411.94
338.878	427.94
339.106	408.94
339.334	419.94
339.562	447.94
339.79	426.94
340.018	420.94
340.246	439.94
340.474	418.94
340.702	423.94
340.93	413.94
341.158	416.94
341.386	413.94
341.614	419.94
341.842	394.94
342.07	417.94
342.298	405.94
342.526	408.94
342.754	392.94
342.981	421.94
343.209	402.94
343.437	422.94
343.665	410.94
343.893	427.94
344.12	416.94
344.348	436.94
344.576	435.94
344.804	428.94
345.031	405.94
345.259	419.94
345.487	424.94
345.714	440.94
345.942	394.94
346.17	415.94
346.397	396.94
346.625	395.94
346.853	394.94
347.08	385.94
347.308	369.94
347.535	396.94
347.763	383.94
347.99	385.94
348.218	403.94
348.445	409.94
348.673	398.94
348.9	391.94
349.128	401.94
349.355	380.94
349.583	394.94
349.81	404.94
350.037	400.94
350.265	390.94
350.492	403.94
350.72	374.94
350.947	404.94
351.174	395.94
351.402	392.94
351.629	391.94
351.856	378.94
352.083	391.94
352.311	404.94
352.538	385.94
352.765	393.94
352.992	367.94
353.22	373.94
353.447	392.94
353.674	384.94
353.901	395.94
354.128	383.94
354.355	377.94
354.583	374.94
354.81	375.94
355.037	367.94
355.264	358.94
355.491	377.94
355.718	364.94
355.945	375.94
356.172	356.94
356.399	363.94
356.626	362.94
356.853	374.94
357.08	371.94
357.307	343.94
357.534	381.94
357.761	369.94
357.988	385.94
358.215	372.94
358.441	357.94
358.668	380.94
358.895	393.94
359.122	361.94
359.349	378.94
359.576	387.94
359.802	377.94
360.029	412.94
360.256	405.94
360.483	410.94
360.709	380.94
360.936	373.94
361.163	407.94
361.39	374.94
361.616	382.94
361.843	386.94
362.07	381.94
362.296	368.94
362.523	355.94
362.749	379.94
362.976	365.94
363.203	377.94
363.429	387.94
363.656	375.94
363.882	361.94
364.109	379.94
364.335	374.94
364.562	392.94
364.788	375.94
365.015	367.94
365.241	371.94
365.468	354.94
365.694	391.94
365.92	364.94
366.147	381.94
366.373	373.94
366.599	371.94
366.826	357.94
367.052	358.94
367.278	400.94
367.505	368.94
367.731	369.94
367.957	356.94
368.184	356.94
368.41	367.94
368.636	375.94
368.862	355.94
369.089	368.94
369.315	372.94
369.541	368.94
369.767	377.94
369.993	369.94
370.219	373.94
370.445	374.94
370.672	370.94
370.898	365.94
371.124	363.94
371.35	380.94
371.576	371.94
371.802	371.94
372.028	376.94
372.254	377.94
372.48	389.94
372.706	409.94
372.932	367.94
373.158	383.94
373.384	395.94
373.61	363.94
373.835	393.94
374.061	378.94
374.287	399.94
374.513	383.94
374.739	372.94
374.965	382.94
375.191	396.94
375.416	391.94
375.642	379.94
375.868	387.94
376.094	382.94
376.319	380.94
376.545	368.94
376.771	356.94
376.997	346.94
377.222	364.94
377.448	365.94
377.674	381.94
377.899	367.94
378.125	380.94
378.35	358.94
378.576	348.94
378.802	375.94
379.027	368.94
379.253	374.94
379.478	359.94
379.704	371.94
379.929	362.94
380.155	371.94
380.38	373.94
380.606	368.94
380.831	358.94
381.057	383.94
381.282	359.94
381.507	370.94
381.733	353.94
381.958	369.94
382.184	373.94
382.409	377.94
382.634	387.94
382.86	371.94
383.085	379.94
383.31	386.94
383.535	381.94
383.761	383.94
383.986	401.94
384.211	396.94
384.436	392.94
384.662	394.94
384.887	409.94
385.112	399.94
385.337	384.94
385.562	392.94
385.787	388.94
386.013	416.94
386.238	399.94
386.463	395.94
386.688	410.94
386.913	388.94
387.138	393.94
387.363	409.94
387.588	419.94
387.813	387.94
388.038	399.94
388.263	409.94
388.488	377.94
388.713	405.94
388.938	406.94
389.163	420.94
389.387	409.94
389.612	389.94
389.837	405.94
390.062	397.94
390.287	419.94
390.512	407.94
390.736	407.94
390.961	402.94
391.186	411.94
391.411	408.94
391.636	417.94
391.86	420.94
392.085	435.94
392.31	426.94
392.534	412.94
392.759	410.94
392.984	395.94
393.208	416.94
393.433	412.94
393.658	412.94
393.882	413.94
394.107	411.94
394.331	404.94
394.556	429.94
394.78	413.94
395.005	397.94
395.229	413.94
395.454	417.94
395.678	405.94
395.903	415.94
396.127	451.94
396.352	444.94
396.576	427.94
396.801	414.94
397.025	428.94
397.249	433.94
397.474	427.94
397.698	412.94
397.922	434.94
398.147	448.94
398.371	420.94
398.595	450.94
398.82	454.94
399.044	466.94
399.268	495.94
399.492	531.94
399.717	545.94
399.941	571.94
400.165	564.94
400.389	537.94
400.613	519.94
400.837	464.94
401.062	452.94
401.286	468.94
401.51	451.94
401.734	436.94
401.958	452.94
402.182	463.94
402.406	441.94
402.63	457.94
402.854	458.94
403.078	452.94
403.302	477.94
403.526	495.94
403.75	471.94
403.974	461.94
404.198	464.94
404.422	475.94
404.645	497.94
404.869	477.94
405.093	499.94
405.317	539.94
405.541	571.94
405.765	501.94
405.988	500.94
406.212	492.94
406.436	503.94
406.66	507.94
406.883	486.94
407.107	511.94
407.331	532.94
407.555	618.94
407.778	583.94
408.002	549.94
408.226	508.94
408.449	501.94
408.673	504.94
408.896	500.94
409.12	544.94
409.344	518.94
409.567	476.94
409.791	469.94
410.014	468.94
410.238	450.94
410.461	454.94
410.685	449.94
410.908	466.94
411.132	508.94
411.355	512.94
411.578	476.94
411.802	477.94
412.025	459.94
412.249	465.94
412.472	481.94
412.695	515.94
412.919	513.94
413.142	455.94
413.365	461.94
413.589	440.94
413.812	446.94
414.035	421.94
414.258	455.94
414.482	443.94
414.705	429.94
414.928	452.94
415.151	440.94
415.374	459.94
415.597	441.94
415.821	411.94
416.044	426.94
416.267	445.94
416.49	447.94
416.713	433.94
416.936	445.94
417.159	433.94
417.382	443.94
417.605	427.94
417.828	453.94
418.051	454.94
418.274	435.94
418.497	413.94
418.72	435.94
418.943	431.94
419.166	438.94
419.389	468.94
419.611	496.94
419.834	468.94
420.057	448.94
420.28	451.94
420.503	451.94
420.726	452.94
420.948	453.94
421.171	488.94
421.394	487.94
421.617	466.94
421.839	427.94
422.062	462.94
422.285	459.94
422.507	520.94
422.73	540.94
422.953	489.94
423.175	476.94
423.398	460.94
423.621	457.94
423.843	470.94
424.066	481.94
424.288	468.94
424.511	481.94
424.733	501.94
424.956	546.94
425.178	559.94
425.401	543.94
425.623	541.94
425.846	499.94
426.068	453.94
426.291	453.94
426.513	465.94
426.735	460.94
426.958	481.94
427.18	550.94
427.402	604.94
427.625	681.94
427.847	596.94
428.069	521.94
428.292	481.94
428.514	444.94
428.736	443.94
428.958	426.94
429.181	428.94
429.403	431.94
429.625	428.94
429.847	450.94
430.069	490.94
430.292	476.94
430.514	433.94
430.736	430.94
430.958	419.94
431.18	404.94
431.402	407.94
431.624	409.94
431.846	405.94
432.068	410.94
432.29	411.94
432.512	423.94
432.734	411.94
432.956	419.94
433.178	416.94
433.4	404.94
433.622	391.94
433.844	401.94
434.066	410.94
434.287	418.94
434.509	412.94
434.731	431.94
434.953	425.94
435.175	423.94
435.397	436.94
435.618	463.94
435.84	493.94
436.062	560.94
436.284	590.94
436.505	476.94
436.727	453.94
436.949	427.94
437.17	427.94
437.392	436.94
437.614	446.94
437.835	438.94
438.057	499.94
438.278	560.94
438.5	568.94
438.721	630.94
438.943	597.94
439.165	468.94
439.386	457.94
439.608	453.94
439.829	448.94
440.05	477.94
440.272	460.94
440.493	468.94
440.715	450.94
440.936	439.94
441.158	420.94
441.379	413.94
441.6	447.94
441.822	449.94
442.043	486.94
442.264	530.94
442.486	554.94
442.707	474.94
442.928	439.94
443.149	466.94
443.371	475.94
443.592	493.94
443.813	563.94
444.034	581.94
444.255	525.94
444.476	482.94
444.698	486.94
444.919	468.94
445.14	572.94
445.361	524.94
445.582	492.94
445.803	520.94
446.024	591.94
446.245	584.94
446.466	533.94
446.687	447.94
446.908	441.94
447.129	438.94
447.35	436.94
447.571	425.94
447.792	398.94
448.013	408.94
448.234	439.94
448.455	465.94
448.675	529.94
448.896	603.94
449.117	526.94
449.338	473.94
449.559	577.94
449.779	638.94
450	495.94
450.221	419.94
450.442	425.94
450.662	390.94
450.883	411.94
451.104	412.94
451.324	390.94
451.545	394.94
451.766	373.94
451.986	381.94
452.207	368.94
452.428	384.94
452.648	376.94
452.869	359.94
453.089	389.94
453.31	385.94
453.53	373.94
453.751	370.94
453.971	376.94
454.192	386.94
454.412	391.94
454.633	362.94
454.853	371.94
455.073	359.94
455.294	373.94
455.514	431.94
455.734	402.94
455.955	368.94
456.175	363.94
456.395	355.94
456.616	355.94
456.836	352.94
457.056	360.94
457.276	344.94
457.497	378.94
457.717	367.94
457.937	352.94
458.157	352.94
458.377	378.94
458.598	389.94
458.818	412.94
459.038	452.94
459.258	462.94
459.478	417.94
459.698	418.94
459.918	396.94
460.138	403.94
460.358	415.94
460.578	410.94
460.798	423.94
461.018	426.94
461.238	446.94
461.458	429.94
461.678	425.94
461.898	418.94
462.118	421.94
462.338	426.94
462.558	454.94
462.777	446.94
462.997	473.94
463.217	490.94
463.437	480.94
463.657	458.94
463.876	465.94
464.096	448.94
464.316	451.94
464.536	447.94
464.755	452.94
464.975	456.94
465.195	460.94
465.414	458.94
465.634	434.94
465.854	413.94
466.073	415.94
466.293	398.94
466.512	387.94
466.732	397.94
466.951	393.94
467.171	380.94
467.391	385.94
467.61	393.94
467.829	376.94
468.049	402.94
468.268	385.94
468.488	367.94
468.707	364.94
468.927	379.94
469.146	370.94
469.365	360.94
469.585	384.94
469.804	373.94
470.023	410.94
470.243	398.94
470.462	395.94
470.681	424.94
470.901	401.94
471.12	380.94
471.339	406.94
471.558	398.94
471.777	387.94
471.997	377.94
472.216	401.94
472.435	416.94
472.654	393.94
472.873	395.94
473.092	383.94
473.311	385.94
473.53	376.94
473.749	394.94
473.968	436.94
474.187	486.94
474.406	473.94
474.625	427.94
474.844	414.94
475.063	392.94
475.282	397.94
475.501	408.94
475.72	401.94
475.939	394.94
476.158	397.94
476.377	395.94
476.596	409.94
476.814	396.94
477.033	410.94
477.252	408.94
477.471	419.94
477.69	424.94
477.908	415.94
478.127	441.94
478.346	425.94
478.564	437.94
478.783	443.94
479.002	437.94
479.22	457.94
479.439	467.94
479.658	473.94
479.876	436.94
480.095	443.94
480.313	508.94
480.532	479.94
480.751	483.94
480.969	486.94
481.188	496.94
481.406	531.94
481.624	495.94
481.843	471.94
482.061	452.94
482.28	466.94
482.498	437.94
482.717	450.94
482.935	459.94
483.153	451.94
483.372	448.94
483.59	416.94
483.808	440.94
484.027	454.94
484.245	459.94
484.463	460.94
484.681	466.94
484.9	460.94
485.118	439.94
485.336	473.94
485.554	434.94
485.772	457.94
485.99	464.94
486.209	458.94
486.427	457.94
486.645	466.94
486.863	480.94
487.081	480.94
487.299	465.94
487.517	467.94
487.735	472.94
487.953	455.94
488.171	435.94
488.389	475.94
488.607	471.94
488.825	473.94
489.043	495.94
489.261	476.94
489.479	476.94
489.696	494.94
489.914	475.94
490.132	497.94
490.35	485.94
490.568	493.94
490.786	485.94
491.003	519.94
491.221	525.94
491.439	486.94
491.657	521.94
491.874	523.94
492.092	520.94
492.31	545.94
492.527	526.94
492.745	541.94
492.963	565.94
493.18	535.94
493.398	541.94
493.615	538.94
493.833	523.94
494.05	521.94
494.268	524.94
494.485	521.94
494.703	538.94
494.92	554.94
495.138	548.94
495.355	535.94
495.573	546.94
495.79	535.94
496.008	536.94
496.225	552.94
496.442	552.94
496.66	559.94
496.877	555.94
497.094	569.94
497.312	569.94
497.529	565.94
497.746	583.94
497.963	597.94
498.181	619.94
498.398	620.94
498.615	639.94
498.832	658.94
499.049	663.94
499.267	679.94
499.484	716.94
499.701	732.94
499.918	780.94
500.135	811.94
500.352	880.94
500.569	867.94
500.786	882.94
501.003	843.94
501.22	807.94
501.437	819.94
501.654	748.94
501.871	729.94
502.088	693.94
