Data from 1964.PennyLincolnUp.Lamp.En5.5.200Scan.071719.P1._HRD10591_14-04-18-910.txt Node
Date: Thu Jul 18 14:04:18 EDT 2019
User: cochatt
Spectrometer: HR+D1059
Trigger mode: 1
Integration Time (sec): 1.000000E-1
Scans to average: 1
Electric dark correction enabled: true
Nonlinearity correction enabled: false
Boxcar width: 0
XAxis mode: Wavelengths
Number of Pixels in Spectrum: 2048
>>>>>Begin Spectral Data<<<<<
223.165	-9.12
223.4	-9.12
223.635	-9.12
223.869	-9.12
224.104	-15.12
224.338	-10.12
224.573	-23.12
224.808	-16.12
225.042	-16.12
225.277	-6.12
225.511	4.88
225.746	-3.12
225.98	15.88
226.215	27.88
226.449	7.88
226.683	11.88
226.918	10.88
227.152	28.88
227.387	23.88
227.621	51.88
227.856	28.88
228.09	54.88
228.324	41.88
228.559	56.88
228.793	60.88
229.027	91.88
229.262	76.88
229.496	96.88
229.73	113.88
229.964	114.88
230.199	109.88
230.433	98.88
230.667	105.88
230.901	92.88
231.136	91.88
231.37	113.88
231.604	119.88
231.838	115.88
232.072	107.88
232.306	115.88
232.541	129.88
232.775	104.88
233.009	102.88
233.243	111.88
233.477	98.88
233.711	109.88
233.945	123.88
234.179	121.88
234.413	114.88
234.647	116.88
234.881	117.88
235.115	120.88
235.349	117.88
235.583	107.88
235.817	125.88
236.051	126.88
236.285	120.88
236.519	111.88
236.753	115.88
236.987	130.88
237.221	139.88
237.455	179.88
237.689	152.88
237.922	123.88
238.156	134.88
238.39	127.88
238.624	123.88
238.858	96.88
239.091	109.88
239.325	121.88
239.559	131.88
239.793	111.88
240.027	118.88
240.26	138.88
240.494	117.88
240.728	132.88
240.961	131.88
241.195	124.88
241.429	123.88
241.662	123.88
241.896	127.88
242.13	123.88
242.363	113.88
242.597	124.88
242.83	139.88
243.064	137.88
243.298	124.88
243.531	141.88
243.765	136.88
243.998	153.88
244.232	136.88
244.465	139.88
244.699	144.88
244.932	133.88
245.166	132.88
245.399	160.88
245.633	133.88
245.866	165.88
246.099	132.88
246.333	156.88
246.566	142.88
246.8	147.88
247.033	151.88
247.266	154.88
247.5	152.88
247.733	153.88
247.966	164.88
248.2	152.88
248.433	161.88
248.666	167.88
248.899	177.88
249.133	179.88
249.366	197.88
249.599	180.88
249.832	171.88
250.066	169.88
250.299	174.88
250.532	184.88
250.765	191.88
250.998	216.88
251.231	202.88
251.465	182.88
251.698	197.88
251.931	179.88
252.164	191.88
252.397	195.88
252.63	201.88
252.863	195.88
253.096	203.88
253.329	210.88
253.562	202.88
253.795	205.88
254.028	185.88
254.261	213.88
254.494	207.88
254.727	223.88
254.96	225.88
255.193	243.88
255.426	227.88
255.659	231.88
255.892	242.88
256.124	217.88
256.357	220.88
256.59	215.88
256.823	227.88
257.056	215.88
257.289	199.88
257.521	215.88
257.754	203.88
257.987	197.88
258.22	210.88
258.452	186.88
258.685	198.88
258.918	204.88
259.151	212.88
259.383	213.88
259.616	204.88
259.849	216.88
260.081	213.88
260.314	231.88
260.547	236.88
260.779	231.88
261.012	230.88
261.244	210.88
261.477	213.88
261.71	213.88
261.942	221.88
262.175	218.88
262.407	219.88
262.64	208.88
262.872	205.88
263.105	208.88
263.337	213.88
263.57	201.88
263.802	215.88
264.035	215.88
264.267	204.88
264.499	210.88
264.732	205.88
264.964	207.88
265.197	233.88
265.429	224.88
265.661	216.88
265.894	207.88
266.126	216.88
266.358	221.88
266.591	228.88
266.823	216.88
267.055	224.88
267.287	226.88
267.52	244.88
267.752	229.88
267.984	244.88
268.216	226.88
268.448	244.88
268.681	254.88
268.913	223.88
269.145	233.88
269.377	258.88
269.609	267.88
269.841	253.88
270.073	241.88
270.306	273.88
270.538	283.88
270.77	303.88
271.002	279.88
271.234	277.88
271.466	284.88
271.698	297.88
271.93	311.88
272.162	317.88
272.394	296.88
272.626	288.88
272.858	275.88
273.09	265.88
273.322	291.88
273.553	262.88
273.785	265.88
274.017	273.88
274.249	242.88
274.481	280.88
274.713	278.88
274.945	275.88
275.176	254.88
275.408	272.88
275.64	273.88
275.872	269.88
276.104	269.88
276.335	283.88
276.567	283.88
276.799	269.88
277.031	306.88
277.262	295.88
277.494	305.88
277.726	318.88
277.957	308.88
278.189	283.88
278.421	279.88
278.652	282.88
278.884	293.88
279.115	280.88
279.347	264.88
279.579	280.88
279.81	267.88
280.042	259.88
280.273	270.88
280.505	287.88
280.736	276.88
280.968	286.88
281.199	291.88
281.431	294.88
281.662	296.88
281.894	283.88
282.125	273.88
282.356	284.88
282.588	291.88
282.819	311.88
283.051	305.88
283.282	282.88
283.513	274.88
283.745	288.88
283.976	283.88
284.207	299.88
284.439	307.88
284.67	302.88
284.901	298.88
285.132	295.88
285.364	292.88
285.595	289.88
285.826	294.88
286.057	286.88
286.288	288.88
286.52	301.88
286.751	293.88
286.982	293.88
287.213	307.88
287.444	282.88
287.675	304.88
287.906	321.88
288.138	320.88
288.369	325.88
288.6	325.88
288.831	307.88
289.062	317.88
289.293	319.88
289.524	292.88
289.755	306.88
289.986	299.88
290.217	305.88
290.448	307.88
290.679	303.88
290.91	312.88
291.141	283.88
291.371	311.88
291.602	315.88
291.833	316.88
292.064	311.88
292.295	315.88
292.526	312.88
292.757	305.88
292.987	315.88
293.218	303.88
293.449	298.88
293.68	323.88
293.91	299.88
294.141	300.88
294.372	305.88
294.603	311.88
294.833	309.88
295.064	322.88
295.295	322.88
295.525	325.88
295.756	315.88
295.987	332.88
296.217	343.88
296.448	324.88
296.679	329.88
296.909	303.88
297.14	305.88
297.37	334.88
297.601	322.88
297.831	332.88
298.062	327.88
298.292	349.88
298.523	331.88
298.753	336.88
298.984	338.88
299.214	326.88
299.445	332.88
299.675	313.88
299.905	331.88
300.136	322.88
300.366	344.88
300.597	341.88
300.827	360.88
301.057	329.88
301.288	335.88
301.518	338.88
301.748	343.88
301.979	339.88
302.209	319.88
302.439	356.88
302.669	359.88
302.9	339.88
303.13	351.88
303.36	335.88
303.59	356.88
303.82	357.88
304.051	353.88
304.281	364.88
304.511	336.88
304.741	332.88
304.971	347.88
305.201	341.88
305.431	342.88
305.661	356.88
305.891	349.88
306.121	349.88
306.352	332.88
306.582	334.88
306.812	350.88
307.042	353.88
307.272	339.88
307.502	351.88
307.731	361.88
307.961	340.88
308.191	343.88
308.421	363.88
308.651	371.88
308.881	367.88
309.111	336.88
309.341	358.88
309.571	368.88
309.8	378.88
310.03	375.88
310.26	379.88
310.49	378.88
310.72	378.88
310.949	379.88
311.179	412.88
311.409	385.88
311.639	393.88
311.868	363.88
312.098	391.88
312.328	370.88
312.557	376.88
312.787	405.88
313.017	397.88
313.246	400.88
313.476	389.88
313.706	391.88
313.935	395.88
314.165	398.88
314.394	393.88
314.624	415.88
314.853	394.88
315.083	383.88
315.312	384.88
315.542	382.88
315.771	388.88
316.001	377.88
316.23	383.88
316.46	380.88
316.689	410.88
316.919	378.88
317.148	398.88
317.377	393.88
317.607	395.88
317.836	376.88
318.065	392.88
318.295	383.88
318.524	373.88
318.753	401.88
318.983	373.88
319.212	388.88
319.441	396.88
319.67	389.88
319.9	394.88
320.129	399.88
320.358	397.88
320.587	401.88
320.816	389.88
321.046	408.88
321.275	398.88
321.504	385.88
321.733	377.88
321.962	407.88
322.191	419.88
322.42	427.88
322.649	419.88
322.878	435.88
323.108	438.88
323.337	441.88
323.566	441.88
323.795	482.88
324.024	493.88
324.253	566.88
324.482	753.88
324.71	1079.88
324.939	1434.88
325.168	1223.88
325.397	716.88
325.626	534.88
325.855	465.88
326.084	437.88
326.313	453.88
326.542	446.88
326.77	491.88
326.999	522.88
327.228	704.88
327.457	961.88
327.686	1119.88
327.914	759.88
328.143	581.88
328.372	529.88
328.6	507.88
328.829	482.88
329.058	484.88
329.287	482.88
329.515	455.88
329.744	469.88
329.972	464.88
330.201	490.88
330.43	512.88
330.658	504.88
330.887	521.88
331.115	488.88
331.344	479.88
331.572	458.88
331.801	472.88
332.03	476.88
332.258	449.88
332.486	462.88
332.715	469.88
332.943	462.88
333.172	472.88
333.4	497.88
333.629	462.88
333.857	532.88
334.085	483.88
334.314	525.88
334.542	531.88
334.771	530.88
334.999	498.88
335.227	490.88
335.455	480.88
335.684	462.88
335.912	472.88
336.14	444.88
336.369	464.88
336.597	443.88
336.825	451.88
337.053	454.88
337.281	453.88
337.51	446.88
337.738	458.88
337.966	444.88
338.194	443.88
338.422	448.88
338.65	443.88
338.878	432.88
339.106	424.88
339.334	458.88
339.562	442.88
339.79	432.88
340.018	466.88
340.246	452.88
340.474	423.88
340.702	443.88
340.93	454.88
341.158	440.88
341.386	437.88
341.614	433.88
341.842	426.88
342.07	436.88
342.298	431.88
342.526	416.88
342.754	414.88
342.981	413.88
343.209	429.88
343.437	455.88
343.665	429.88
343.893	435.88
344.12	465.88
344.348	435.88
344.576	451.88
344.804	457.88
345.031	430.88
345.259	430.88
345.487	426.88
345.714	418.88
345.942	433.88
346.17	429.88
346.397	412.88
346.625	392.88
346.853	398.88
347.08	414.88
347.308	418.88
347.535	416.88
347.763	411.88
347.99	412.88
348.218	436.88
348.445	415.88
348.673	409.88
348.9	410.88
349.128	400.88
349.355	385.88
349.583	402.88
349.81	421.88
350.037	382.88
350.265	408.88
350.492	406.88
350.72	380.88
350.947	412.88
351.174	404.88
351.402	406.88
351.629	399.88
351.856	402.88
352.083	404.88
352.311	412.88
352.538	386.88
352.765	403.88
352.992	409.88
353.22	388.88
353.447	390.88
353.674	393.88
353.901	377.88
354.128	387.88
354.355	385.88
354.583	380.88
354.81	364.88
355.037	372.88
355.264	387.88
355.491	396.88
355.718	403.88
355.945	387.88
356.172	380.88
356.399	375.88
356.626	380.88
356.853	403.88
357.08	389.88
357.307	377.88
357.534	386.88
357.761	368.88
357.988	383.88
358.215	379.88
358.441	373.88
358.668	394.88
358.895	407.88
359.122	397.88
359.349	386.88
359.576	400.88
359.802	397.88
360.029	424.88
360.256	419.88
360.483	407.88
360.709	362.88
360.936	389.88
361.163	388.88
361.39	398.88
361.616	381.88
361.843	382.88
362.07	388.88
362.296	395.88
362.523	380.88
362.749	384.88
362.976	391.88
363.203	384.88
363.429	384.88
363.656	383.88
363.882	384.88
364.109	392.88
364.335	402.88
364.562	378.88
364.788	365.88
365.015	373.88
365.241	391.88
365.468	375.88
365.694	394.88
365.92	398.88
366.147	375.88
366.373	376.88
366.599	363.88
366.826	373.88
367.052	384.88
367.278	385.88
367.505	386.88
367.731	379.88
367.957	377.88
368.184	384.88
368.41	374.88
368.636	385.88
368.862	372.88
369.089	383.88
369.315	390.88
369.541	380.88
369.767	375.88
369.993	397.88
370.219	374.88
370.445	371.88
370.672	394.88
370.898	379.88
371.124	401.88
371.35	398.88
371.576	400.88
371.802	394.88
372.028	369.88
372.254	393.88
372.48	389.88
372.706	384.88
372.932	371.88
373.158	377.88
373.384	395.88
373.61	411.88
373.835	407.88
374.061	382.88
374.287	375.88
374.513	386.88
374.739	396.88
374.965	371.88
375.191	381.88
375.416	395.88
375.642	380.88
375.868	385.88
376.094	380.88
376.319	399.88
376.545	379.88
376.771	383.88
376.997	375.88
377.222	375.88
377.448	396.88
377.674	375.88
377.899	372.88
378.125	388.88
378.35	376.88
378.576	376.88
378.802	369.88
379.027	359.88
379.253	373.88
379.478	375.88
379.704	389.88
379.929	381.88
380.155	383.88
380.38	379.88
380.606	375.88
380.831	380.88
381.057	376.88
381.282	389.88
381.507	387.88
381.733	375.88
381.958	373.88
382.184	371.88
382.409	398.88
382.634	386.88
382.86	390.88
383.085	377.88
383.31	393.88
383.535	410.88
383.761	407.88
383.986	407.88
384.211	391.88
384.436	408.88
384.662	401.88
384.887	418.88
385.112	410.88
385.337	438.88
385.562	412.88
385.787	411.88
386.013	440.88
386.238	413.88
386.463	409.88
386.688	424.88
386.913	411.88
387.138	397.88
387.363	413.88
387.588	429.88
387.813	415.88
388.038	412.88
388.263	402.88
388.488	419.88
388.713	408.88
388.938	423.88
389.163	408.88
389.387	413.88
389.612	386.88
389.837	391.88
390.062	397.88
390.287	435.88
390.512	418.88
390.736	412.88
390.961	401.88
391.186	415.88
391.411	410.88
391.636	444.88
391.86	410.88
392.085	410.88
392.31	421.88
392.534	435.88
392.759	427.88
392.984	434.88
393.208	406.88
393.433	421.88
393.658	411.88
393.882	399.88
394.107	420.88
394.331	438.88
394.556	427.88
394.78	413.88
395.005	421.88
395.229	401.88
395.454	424.88
395.678	443.88
395.903	418.88
396.127	435.88
396.352	435.88
396.576	417.88
396.801	432.88
397.025	444.88
397.249	432.88
397.474	428.88
397.698	439.88
397.922	435.88
398.147	466.88
398.371	463.88
398.595	472.88
398.82	465.88
399.044	469.88
399.268	515.88
399.492	518.88
399.717	565.88
399.941	594.88
400.165	588.88
400.389	564.88
400.613	529.88
400.837	505.88
401.062	485.88
401.286	467.88
401.51	486.88
401.734	465.88
401.958	487.88
402.182	469.88
402.406	481.88
402.63	469.88
402.854	476.88
403.078	479.88
403.302	471.88
403.526	495.88
403.75	484.88
403.974	486.88
404.198	468.88
404.422	473.88
404.645	500.88
404.869	489.88
405.093	516.88
405.317	543.88
405.541	567.88
405.765	529.88
405.988	516.88
406.212	501.88
406.436	514.88
406.66	516.88
406.883	501.88
407.107	549.88
407.331	556.88
407.555	621.88
407.778	608.88
408.002	561.88
408.226	536.88
408.449	540.88
408.673	517.88
408.896	549.88
409.12	556.88
409.344	532.88
409.567	484.88
409.791	485.88
410.014	490.88
410.238	478.88
410.461	479.88
410.685	476.88
410.908	476.88
411.132	515.88
411.355	545.88
411.578	520.88
411.802	465.88
412.025	471.88
412.249	461.88
412.472	489.88
412.695	534.88
412.919	508.88
413.142	483.88
413.365	483.88
413.589	457.88
413.812	458.88
414.035	445.88
414.258	475.88
414.482	439.88
414.705	460.88
414.928	450.88
415.151	445.88
415.374	432.88
415.597	461.88
415.821	445.88
416.044	457.88
416.267	455.88
416.49	456.88
416.713	460.88
416.936	454.88
417.159	441.88
417.382	419.88
417.605	442.88
417.828	436.88
418.051	468.88
418.274	442.88
418.497	463.88
418.72	449.88
418.943	436.88
419.166	455.88
419.389	475.88
419.611	464.88
419.834	486.88
420.057	480.88
420.28	451.88
420.503	477.88
420.726	456.88
420.948	487.88
421.171	498.88
421.394	522.88
421.617	474.88
421.839	445.88
422.062	437.88
422.285	462.88
422.507	505.88
422.73	550.88
422.953	515.88
423.175	488.88
423.398	481.88
423.621	481.88
423.843	484.88
424.066	492.88
424.288	471.88
424.511	485.88
424.733	513.88
424.956	585.88
425.178	564.88
425.401	530.88
425.623	562.88
425.846	505.88
426.068	483.88
426.291	469.88
426.513	469.88
426.735	469.88
426.958	512.88
427.18	545.88
427.402	658.88
427.625	682.88
427.847	590.88
428.069	541.88
428.292	500.88
428.514	458.88
428.736	466.88
428.958	463.88
429.181	443.88
429.403	440.88
429.625	424.88
429.847	475.88
430.069	505.88
430.292	491.88
430.514	439.88
430.736	436.88
430.958	445.88
431.18	409.88
431.402	403.88
431.624	407.88
431.846	395.88
432.068	418.88
432.29	420.88
432.512	416.88
432.734	433.88
432.956	417.88
433.178	428.88
433.4	428.88
433.622	416.88
433.844	425.88
434.066	420.88
434.287	433.88
434.509	432.88
434.731	438.88
434.953	441.88
435.175	470.88
435.397	469.88
435.618	474.88
435.84	485.88
436.062	545.88
436.284	599.88
436.505	513.88
436.727	479.88
436.949	445.88
437.17	441.88
437.392	429.88
437.614	453.88
437.835	462.88
438.057	538.88
438.278	567.88
438.5	585.88
438.721	635.88
438.943	603.88
439.165	505.88
439.386	476.88
439.608	456.88
439.829	455.88
440.05	468.88
440.272	494.88
440.493	477.88
440.715	431.88
440.936	444.88
441.158	441.88
441.379	435.88
441.6	451.88
441.822	454.88
442.043	470.88
442.264	541.88
442.486	580.88
442.707	521.88
442.928	473.88
443.149	467.88
443.371	503.88
443.592	513.88
443.813	602.88
444.034	620.88
444.255	557.88
444.476	479.88
444.698	476.88
444.919	497.88
445.14	599.88
445.361	553.88
445.582	509.88
445.803	519.88
446.024	612.88
446.245	607.88
446.466	548.88
446.687	469.88
446.908	467.88
447.129	434.88
447.35	443.88
447.571	429.88
447.792	404.88
448.013	442.88
448.234	442.88
448.455	444.88
448.675	536.88
448.896	610.88
449.117	539.88
449.338	526.88
449.559	596.88
449.779	657.88
450	531.88
450.221	472.88
450.442	408.88
450.662	413.88
450.883	410.88
451.104	418.88
451.324	408.88
451.545	399.88
451.766	379.88
451.986	385.88
452.207	369.88
452.428	378.88
452.648	393.88
452.869	387.88
453.089	403.88
453.31	390.88
453.53	394.88
453.751	379.88
453.971	380.88
454.192	393.88
454.412	392.88
454.633	374.88
454.853	379.88
455.073	374.88
455.294	394.88
455.514	433.88
455.734	428.88
455.955	373.88
456.175	389.88
456.395	359.88
456.616	373.88
456.836	385.88
457.056	367.88
457.276	356.88
457.497	389.88
457.717	377.88
457.937	387.88
458.157	414.88
458.377	387.88
458.598	397.88
458.818	437.88
459.038	453.88
459.258	466.88
459.478	407.88
459.698	403.88
459.918	413.88
460.138	408.88
460.358	423.88
460.578	428.88
460.798	435.88
461.018	424.88
461.238	428.88
461.458	425.88
461.678	414.88
461.898	444.88
462.118	450.88
462.338	460.88
462.558	453.88
462.777	455.88
462.997	462.88
463.217	506.88
463.437	493.88
463.657	468.88
463.876	473.88
464.096	478.88
464.316	482.88
464.536	472.88
464.755	458.88
464.975	468.88
465.195	490.88
465.414	488.88
465.634	439.88
465.854	433.88
466.073	397.88
466.293	409.88
466.512	416.88
466.732	393.88
466.951	399.88
467.171	379.88
467.391	400.88
467.61	412.88
467.829	415.88
468.049	392.88
468.268	403.88
468.488	392.88
468.707	386.88
468.927	379.88
469.146	378.88
469.365	384.88
469.585	364.88
469.804	385.88
470.023	393.88
470.243	394.88
470.462	393.88
470.681	411.88
470.901	416.88
471.12	402.88
471.339	403.88
471.558	420.88
471.777	401.88
471.997	389.88
472.216	420.88
472.435	409.88
472.654	418.88
472.873	401.88
473.092	395.88
473.311	403.88
473.53	378.88
473.749	404.88
473.968	443.88
474.187	502.88
474.406	507.88
474.625	423.88
474.844	409.88
475.063	397.88
475.282	402.88
475.501	393.88
475.72	408.88
475.939	408.88
476.158	410.88
476.377	388.88
476.596	383.88
476.814	425.88
477.033	409.88
477.252	423.88
477.471	431.88
477.69	419.88
477.908	431.88
478.127	437.88
478.346	442.88
478.564	461.88
478.783	465.88
479.002	474.88
479.22	459.88
479.439	476.88
479.658	464.88
479.876	474.88
480.095	492.88
480.313	528.88
480.532	493.88
480.751	503.88
480.969	492.88
481.188	505.88
481.406	531.88
481.624	465.88
481.843	487.88
482.061	460.88
482.28	457.88
482.498	454.88
482.717	449.88
482.935	465.88
483.153	446.88
483.372	462.88
483.59	457.88
483.808	477.88
484.027	467.88
484.245	466.88
484.463	436.88
484.681	471.88
484.9	462.88
485.118	483.88
485.336	470.88
485.554	485.88
485.772	487.88
485.99	469.88
486.209	458.88
486.427	469.88
486.645	463.88
486.863	472.88
487.081	485.88
487.299	487.88
487.517	473.88
487.735	473.88
487.953	472.88
488.171	461.88
488.389	467.88
488.607	480.88
488.825	506.88
489.043	483.88
489.261	486.88
489.479	499.88
489.696	473.88
489.914	476.88
490.132	496.88
490.35	516.88
490.568	504.88
490.786	515.88
491.003	518.88
491.221	513.88
491.439	525.88
491.657	530.88
491.874	548.88
492.092	555.88
492.31	570.88
492.527	551.88
492.745	546.88
492.963	542.88
493.18	549.88
493.398	557.88
493.615	542.88
493.833	546.88
494.05	560.88
494.268	552.88
494.485	536.88
494.703	564.88
494.92	564.88
495.138	540.88
495.355	550.88
495.573	572.88
495.79	567.88
496.008	581.88
496.225	547.88
496.442	550.88
496.66	561.88
496.877	571.88
497.094	571.88
497.312	586.88
497.529	568.88
497.746	619.88
497.963	592.88
498.181	614.88
498.398	630.88
498.615	663.88
498.832	652.88
499.049	673.88
499.267	700.88
499.484	712.88
499.701	757.88
499.918	797.88
500.135	832.88
500.352	879.88
500.569	891.88
500.786	874.88
501.003	866.88
501.22	859.88
501.437	804.88
501.654	778.88
501.871	736.88
502.088	740.88
