Data from 1964.PennyLincolnUp.Lamp.En5.5.200Scan.071719.P1._HRD10591_14-06-02-909.txt Node
Date: Thu Jul 18 14:06:02 EDT 2019
User: cochatt
Spectrometer: HR+D1059
Trigger mode: 1
Integration Time (sec): 1.000000E-1
Scans to average: 1
Electric dark correction enabled: true
Nonlinearity correction enabled: false
Boxcar width: 0
XAxis mode: Wavelengths
Number of Pixels in Spectrum: 2048
>>>>>Begin Spectral Data<<<<<
223.165	-6.88
223.4	-6.88
223.635	-6.88
223.869	-14.88
224.104	-14.88
224.338	-11.88
224.573	-5.88
224.808	-4.88
225.042	-13.88
225.277	-9.88
225.511	-12.88
225.746	13.12
225.98	-9.88
226.215	6.12
226.449	17.12
226.683	16.12
226.918	24.12
227.152	29.12
227.387	39.12
227.621	37.12
227.856	54.12
228.09	49.12
228.324	59.12
228.559	60.12
228.793	70.12
229.027	75.12
229.262	93.12
229.496	88.12
229.73	126.12
229.964	141.12
230.199	110.12
230.433	98.12
230.667	113.12
230.901	118.12
231.136	101.12
231.37	111.12
231.604	106.12
231.838	121.12
232.072	101.12
232.306	109.12
232.541	125.12
232.775	100.12
233.009	102.12
233.243	108.12
233.477	109.12
233.711	114.12
233.945	111.12
234.179	105.12
234.413	129.12
234.647	118.12
234.881	126.12
235.115	120.12
235.349	125.12
235.583	121.12
235.817	119.12
236.051	121.12
236.285	135.12
236.519	142.12
236.753	121.12
236.987	135.12
237.221	190.12
237.455	211.12
237.689	181.12
237.922	136.12
238.156	126.12
238.39	136.12
238.624	127.12
238.858	115.12
239.091	134.12
239.325	132.12
239.559	124.12
239.793	133.12
240.027	127.12
240.26	133.12
240.494	161.12
240.728	140.12
240.961	141.12
241.195	160.12
241.429	131.12
241.662	133.12
241.896	137.12
242.13	141.12
242.363	138.12
242.597	137.12
242.83	135.12
243.064	149.12
243.298	147.12
243.531	152.12
243.765	155.12
243.998	145.12
244.232	151.12
244.465	142.12
244.699	141.12
244.932	140.12
245.166	153.12
245.399	161.12
245.633	154.12
245.866	151.12
246.099	139.12
246.333	147.12
246.566	147.12
246.8	162.12
247.033	155.12
247.266	146.12
247.5	170.12
247.733	150.12
247.966	165.12
248.2	176.12
248.433	175.12
248.666	166.12
248.899	203.12
249.133	196.12
249.366	203.12
249.599	195.12
249.832	184.12
250.066	187.12
250.299	178.12
250.532	190.12
250.765	217.12
250.998	229.12
251.231	231.12
251.465	208.12
251.698	199.12
251.931	213.12
252.164	207.12
252.397	203.12
252.63	204.12
252.863	204.12
253.096	206.12
253.329	215.12
253.562	246.12
253.795	218.12
254.028	211.12
254.261	228.12
254.494	231.12
254.727	247.12
254.96	270.12
255.193	269.12
255.426	259.12
255.659	237.12
255.892	236.12
256.124	231.12
256.357	236.12
256.59	248.12
256.823	219.12
257.056	209.12
257.289	236.12
257.521	228.12
257.754	225.12
257.987	231.12
258.22	208.12
258.452	212.12
258.685	217.12
258.918	220.12
259.151	233.12
259.383	235.12
259.616	233.12
259.849	236.12
260.081	246.12
260.314	271.12
260.547	277.12
260.779	247.12
261.012	235.12
261.244	244.12
261.477	245.12
261.71	226.12
261.942	226.12
262.175	231.12
262.407	233.12
262.64	225.12
262.872	222.12
263.105	225.12
263.337	232.12
263.57	238.12
263.802	242.12
264.035	222.12
264.267	215.12
264.499	215.12
264.732	228.12
264.964	225.12
265.197	227.12
265.429	257.12
265.661	231.12
265.894	230.12
266.126	231.12
266.358	249.12
266.591	257.12
266.823	238.12
267.055	242.12
267.287	253.12
267.52	237.12
267.752	246.12
267.984	249.12
268.216	258.12
268.448	253.12
268.681	262.12
268.913	259.12
269.145	271.12
269.377	295.12
269.609	300.12
269.841	294.12
270.073	299.12
270.306	307.12
270.538	327.12
270.77	345.12
271.002	347.12
271.234	304.12
271.466	316.12
271.698	325.12
271.93	339.12
272.162	320.12
272.394	335.12
272.626	323.12
272.858	301.12
273.09	298.12
273.322	319.12
273.553	297.12
273.785	286.12
274.017	285.12
274.249	290.12
274.481	275.12
274.713	283.12
274.945	271.12
275.176	288.12
275.408	290.12
275.64	289.12
275.872	294.12
276.104	294.12
276.335	298.12
276.567	313.12
276.799	303.12
277.031	312.12
277.262	333.12
277.494	343.12
277.726	333.12
277.957	316.12
278.189	300.12
278.421	294.12
278.652	301.12
278.884	289.12
279.115	318.12
279.347	301.12
279.579	309.12
279.81	316.12
280.042	305.12
280.273	308.12
280.505	292.12
280.736	284.12
280.968	306.12
281.199	309.12
281.431	309.12
281.662	308.12
281.894	300.12
282.125	312.12
282.356	326.12
282.588	314.12
282.819	323.12
283.051	311.12
283.282	292.12
283.513	309.12
283.745	295.12
283.976	323.12
284.207	328.12
284.439	334.12
284.67	322.12
284.901	332.12
285.132	329.12
285.364	319.12
285.595	297.12
285.826	327.12
286.057	318.12
286.288	307.12
286.52	321.12
286.751	323.12
286.982	310.12
287.213	322.12
287.444	311.12
287.675	331.12
287.906	345.12
288.138	333.12
288.369	338.12
288.6	351.12
288.831	333.12
289.062	336.12
289.293	338.12
289.524	325.12
289.755	330.12
289.986	327.12
290.217	330.12
290.448	328.12
290.679	331.12
290.91	342.12
291.141	335.12
291.371	325.12
291.602	335.12
291.833	336.12
292.064	320.12
292.295	346.12
292.526	332.12
292.757	346.12
292.987	330.12
293.218	327.12
293.449	328.12
293.68	330.12
293.91	330.12
294.141	346.12
294.372	346.12
294.603	334.12
294.833	323.12
295.064	329.12
295.295	333.12
295.525	318.12
295.756	346.12
295.987	348.12
296.217	360.12
296.448	369.12
296.679	360.12
296.909	346.12
297.14	337.12
297.37	345.12
297.601	341.12
297.831	346.12
298.062	348.12
298.292	339.12
298.523	356.12
298.753	347.12
298.984	350.12
299.214	360.12
299.445	348.12
299.675	337.12
299.905	338.12
300.136	349.12
300.366	349.12
300.597	359.12
300.827	367.12
301.057	377.12
301.288	366.12
301.518	363.12
301.748	360.12
301.979	360.12
302.209	360.12
302.439	395.12
302.669	383.12
302.9	343.12
303.13	361.12
303.36	371.12
303.59	385.12
303.82	382.12
304.051	380.12
304.281	371.12
304.511	356.12
304.741	353.12
304.971	378.12
305.201	377.12
305.431	363.12
305.661	369.12
305.891	367.12
306.121	382.12
306.352	380.12
306.582	367.12
306.812	383.12
307.042	372.12
307.272	379.12
307.502	372.12
307.731	393.12
307.961	399.12
308.191	373.12
308.421	379.12
308.651	400.12
308.881	381.12
309.111	389.12
309.341	388.12
309.571	391.12
309.8	378.12
310.03	379.12
310.26	408.12
310.49	411.12
310.72	395.12
310.949	413.12
311.179	428.12
311.409	405.12
311.639	415.12
311.868	401.12
312.098	403.12
312.328	424.12
312.557	422.12
312.787	422.12
313.017	437.12
313.246	418.12
313.476	413.12
313.706	415.12
313.935	412.12
314.165	420.12
314.394	404.12
314.624	431.12
314.853	432.12
315.083	413.12
315.312	420.12
315.542	429.12
315.771	394.12
316.001	422.12
316.23	435.12
316.46	410.12
316.689	422.12
316.919	439.12
317.148	417.12
317.377	420.12
317.607	418.12
317.836	423.12
318.065	412.12
318.295	414.12
318.524	424.12
318.753	406.12
318.983	423.12
319.212	401.12
319.441	435.12
319.67	431.12
319.9	405.12
320.129	407.12
320.358	420.12
320.587	432.12
320.816	420.12
321.046	443.12
321.275	437.12
321.504	436.12
321.733	445.12
321.962	437.12
322.191	432.12
322.42	457.12
322.649	460.12
322.878	463.12
323.108	487.12
323.337	485.12
323.566	492.12
323.795	519.12
324.024	544.12
324.253	641.12
324.482	859.12
324.71	1302.12
324.939	1793.12
325.168	1547.12
325.397	795.12
325.626	586.12
325.855	517.12
326.084	506.12
326.313	524.12
326.542	514.12
326.77	531.12
326.999	619.12
327.228	798.12
327.457	1146.12
327.686	1317.12
327.914	896.12
328.143	636.12
328.372	589.12
328.6	549.12
328.829	543.12
329.058	525.12
329.287	559.12
329.515	544.12
329.744	543.12
329.972	515.12
330.201	545.12
330.43	563.12
330.658	594.12
330.887	586.12
331.115	567.12
331.344	524.12
331.572	501.12
331.801	493.12
332.03	498.12
332.258	487.12
332.486	506.12
332.715	481.12
332.943	511.12
333.172	490.12
333.4	521.12
333.629	505.12
333.857	523.12
334.085	532.12
334.314	556.12
334.542	586.12
334.771	556.12
334.999	533.12
335.227	527.12
335.455	505.12
335.684	499.12
335.912	505.12
336.14	507.12
336.369	491.12
336.597	505.12
336.825	514.12
337.053	485.12
337.281	495.12
337.51	478.12
337.738	487.12
337.966	486.12
338.194	499.12
338.422	495.12
338.65	470.12
338.878	485.12
339.106	491.12
339.334	472.12
339.562	469.12
339.79	456.12
340.018	473.12
340.246	454.12
340.474	456.12
340.702	479.12
340.93	457.12
341.158	466.12
341.386	473.12
341.614	474.12
341.842	469.12
342.07	451.12
342.298	448.12
342.526	450.12
342.754	422.12
342.981	445.12
343.209	459.12
343.437	452.12
343.665	471.12
343.893	462.12
344.12	487.12
344.348	487.12
344.576	485.12
344.804	475.12
345.031	456.12
345.259	468.12
345.487	464.12
345.714	457.12
345.942	452.12
346.17	455.12
346.397	481.12
346.625	438.12
346.853	443.12
347.08	434.12
347.308	439.12
347.535	449.12
347.763	459.12
347.99	425.12
348.218	452.12
348.445	438.12
348.673	447.12
348.9	462.12
349.128	438.12
349.355	423.12
349.583	409.12
349.81	409.12
350.037	416.12
350.265	407.12
350.492	427.12
350.72	434.12
350.947	435.12
351.174	441.12
351.402	440.12
351.629	424.12
351.856	428.12
352.083	448.12
352.311	447.12
352.538	439.12
352.765	425.12
352.992	438.12
353.22	441.12
353.447	417.12
353.674	419.12
353.901	418.12
354.128	426.12
354.355	398.12
354.583	411.12
354.81	422.12
355.037	405.12
355.264	421.12
355.491	420.12
355.718	398.12
355.945	397.12
356.172	417.12
356.399	419.12
356.626	399.12
356.853	399.12
357.08	419.12
357.307	400.12
357.534	411.12
357.761	416.12
357.988	410.12
358.215	417.12
358.441	403.12
358.668	414.12
358.895	426.12
359.122	396.12
359.349	411.12
359.576	426.12
359.802	454.12
360.029	461.12
360.256	458.12
360.483	430.12
360.709	423.12
360.936	442.12
361.163	414.12
361.39	426.12
361.616	418.12
361.843	422.12
362.07	430.12
362.296	435.12
362.523	406.12
362.749	420.12
362.976	400.12
363.203	399.12
363.429	411.12
363.656	405.12
363.882	401.12
364.109	433.12
364.335	411.12
364.562	411.12
364.788	415.12
365.015	391.12
365.241	434.12
365.468	409.12
365.694	409.12
365.92	406.12
366.147	396.12
366.373	418.12
366.599	403.12
366.826	405.12
367.052	406.12
367.278	406.12
367.505	402.12
367.731	389.12
367.957	395.12
368.184	418.12
368.41	424.12
368.636	394.12
368.862	434.12
369.089	412.12
369.315	410.12
369.541	403.12
369.767	404.12
369.993	392.12
370.219	383.12
370.445	399.12
370.672	394.12
370.898	394.12
371.124	424.12
371.35	411.12
371.576	403.12
371.802	428.12
372.028	407.12
372.254	415.12
372.48	428.12
372.706	415.12
372.932	423.12
373.158	421.12
373.384	388.12
373.61	382.12
373.835	415.12
374.061	405.12
374.287	414.12
374.513	420.12
374.739	420.12
374.965	426.12
375.191	413.12
375.416	424.12
375.642	426.12
375.868	409.12
376.094	402.12
376.319	426.12
376.545	379.12
376.771	405.12
376.997	394.12
377.222	392.12
377.448	414.12
377.674	393.12
377.899	398.12
378.125	403.12
378.35	398.12
378.576	411.12
378.802	407.12
379.027	397.12
379.253	390.12
379.478	392.12
379.704	411.12
379.929	406.12
380.155	413.12
380.38	394.12
380.606	420.12
380.831	398.12
381.057	411.12
381.282	412.12
381.507	398.12
381.733	408.12
381.958	406.12
382.184	417.12
382.409	398.12
382.634	417.12
382.86	405.12
383.085	421.12
383.31	421.12
383.535	417.12
383.761	422.12
383.986	422.12
384.211	428.12
384.436	454.12
384.662	448.12
384.887	426.12
385.112	423.12
385.337	445.12
385.562	433.12
385.787	428.12
386.013	436.12
386.238	440.12
386.463	446.12
386.688	445.12
386.913	433.12
387.138	424.12
387.363	439.12
387.588	437.12
387.813	428.12
388.038	440.12
388.263	422.12
388.488	441.12
388.713	444.12
388.938	432.12
389.163	455.12
389.387	436.12
389.612	411.12
389.837	421.12
390.062	417.12
390.287	447.12
390.512	444.12
390.736	463.12
390.961	444.12
391.186	443.12
391.411	440.12
391.636	449.12
391.86	453.12
392.085	444.12
392.31	450.12
392.534	467.12
392.759	448.12
392.984	452.12
393.208	446.12
393.433	461.12
393.658	444.12
393.882	438.12
394.107	448.12
394.331	449.12
394.556	443.12
394.78	435.12
395.005	450.12
395.229	430.12
395.454	449.12
395.678	469.12
395.903	456.12
396.127	462.12
396.352	470.12
396.576	456.12
396.801	426.12
397.025	461.12
397.249	469.12
397.474	486.12
397.698	461.12
397.922	486.12
398.147	472.12
398.371	492.12
398.595	466.12
398.82	478.12
399.044	496.12
399.268	522.12
399.492	530.12
399.717	584.12
399.941	636.12
400.165	625.12
400.389	620.12
400.613	558.12
400.837	531.12
401.062	551.12
401.286	518.12
401.51	507.12
401.734	501.12
401.958	495.12
402.182	497.12
402.406	495.12
402.63	513.12
402.854	504.12
403.078	522.12
403.302	506.12
403.526	521.12
403.75	517.12
403.974	517.12
404.198	508.12
404.422	524.12
404.645	537.12
404.869	525.12
405.093	556.12
405.317	567.12
405.541	598.12
405.765	550.12
405.988	542.12
406.212	532.12
406.436	547.12
406.66	567.12
406.883	540.12
407.107	590.12
407.331	605.12
407.555	673.12
407.778	635.12
408.002	599.12
408.226	577.12
408.449	555.12
408.673	550.12
408.896	583.12
409.12	595.12
409.344	582.12
409.567	521.12
409.791	545.12
410.014	535.12
410.238	492.12
410.461	500.12
410.685	497.12
410.908	510.12
411.132	558.12
411.355	580.12
411.578	544.12
411.802	535.12
412.025	497.12
412.249	507.12
412.472	504.12
412.695	550.12
412.919	556.12
413.142	506.12
413.365	488.12
413.589	510.12
413.812	487.12
414.035	486.12
414.258	484.12
414.482	471.12
414.705	484.12
414.928	485.12
415.151	479.12
415.374	478.12
415.597	510.12
415.821	467.12
416.044	459.12
416.267	467.12
416.49	473.12
416.713	463.12
416.936	482.12
417.159	480.12
417.382	467.12
417.605	480.12
417.828	475.12
418.051	484.12
418.274	521.12
418.497	480.12
418.72	469.12
418.943	495.12
419.166	479.12
419.389	514.12
419.611	502.12
419.834	511.12
420.057	498.12
420.28	521.12
420.503	480.12
420.726	486.12
420.948	490.12
421.171	516.12
421.394	573.12
421.617	471.12
421.839	469.12
422.062	489.12
422.285	483.12
422.507	531.12
422.73	597.12
422.953	577.12
423.175	526.12
423.398	494.12
423.621	483.12
423.843	508.12
424.066	519.12
424.288	547.12
424.511	543.12
424.733	566.12
424.956	639.12
425.178	625.12
425.401	620.12
425.623	599.12
425.846	544.12
426.068	508.12
426.291	500.12
426.513	485.12
426.735	516.12
426.958	539.12
427.18	599.12
427.402	680.12
427.625	743.12
427.847	665.12
428.069	601.12
428.292	547.12
428.514	494.12
428.736	480.12
428.958	486.12
429.181	462.12
429.403	460.12
429.625	467.12
429.847	507.12
430.069	538.12
430.292	554.12
430.514	476.12
430.736	453.12
430.958	461.12
431.18	460.12
431.402	460.12
431.624	456.12
431.846	459.12
432.068	441.12
432.29	452.12
432.512	461.12
432.734	465.12
432.956	473.12
433.178	469.12
433.4	468.12
433.622	444.12
433.844	452.12
434.066	470.12
434.287	466.12
434.509	453.12
434.731	470.12
434.953	476.12
435.175	477.12
435.397	506.12
435.618	513.12
435.84	556.12
436.062	605.12
436.284	656.12
436.505	565.12
436.727	513.12
436.949	465.12
437.17	478.12
437.392	454.12
437.614	470.12
437.835	518.12
438.057	581.12
438.278	660.12
438.5	611.12
438.721	691.12
438.943	662.12
439.165	535.12
439.386	488.12
439.608	489.12
439.829	497.12
440.05	512.12
440.272	555.12
440.493	513.12
440.715	482.12
440.936	493.12
441.158	473.12
441.379	474.12
441.6	491.12
441.822	513.12
442.043	542.12
442.264	606.12
442.486	632.12
442.707	553.12
442.928	526.12
443.149	519.12
443.371	533.12
443.592	567.12
443.813	644.12
444.034	695.12
444.255	590.12
444.476	519.12
444.698	521.12
444.919	522.12
445.14	674.12
445.361	582.12
445.582	551.12
445.803	627.12
446.024	661.12
446.245	656.12
446.466	601.12
446.687	526.12
446.908	497.12
447.129	484.12
447.35	452.12
447.571	457.12
447.792	459.12
448.013	470.12
448.234	469.12
448.455	524.12
448.675	631.12
448.896	683.12
449.117	610.12
449.338	539.12
449.559	637.12
449.779	713.12
450	581.12
450.221	484.12
450.442	457.12
450.662	462.12
450.883	436.12
451.104	449.12
451.324	442.12
451.545	441.12
451.766	421.12
451.986	411.12
452.207	407.12
452.428	413.12
452.648	430.12
452.869	417.12
453.089	418.12
453.31	444.12
453.53	414.12
453.751	412.12
453.971	424.12
454.192	407.12
454.412	428.12
454.633	406.12
454.853	390.12
455.073	419.12
455.294	435.12
455.514	474.12
455.734	457.12
455.955	416.12
456.175	403.12
456.395	386.12
456.616	385.12
456.836	393.12
457.056	399.12
457.276	382.12
457.497	391.12
457.717	376.12
457.937	397.12
458.157	393.12
458.377	400.12
458.598	422.12
458.818	485.12
459.038	523.12
459.258	551.12
459.478	459.12
459.698	443.12
459.918	454.12
460.138	458.12
460.358	458.12
460.578	446.12
460.798	447.12
461.018	472.12
461.238	463.12
461.458	456.12
461.678	446.12
461.898	452.12
462.118	463.12
462.338	461.12
462.558	467.12
462.777	476.12
462.997	492.12
463.217	526.12
463.437	513.12
463.657	499.12
463.876	489.12
464.096	509.12
464.316	503.12
464.536	517.12
464.755	492.12
464.975	479.12
465.195	503.12
465.414	533.12
465.634	463.12
465.854	468.12
466.073	443.12
466.293	430.12
466.512	433.12
466.732	425.12
466.951	416.12
467.171	397.12
467.391	405.12
467.61	427.12
467.829	436.12
468.049	413.12
468.268	443.12
468.488	425.12
468.707	408.12
468.927	408.12
469.146	405.12
469.365	405.12
469.585	406.12
469.804	420.12
470.023	429.12
470.243	419.12
470.462	439.12
470.681	439.12
470.901	435.12
471.12	436.12
471.339	441.12
471.558	429.12
471.777	414.12
471.997	410.12
472.216	450.12
472.435	453.12
472.654	447.12
472.873	430.12
473.092	424.12
473.311	400.12
473.53	432.12
473.749	446.12
473.968	464.12
474.187	563.12
474.406	550.12
474.625	462.12
474.844	437.12
475.063	421.12
475.282	429.12
475.501	426.12
475.72	423.12
475.939	415.12
476.158	445.12
476.377	433.12
476.596	442.12
476.814	435.12
477.033	468.12
477.252	463.12
477.471	465.12
477.69	452.12
477.908	460.12
478.127	466.12
478.346	446.12
478.564	454.12
478.783	453.12
479.002	499.12
479.22	498.12
479.439	520.12
479.658	521.12
479.876	497.12
480.095	520.12
480.313	546.12
480.532	519.12
480.751	516.12
480.969	538.12
481.188	568.12
481.406	583.12
481.624	548.12
481.843	529.12
482.061	503.12
482.28	492.12
482.498	497.12
482.717	491.12
482.935	475.12
483.153	476.12
483.372	489.12
483.59	504.12
483.808	487.12
484.027	507.12
484.245	506.12
484.463	476.12
484.681	478.12
484.9	500.12
485.118	503.12
485.336	489.12
485.554	523.12
485.772	499.12
485.99	488.12
486.209	521.12
486.427	491.12
486.645	514.12
486.863	518.12
487.081	517.12
487.299	508.12
487.517	512.12
487.735	536.12
487.953	517.12
488.171	521.12
488.389	533.12
488.607	519.12
488.825	527.12
489.043	523.12
489.261	545.12
489.479	519.12
489.696	548.12
489.914	520.12
490.132	551.12
490.35	525.12
490.568	541.12
490.786	551.12
491.003	553.12
491.221	579.12
491.439	575.12
491.657	571.12
491.874	596.12
492.092	580.12
492.31	600.12
492.527	587.12
492.745	597.12
492.963	602.12
493.18	601.12
493.398	608.12
493.615	611.12
493.833	602.12
494.05	605.12
494.268	601.12
494.485	626.12
494.703	612.12
494.92	629.12
495.138	605.12
495.355	617.12
495.573	608.12
495.79	625.12
496.008	599.12
496.225	601.12
496.442	591.12
496.66	598.12
496.877	615.12
497.094	630.12
497.312	618.12
497.529	638.12
497.746	659.12
497.963	650.12
498.181	674.12
498.398	665.12
498.615	723.12
498.832	711.12
499.049	729.12
499.267	730.12
499.484	782.12
499.701	827.12
499.918	840.12
500.135	883.12
500.352	945.12
500.569	942.12
500.786	955.12
501.003	917.12
501.22	905.12
501.437	871.12
501.654	804.12
501.871	780.12
502.088	760.12
