Data from 1964.PennyLincolnUp.Lamp.En5.5.200Scan.071719.P1._HRD10591_14-04-03-908.txt Node
Date: Thu Jul 18 14:04:03 EDT 2019
User: cochatt
Spectrometer: HR+D1059
Trigger mode: 1
Integration Time (sec): 1.000000E-1
Scans to average: 1
Electric dark correction enabled: true
Nonlinearity correction enabled: false
Boxcar width: 0
XAxis mode: Wavelengths
Number of Pixels in Spectrum: 2048
>>>>>Begin Spectral Data<<<<<
223.165	-26.5
223.4	-26.5
223.635	-26.5
223.869	-8.5
224.104	-17.5
224.338	-3.5
224.573	-4.5
224.808	-20.5
225.042	-15.5
225.277	-15.5
225.511	16.5
225.746	-11.5
225.98	13.5
226.215	3.5
226.449	17.5
226.683	26.5
226.918	8.5
227.152	37.5
227.387	27.5
227.621	42.5
227.856	49.5
228.09	40.5
228.324	50.5
228.559	38.5
228.793	60.5
229.027	99.5
229.262	84.5
229.496	102.5
229.73	111.5
229.964	114.5
230.199	121.5
230.433	103.5
230.667	118.5
230.901	118.5
231.136	111.5
231.37	98.5
231.604	107.5
231.838	100.5
232.072	100.5
232.306	87.5
232.541	82.5
232.775	103.5
233.009	97.5
233.243	104.5
233.477	104.5
233.711	99.5
233.945	106.5
234.179	122.5
234.413	106.5
234.647	102.5
234.881	114.5
235.115	107.5
235.349	122.5
235.583	104.5
235.817	100.5
236.051	120.5
236.285	105.5
236.519	111.5
236.753	120.5
236.987	135.5
237.221	162.5
237.455	190.5
237.689	143.5
237.922	106.5
238.156	107.5
238.39	106.5
238.624	128.5
238.858	134.5
239.091	124.5
239.325	95.5
239.559	107.5
239.793	104.5
240.027	121.5
240.26	132.5
240.494	136.5
240.728	146.5
240.961	130.5
241.195	121.5
241.429	126.5
241.662	128.5
241.896	122.5
242.13	126.5
242.363	121.5
242.597	130.5
242.83	139.5
243.064	127.5
243.298	143.5
243.531	137.5
243.765	139.5
243.998	121.5
244.232	138.5
244.465	130.5
244.699	130.5
244.932	153.5
245.166	149.5
245.399	141.5
245.633	130.5
245.866	136.5
246.099	132.5
246.333	135.5
246.566	135.5
246.8	146.5
247.033	146.5
247.266	159.5
247.5	136.5
247.733	163.5
247.966	161.5
248.2	155.5
248.433	159.5
248.666	155.5
248.899	167.5
249.133	180.5
249.366	188.5
249.599	167.5
249.832	164.5
250.066	168.5
250.299	196.5
250.532	169.5
250.765	182.5
250.998	191.5
251.231	204.5
251.465	192.5
251.698	183.5
251.931	182.5
252.164	171.5
252.397	179.5
252.63	184.5
252.863	183.5
253.096	199.5
253.329	198.5
253.562	190.5
253.795	206.5
254.028	191.5
254.261	209.5
254.494	213.5
254.727	223.5
254.96	252.5
255.193	232.5
255.426	236.5
255.659	224.5
255.892	225.5
256.124	209.5
256.357	210.5
256.59	210.5
256.823	224.5
257.056	184.5
257.289	210.5
257.521	192.5
257.754	209.5
257.987	190.5
258.22	198.5
258.452	194.5
258.685	203.5
258.918	213.5
259.151	192.5
259.383	194.5
259.616	205.5
259.849	214.5
260.081	196.5
260.314	212.5
260.547	229.5
260.779	238.5
261.012	224.5
261.244	216.5
261.477	214.5
261.71	224.5
261.942	224.5
262.175	217.5
262.407	197.5
262.64	204.5
262.872	201.5
263.105	207.5
263.337	205.5
263.57	215.5
263.802	203.5
264.035	225.5
264.267	222.5
264.499	210.5
264.732	208.5
264.964	215.5
265.197	201.5
265.429	203.5
265.661	209.5
265.894	202.5
266.126	226.5
266.358	237.5
266.591	212.5
266.823	230.5
267.055	229.5
267.287	235.5
267.52	216.5
267.752	225.5
267.984	236.5
268.216	223.5
268.448	222.5
268.681	236.5
268.913	262.5
269.145	245.5
269.377	256.5
269.609	288.5
269.841	265.5
270.073	254.5
270.306	259.5
270.538	282.5
270.77	283.5
271.002	290.5
271.234	288.5
271.466	271.5
271.698	289.5
271.93	288.5
272.162	278.5
272.394	290.5
272.626	287.5
272.858	274.5
273.09	272.5
273.322	265.5
273.553	278.5
273.785	246.5
274.017	252.5
274.249	261.5
274.481	250.5
274.713	260.5
274.945	264.5
275.176	270.5
275.408	263.5
275.64	268.5
275.872	259.5
276.104	260.5
276.335	262.5
276.567	258.5
276.799	284.5
277.031	280.5
277.262	287.5
277.494	308.5
277.726	284.5
277.957	280.5
278.189	296.5
278.421	259.5
278.652	274.5
278.884	270.5
279.115	272.5
279.347	278.5
279.579	277.5
279.81	276.5
280.042	267.5
280.273	264.5
280.505	275.5
280.736	266.5
280.968	269.5
281.199	283.5
281.431	288.5
281.662	278.5
281.894	272.5
282.125	296.5
282.356	286.5
282.588	293.5
282.819	307.5
283.051	302.5
283.282	281.5
283.513	272.5
283.745	278.5
283.976	312.5
284.207	291.5
284.439	280.5
284.67	275.5
284.901	280.5
285.132	287.5
285.364	276.5
285.595	287.5
285.826	267.5
286.057	294.5
286.288	278.5
286.52	303.5
286.751	287.5
286.982	286.5
287.213	284.5
287.444	312.5
287.675	299.5
287.906	296.5
288.138	289.5
288.369	282.5
288.6	310.5
288.831	305.5
289.062	297.5
289.293	282.5
289.524	290.5
289.755	307.5
289.986	307.5
290.217	296.5
290.448	308.5
290.679	295.5
290.91	310.5
291.141	315.5
291.371	290.5
291.602	298.5
291.833	289.5
292.064	310.5
292.295	279.5
292.526	290.5
292.757	306.5
292.987	310.5
293.218	287.5
293.449	318.5
293.68	298.5
293.91	292.5
294.141	305.5
294.372	298.5
294.603	314.5
294.833	314.5
295.064	307.5
295.295	321.5
295.525	295.5
295.756	322.5
295.987	319.5
296.217	324.5
296.448	306.5
296.679	308.5
296.909	312.5
297.14	324.5
297.37	314.5
297.601	313.5
297.831	323.5
298.062	318.5
298.292	308.5
298.523	324.5
298.753	310.5
298.984	329.5
299.214	319.5
299.445	327.5
299.675	312.5
299.905	332.5
300.136	321.5
300.366	320.5
300.597	332.5
300.827	341.5
301.057	308.5
301.288	338.5
301.518	320.5
301.748	332.5
301.979	342.5
302.209	347.5
302.439	350.5
302.669	344.5
302.9	344.5
303.13	335.5
303.36	338.5
303.59	352.5
303.82	343.5
304.051	344.5
304.281	352.5
304.511	336.5
304.741	339.5
304.971	342.5
305.201	344.5
305.431	342.5
305.661	335.5
305.891	337.5
306.121	352.5
306.352	360.5
306.582	326.5
306.812	346.5
307.042	341.5
307.272	330.5
307.502	326.5
307.731	325.5
307.961	348.5
308.191	348.5
308.421	339.5
308.651	341.5
308.881	343.5
309.111	350.5
309.341	339.5
309.571	338.5
309.8	360.5
310.03	365.5
310.26	358.5
310.49	342.5
310.72	375.5
310.949	373.5
311.179	381.5
311.409	363.5
311.639	376.5
311.868	374.5
312.098	365.5
312.328	362.5
312.557	392.5
312.787	380.5
313.017	383.5
313.246	388.5
313.476	383.5
313.706	388.5
313.935	384.5
314.165	380.5
314.394	379.5
314.624	381.5
314.853	373.5
315.083	387.5
315.312	377.5
315.542	364.5
315.771	372.5
316.001	382.5
316.23	375.5
316.46	382.5
316.689	385.5
316.919	382.5
317.148	375.5
317.377	383.5
317.607	376.5
317.836	395.5
318.065	377.5
318.295	371.5
318.524	375.5
318.753	361.5
318.983	363.5
319.212	380.5
319.441	390.5
319.67	385.5
319.9	362.5
320.129	374.5
320.358	369.5
320.587	375.5
320.816	387.5
321.046	397.5
321.275	382.5
321.504	371.5
321.733	395.5
321.962	406.5
322.191	395.5
322.42	393.5
322.649	419.5
322.878	394.5
323.108	405.5
323.337	431.5
323.566	432.5
323.795	451.5
324.024	456.5
324.253	543.5
324.482	726.5
324.71	1014.5
324.939	1366.5
325.168	1147.5
325.397	624.5
325.626	492.5
325.855	442.5
326.084	444.5
326.313	425.5
326.542	430.5
326.77	471.5
326.999	515.5
327.228	672.5
327.457	912.5
327.686	1036.5
327.914	721.5
328.143	500.5
328.372	473.5
328.6	472.5
328.829	480.5
329.058	456.5
329.287	481.5
329.515	449.5
329.744	451.5
329.972	446.5
330.201	477.5
330.43	483.5
330.658	490.5
330.887	502.5
331.115	472.5
331.344	453.5
331.572	430.5
331.801	480.5
332.03	443.5
332.258	433.5
332.486	429.5
332.715	425.5
332.943	451.5
333.172	472.5
333.4	449.5
333.629	464.5
333.857	464.5
334.085	475.5
334.314	485.5
334.542	507.5
334.771	515.5
334.999	478.5
335.227	482.5
335.455	452.5
335.684	448.5
335.912	438.5
336.14	460.5
336.369	449.5
336.597	455.5
336.825	434.5
337.053	416.5
337.281	428.5
337.51	429.5
337.738	441.5
337.966	442.5
338.194	439.5
338.422	425.5
338.65	428.5
338.878	436.5
339.106	414.5
339.334	415.5
339.562	431.5
339.79	412.5
340.018	434.5
340.246	418.5
340.474	412.5
340.702	416.5
340.93	412.5
341.158	412.5
341.386	402.5
341.614	423.5
341.842	430.5
342.07	425.5
342.298	420.5
342.526	395.5
342.754	394.5
342.981	396.5
343.209	388.5
343.437	435.5
343.665	432.5
343.893	422.5
344.12	449.5
344.348	443.5
344.576	455.5
344.804	450.5
345.031	446.5
345.259	409.5
345.487	416.5
345.714	421.5
345.942	425.5
346.17	398.5
346.397	425.5
346.625	407.5
346.853	408.5
347.08	390.5
347.308	404.5
347.535	410.5
347.763	391.5
347.99	387.5
348.218	390.5
348.445	397.5
348.673	400.5
348.9	393.5
349.128	382.5
349.355	404.5
349.583	380.5
349.81	376.5
350.037	413.5
350.265	371.5
350.492	384.5
350.72	392.5
350.947	369.5
351.174	393.5
351.402	385.5
351.629	400.5
351.856	376.5
352.083	403.5
352.311	397.5
352.538	389.5
352.765	393.5
352.992	395.5
353.22	379.5
353.447	393.5
353.674	386.5
353.901	383.5
354.128	383.5
354.355	366.5
354.583	394.5
354.81	369.5
355.037	382.5
355.264	368.5
355.491	384.5
355.718	363.5
355.945	390.5
356.172	373.5
356.399	384.5
356.626	377.5
356.853	384.5
357.08	372.5
357.307	380.5
357.534	369.5
357.761	366.5
357.988	390.5
358.215	366.5
358.441	375.5
358.668	371.5
358.895	368.5
359.122	378.5
359.349	376.5
359.576	388.5
359.802	411.5
360.029	394.5
360.256	410.5
360.483	385.5
360.709	370.5
360.936	400.5
361.163	383.5
361.39	380.5
361.616	369.5
361.843	376.5
362.07	371.5
362.296	396.5
362.523	380.5
362.749	370.5
362.976	389.5
363.203	392.5
363.429	385.5
363.656	372.5
363.882	371.5
364.109	368.5
364.335	368.5
364.562	362.5
364.788	358.5
365.015	362.5
365.241	373.5
365.468	381.5
365.694	392.5
365.92	369.5
366.147	362.5
366.373	374.5
366.599	353.5
366.826	359.5
367.052	359.5
367.278	369.5
367.505	338.5
367.731	359.5
367.957	345.5
368.184	379.5
368.41	374.5
368.636	366.5
368.862	390.5
369.089	369.5
369.315	379.5
369.541	376.5
369.767	389.5
369.993	376.5
370.219	393.5
370.445	386.5
370.672	373.5
370.898	382.5
371.124	373.5
371.35	397.5
371.576	383.5
371.802	371.5
372.028	373.5
372.254	376.5
372.48	385.5
372.706	380.5
372.932	402.5
373.158	389.5
373.384	366.5
373.61	359.5
373.835	384.5
374.061	366.5
374.287	355.5
374.513	382.5
374.739	382.5
374.965	393.5
375.191	385.5
375.416	390.5
375.642	360.5
375.868	384.5
376.094	362.5
376.319	371.5
376.545	380.5
376.771	370.5
376.997	375.5
377.222	376.5
377.448	372.5
377.674	358.5
377.899	365.5
378.125	381.5
378.35	392.5
378.576	378.5
378.802	379.5
379.027	387.5
379.253	374.5
379.478	356.5
379.704	371.5
379.929	371.5
380.155	386.5
380.38	366.5
380.606	379.5
380.831	363.5
381.057	373.5
381.282	374.5
381.507	374.5
381.733	355.5
381.958	384.5
382.184	368.5
382.409	380.5
382.634	388.5
382.86	383.5
383.085	374.5
383.31	383.5
383.535	392.5
383.761	385.5
383.986	387.5
384.211	407.5
384.436	403.5
384.662	388.5
384.887	422.5
385.112	401.5
385.337	407.5
385.562	405.5
385.787	420.5
386.013	424.5
386.238	405.5
386.463	411.5
386.688	404.5
386.913	424.5
387.138	407.5
387.363	407.5
387.588	403.5
387.813	406.5
388.038	409.5
388.263	400.5
388.488	412.5
388.713	403.5
388.938	400.5
389.163	410.5
389.387	392.5
389.612	396.5
389.837	388.5
390.062	406.5
390.287	410.5
390.512	403.5
390.736	396.5
390.961	426.5
391.186	390.5
391.411	419.5
391.636	431.5
391.86	427.5
392.085	432.5
392.31	421.5
392.534	417.5
392.759	422.5
392.984	409.5
393.208	402.5
393.433	433.5
393.658	403.5
393.882	400.5
394.107	417.5
394.331	405.5
394.556	403.5
394.78	417.5
395.005	416.5
395.229	423.5
395.454	421.5
395.678	436.5
395.903	434.5
396.127	444.5
396.352	441.5
396.576	427.5
396.801	427.5
397.025	421.5
397.249	435.5
397.474	424.5
397.698	444.5
397.922	430.5
398.147	424.5
398.371	459.5
398.595	452.5
398.82	482.5
399.044	487.5
399.268	481.5
399.492	506.5
399.717	541.5
399.941	591.5
400.165	568.5
400.389	561.5
400.613	522.5
400.837	465.5
401.062	479.5
401.286	451.5
401.51	458.5
401.734	431.5
401.958	439.5
402.182	472.5
402.406	440.5
402.63	441.5
402.854	466.5
403.078	480.5
403.302	478.5
403.526	490.5
403.75	465.5
403.974	472.5
404.198	482.5
404.422	492.5
404.645	484.5
404.869	464.5
405.093	498.5
405.317	524.5
405.541	565.5
405.765	490.5
405.988	493.5
406.212	500.5
406.436	523.5
406.66	508.5
406.883	506.5
407.107	518.5
407.331	562.5
407.555	608.5
407.778	583.5
408.002	534.5
408.226	502.5
408.449	508.5
408.673	503.5
408.896	528.5
409.12	551.5
409.344	524.5
409.567	496.5
409.791	476.5
410.014	474.5
410.238	463.5
410.461	449.5
410.685	478.5
410.908	492.5
411.132	510.5
411.355	510.5
411.578	489.5
411.802	466.5
412.025	470.5
412.249	476.5
412.472	495.5
412.695	514.5
412.919	500.5
413.142	458.5
413.365	438.5
413.589	457.5
413.812	430.5
414.035	451.5
414.258	446.5
414.482	434.5
414.705	436.5
414.928	447.5
415.151	427.5
415.374	463.5
415.597	423.5
415.821	440.5
416.044	431.5
416.267	436.5
416.49	419.5
416.713	415.5
416.936	442.5
417.159	434.5
417.382	438.5
417.605	434.5
417.828	439.5
418.051	444.5
418.274	410.5
418.497	423.5
418.72	436.5
418.943	428.5
419.166	446.5
419.389	477.5
419.611	485.5
419.834	491.5
420.057	466.5
420.28	455.5
420.503	444.5
420.726	457.5
420.948	456.5
421.171	464.5
421.394	491.5
421.617	466.5
421.839	448.5
422.062	443.5
422.285	447.5
422.507	507.5
422.73	535.5
422.953	498.5
423.175	476.5
423.398	474.5
423.621	450.5
423.843	476.5
424.066	478.5
424.288	492.5
424.511	493.5
424.733	512.5
424.956	571.5
425.178	549.5
425.401	548.5
425.623	555.5
425.846	481.5
426.068	456.5
426.291	465.5
426.513	447.5
426.735	464.5
426.958	503.5
427.18	552.5
427.402	632.5
427.625	690.5
427.847	587.5
428.069	505.5
428.292	465.5
428.514	440.5
428.736	431.5
428.958	439.5
429.181	401.5
429.403	422.5
429.625	428.5
429.847	467.5
430.069	485.5
430.292	490.5
430.514	441.5
430.736	424.5
430.958	388.5
431.18	387.5
431.402	425.5
431.624	401.5
431.846	405.5
432.068	407.5
432.29	395.5
432.512	409.5
432.734	410.5
432.956	402.5
433.178	408.5
433.4	410.5
433.622	411.5
433.844	437.5
434.066	407.5
434.287	426.5
434.509	406.5
434.731	418.5
434.953	421.5
435.175	456.5
435.397	456.5
435.618	462.5
435.84	477.5
436.062	552.5
436.284	584.5
436.505	480.5
436.727	459.5
436.949	427.5
437.17	415.5
437.392	449.5
437.614	436.5
437.835	455.5
438.057	516.5
438.278	554.5
438.5	586.5
438.721	654.5
438.943	584.5
439.165	468.5
439.386	428.5
439.608	457.5
439.829	426.5
440.05	450.5
440.272	486.5
440.493	468.5
440.715	436.5
440.936	446.5
441.158	426.5
441.379	437.5
441.6	448.5
441.822	459.5
442.043	469.5
442.264	546.5
442.486	570.5
442.707	498.5
442.928	471.5
443.149	482.5
443.371	474.5
443.592	502.5
443.813	550.5
444.034	588.5
444.255	524.5
444.476	471.5
444.698	469.5
444.919	471.5
445.14	614.5
445.361	536.5
445.582	494.5
445.803	521.5
446.024	575.5
446.245	602.5
446.466	538.5
446.687	461.5
446.908	438.5
447.129	438.5
447.35	426.5
447.571	431.5
447.792	418.5
448.013	414.5
448.234	450.5
448.455	455.5
448.675	523.5
448.896	619.5
449.117	518.5
449.338	528.5
449.559	566.5
449.779	653.5
450	514.5
450.221	434.5
450.442	410.5
450.662	414.5
450.883	407.5
451.104	407.5
451.324	385.5
451.545	387.5
451.766	392.5
451.986	366.5
452.207	383.5
452.428	382.5
452.648	387.5
452.869	364.5
453.089	360.5
453.31	372.5
453.53	375.5
453.751	352.5
453.971	378.5
454.192	363.5
454.412	374.5
454.633	372.5
454.853	388.5
455.073	358.5
455.294	396.5
455.514	424.5
455.734	411.5
455.955	362.5
456.175	386.5
456.395	364.5
456.616	354.5
456.836	360.5
457.056	341.5
457.276	343.5
457.497	347.5
457.717	372.5
457.937	363.5
458.157	377.5
458.377	378.5
458.598	389.5
458.818	407.5
459.038	444.5
459.258	479.5
459.478	422.5
459.698	395.5
459.918	411.5
460.138	440.5
460.358	416.5
460.578	434.5
460.798	428.5
461.018	439.5
461.238	442.5
461.458	446.5
461.678	435.5
461.898	436.5
462.118	417.5
462.338	436.5
462.558	459.5
462.777	461.5
462.997	476.5
463.217	480.5
463.437	482.5
463.657	462.5
463.876	446.5
464.096	449.5
464.316	456.5
464.536	436.5
464.755	465.5
464.975	441.5
465.195	467.5
465.414	475.5
465.634	455.5
465.854	432.5
466.073	407.5
466.293	388.5
466.512	383.5
466.732	375.5
466.951	404.5
467.171	396.5
467.391	397.5
467.61	371.5
467.829	395.5
468.049	371.5
468.268	385.5
468.488	376.5
468.707	376.5
468.927	403.5
469.146	375.5
469.365	393.5
469.585	382.5
469.804	389.5
470.023	375.5
470.243	362.5
470.462	404.5
470.681	422.5
470.901	401.5
471.12	384.5
471.339	397.5
471.558	404.5
471.777	404.5
471.997	407.5
472.216	380.5
472.435	396.5
472.654	407.5
472.873	379.5
473.092	399.5
473.311	384.5
473.53	367.5
473.749	412.5
473.968	424.5
474.187	487.5
474.406	506.5
474.625	425.5
474.844	380.5
475.063	396.5
475.282	393.5
475.501	398.5
475.72	405.5
475.939	411.5
476.158	412.5
476.377	398.5
476.596	405.5
476.814	421.5
477.033	396.5
477.252	406.5
477.471	412.5
477.69	411.5
477.908	414.5
478.127	445.5
478.346	425.5
478.564	457.5
478.783	446.5
479.002	431.5
479.22	433.5
479.439	470.5
479.658	447.5
479.876	460.5
480.095	481.5
480.313	492.5
480.532	515.5
480.751	473.5
480.969	485.5
481.188	515.5
481.406	510.5
481.624	467.5
481.843	464.5
482.061	452.5
482.28	457.5
482.498	438.5
482.717	438.5
482.935	450.5
483.153	460.5
483.372	447.5
483.59	438.5
483.808	435.5
484.027	450.5
484.245	453.5
484.463	457.5
484.681	457.5
484.9	462.5
485.118	470.5
485.336	452.5
485.554	455.5
485.772	469.5
485.99	466.5
486.209	450.5
486.427	461.5
486.645	470.5
486.863	462.5
487.081	472.5
487.299	476.5
487.517	459.5
487.735	466.5
487.953	474.5
488.171	483.5
488.389	479.5
488.607	444.5
488.825	479.5
489.043	482.5
489.261	493.5
489.479	478.5
489.696	491.5
489.914	480.5
490.132	479.5
490.35	480.5
490.568	479.5
490.786	510.5
491.003	522.5
491.221	506.5
491.439	508.5
491.657	532.5
491.874	520.5
492.092	532.5
492.31	509.5
492.527	521.5
492.745	531.5
492.963	525.5
493.18	533.5
493.398	551.5
493.615	531.5
493.833	549.5
494.05	530.5
494.268	575.5
494.485	527.5
494.703	531.5
494.92	564.5
495.138	544.5
495.355	560.5
495.573	527.5
495.79	533.5
496.008	536.5
496.225	519.5
496.442	556.5
496.66	561.5
496.877	555.5
497.094	576.5
497.312	577.5
497.529	567.5
497.746	593.5
497.963	598.5
498.181	602.5
498.398	617.5
498.615	653.5
498.832	640.5
499.049	683.5
499.267	684.5
499.484	707.5
499.701	745.5
499.918	773.5
500.135	832.5
500.352	866.5
500.569	842.5
500.786	830.5
501.003	849.5
501.22	817.5
501.437	778.5
501.654	743.5
501.871	726.5
502.088	697.5
502.305	672.5
502.522	626.5
502.739	631.5
502.956	603.5
503.172	624.5
503.389	593.5
503.606	582.5
503.823	587.5
504.04	575.5
504.256	543.5
504.473	570.5
504.69	585.5
504.907	558.5
505.123	562.5
505.34	554.5
505.557	544.5
505.773	539.5
505.99	519.5
506.207	511.5
506.423	526.5
506.64	508.5
506.856	512.5
507.073	515.5
507.289	502.5
507.506	518.5
507.722	480.5
507.939	498.5
508.155	510.5
508.372	473.5
508.588	488.5
508.805	483.5
509.021	482.5
509.238	481.5
509.454	490.5
509.67	489.5
509.887	454.5
510.103	483.5
510.319	482.5
510.536	518.5
510.752	669.5
510.968	545.5
511.184	486.5
511.401	464.5
511.617	443.5
511.833	465.5
512.049	466.5
512.265	463.5
512.481	452.5
512.698	467.5
512.914	458.5
513.13	454.5
513.346	456.5
513.562	457.5
513.778	456.5
513.994	467.5
514.21	460.5
514.426	455.5
514.642	490.5
514.858	496.5
515.074	510.5
515.29	538.5
515.506	652.5
515.721	601.5
515.937	479.5
516.153	498.5
516.369	483.5
516.585	488.5
516.801	495.5
517.016	487.5
517.232	498.5
517.448	488.5
517.664	484.5
517.879	487.5
518.095	512.5
518.311	497.5
518.527	467.5
518.742	495.5
518.958	498.5
519.173	457.5
519.389	477.5
519.605	457.5
519.82	455.5
520.036	467.5
