Data from 1964.PennyLincolnUp.Lamp.En5.5.200Scan.071719.P1._HRD10591_14-06-33-910.txt Node
Date: Thu Jul 18 14:06:33 EDT 2019
User: cochatt
Spectrometer: HR+D1059
Trigger mode: 1
Integration Time (sec): 1.000000E-1
Scans to average: 1
Electric dark correction enabled: true
Nonlinearity correction enabled: false
Boxcar width: 0
XAxis mode: Wavelengths
Number of Pixels in Spectrum: 2048
>>>>>Begin Spectral Data<<<<<
223.165	-5.38
223.4	-5.38
223.635	-5.38
223.869	-24.38
224.104	-22.38
224.338	-10.38
224.573	-17.38
224.808	-19.38
225.042	-13.38
225.277	-9.38
225.511	8.62
225.746	-3.38
225.98	-3.38
226.215	18.62
226.449	15.62
226.683	26.62
226.918	22.62
227.152	36.62
227.387	21.62
227.621	22.62
227.856	47.62
228.09	36.62
228.324	45.62
228.559	43.62
228.793	54.62
229.027	90.62
229.262	91.62
229.496	103.62
229.73	124.62
229.964	126.62
230.199	126.62
230.433	119.62
230.667	123.62
230.901	108.62
231.136	102.62
231.37	101.62
231.604	110.62
231.838	119.62
232.072	111.62
232.306	111.62
232.541	126.62
232.775	111.62
233.009	104.62
233.243	110.62
233.477	118.62
233.711	102.62
233.945	112.62
234.179	127.62
234.413	123.62
234.647	131.62
234.881	116.62
235.115	107.62
235.349	108.62
235.583	127.62
235.817	118.62
236.051	132.62
236.285	133.62
236.519	125.62
236.753	120.62
236.987	163.62
237.221	178.62
237.455	188.62
237.689	175.62
237.922	127.62
238.156	119.62
238.39	139.62
238.624	138.62
238.858	130.62
239.091	119.62
239.325	122.62
239.559	132.62
239.793	126.62
240.027	136.62
240.26	132.62
240.494	165.62
240.728	154.62
240.961	139.62
241.195	153.62
241.429	144.62
241.662	127.62
241.896	153.62
242.13	135.62
242.363	136.62
242.597	139.62
242.83	138.62
243.064	133.62
243.298	148.62
243.531	127.62
243.765	131.62
243.998	132.62
244.232	155.62
244.465	141.62
244.699	147.62
244.932	143.62
245.166	149.62
245.399	155.62
245.633	145.62
245.866	148.62
246.099	162.62
246.333	144.62
246.566	140.62
246.8	166.62
247.033	174.62
247.266	173.62
247.5	165.62
247.733	167.62
247.966	176.62
248.2	172.62
248.433	172.62
248.666	181.62
248.899	184.62
249.133	195.62
249.366	211.62
249.599	220.62
249.832	198.62
250.066	190.62
250.299	182.62
250.532	203.62
250.765	210.62
250.998	224.62
251.231	231.62
251.465	218.62
251.698	206.62
251.931	222.62
252.164	206.62
252.397	215.62
252.63	194.62
252.863	206.62
253.096	226.62
253.329	234.62
253.562	231.62
253.795	239.62
254.028	222.62
254.261	219.62
254.494	219.62
254.727	258.62
254.96	276.62
255.193	262.62
255.426	249.62
255.659	240.62
255.892	242.62
256.124	239.62
256.357	248.62
256.59	250.62
256.823	218.62
257.056	226.62
257.289	216.62
257.521	222.62
257.754	219.62
257.987	217.62
258.22	228.62
258.452	221.62
258.685	228.62
258.918	239.62
259.151	213.62
259.383	242.62
259.616	218.62
259.849	227.62
260.081	254.62
260.314	264.62
260.547	259.62
260.779	254.62
261.012	250.62
261.244	230.62
261.477	222.62
261.71	230.62
261.942	244.62
262.175	236.62
262.407	238.62
262.64	224.62
262.872	239.62
263.105	238.62
263.337	241.62
263.57	222.62
263.802	238.62
264.035	220.62
264.267	221.62
264.499	226.62
264.732	234.62
264.964	254.62
265.197	227.62
265.429	240.62
265.661	222.62
265.894	231.62
266.126	217.62
266.358	235.62
266.591	230.62
266.823	247.62
267.055	252.62
267.287	262.62
267.52	222.62
267.752	230.62
267.984	247.62
268.216	249.62
268.448	273.62
268.681	258.62
268.913	252.62
269.145	278.62
269.377	294.62
269.609	283.62
269.841	277.62
270.073	313.62
270.306	318.62
270.538	332.62
270.77	336.62
271.002	342.62
271.234	325.62
271.466	318.62
271.698	316.62
271.93	338.62
272.162	329.62
272.394	324.62
272.626	307.62
272.858	302.62
273.09	315.62
273.322	294.62
273.553	303.62
273.785	283.62
274.017	282.62
274.249	279.62
274.481	288.62
274.713	276.62
274.945	296.62
275.176	279.62
275.408	312.62
275.64	291.62
275.872	299.62
276.104	292.62
276.335	296.62
276.567	308.62
276.799	326.62
277.031	316.62
277.262	319.62
277.494	330.62
277.726	316.62
277.957	324.62
278.189	308.62
278.421	303.62
278.652	312.62
278.884	290.62
279.115	294.62
279.347	296.62
279.579	303.62
279.81	287.62
280.042	301.62
280.273	303.62
280.505	312.62
280.736	306.62
280.968	293.62
281.199	293.62
281.431	305.62
281.662	319.62
281.894	303.62
282.125	304.62
282.356	314.62
282.588	312.62
282.819	315.62
283.051	318.62
283.282	319.62
283.513	282.62
283.745	316.62
283.976	310.62
284.207	321.62
284.439	315.62
284.67	315.62
284.901	319.62
285.132	298.62
285.364	311.62
285.595	306.62
285.826	334.62
286.057	327.62
286.288	307.62
286.52	306.62
286.751	310.62
286.982	340.62
287.213	318.62
287.444	309.62
287.675	325.62
287.906	345.62
288.138	322.62
288.369	344.62
288.6	336.62
288.831	344.62
289.062	324.62
289.293	321.62
289.524	332.62
289.755	326.62
289.986	336.62
290.217	337.62
290.448	327.62
290.679	320.62
290.91	339.62
291.141	334.62
291.371	317.62
291.602	337.62
291.833	325.62
292.064	342.62
292.295	338.62
292.526	337.62
292.757	326.62
292.987	331.62
293.218	340.62
293.449	319.62
293.68	326.62
293.91	327.62
294.141	319.62
294.372	340.62
294.603	342.62
294.833	337.62
295.064	348.62
295.295	355.62
295.525	334.62
295.756	327.62
295.987	346.62
296.217	373.62
296.448	367.62
296.679	352.62
296.909	346.62
297.14	348.62
297.37	344.62
297.601	338.62
297.831	334.62
298.062	333.62
298.292	355.62
298.523	349.62
298.753	344.62
298.984	347.62
299.214	354.62
299.445	360.62
299.675	360.62
299.905	366.62
300.136	360.62
300.366	362.62
300.597	353.62
300.827	374.62
301.057	351.62
301.288	388.62
301.518	370.62
301.748	359.62
301.979	377.62
302.209	378.62
302.439	372.62
302.669	378.62
302.9	363.62
303.13	375.62
303.36	368.62
303.59	386.62
303.82	382.62
304.051	390.62
304.281	374.62
304.511	390.62
304.741	383.62
304.971	377.62
305.201	382.62
305.431	376.62
305.661	375.62
305.891	377.62
306.121	386.62
306.352	379.62
306.582	364.62
306.812	380.62
307.042	356.62
307.272	367.62
307.502	362.62
307.731	378.62
307.961	382.62
308.191	390.62
308.421	368.62
308.651	374.62
308.881	387.62
309.111	365.62
309.341	395.62
309.571	379.62
309.8	381.62
310.03	391.62
310.26	396.62
310.49	388.62
310.72	420.62
310.949	428.62
311.179	434.62
311.409	410.62
311.639	421.62
311.868	406.62
312.098	401.62
312.328	410.62
312.557	420.62
312.787	438.62
313.017	412.62
313.246	415.62
313.476	403.62
313.706	396.62
313.935	416.62
314.165	437.62
314.394	422.62
314.624	443.62
314.853	438.62
315.083	438.62
315.312	428.62
315.542	442.62
315.771	405.62
316.001	399.62
316.23	389.62
316.46	388.62
316.689	407.62
316.919	430.62
317.148	440.62
317.377	452.62
317.607	418.62
317.836	412.62
318.065	416.62
318.295	411.62
318.524	403.62
318.753	421.62
318.983	416.62
319.212	408.62
319.441	415.62
319.67	432.62
319.9	420.62
320.129	416.62
320.358	424.62
320.587	408.62
320.816	419.62
321.046	440.62
321.275	450.62
321.504	439.62
321.733	445.62
321.962	429.62
322.191	460.62
322.42	476.62
322.649	472.62
322.878	477.62
323.108	495.62
323.337	481.62
323.566	479.62
323.795	532.62
324.024	554.62
324.253	670.62
324.482	857.62
324.71	1308.62
324.939	1782.62
325.168	1510.62
325.397	822.62
325.626	584.62
325.855	519.62
326.084	491.62
326.313	503.62
326.542	511.62
326.77	544.62
326.999	614.62
327.228	805.62
327.457	1191.62
327.686	1307.62
327.914	882.62
328.143	644.62
328.372	583.62
328.6	584.62
328.829	555.62
329.058	562.62
329.287	572.62
329.515	523.62
329.744	527.62
329.972	523.62
330.201	553.62
330.43	537.62
330.658	582.62
330.887	581.62
331.115	581.62
331.344	518.62
331.572	519.62
331.801	534.62
332.03	520.62
332.258	472.62
332.486	506.62
332.715	493.62
332.943	505.62
333.172	499.62
333.4	501.62
333.629	499.62
333.857	532.62
334.085	528.62
334.314	546.62
334.542	561.62
334.771	558.62
334.999	515.62
335.227	540.62
335.455	526.62
335.684	516.62
335.912	486.62
336.14	487.62
336.369	508.62
336.597	506.62
336.825	496.62
337.053	496.62
337.281	476.62
337.51	478.62
337.738	468.62
337.966	459.62
338.194	478.62
338.422	479.62
338.65	454.62
338.878	456.62
339.106	472.62
339.334	484.62
339.562	474.62
339.79	481.62
340.018	476.62
340.246	437.62
340.474	472.62
340.702	471.62
340.93	470.62
341.158	480.62
341.386	468.62
341.614	450.62
341.842	462.62
342.07	459.62
342.298	470.62
342.526	456.62
342.754	445.62
342.981	444.62
343.209	468.62
343.437	459.62
343.665	465.62
343.893	476.62
344.12	494.62
344.348	459.62
344.576	470.62
344.804	468.62
345.031	478.62
345.259	482.62
345.487	482.62
345.714	483.62
345.942	441.62
346.17	436.62
346.397	449.62
346.625	442.62
346.853	455.62
347.08	424.62
347.308	447.62
347.535	450.62
347.763	445.62
347.99	450.62
348.218	452.62
348.445	453.62
348.673	461.62
348.9	439.62
349.128	434.62
349.355	414.62
349.583	424.62
349.81	428.62
350.037	435.62
350.265	421.62
350.492	406.62
350.72	434.62
350.947	427.62
351.174	419.62
351.402	437.62
351.629	450.62
351.856	431.62
352.083	443.62
352.311	452.62
352.538	446.62
352.765	447.62
352.992	453.62
353.22	440.62
353.447	438.62
353.674	413.62
353.901	430.62
354.128	403.62
354.355	416.62
354.583	414.62
354.81	406.62
355.037	421.62
355.264	404.62
355.491	412.62
355.718	403.62
355.945	399.62
356.172	407.62
356.399	399.62
356.626	412.62
356.853	427.62
357.08	425.62
357.307	413.62
357.534	383.62
357.761	414.62
357.988	406.62
358.215	416.62
358.441	398.62
358.668	397.62
358.895	405.62
359.122	399.62
359.349	412.62
359.576	431.62
359.802	455.62
360.029	455.62
360.256	454.62
360.483	444.62
360.709	416.62
360.936	415.62
361.163	426.62
361.39	424.62
361.616	435.62
361.843	426.62
362.07	411.62
362.296	421.62
362.523	413.62
362.749	413.62
362.976	409.62
363.203	396.62
363.429	403.62
363.656	429.62
363.882	437.62
364.109	412.62
364.335	399.62
364.562	409.62
364.788	422.62
365.015	399.62
365.241	424.62
365.468	422.62
365.694	394.62
365.92	416.62
366.147	408.62
366.373	406.62
366.599	419.62
366.826	397.62
367.052	407.62
367.278	416.62
367.505	397.62
367.731	420.62
367.957	431.62
368.184	399.62
368.41	403.62
368.636	424.62
368.862	410.62
369.089	414.62
369.315	413.62
369.541	408.62
369.767	405.62
369.993	395.62
370.219	404.62
370.445	397.62
370.672	405.62
370.898	407.62
371.124	400.62
371.35	405.62
371.576	402.62
371.802	411.62
372.028	400.62
372.254	400.62
372.48	399.62
372.706	418.62
372.932	410.62
373.158	414.62
373.384	403.62
373.61	420.62
373.835	415.62
374.061	401.62
374.287	408.62
374.513	418.62
374.739	411.62
374.965	408.62
375.191	436.62
375.416	407.62
375.642	408.62
375.868	422.62
376.094	411.62
376.319	409.62
376.545	414.62
376.771	410.62
376.997	379.62
377.222	390.62
377.448	395.62
377.674	406.62
377.899	388.62
378.125	383.62
378.35	381.62
378.576	386.62
378.802	400.62
379.027	380.62
379.253	375.62
379.478	377.62
379.704	409.62
379.929	398.62
380.155	399.62
380.38	365.62
380.606	398.62
380.831	390.62
381.057	417.62
381.282	411.62
381.507	402.62
381.733	424.62
381.958	410.62
382.184	424.62
382.409	404.62
382.634	405.62
382.86	405.62
383.085	421.62
383.31	415.62
383.535	413.62
383.761	426.62
383.986	413.62
384.211	413.62
384.436	414.62
384.662	418.62
384.887	431.62
385.112	428.62
385.337	419.62
385.562	418.62
385.787	448.62
386.013	452.62
386.238	426.62
386.463	447.62
386.688	443.62
386.913	428.62
387.138	437.62
387.363	436.62
387.588	436.62
387.813	436.62
388.038	438.62
388.263	441.62
388.488	428.62
388.713	447.62
388.938	432.62
389.163	439.62
389.387	444.62
389.612	428.62
389.837	421.62
390.062	408.62
390.287	437.62
390.512	444.62
390.736	432.62
390.961	455.62
391.186	455.62
391.411	442.62
391.636	438.62
391.86	437.62
392.085	427.62
392.31	450.62
392.534	459.62
392.759	445.62
392.984	425.62
393.208	456.62
393.433	440.62
393.658	442.62
393.882	441.62
394.107	446.62
394.331	446.62
394.556	439.62
394.78	458.62
395.005	459.62
395.229	445.62
395.454	440.62
395.678	464.62
395.903	470.62
396.127	477.62
396.352	484.62
396.576	466.62
396.801	462.62
397.025	476.62
397.249	446.62
397.474	470.62
397.698	460.62
397.922	468.62
398.147	491.62
398.371	502.62
398.595	494.62
398.82	510.62
399.044	496.62
399.268	532.62
399.492	564.62
399.717	610.62
399.941	611.62
400.165	617.62
400.389	576.62
400.613	564.62
400.837	535.62
401.062	505.62
401.286	498.62
401.51	498.62
401.734	492.62
401.958	496.62
402.182	510.62
402.406	520.62
402.63	501.62
402.854	511.62
403.078	507.62
403.302	506.62
403.526	511.62
403.75	526.62
403.974	524.62
404.198	501.62
404.422	540.62
404.645	527.62
404.869	540.62
405.093	541.62
405.317	586.62
405.541	604.62
405.765	570.62
405.988	532.62
406.212	516.62
406.436	540.62
406.66	570.62
406.883	540.62
407.107	578.62
407.331	596.62
407.555	655.62
407.778	635.62
408.002	617.62
408.226	575.62
408.449	568.62
408.673	561.62
408.896	569.62
409.12	607.62
409.344	556.62
409.567	524.62
409.791	522.62
410.014	504.62
410.238	511.62
410.461	497.62
410.685	511.62
410.908	536.62
411.132	536.62
411.355	586.62
411.578	544.62
411.802	521.62
412.025	503.62
412.249	540.62
412.472	546.62
412.695	565.62
412.919	568.62
413.142	498.62
413.365	496.62
413.589	496.62
413.812	506.62
414.035	477.62
414.258	463.62
414.482	481.62
414.705	463.62
414.928	467.62
415.151	468.62
415.374	478.62
415.597	496.62
415.821	461.62
416.044	485.62
416.267	468.62
416.49	461.62
416.713	468.62
416.936	476.62
417.159	452.62
417.382	480.62
417.605	473.62
417.828	501.62
418.051	495.62
418.274	493.62
418.497	476.62
418.72	473.62
418.943	466.62
419.166	482.62
419.389	523.62
419.611	506.62
419.834	516.62
420.057	509.62
420.28	492.62
420.503	470.62
420.726	495.62
420.948	495.62
421.171	515.62
421.394	570.62
421.617	485.62
421.839	484.62
422.062	507.62
422.285	522.62
422.507	538.62
422.73	570.62
422.953	574.62
423.175	517.62
423.398	529.62
423.621	495.62
423.843	516.62
424.066	531.62
424.288	529.62
424.511	527.62
424.733	562.62
424.956	623.62
425.178	591.62
425.401	610.62
425.623	613.62
425.846	526.62
426.068	514.62
426.291	493.62
426.513	502.62
426.735	525.62
426.958	527.62
427.18	607.62
427.402	730.62
427.625	781.62
427.847	664.62
428.069	599.62
428.292	520.62
428.514	494.62
428.736	479.62
428.958	463.62
429.181	443.62
429.403	450.62
429.625	483.62
429.847	500.62
430.069	545.62
430.292	549.62
430.514	466.62
430.736	462.62
430.958	482.62
431.18	468.62
431.402	422.62
431.624	450.62
431.846	423.62
432.068	458.62
432.29	447.62
432.512	440.62
432.734	469.62
432.956	467.62
433.178	463.62
433.4	458.62
433.622	458.62
433.844	456.62
434.066	458.62
434.287	483.62
434.509	445.62
434.731	459.62
434.953	444.62
435.175	491.62
435.397	518.62
435.618	506.62
435.84	541.62
436.062	594.62
436.284	655.62
436.505	568.62
436.727	525.62
436.949	478.62
437.17	462.62
437.392	459.62
437.614	477.62
437.835	494.62
438.057	565.62
438.278	624.62
438.5	639.62
438.721	710.62
438.943	666.62
439.165	562.62
439.386	520.62
439.608	495.62
439.829	503.62
440.05	534.62
440.272	550.62
440.493	515.62
440.715	479.62
440.936	468.62
441.158	478.62
441.379	473.62
441.6	490.62
441.822	507.62
442.043	544.62
442.264	618.62
442.486	629.62
442.707	542.62
442.928	510.62
443.149	528.62
443.371	531.62
443.592	577.62
443.813	636.62
444.034	704.62
444.255	579.62
444.476	530.62
444.698	554.62
444.919	507.62
445.14	610.62
445.361	557.62
445.582	534.62
445.803	591.62
446.024	669.62
446.245	655.62
446.466	613.62
446.687	527.62
446.908	479.62
447.129	467.62
447.35	441.62
447.571	477.62
447.792	454.62
448.013	473.62
448.234	454.62
448.455	512.62
448.675	603.62
448.896	701.62
449.117	600.62
449.338	555.62
449.559	669.62
449.779	714.62
450	591.62
450.221	516.62
450.442	441.62
450.662	427.62
450.883	446.62
451.104	459.62
451.324	441.62
451.545	434.62
451.766	427.62
451.986	413.62
452.207	393.62
452.428	395.62
452.648	413.62
452.869	425.62
453.089	423.62
453.31	420.62
453.53	428.62
453.751	399.62
453.971	397.62
454.192	408.62
454.412	399.62
454.633	398.62
454.853	413.62
455.073	419.62
455.294	425.62
455.514	457.62
455.734	464.62
455.955	391.62
456.175	398.62
456.395	391.62
456.616	382.62
456.836	382.62
457.056	400.62
457.276	384.62
457.497	386.62
457.717	384.62
457.937	372.62
458.157	393.62
458.377	397.62
458.598	430.62
458.818	447.62
459.038	516.62
459.258	514.62
459.478	501.62
459.698	451.62
459.918	422.62
460.138	424.62
460.358	455.62
460.578	460.62
460.798	477.62
461.018	479.62
461.238	440.62
461.458	455.62
461.678	448.62
461.898	460.62
462.118	477.62
462.338	459.62
462.558	477.62
462.777	487.62
462.997	533.62
463.217	513.62
463.437	528.62
463.657	493.62
463.876	492.62
464.096	495.62
464.316	496.62
464.536	502.62
464.755	488.62
464.975	496.62
465.195	509.62
465.414	521.62
465.634	469.62
465.854	450.62
466.073	438.62
466.293	427.62
466.512	425.62
466.732	427.62
466.951	421.62
467.171	426.62
467.391	414.62
467.61	423.62
467.829	432.62
468.049	447.62
468.268	442.62
468.488	408.62
468.707	401.62
468.927	407.62
469.146	400.62
469.365	406.62
469.585	420.62
469.804	441.62
470.023	420.62
470.243	412.62
470.462	444.62
470.681	452.62
470.901	441.62
471.12	448.62
471.339	430.62
471.558	437.62
471.777	424.62
471.997	429.62
472.216	437.62
472.435	442.62
472.654	441.62
472.873	438.62
473.092	431.62
473.311	401.62
473.53	438.62
473.749	447.62
473.968	486.62
474.187	542.62
474.406	563.62
474.625	473.62
474.844	431.62
475.063	442.62
475.282	418.62
475.501	410.62
475.72	425.62
475.939	426.62
476.158	447.62
476.377	446.62
476.596	429.62
476.814	455.62
477.033	436.62
477.252	473.62
477.471	439.62
477.69	446.62
477.908	473.62
478.127	481.62
478.346	461.62
478.564	460.62
478.783	483.62
479.002	479.62
479.22	481.62
479.439	484.62
479.658	498.62
479.876	504.62
480.095	500.62
480.313	525.62
480.532	539.62
480.751	527.62
480.969	552.62
481.188	569.62
481.406	591.62
481.624	542.62
481.843	510.62
482.061	503.62
482.28	518.62
482.498	489.62
482.717	522.62
482.935	508.62
483.153	474.62
483.372	486.62
483.59	473.62
483.808	497.62
484.027	493.62
484.245	496.62
484.463	489.62
484.681	515.62
484.9	490.62
485.118	493.62
485.336	511.62
485.554	502.62
485.772	527.62
485.99	513.62
486.209	505.62
486.427	521.62
486.645	532.62
486.863	507.62
487.081	527.62
487.299	531.62
487.517	524.62
487.735	530.62
487.953	549.62
488.171	534.62
488.389	493.62
488.607	499.62
488.825	518.62
489.043	532.62
489.261	526.62
489.479	532.62
489.696	535.62
489.914	540.62
490.132	537.62
490.35	555.62
490.568	539.62
490.786	547.62
491.003	564.62
491.221	570.62
491.439	564.62
491.657	574.62
491.874	571.62
492.092	576.62
492.31	593.62
492.527	578.62
492.745	600.62
492.963	593.62
493.18	604.62
493.398	590.62
493.615	615.62
493.833	610.62
494.05	610.62
494.268	604.62
494.485	603.62
494.703	611.62
494.92	594.62
495.138	614.62
495.355	608.62
495.573	610.62
495.79	622.62
496.008	608.62
496.225	589.62
496.442	611.62
496.66	611.62
496.877	614.62
497.094	634.62
497.312	631.62
497.529	631.62
497.746	640.62
497.963	639.62
498.181	665.62
498.398	692.62
498.615	694.62
498.832	691.62
499.049	743.62
499.267	717.62
499.484	794.62
499.701	832.62
499.918	851.62
500.135	892.62
500.352	922.62
500.569	959.62
500.786	922.62
501.003	935.62
501.22	905.62
501.437	848.62
501.654	829.62
501.871	797.62
