Data from 1964.PennyLincolnUp.Lamp.En5.5.200Scan.071719.P1._HRD10591_14-03-48-908.txt Node
Date: Thu Jul 18 14:03:48 EDT 2019
User: cochatt
Spectrometer: HR+D1059
Trigger mode: 1
Integration Time (sec): 1.000000E-1
Scans to average: 1
Electric dark correction enabled: true
Nonlinearity correction enabled: false
Boxcar width: 0
XAxis mode: Wavelengths
Number of Pixels in Spectrum: 2048
>>>>>Begin Spectral Data<<<<<
223.165	-5.88
223.4	-5.88
223.635	-5.88
223.869	-11.88
224.104	-21.88
224.338	-4.88
224.573	-10.88
224.808	-12.88
225.042	-9.88
225.277	-17.88
225.511	-7.88
225.746	-1.88
225.98	9.12
226.215	17.12
226.449	12.12
226.683	8.12
226.918	30.12
227.152	29.12
227.387	38.12
227.621	30.12
227.856	55.12
228.09	51.12
228.324	50.12
228.559	62.12
228.793	68.12
229.027	93.12
229.262	88.12
229.496	90.12
229.73	121.12
229.964	112.12
230.199	111.12
230.433	99.12
230.667	104.12
230.901	90.12
231.136	103.12
231.37	116.12
231.604	103.12
231.838	102.12
232.072	94.12
232.306	127.12
232.541	129.12
232.775	109.12
233.009	105.12
233.243	107.12
233.477	105.12
233.711	112.12
233.945	110.12
234.179	96.12
234.413	110.12
234.647	92.12
234.881	100.12
235.115	117.12
235.349	111.12
235.583	113.12
235.817	120.12
236.051	117.12
236.285	129.12
236.519	101.12
236.753	124.12
236.987	119.12
237.221	164.12
237.455	173.12
237.689	156.12
237.922	109.12
238.156	135.12
238.39	128.12
238.624	129.12
238.858	108.12
239.091	129.12
239.325	108.12
239.559	128.12
239.793	119.12
240.027	122.12
240.26	127.12
240.494	135.12
240.728	144.12
240.961	150.12
241.195	127.12
241.429	131.12
241.662	125.12
241.896	117.12
242.13	115.12
242.363	132.12
242.597	137.12
242.83	128.12
243.064	132.12
243.298	124.12
243.531	131.12
243.765	141.12
243.998	147.12
244.232	145.12
244.465	133.12
244.699	144.12
244.932	136.12
245.166	139.12
245.399	153.12
245.633	151.12
245.866	120.12
246.099	157.12
246.333	135.12
246.566	139.12
246.8	154.12
247.033	149.12
247.266	133.12
247.5	145.12
247.733	174.12
247.966	175.12
248.2	150.12
248.433	176.12
248.666	153.12
248.899	177.12
249.133	189.12
249.366	176.12
249.599	177.12
249.832	187.12
250.066	181.12
250.299	169.12
250.532	199.12
250.765	179.12
250.998	192.12
251.231	204.12
251.465	204.12
251.698	188.12
251.931	182.12
252.164	204.12
252.397	197.12
252.63	182.12
252.863	188.12
253.096	212.12
253.329	192.12
253.562	203.12
253.795	205.12
254.028	204.12
254.261	203.12
254.494	207.12
254.727	221.12
254.96	236.12
255.193	231.12
255.426	225.12
255.659	220.12
255.892	217.12
256.124	214.12
256.357	223.12
256.59	208.12
256.823	183.12
257.056	216.12
257.289	206.12
257.521	209.12
257.754	198.12
257.987	203.12
258.22	203.12
258.452	224.12
258.685	205.12
258.918	199.12
259.151	205.12
259.383	223.12
259.616	199.12
259.849	211.12
260.081	207.12
260.314	225.12
260.547	232.12
260.779	210.12
261.012	222.12
261.244	221.12
261.477	228.12
261.71	197.12
261.942	218.12
262.175	217.12
262.407	216.12
262.64	206.12
262.872	202.12
263.105	186.12
263.337	205.12
263.57	217.12
263.802	222.12
264.035	204.12
264.267	213.12
264.499	215.12
264.732	209.12
264.964	212.12
265.197	209.12
265.429	219.12
265.661	216.12
265.894	212.12
266.126	215.12
266.358	213.12
266.591	221.12
266.823	221.12
267.055	220.12
267.287	232.12
267.52	224.12
267.752	209.12
267.984	223.12
268.216	211.12
268.448	231.12
268.681	237.12
268.913	258.12
269.145	253.12
269.377	267.12
269.609	246.12
269.841	263.12
270.073	268.12
270.306	278.12
270.538	275.12
270.77	275.12
271.002	263.12
271.234	271.12
271.466	283.12
271.698	284.12
271.93	304.12
272.162	292.12
272.394	300.12
272.626	285.12
272.858	286.12
273.09	280.12
273.322	267.12
273.553	260.12
273.785	252.12
274.017	265.12
274.249	259.12
274.481	269.12
274.713	283.12
274.945	262.12
275.176	261.12
275.408	274.12
275.64	259.12
275.872	256.12
276.104	274.12
276.335	264.12
276.567	274.12
276.799	293.12
277.031	291.12
277.262	300.12
277.494	296.12
277.726	277.12
277.957	275.12
278.189	285.12
278.421	289.12
278.652	265.12
278.884	270.12
279.115	272.12
279.347	292.12
279.579	280.12
279.81	282.12
280.042	264.12
280.273	275.12
280.505	287.12
280.736	287.12
280.968	276.12
281.199	271.12
281.431	279.12
281.662	264.12
281.894	271.12
282.125	298.12
282.356	283.12
282.588	282.12
282.819	303.12
283.051	272.12
283.282	271.12
283.513	315.12
283.745	296.12
283.976	304.12
284.207	299.12
284.439	280.12
284.67	307.12
284.901	283.12
285.132	291.12
285.364	295.12
285.595	295.12
285.826	291.12
286.057	303.12
286.288	298.12
286.52	302.12
286.751	313.12
286.982	304.12
287.213	288.12
287.444	281.12
287.675	300.12
287.906	317.12
288.138	300.12
288.369	311.12
288.6	311.12
288.831	299.12
289.062	294.12
289.293	312.12
289.524	299.12
289.755	311.12
289.986	295.12
290.217	297.12
290.448	295.12
290.679	313.12
290.91	310.12
291.141	316.12
291.371	304.12
291.602	311.12
291.833	311.12
292.064	320.12
292.295	303.12
292.526	326.12
292.757	307.12
292.987	296.12
293.218	316.12
293.449	330.12
293.68	297.12
293.91	299.12
294.141	305.12
294.372	305.12
294.603	309.12
294.833	316.12
295.064	305.12
295.295	309.12
295.525	325.12
295.756	310.12
295.987	316.12
296.217	311.12
296.448	342.12
296.679	324.12
296.909	298.12
297.14	321.12
297.37	329.12
297.601	322.12
297.831	331.12
298.062	336.12
298.292	322.12
298.523	323.12
298.753	315.12
298.984	331.12
299.214	309.12
299.445	327.12
299.675	317.12
299.905	343.12
300.136	317.12
300.366	301.12
300.597	320.12
300.827	343.12
301.057	315.12
301.288	329.12
301.518	340.12
301.748	346.12
301.979	362.12
302.209	342.12
302.439	336.12
302.669	339.12
302.9	341.12
303.13	345.12
303.36	340.12
303.59	356.12
303.82	359.12
304.051	340.12
304.281	337.12
304.511	355.12
304.741	357.12
304.971	344.12
305.201	338.12
305.431	341.12
305.661	323.12
305.891	342.12
306.121	341.12
306.352	352.12
306.582	357.12
306.812	344.12
307.042	373.12
307.272	336.12
307.502	340.12
307.731	358.12
307.961	355.12
308.191	345.12
308.421	340.12
308.651	338.12
308.881	346.12
309.111	352.12
309.341	336.12
309.571	348.12
309.8	345.12
310.03	381.12
310.26	375.12
310.49	361.12
310.72	371.12
310.949	360.12
311.179	381.12
311.409	372.12
311.639	362.12
311.868	347.12
312.098	362.12
312.328	361.12
312.557	385.12
312.787	395.12
313.017	389.12
313.246	374.12
313.476	377.12
313.706	382.12
313.935	382.12
314.165	377.12
314.394	389.12
314.624	381.12
314.853	410.12
315.083	381.12
315.312	383.12
315.542	381.12
315.771	398.12
316.001	371.12
316.23	373.12
316.46	361.12
316.689	399.12
316.919	373.12
317.148	388.12
317.377	388.12
317.607	396.12
317.836	393.12
318.065	381.12
318.295	381.12
318.524	377.12
318.753	381.12
318.983	364.12
319.212	379.12
319.441	389.12
319.67	398.12
319.9	390.12
320.129	397.12
320.358	381.12
320.587	394.12
320.816	371.12
321.046	383.12
321.275	375.12
321.504	389.12
321.733	389.12
321.962	399.12
322.191	411.12
322.42	411.12
322.649	403.12
322.878	422.12
323.108	445.12
323.337	431.12
323.566	435.12
323.795	455.12
324.024	493.12
324.253	527.12
324.482	735.12
324.71	999.12
324.939	1365.12
325.168	1118.12
325.397	640.12
325.626	509.12
325.855	432.12
326.084	456.12
326.313	439.12
326.542	443.12
326.77	465.12
326.999	526.12
327.228	668.12
327.457	920.12
327.686	1027.12
327.914	703.12
328.143	530.12
328.372	491.12
328.6	468.12
328.829	455.12
329.058	476.12
329.287	484.12
329.515	462.12
329.744	474.12
329.972	479.12
330.201	486.12
330.43	482.12
330.658	494.12
330.887	506.12
331.115	491.12
331.344	445.12
331.572	450.12
331.801	439.12
332.03	438.12
332.258	460.12
332.486	436.12
332.715	444.12
332.943	460.12
333.172	457.12
333.4	461.12
333.629	487.12
333.857	463.12
334.085	486.12
334.314	499.12
334.542	503.12
334.771	500.12
334.999	477.12
335.227	492.12
335.455	491.12
335.684	470.12
335.912	460.12
336.14	445.12
336.369	447.12
336.597	463.12
336.825	437.12
337.053	431.12
337.281	439.12
337.51	418.12
337.738	437.12
337.966	434.12
338.194	441.12
338.422	429.12
338.65	438.12
338.878	435.12
339.106	437.12
339.334	435.12
339.562	444.12
339.79	422.12
340.018	409.12
340.246	421.12
340.474	435.12
340.702	411.12
340.93	417.12
341.158	404.12
341.386	427.12
341.614	417.12
341.842	419.12
342.07	411.12
342.298	398.12
342.526	413.12
342.754	413.12
342.981	422.12
343.209	420.12
343.437	421.12
343.665	440.12
343.893	442.12
344.12	450.12
344.348	460.12
344.576	441.12
344.804	424.12
345.031	413.12
345.259	416.12
345.487	442.12
345.714	419.12
345.942	411.12
346.17	393.12
346.397	398.12
346.625	387.12
346.853	398.12
347.08	406.12
347.308	379.12
347.535	402.12
347.763	395.12
347.99	387.12
348.218	415.12
348.445	417.12
348.673	422.12
348.9	399.12
349.128	391.12
349.355	399.12
349.583	390.12
349.81	377.12
350.037	382.12
350.265	391.12
350.492	389.12
350.72	396.12
350.947	387.12
351.174	391.12
351.402	398.12
351.629	400.12
351.856	402.12
352.083	393.12
352.311	386.12
352.538	406.12
352.765	377.12
352.992	394.12
353.22	396.12
353.447	382.12
353.674	404.12
353.901	376.12
354.128	385.12
354.355	389.12
354.583	377.12
354.81	376.12
355.037	384.12
355.264	376.12
355.491	395.12
355.718	382.12
355.945	382.12
356.172	366.12
356.399	381.12
356.626	355.12
356.853	387.12
357.08	375.12
357.307	380.12
357.534	357.12
357.761	367.12
357.988	391.12
358.215	384.12
358.441	368.12
358.668	379.12
358.895	371.12
359.122	372.12
359.349	397.12
359.576	381.12
359.802	391.12
360.029	405.12
360.256	397.12
360.483	407.12
360.709	367.12
360.936	392.12
361.163	381.12
361.39	381.12
361.616	403.12
361.843	378.12
362.07	375.12
362.296	381.12
362.523	380.12
362.749	400.12
362.976	383.12
363.203	371.12
363.429	383.12
363.656	394.12
363.882	373.12
364.109	380.12
364.335	386.12
364.562	386.12
364.788	394.12
365.015	355.12
365.241	369.12
365.468	374.12
365.694	358.12
365.92	381.12
366.147	373.12
366.373	378.12
366.599	378.12
366.826	379.12
367.052	376.12
367.278	367.12
367.505	379.12
367.731	382.12
367.957	385.12
368.184	364.12
368.41	381.12
368.636	389.12
368.862	391.12
369.089	375.12
369.315	365.12
369.541	367.12
369.767	371.12
369.993	389.12
370.219	385.12
370.445	364.12
370.672	386.12
370.898	366.12
371.124	376.12
371.35	387.12
371.576	385.12
371.802	375.12
372.028	380.12
372.254	378.12
372.48	387.12
372.706	393.12
372.932	380.12
373.158	388.12
373.384	385.12
373.61	369.12
373.835	400.12
374.061	395.12
374.287	395.12
374.513	376.12
374.739	379.12
374.965	396.12
375.191	398.12
375.416	392.12
375.642	375.12
375.868	368.12
376.094	361.12
376.319	371.12
376.545	377.12
376.771	396.12
376.997	367.12
377.222	381.12
377.448	364.12
377.674	375.12
377.899	355.12
378.125	366.12
378.35	379.12
378.576	381.12
378.802	350.12
379.027	376.12
379.253	380.12
379.478	356.12
379.704	373.12
379.929	368.12
380.155	389.12
380.38	375.12
380.606	375.12
380.831	386.12
381.057	383.12
381.282	382.12
381.507	377.12
381.733	380.12
381.958	377.12
382.184	380.12
382.409	407.12
382.634	362.12
382.86	369.12
383.085	370.12
383.31	397.12
383.535	395.12
383.761	380.12
383.986	403.12
384.211	388.12
384.436	390.12
384.662	410.12
384.887	391.12
385.112	403.12
385.337	419.12
385.562	416.12
385.787	430.12
386.013	421.12
386.238	405.12
386.463	419.12
386.688	394.12
386.913	398.12
387.138	393.12
387.363	427.12
387.588	403.12
387.813	422.12
388.038	402.12
388.263	402.12
388.488	409.12
388.713	399.12
388.938	413.12
389.163	395.12
389.387	421.12
389.612	407.12
389.837	394.12
390.062	399.12
390.287	419.12
390.512	385.12
390.736	379.12
390.961	400.12
391.186	413.12
391.411	407.12
391.636	425.12
391.86	416.12
392.085	429.12
392.31	421.12
392.534	430.12
392.759	421.12
392.984	416.12
393.208	426.12
393.433	438.12
393.658	421.12
393.882	407.12
394.107	414.12
394.331	407.12
394.556	406.12
394.78	406.12
395.005	430.12
395.229	428.12
395.454	411.12
395.678	418.12
395.903	423.12
396.127	433.12
396.352	450.12
396.576	392.12
396.801	401.12
397.025	423.12
397.249	418.12
397.474	446.12
397.698	430.12
397.922	447.12
398.147	441.12
398.371	460.12
398.595	464.12
398.82	475.12
399.044	472.12
399.268	492.12
399.492	527.12
399.717	531.12
399.941	563.12
400.165	579.12
400.389	576.12
400.613	509.12
400.837	494.12
401.062	487.12
401.286	477.12
401.51	448.12
401.734	470.12
401.958	479.12
402.182	460.12
402.406	472.12
402.63	480.12
402.854	478.12
403.078	486.12
403.302	463.12
403.526	475.12
403.75	468.12
403.974	457.12
404.198	475.12
404.422	489.12
404.645	491.12
404.869	479.12
405.093	505.12
405.317	511.12
405.541	555.12
405.765	506.12
405.988	511.12
406.212	484.12
406.436	485.12
406.66	502.12
406.883	487.12
407.107	504.12
407.331	540.12
407.555	577.12
407.778	611.12
408.002	582.12
408.226	518.12
408.449	513.12
408.673	496.12
408.896	558.12
409.12	533.12
409.344	529.12
409.567	492.12
409.791	471.12
410.014	490.12
410.238	467.12
410.461	471.12
410.685	483.12
410.908	493.12
411.132	517.12
411.355	508.12
411.578	515.12
411.802	480.12
412.025	458.12
412.249	479.12
412.472	470.12
412.695	522.12
412.919	503.12
413.142	497.12
413.365	468.12
413.589	436.12
413.812	470.12
414.035	456.12
414.258	445.12
414.482	432.12
414.705	443.12
414.928	437.12
415.151	429.12
415.374	429.12
415.597	467.12
415.821	455.12
416.044	422.12
416.267	440.12
416.49	439.12
416.713	440.12
416.936	441.12
417.159	430.12
417.382	423.12
417.605	439.12
417.828	457.12
418.051	443.12
418.274	458.12
418.497	446.12
418.72	447.12
418.943	436.12
419.166	441.12
419.389	485.12
419.611	478.12
419.834	448.12
420.057	465.12
420.28	458.12
420.503	457.12
420.726	463.12
420.948	448.12
421.171	470.12
421.394	484.12
421.617	462.12
421.839	455.12
422.062	439.12
422.285	461.12
422.507	495.12
422.73	547.12
422.953	532.12
423.175	471.12
423.398	470.12
423.621	460.12
423.843	474.12
424.066	478.12
424.288	470.12
424.511	503.12
424.733	540.12
424.956	585.12
425.178	570.12
425.401	566.12
425.623	565.12
425.846	490.12
426.068	477.12
426.291	476.12
426.513	462.12
426.735	451.12
426.958	472.12
427.18	553.12
427.402	630.12
427.625	663.12
427.847	584.12
428.069	519.12
428.292	492.12
428.514	449.12
428.736	426.12
428.958	437.12
429.181	439.12
429.403	411.12
429.625	425.12
429.847	453.12
430.069	485.12
430.292	497.12
430.514	428.12
430.736	423.12
430.958	446.12
431.18	416.12
431.402	408.12
431.624	410.12
431.846	411.12
432.068	424.12
432.29	397.12
432.512	410.12
432.734	415.12
432.956	439.12
433.178	433.12
433.4	425.12
433.622	407.12
433.844	416.12
434.066	427.12
434.287	414.12
434.509	428.12
434.731	443.12
434.953	428.12
435.175	432.12
435.397	451.12
435.618	465.12
435.84	476.12
436.062	550.12
436.284	616.12
436.505	486.12
436.727	471.12
436.949	427.12
437.17	431.12
437.392	421.12
437.614	423.12
437.835	449.12
438.057	502.12
438.278	555.12
438.5	569.12
438.721	635.12
438.943	600.12
439.165	489.12
439.386	466.12
439.608	439.12
439.829	459.12
440.05	457.12
440.272	492.12
440.493	449.12
440.715	443.12
440.936	435.12
441.158	435.12
441.379	430.12
441.6	429.12
441.822	445.12
442.043	477.12
442.264	528.12
442.486	552.12
442.707	495.12
442.928	470.12
443.149	463.12
443.371	485.12
443.592	508.12
443.813	596.12
444.034	625.12
444.255	524.12
444.476	481.12
444.698	485.12
444.919	477.12
445.14	597.12
445.361	532.12
445.582	486.12
445.803	525.12
446.024	587.12
446.245	586.12
446.466	528.12
446.687	472.12
446.908	445.12
447.129	420.12
447.35	420.12
447.571	402.12
447.792	405.12
448.013	398.12
448.234	432.12
448.455	443.12
448.675	549.12
448.896	604.12
449.117	521.12
449.338	517.12
449.559	587.12
449.779	635.12
450	500.12
450.221	445.12
450.442	419.12
450.662	415.12
450.883	371.12
451.104	417.12
451.324	417.12
451.545	402.12
451.766	385.12
451.986	383.12
452.207	380.12
452.428	375.12
452.648	387.12
452.869	376.12
453.089	387.12
453.31	378.12
453.53	389.12
453.751	372.12
453.971	367.12
454.192	398.12
454.412	361.12
454.633	385.12
454.853	368.12
455.073	375.12
455.294	368.12
455.514	416.12
455.734	435.12
455.955	378.12
456.175	360.12
456.395	358.12
456.616	359.12
456.836	358.12
457.056	371.12
457.276	348.12
457.497	343.12
457.717	371.12
457.937	394.12
458.157	369.12
458.377	373.12
458.598	392.12
458.818	429.12
459.038	466.12
459.258	469.12
459.478	438.12
459.698	411.12
459.918	416.12
460.138	423.12
460.358	416.12
460.578	418.12
460.798	421.12
461.018	424.12
461.238	420.12
461.458	429.12
461.678	414.12
461.898	417.12
462.118	439.12
462.338	453.12
462.558	449.12
462.777	451.12
462.997	460.12
463.217	472.12
463.437	495.12
463.657	460.12
463.876	447.12
464.096	467.12
464.316	457.12
464.536	454.12
464.755	465.12
464.975	439.12
465.195	460.12
465.414	475.12
465.634	429.12
465.854	411.12
466.073	409.12
466.293	417.12
466.512	384.12
466.732	381.12
466.951	405.12
467.171	392.12
467.391	398.12
467.61	397.12
467.829	413.12
468.049	391.12
468.268	383.12
468.488	385.12
468.707	368.12
468.927	379.12
469.146	393.12
469.365	378.12
469.585	384.12
469.804	397.12
470.023	414.12
470.243	415.12
470.462	402.12
470.681	390.12
470.901	395.12
471.12	399.12
471.339	412.12
471.558	400.12
471.777	400.12
471.997	384.12
472.216	413.12
472.435	399.12
472.654	411.12
472.873	384.12
473.092	397.12
473.311	385.12
473.53	388.12
473.749	404.12
473.968	419.12
474.187	472.12
474.406	488.12
474.625	429.12
474.844	420.12
475.063	400.12
475.282	379.12
475.501	405.12
475.72	405.12
475.939	391.12
476.158	400.12
476.377	421.12
476.596	412.12
476.814	422.12
477.033	429.12
477.252	401.12
477.471	414.12
477.69	394.12
477.908	435.12
478.127	451.12
478.346	431.12
478.564	445.12
478.783	454.12
479.002	452.12
479.22	459.12
479.439	464.12
479.658	479.12
479.876	453.12
480.095	486.12
480.313	490.12
480.532	494.12
480.751	481.12
480.969	479.12
481.188	525.12
481.406	511.12
481.624	497.12
481.843	483.12
482.061	457.12
482.28	468.12
482.498	475.12
482.717	439.12
482.935	446.12
483.153	431.12
483.372	446.12
483.59	446.12
483.808	433.12
484.027	439.12
484.245	447.12
484.463	460.12
484.681	469.12
484.9	467.12
485.118	440.12
485.336	440.12
485.554	475.12
485.772	471.12
485.99	467.12
486.209	464.12
486.427	469.12
486.645	456.12
486.863	483.12
487.081	470.12
487.299	479.12
487.517	459.12
487.735	471.12
487.953	475.12
488.171	475.12
488.389	478.12
488.607	462.12
488.825	492.12
489.043	454.12
489.261	487.12
489.479	495.12
489.696	483.12
489.914	479.12
490.132	478.12
490.35	504.12
490.568	518.12
490.786	505.12
491.003	503.12
491.221	492.12
491.439	518.12
491.657	536.12
491.874	547.12
492.092	544.12
492.31	516.12
492.527	541.12
492.745	530.12
492.963	543.12
493.18	537.12
493.398	549.12
493.615	539.12
493.833	556.12
494.05	542.12
494.268	564.12
494.485	567.12
494.703	538.12
494.92	559.12
495.138	573.12
495.355	553.12
495.573	555.12
495.79	533.12
496.008	567.12
496.225	538.12
496.442	560.12
496.66	559.12
496.877	567.12
497.094	575.12
497.312	576.12
497.529	581.12
497.746	601.12
497.963	585.12
498.181	593.12
498.398	611.12
498.615	633.12
498.832	651.12
499.049	684.12
499.267	693.12
499.484	725.12
499.701	753.12
499.918	772.12
500.135	825.12
500.352	893.12
500.569	895.12
500.786	890.12
501.003	874.12
501.22	816.12
501.437	799.12
501.654	768.12
501.871	715.12
502.088	678.12
