Data from 1964.PennyLincolnUp.Lamp.En5.5.200Scan.071719.P1._HRD10591_14-03-50-908.txt Node
Date: Thu Jul 18 14:03:50 EDT 2019
User: cochatt
Spectrometer: HR+D1059
Trigger mode: 1
Integration Time (sec): 1.000000E-1
Scans to average: 1
Electric dark correction enabled: true
Nonlinearity correction enabled: false
Boxcar width: 0
XAxis mode: Wavelengths
Number of Pixels in Spectrum: 2048
>>>>>Begin Spectral Data<<<<<
223.165	-13.81
223.4	-13.81
223.635	-13.81
223.869	-29.81
224.104	-2.81
224.338	-18.81
224.573	-2.81
224.808	-14.81
225.042	-3.81
225.277	6.19
225.511	-13.81
225.746	-21.81
225.98	4.19
226.215	20.19
226.449	9.19
226.683	24.19
226.918	27.19
227.152	31.19
227.387	28.19
227.621	25.19
227.856	41.19
228.09	38.19
228.324	41.19
228.559	51.19
228.793	59.19
229.027	95.19
229.262	89.19
229.496	84.19
229.73	115.19
229.964	123.19
230.199	116.19
230.433	117.19
230.667	108.19
230.901	107.19
231.136	92.19
231.37	112.19
231.604	107.19
231.838	111.19
232.072	111.19
232.306	105.19
232.541	103.19
232.775	100.19
233.009	106.19
233.243	111.19
233.477	120.19
233.711	104.19
233.945	106.19
234.179	104.19
234.413	116.19
234.647	123.19
234.881	112.19
235.115	106.19
235.349	116.19
235.583	131.19
235.817	116.19
236.051	108.19
236.285	111.19
236.519	119.19
236.753	113.19
236.987	133.19
237.221	164.19
237.455	180.19
237.689	153.19
237.922	147.19
238.156	139.19
238.39	113.19
238.624	127.19
238.858	109.19
239.091	130.19
239.325	108.19
239.559	113.19
239.793	111.19
240.027	114.19
240.26	142.19
240.494	143.19
240.728	117.19
240.961	131.19
241.195	140.19
241.429	128.19
241.662	129.19
241.896	129.19
242.13	116.19
242.363	119.19
242.597	114.19
242.83	134.19
243.064	131.19
243.298	144.19
243.531	142.19
243.765	131.19
243.998	139.19
244.232	141.19
244.465	135.19
244.699	139.19
244.932	155.19
245.166	155.19
245.399	149.19
245.633	154.19
245.866	145.19
246.099	139.19
246.333	148.19
246.566	144.19
246.8	143.19
247.033	160.19
247.266	151.19
247.5	153.19
247.733	154.19
247.966	181.19
248.2	149.19
248.433	154.19
248.666	164.19
248.899	176.19
249.133	169.19
249.366	199.19
249.599	175.19
249.832	158.19
250.066	171.19
250.299	187.19
250.532	186.19
250.765	186.19
250.998	192.19
251.231	216.19
251.465	202.19
251.698	191.19
251.931	179.19
252.164	199.19
252.397	188.19
252.63	184.19
252.863	193.19
253.096	201.19
253.329	205.19
253.562	216.19
253.795	212.19
254.028	205.19
254.261	189.19
254.494	197.19
254.727	246.19
254.96	227.19
255.193	225.19
255.426	232.19
255.659	224.19
255.892	231.19
256.124	227.19
256.357	221.19
256.59	183.19
256.823	205.19
257.056	200.19
257.289	188.19
257.521	224.19
257.754	219.19
257.987	189.19
258.22	213.19
258.452	200.19
258.685	212.19
258.918	201.19
259.151	192.19
259.383	203.19
259.616	226.19
259.849	209.19
260.081	237.19
260.314	245.19
260.547	242.19
260.779	242.19
261.012	224.19
261.244	210.19
261.477	218.19
261.71	224.19
261.942	215.19
262.175	209.19
262.407	219.19
262.64	220.19
262.872	204.19
263.105	205.19
263.337	229.19
263.57	230.19
263.802	222.19
264.035	226.19
264.267	206.19
264.499	219.19
264.732	206.19
264.964	209.19
265.197	217.19
265.429	217.19
265.661	215.19
265.894	227.19
266.126	228.19
266.358	215.19
266.591	239.19
266.823	229.19
267.055	218.19
267.287	236.19
267.52	226.19
267.752	240.19
267.984	233.19
268.216	227.19
268.448	250.19
268.681	240.19
268.913	244.19
269.145	263.19
269.377	268.19
269.609	274.19
269.841	264.19
270.073	260.19
270.306	271.19
270.538	300.19
270.77	288.19
271.002	273.19
271.234	275.19
271.466	280.19
271.698	288.19
271.93	309.19
272.162	301.19
272.394	300.19
272.626	284.19
272.858	264.19
273.09	269.19
273.322	265.19
273.553	275.19
273.785	249.19
274.017	272.19
274.249	274.19
274.481	263.19
274.713	251.19
274.945	288.19
275.176	253.19
275.408	273.19
275.64	276.19
275.872	273.19
276.104	264.19
276.335	280.19
276.567	281.19
276.799	275.19
277.031	284.19
277.262	303.19
277.494	312.19
277.726	326.19
277.957	292.19
278.189	290.19
278.421	274.19
278.652	276.19
278.884	285.19
279.115	267.19
279.347	275.19
279.579	283.19
279.81	291.19
280.042	284.19
280.273	304.19
280.505	283.19
280.736	285.19
280.968	292.19
281.199	284.19
281.431	277.19
281.662	277.19
281.894	268.19
282.125	288.19
282.356	296.19
282.588	288.19
282.819	303.19
283.051	298.19
283.282	289.19
283.513	289.19
283.745	288.19
283.976	289.19
284.207	283.19
284.439	291.19
284.67	296.19
284.901	293.19
285.132	293.19
285.364	302.19
285.595	296.19
285.826	305.19
286.057	309.19
286.288	296.19
286.52	301.19
286.751	307.19
286.982	300.19
287.213	312.19
287.444	300.19
287.675	289.19
287.906	305.19
288.138	311.19
288.369	303.19
288.6	313.19
288.831	300.19
289.062	315.19
289.293	296.19
289.524	303.19
289.755	331.19
289.986	296.19
290.217	316.19
290.448	317.19
290.679	309.19
290.91	315.19
291.141	300.19
291.371	311.19
291.602	307.19
291.833	333.19
292.064	304.19
292.295	310.19
292.526	298.19
292.757	297.19
292.987	300.19
293.218	315.19
293.449	307.19
293.68	333.19
293.91	306.19
294.141	324.19
294.372	307.19
294.603	316.19
294.833	313.19
295.064	318.19
295.295	324.19
295.525	313.19
295.756	320.19
295.987	327.19
296.217	313.19
296.448	337.19
296.679	326.19
296.909	330.19
297.14	321.19
297.37	322.19
297.601	319.19
297.831	323.19
298.062	328.19
298.292	331.19
298.523	321.19
298.753	339.19
298.984	328.19
299.214	336.19
299.445	343.19
299.675	347.19
299.905	344.19
300.136	333.19
300.366	345.19
300.597	313.19
300.827	343.19
301.057	358.19
301.288	330.19
301.518	342.19
301.748	354.19
301.979	343.19
302.209	360.19
302.439	349.19
302.669	341.19
302.9	359.19
303.13	358.19
303.36	331.19
303.59	329.19
303.82	360.19
304.051	360.19
304.281	360.19
304.511	345.19
304.741	335.19
304.971	339.19
305.201	351.19
305.431	360.19
305.661	365.19
305.891	353.19
306.121	344.19
306.352	369.19
306.582	345.19
306.812	367.19
307.042	337.19
307.272	370.19
307.502	348.19
307.731	370.19
307.961	360.19
308.191	344.19
308.421	345.19
308.651	353.19
308.881	352.19
309.111	359.19
309.341	360.19
309.571	387.19
309.8	361.19
310.03	352.19
310.26	400.19
310.49	370.19
310.72	367.19
310.949	388.19
311.179	383.19
311.409	369.19
311.639	381.19
311.868	363.19
312.098	385.19
312.328	381.19
312.557	389.19
312.787	388.19
313.017	385.19
313.246	394.19
313.476	387.19
313.706	381.19
313.935	386.19
314.165	418.19
314.394	398.19
314.624	385.19
314.853	369.19
315.083	381.19
315.312	393.19
315.542	394.19
315.771	395.19
316.001	402.19
316.23	383.19
316.46	371.19
316.689	383.19
316.919	387.19
317.148	403.19
317.377	399.19
317.607	385.19
317.836	402.19
318.065	405.19
318.295	395.19
318.524	386.19
318.753	383.19
318.983	383.19
319.212	392.19
319.441	399.19
319.67	403.19
319.9	395.19
320.129	375.19
320.358	384.19
320.587	378.19
320.816	406.19
321.046	396.19
321.275	389.19
321.504	403.19
321.733	417.19
321.962	400.19
322.191	418.19
322.42	423.19
322.649	407.19
322.878	392.19
323.108	450.19
323.337	445.19
323.566	456.19
323.795	459.19
324.024	499.19
324.253	538.19
324.482	740.19
324.71	1056.19
324.939	1405.19
325.168	1193.19
325.397	671.19
325.626	505.19
325.855	477.19
326.084	419.19
326.313	448.19
326.542	449.19
326.77	498.19
326.999	555.19
327.228	686.19
327.457	949.19
327.686	1064.19
327.914	744.19
328.143	556.19
328.372	511.19
328.6	516.19
328.829	461.19
329.058	517.19
329.287	475.19
329.515	474.19
329.744	465.19
329.972	458.19
330.201	477.19
330.43	492.19
330.658	513.19
330.887	533.19
331.115	525.19
331.344	470.19
331.572	437.19
331.801	464.19
332.03	467.19
332.258	455.19
332.486	439.19
332.715	468.19
332.943	468.19
333.172	482.19
333.4	495.19
333.629	481.19
333.857	496.19
334.085	512.19
334.314	483.19
334.542	522.19
334.771	519.19
334.999	505.19
335.227	488.19
335.455	463.19
335.684	464.19
335.912	467.19
336.14	443.19
336.369	469.19
336.597	461.19
336.825	439.19
337.053	461.19
337.281	442.19
337.51	449.19
337.738	442.19
337.966	445.19
338.194	470.19
338.422	445.19
338.65	447.19
338.878	442.19
339.106	450.19
339.334	437.19
339.562	455.19
339.79	438.19
340.018	419.19
340.246	423.19
340.474	423.19
340.702	402.19
340.93	440.19
341.158	421.19
341.386	433.19
341.614	426.19
341.842	421.19
342.07	439.19
342.298	422.19
342.526	408.19
342.754	404.19
342.981	432.19
343.209	421.19
343.437	425.19
343.665	423.19
343.893	450.19
344.12	467.19
344.348	460.19
344.576	447.19
344.804	447.19
345.031	429.19
345.259	450.19
345.487	432.19
345.714	439.19
345.942	431.19
346.17	408.19
346.397	410.19
346.625	415.19
346.853	411.19
347.08	409.19
347.308	413.19
347.535	413.19
347.763	391.19
347.99	399.19
348.218	415.19
348.445	434.19
348.673	408.19
348.9	419.19
349.128	394.19
349.355	390.19
349.583	403.19
349.81	407.19
350.037	404.19
350.265	396.19
350.492	402.19
350.72	403.19
350.947	389.19
351.174	405.19
351.402	409.19
351.629	411.19
351.856	398.19
352.083	403.19
352.311	403.19
352.538	401.19
352.765	413.19
352.992	398.19
353.22	396.19
353.447	385.19
353.674	395.19
353.901	387.19
354.128	406.19
354.355	383.19
354.583	388.19
354.81	391.19
355.037	381.19
355.264	379.19
355.491	378.19
355.718	389.19
355.945	383.19
356.172	400.19
356.399	367.19
356.626	361.19
356.853	391.19
357.08	396.19
357.307	389.19
357.534	408.19
357.761	399.19
357.988	385.19
358.215	376.19
358.441	391.19
358.668	400.19
358.895	388.19
359.122	370.19
359.349	394.19
359.576	405.19
359.802	424.19
360.029	411.19
360.256	398.19
360.483	419.19
360.709	389.19
360.936	392.19
361.163	385.19
361.39	373.19
361.616	386.19
361.843	395.19
362.07	380.19
362.296	404.19
362.523	385.19
362.749	395.19
362.976	381.19
363.203	375.19
363.429	378.19
363.656	390.19
363.882	375.19
364.109	367.19
364.335	379.19
364.562	384.19
364.788	371.19
365.015	385.19
365.241	383.19
365.468	379.19
365.694	373.19
365.92	359.19
366.147	374.19
366.373	379.19
366.599	364.19
366.826	371.19
367.052	375.19
367.278	392.19
367.505	400.19
367.731	376.19
367.957	369.19
368.184	385.19
368.41	376.19
368.636	382.19
368.862	374.19
369.089	394.19
369.315	384.19
369.541	383.19
369.767	377.19
369.993	389.19
370.219	387.19
370.445	385.19
370.672	389.19
370.898	390.19
371.124	379.19
371.35	391.19
371.576	404.19
371.802	381.19
372.028	372.19
372.254	393.19
372.48	379.19
372.706	406.19
372.932	391.19
373.158	396.19
373.384	387.19
373.61	377.19
373.835	391.19
374.061	405.19
374.287	411.19
374.513	413.19
374.739	396.19
374.965	392.19
375.191	411.19
375.416	390.19
375.642	401.19
375.868	395.19
376.094	403.19
376.319	391.19
376.545	393.19
376.771	406.19
376.997	389.19
377.222	377.19
377.448	412.19
377.674	380.19
377.899	365.19
378.125	375.19
378.35	380.19
378.576	379.19
378.802	370.19
379.027	395.19
379.253	376.19
379.478	379.19
379.704	383.19
379.929	373.19
380.155	389.19
380.38	388.19
380.606	380.19
380.831	376.19
381.057	391.19
381.282	381.19
381.507	390.19
381.733	376.19
381.958	359.19
382.184	394.19
382.409	404.19
382.634	380.19
382.86	383.19
383.085	380.19
383.31	393.19
383.535	404.19
383.761	420.19
383.986	396.19
384.211	427.19
384.436	378.19
384.662	407.19
384.887	421.19
385.112	400.19
385.337	419.19
385.562	401.19
385.787	411.19
386.013	425.19
386.238	437.19
386.463	431.19
386.688	411.19
386.913	427.19
387.138	412.19
387.363	400.19
387.588	412.19
387.813	402.19
388.038	395.19
388.263	398.19
388.488	425.19
388.713	410.19
388.938	427.19
389.163	415.19
389.387	420.19
389.612	420.19
389.837	411.19
390.062	402.19
390.287	410.19
390.512	418.19
390.736	417.19
390.961	415.19
391.186	421.19
391.411	392.19
391.636	424.19
391.86	419.19
392.085	433.19
392.31	436.19
392.534	422.19
392.759	420.19
392.984	438.19
393.208	428.19
393.433	417.19
393.658	428.19
393.882	407.19
394.107	401.19
394.331	432.19
394.556	433.19
394.78	417.19
395.005	427.19
395.229	414.19
395.454	431.19
395.678	441.19
395.903	447.19
396.127	441.19
396.352	461.19
396.576	446.19
396.801	432.19
397.025	428.19
397.249	420.19
397.474	438.19
397.698	448.19
397.922	448.19
398.147	466.19
398.371	457.19
398.595	458.19
398.82	476.19
399.044	477.19
399.268	497.19
399.492	543.19
399.717	557.19
399.941	583.19
400.165	587.19
400.389	575.19
400.613	539.19
400.837	491.19
401.062	469.19
401.286	482.19
401.51	475.19
401.734	457.19
401.958	473.19
402.182	478.19
402.406	465.19
402.63	474.19
402.854	480.19
403.078	489.19
403.302	497.19
403.526	466.19
403.75	497.19
403.974	507.19
404.198	495.19
404.422	499.19
404.645	514.19
404.869	490.19
405.093	533.19
405.317	569.19
405.541	567.19
405.765	510.19
405.988	492.19
406.212	533.19
406.436	509.19
406.66	520.19
406.883	532.19
407.107	548.19
407.331	582.19
407.555	610.19
407.778	616.19
408.002	554.19
408.226	541.19
408.449	526.19
408.673	535.19
408.896	512.19
409.12	559.19
409.344	546.19
409.567	503.19
409.791	479.19
410.014	488.19
410.238	473.19
410.461	471.19
410.685	480.19
410.908	511.19
411.132	495.19
411.355	535.19
411.578	522.19
411.802	481.19
412.025	466.19
412.249	488.19
412.472	497.19
412.695	514.19
412.919	523.19
413.142	502.19
413.365	481.19
413.589	468.19
413.812	456.19
414.035	460.19
414.258	460.19
414.482	464.19
414.705	469.19
414.928	452.19
415.151	465.19
415.374	449.19
415.597	455.19
415.821	436.19
416.044	449.19
416.267	446.19
416.49	447.19
416.713	437.19
416.936	447.19
417.159	438.19
417.382	450.19
417.605	432.19
417.828	441.19
418.051	455.19
418.274	463.19
418.497	450.19
418.72	423.19
418.943	432.19
419.166	474.19
419.389	475.19
419.611	488.19
419.834	487.19
420.057	471.19
420.28	468.19
420.503	469.19
420.726	453.19
420.948	475.19
421.171	507.19
421.394	523.19
421.617	496.19
421.839	466.19
422.062	443.19
422.285	474.19
422.507	480.19
422.73	576.19
422.953	536.19
423.175	467.19
423.398	497.19
423.621	497.19
423.843	506.19
424.066	487.19
424.288	499.19
424.511	499.19
424.733	534.19
424.956	591.19
425.178	575.19
425.401	548.19
425.623	582.19
425.846	488.19
426.068	474.19
426.291	470.19
426.513	475.19
426.735	460.19
426.958	499.19
427.18	575.19
427.402	662.19
427.625	691.19
427.847	604.19
428.069	539.19
428.292	496.19
428.514	468.19
428.736	456.19
428.958	427.19
429.181	444.19
429.403	433.19
429.625	452.19
429.847	461.19
430.069	508.19
430.292	506.19
430.514	455.19
430.736	443.19
430.958	441.19
431.18	432.19
431.402	420.19
431.624	404.19
431.846	413.19
432.068	403.19
432.29	432.19
432.512	435.19
432.734	433.19
432.956	415.19
433.178	404.19
433.4	444.19
433.622	416.19
433.844	416.19
434.066	437.19
434.287	423.19
434.509	428.19
434.731	419.19
434.953	457.19
435.175	447.19
435.397	465.19
435.618	472.19
435.84	477.19
436.062	564.19
436.284	600.19
436.505	513.19
436.727	459.19
436.949	455.19
437.17	452.19
437.392	442.19
437.614	445.19
437.835	458.19
438.057	511.19
438.278	577.19
438.5	592.19
438.721	649.19
438.943	617.19
439.165	505.19
439.386	471.19
439.608	458.19
439.829	460.19
440.05	476.19
440.272	525.19
440.493	473.19
440.715	449.19
440.936	457.19
441.158	441.19
441.379	441.19
441.6	438.19
441.822	452.19
442.043	482.19
442.264	561.19
442.486	578.19
442.707	469.19
442.928	463.19
443.149	499.19
443.371	513.19
443.592	528.19
443.813	615.19
444.034	638.19
444.255	551.19
444.476	479.19
444.698	474.19
444.919	483.19
445.14	601.19
445.361	532.19
445.582	488.19
445.803	537.19
446.024	604.19
446.245	625.19
446.466	577.19
446.687	473.19
446.908	458.19
447.129	421.19
447.35	422.19
447.571	441.19
447.792	426.19
448.013	426.19
448.234	432.19
448.455	471.19
448.675	525.19
448.896	634.19
449.117	543.19
449.338	506.19
449.559	582.19
449.779	667.19
450	529.19
450.221	458.19
450.442	439.19
450.662	412.19
450.883	405.19
451.104	401.19
451.324	418.19
451.545	388.19
451.766	395.19
451.986	381.19
452.207	391.19
452.428	359.19
452.648	385.19
452.869	359.19
453.089	379.19
453.31	409.19
453.53	391.19
453.751	388.19
453.971	379.19
454.192	386.19
454.412	387.19
454.633	401.19
454.853	371.19
455.073	390.19
455.294	391.19
455.514	437.19
455.734	405.19
455.955	395.19
456.175	367.19
456.395	369.19
456.616	380.19
456.836	358.19
457.056	365.19
457.276	359.19
457.497	364.19
457.717	360.19
457.937	380.19
458.157	362.19
458.377	378.19
458.598	405.19
458.818	417.19
459.038	452.19
459.258	460.19
459.478	433.19
459.698	422.19
459.918	426.19
460.138	427.19
460.358	416.19
460.578	435.19
460.798	442.19
461.018	436.19
461.238	459.19
461.458	419.19
461.678	440.19
461.898	441.19
462.118	437.19
462.338	448.19
462.558	451.19
462.777	456.19
462.997	484.19
463.217	504.19
463.437	497.19
463.657	480.19
463.876	475.19
464.096	477.19
464.316	437.19
464.536	468.19
464.755	485.19
464.975	472.19
465.195	470.19
465.414	483.19
465.634	458.19
465.854	431.19
466.073	422.19
466.293	411.19
466.512	401.19
466.732	399.19
466.951	404.19
467.171	397.19
467.391	424.19
467.61	415.19
467.829	397.19
468.049	411.19
468.268	399.19
468.488	363.19
468.707	391.19
468.927	387.19
469.146	389.19
469.365	409.19
469.585	407.19
469.804	414.19
470.023	396.19
470.243	401.19
470.462	417.19
470.681	402.19
470.901	430.19
471.12	409.19
471.339	383.19
471.558	415.19
471.777	396.19
471.997	415.19
472.216	399.19
472.435	443.19
472.654	439.19
472.873	408.19
473.092	413.19
473.311	384.19
473.53	403.19
473.749	401.19
473.968	426.19
474.187	511.19
474.406	516.19
474.625	433.19
474.844	415.19
475.063	406.19
475.282	414.19
475.501	410.19
475.72	411.19
475.939	402.19
476.158	407.19
476.377	404.19
476.596	412.19
476.814	429.19
477.033	420.19
477.252	443.19
477.471	416.19
477.69	427.19
477.908	419.19
478.127	442.19
478.346	435.19
478.564	448.19
478.783	451.19
479.002	487.19
479.22	455.19
479.439	474.19
479.658	480.19
479.876	477.19
480.095	461.19
480.313	511.19
480.532	498.19
480.751	491.19
480.969	489.19
481.188	533.19
481.406	526.19
481.624	484.19
481.843	472.19
482.061	459.19
482.28	474.19
482.498	457.19
482.717	467.19
482.935	466.19
483.153	455.19
483.372	459.19
483.59	469.19
483.808	462.19
484.027	468.19
484.245	464.19
484.463	471.19
484.681	489.19
484.9	481.19
485.118	467.19
485.336	461.19
485.554	469.19
485.772	482.19
485.99	470.19
486.209	497.19
486.427	467.19
486.645	489.19
486.863	506.19
487.081	488.19
487.299	484.19
487.517	511.19
487.735	515.19
487.953	496.19
488.171	507.19
488.389	481.19
488.607	492.19
488.825	472.19
489.043	481.19
489.261	484.19
489.479	496.19
489.696	494.19
489.914	509.19
490.132	498.19
490.35	507.19
490.568	502.19
490.786	508.19
491.003	537.19
491.221	537.19
491.439	532.19
491.657	541.19
491.874	550.19
492.092	534.19
492.31	565.19
492.527	554.19
492.745	535.19
492.963	552.19
493.18	573.19
493.398	579.19
493.615	559.19
493.833	541.19
494.05	543.19
494.268	573.19
494.485	555.19
494.703	569.19
494.92	568.19
495.138	561.19
495.355	575.19
495.573	570.19
495.79	556.19
496.008	564.19
496.225	574.19
496.442	577.19
496.66	568.19
496.877	589.19
497.094	570.19
497.312	569.19
497.529	587.19
497.746	594.19
497.963	627.19
498.181	651.19
498.398	667.19
498.615	644.19
498.832	667.19
499.049	677.19
499.267	708.19
499.484	746.19
499.701	773.19
499.918	792.19
500.135	845.19
500.352	902.19
500.569	890.19
500.786	899.19
501.003	869.19
501.22	861.19
501.437	795.19
501.654	763.19
501.871	744.19
502.088	746.19
