Data from 1964.PennyLincolnUp.Lamp.En5.5.200Scan.071719.P1._HRD10591_14-05-06-909.txt Node
Date: Thu Jul 18 14:05:06 EDT 2019
User: cochatt
Spectrometer: HR+D1059
Trigger mode: 1
Integration Time (sec): 1.000000E-1
Scans to average: 1
Electric dark correction enabled: true
Nonlinearity correction enabled: false
Boxcar width: 0
XAxis mode: Wavelengths
Number of Pixels in Spectrum: 2048
>>>>>Begin Spectral Data<<<<<
223.165	-12.75
223.4	-12.75
223.635	-12.75
223.869	-19.75
224.104	-18.75
224.338	-5.75
224.573	-27.75
224.808	-22.75
225.042	-4.75
225.277	-3.75
225.511	-6.75
225.746	7.25
225.98	1.25
226.215	7.25
226.449	10.25
226.683	33.25
226.918	25.25
227.152	38.25
227.387	26.25
227.621	31.25
227.856	46.25
228.09	43.25
228.324	53.25
228.559	56.25
228.793	70.25
229.027	90.25
229.262	97.25
229.496	97.25
229.73	116.25
229.964	139.25
230.199	117.25
230.433	105.25
230.667	105.25
230.901	118.25
231.136	102.25
231.37	118.25
231.604	99.25
231.838	103.25
232.072	108.25
232.306	109.25
232.541	117.25
232.775	100.25
233.009	107.25
233.243	113.25
233.477	121.25
233.711	119.25
233.945	116.25
234.179	119.25
234.413	117.25
234.647	108.25
234.881	107.25
235.115	109.25
235.349	106.25
235.583	115.25
235.817	110.25
236.051	113.25
236.285	129.25
236.519	120.25
236.753	142.25
236.987	137.25
237.221	165.25
237.455	197.25
237.689	156.25
237.922	146.25
238.156	117.25
238.39	118.25
238.624	114.25
238.858	123.25
239.091	127.25
239.325	124.25
239.559	123.25
239.793	141.25
240.027	126.25
240.26	133.25
240.494	151.25
240.728	143.25
240.961	145.25
241.195	118.25
241.429	137.25
241.662	123.25
241.896	132.25
242.13	129.25
242.363	138.25
242.597	123.25
242.83	133.25
243.064	141.25
243.298	142.25
243.531	132.25
243.765	124.25
243.998	141.25
244.232	152.25
244.465	137.25
244.699	147.25
244.932	143.25
245.166	154.25
245.399	136.25
245.633	139.25
245.866	145.25
246.099	151.25
246.333	145.25
246.566	138.25
246.8	145.25
247.033	145.25
247.266	167.25
247.5	158.25
247.733	156.25
247.966	157.25
248.2	152.25
248.433	195.25
248.666	168.25
248.899	170.25
249.133	181.25
249.366	191.25
249.599	201.25
249.832	186.25
250.066	180.25
250.299	170.25
250.532	198.25
250.765	206.25
250.998	224.25
251.231	215.25
251.465	217.25
251.698	202.25
251.931	199.25
252.164	196.25
252.397	209.25
252.63	201.25
252.863	193.25
253.096	205.25
253.329	207.25
253.562	221.25
253.795	212.25
254.028	204.25
254.261	218.25
254.494	217.25
254.727	238.25
254.96	248.25
255.193	247.25
255.426	241.25
255.659	233.25
255.892	221.25
256.124	216.25
256.357	231.25
256.59	225.25
256.823	201.25
257.056	217.25
257.289	224.25
257.521	216.25
257.754	199.25
257.987	206.25
258.22	227.25
258.452	194.25
258.685	207.25
258.918	205.25
259.151	224.25
259.383	228.25
259.616	213.25
259.849	224.25
260.081	247.25
260.314	255.25
260.547	246.25
260.779	231.25
261.012	242.25
261.244	232.25
261.477	226.25
261.71	218.25
261.942	232.25
262.175	238.25
262.407	222.25
262.64	217.25
262.872	216.25
263.105	242.25
263.337	225.25
263.57	228.25
263.802	207.25
264.035	226.25
264.267	218.25
264.499	230.25
264.732	219.25
264.964	230.25
265.197	223.25
265.429	218.25
265.661	213.25
265.894	213.25
266.126	240.25
266.358	219.25
266.591	228.25
266.823	236.25
267.055	221.25
267.287	235.25
267.52	231.25
267.752	226.25
267.984	243.25
268.216	236.25
268.448	251.25
268.681	251.25
268.913	264.25
269.145	266.25
269.377	265.25
269.609	286.25
269.841	268.25
270.073	285.25
270.306	286.25
270.538	293.25
270.77	289.25
271.002	307.25
271.234	286.25
271.466	291.25
271.698	299.25
271.93	316.25
272.162	322.25
272.394	317.25
272.626	295.25
272.858	280.25
273.09	275.25
273.322	293.25
273.553	285.25
273.785	289.25
274.017	291.25
274.249	273.25
274.481	281.25
274.713	283.25
274.945	290.25
275.176	271.25
275.408	270.25
275.64	254.25
275.872	270.25
276.104	293.25
276.335	262.25
276.567	278.25
276.799	313.25
277.031	285.25
277.262	310.25
277.494	305.25
277.726	312.25
277.957	300.25
278.189	294.25
278.421	291.25
278.652	286.25
278.884	289.25
279.115	287.25
279.347	290.25
279.579	273.25
279.81	281.25
280.042	284.25
280.273	285.25
280.505	293.25
280.736	269.25
280.968	266.25
281.199	295.25
281.431	292.25
281.662	307.25
281.894	289.25
282.125	283.25
282.356	306.25
282.588	309.25
282.819	314.25
283.051	297.25
283.282	295.25
283.513	319.25
283.745	305.25
283.976	314.25
284.207	308.25
284.439	299.25
284.67	301.25
284.901	306.25
285.132	298.25
285.364	294.25
285.595	318.25
285.826	299.25
286.057	298.25
286.288	293.25
286.52	303.25
286.751	292.25
286.982	315.25
287.213	313.25
287.444	308.25
287.675	332.25
287.906	331.25
288.138	323.25
288.369	309.25
288.6	337.25
288.831	323.25
289.062	323.25
289.293	335.25
289.524	301.25
289.755	317.25
289.986	330.25
290.217	315.25
290.448	322.25
290.679	330.25
290.91	316.25
291.141	313.25
291.371	329.25
291.602	314.25
291.833	323.25
292.064	314.25
292.295	310.25
292.526	324.25
292.757	334.25
292.987	310.25
293.218	306.25
293.449	316.25
293.68	316.25
293.91	314.25
294.141	314.25
294.372	316.25
294.603	316.25
294.833	314.25
295.064	319.25
295.295	328.25
295.525	338.25
295.756	339.25
295.987	335.25
296.217	330.25
296.448	353.25
296.679	341.25
296.909	330.25
297.14	332.25
297.37	358.25
297.601	335.25
297.831	317.25
298.062	322.25
298.292	318.25
298.523	329.25
298.753	347.25
298.984	330.25
299.214	337.25
299.445	342.25
299.675	341.25
299.905	354.25
300.136	333.25
300.366	339.25
300.597	345.25
300.827	349.25
301.057	365.25
301.288	350.25
301.518	353.25
301.748	341.25
301.979	356.25
302.209	336.25
302.439	362.25
302.669	351.25
302.9	373.25
303.13	362.25
303.36	363.25
303.59	367.25
303.82	368.25
304.051	361.25
304.281	367.25
304.511	357.25
304.741	355.25
304.971	355.25
305.201	371.25
305.431	351.25
305.661	358.25
305.891	357.25
306.121	346.25
306.352	358.25
306.582	356.25
306.812	348.25
307.042	365.25
307.272	369.25
307.502	379.25
307.731	365.25
307.961	369.25
308.191	349.25
308.421	375.25
308.651	364.25
308.881	363.25
309.111	379.25
309.341	389.25
309.571	359.25
309.8	370.25
310.03	359.25
310.26	379.25
310.49	381.25
310.72	409.25
310.949	395.25
311.179	387.25
311.409	385.25
311.639	401.25
311.868	384.25
312.098	386.25
312.328	393.25
312.557	392.25
312.787	393.25
313.017	419.25
313.246	408.25
313.476	397.25
313.706	394.25
313.935	399.25
314.165	407.25
314.394	406.25
314.624	414.25
314.853	398.25
315.083	398.25
315.312	402.25
315.542	398.25
315.771	383.25
316.001	389.25
316.23	372.25
316.46	380.25
316.689	383.25
316.919	407.25
317.148	406.25
317.377	415.25
317.607	402.25
317.836	412.25
318.065	403.25
318.295	407.25
318.524	403.25
318.753	395.25
318.983	380.25
319.212	411.25
319.441	400.25
319.67	421.25
319.9	414.25
320.129	387.25
320.358	414.25
320.587	398.25
320.816	412.25
321.046	430.25
321.275	402.25
321.504	393.25
321.733	415.25
321.962	419.25
322.191	433.25
322.42	437.25
322.649	440.25
322.878	421.25
323.108	444.25
323.337	451.25
323.566	465.25
323.795	499.25
324.024	523.25
324.253	583.25
324.482	796.25
324.71	1125.25
324.939	1518.25
325.168	1304.25
325.397	724.25
325.626	546.25
325.855	508.25
326.084	469.25
326.313	471.25
326.542	477.25
326.77	517.25
326.999	569.25
327.228	722.25
327.457	1009.25
327.686	1146.25
327.914	784.25
328.143	585.25
328.372	538.25
328.6	539.25
328.829	492.25
329.058	538.25
329.287	500.25
329.515	519.25
329.744	482.25
329.972	473.25
330.201	481.25
330.43	527.25
330.658	525.25
330.887	525.25
331.115	518.25
331.344	467.25
331.572	491.25
331.801	487.25
332.03	467.25
332.258	477.25
332.486	463.25
332.715	467.25
332.943	492.25
333.172	483.25
333.4	469.25
333.629	479.25
333.857	520.25
334.085	501.25
334.314	535.25
334.542	536.25
334.771	561.25
334.999	490.25
335.227	487.25
335.455	501.25
335.684	491.25
335.912	487.25
336.14	472.25
336.369	451.25
336.597	467.25
336.825	466.25
337.053	450.25
337.281	478.25
337.51	474.25
337.738	442.25
337.966	442.25
338.194	479.25
338.422	472.25
338.65	461.25
338.878	445.25
339.106	456.25
339.334	456.25
339.562	444.25
339.79	426.25
340.018	443.25
340.246	435.25
340.474	437.25
340.702	442.25
340.93	457.25
341.158	439.25
341.386	454.25
341.614	429.25
341.842	435.25
342.07	436.25
342.298	443.25
342.526	439.25
342.754	429.25
342.981	425.25
343.209	426.25
343.437	444.25
343.665	446.25
343.893	480.25
344.12	464.25
344.348	468.25
344.576	470.25
344.804	464.25
345.031	460.25
345.259	443.25
345.487	448.25
345.714	425.25
345.942	421.25
346.17	430.25
346.397	431.25
346.625	407.25
346.853	418.25
347.08	415.25
347.308	427.25
347.535	424.25
347.763	434.25
347.99	435.25
348.218	422.25
348.445	420.25
348.673	426.25
348.9	418.25
349.128	430.25
349.355	407.25
349.583	393.25
349.81	393.25
350.037	419.25
350.265	409.25
350.492	397.25
350.72	397.25
350.947	429.25
351.174	409.25
351.402	435.25
351.629	399.25
351.856	421.25
352.083	402.25
352.311	426.25
352.538	423.25
352.765	421.25
352.992	419.25
353.22	434.25
353.447	418.25
353.674	405.25
353.901	407.25
354.128	408.25
354.355	390.25
354.583	396.25
354.81	418.25
355.037	391.25
355.264	383.25
355.491	377.25
355.718	388.25
355.945	391.25
356.172	392.25
356.399	383.25
356.626	389.25
356.853	388.25
357.08	395.25
357.307	393.25
357.534	405.25
357.761	385.25
357.988	408.25
358.215	397.25
358.441	382.25
358.668	385.25
358.895	385.25
359.122	393.25
359.349	388.25
359.576	414.25
359.802	403.25
360.029	415.25
360.256	435.25
360.483	414.25
360.709	404.25
360.936	403.25
361.163	407.25
361.39	407.25
361.616	414.25
361.843	412.25
362.07	403.25
362.296	407.25
362.523	404.25
362.749	419.25
362.976	413.25
363.203	392.25
363.429	400.25
363.656	390.25
363.882	376.25
364.109	393.25
364.335	389.25
364.562	391.25
364.788	409.25
365.015	389.25
365.241	391.25
365.468	394.25
365.694	406.25
365.92	390.25
366.147	396.25
366.373	398.25
366.599	392.25
366.826	381.25
367.052	391.25
367.278	382.25
367.505	387.25
367.731	379.25
367.957	379.25
368.184	378.25
368.41	364.25
368.636	401.25
368.862	389.25
369.089	399.25
369.315	413.25
369.541	384.25
369.767	382.25
369.993	382.25
370.219	384.25
370.445	405.25
370.672	371.25
370.898	411.25
371.124	394.25
371.35	390.25
371.576	388.25
371.802	386.25
372.028	386.25
372.254	415.25
372.48	396.25
372.706	376.25
372.932	385.25
373.158	381.25
373.384	394.25
373.61	415.25
373.835	395.25
374.061	389.25
374.287	393.25
374.513	418.25
374.739	390.25
374.965	404.25
375.191	396.25
375.416	418.25
375.642	399.25
375.868	387.25
376.094	409.25
376.319	396.25
376.545	377.25
376.771	366.25
376.997	402.25
377.222	381.25
377.448	379.25
377.674	392.25
377.899	376.25
378.125	404.25
378.35	411.25
378.576	389.25
378.802	373.25
379.027	386.25
379.253	387.25
379.478	390.25
379.704	398.25
379.929	409.25
380.155	391.25
380.38	392.25
380.606	399.25
380.831	380.25
381.057	404.25
381.282	401.25
381.507	365.25
381.733	395.25
381.958	391.25
382.184	389.25
382.409	381.25
382.634	405.25
382.86	392.25
383.085	401.25
383.31	396.25
383.535	412.25
383.761	409.25
383.986	403.25
384.211	427.25
384.436	422.25
384.662	405.25
384.887	421.25
385.112	392.25
385.337	428.25
385.562	422.25
385.787	447.25
386.013	421.25
386.238	425.25
386.463	418.25
386.688	442.25
386.913	424.25
387.138	424.25
387.363	423.25
387.588	419.25
387.813	434.25
388.038	435.25
388.263	422.25
388.488	419.25
388.713	427.25
388.938	419.25
389.163	414.25
389.387	423.25
389.612	430.25
389.837	414.25
390.062	437.25
390.287	399.25
390.512	419.25
390.736	430.25
390.961	441.25
391.186	451.25
391.411	432.25
391.636	447.25
391.86	441.25
392.085	431.25
392.31	421.25
392.534	438.25
392.759	422.25
392.984	431.25
393.208	436.25
393.433	429.25
393.658	445.25
393.882	435.25
394.107	421.25
394.331	436.25
394.556	442.25
394.78	417.25
395.005	425.25
395.229	437.25
395.454	441.25
395.678	445.25
395.903	451.25
396.127	458.25
396.352	457.25
396.576	441.25
396.801	419.25
397.025	445.25
397.249	441.25
397.474	440.25
397.698	450.25
397.922	474.25
398.147	486.25
398.371	473.25
398.595	481.25
398.82	493.25
399.044	500.25
399.268	523.25
399.492	548.25
399.717	587.25
399.941	589.25
400.165	586.25
400.389	607.25
400.613	539.25
400.837	516.25
401.062	485.25
401.286	472.25
401.51	486.25
401.734	465.25
401.958	457.25
402.182	479.25
402.406	497.25
402.63	501.25
402.854	498.25
403.078	486.25
403.302	510.25
403.526	491.25
403.75	489.25
403.974	501.25
404.198	498.25
404.422	508.25
404.645	534.25
404.869	509.25
405.093	515.25
405.317	563.25
405.541	574.25
405.765	546.25
405.988	517.25
406.212	547.25
406.436	519.25
406.66	541.25
406.883	519.25
407.107	570.25
407.331	589.25
407.555	621.25
407.778	607.25
408.002	580.25
408.226	533.25
408.449	557.25
408.673	526.25
408.896	542.25
409.12	563.25
409.344	545.25
409.567	513.25
409.791	501.25
410.014	491.25
410.238	497.25
410.461	487.25
410.685	490.25
410.908	509.25
411.132	546.25
411.355	544.25
411.578	534.25
411.802	504.25
412.025	494.25
412.249	489.25
412.472	508.25
412.695	541.25
412.919	535.25
413.142	488.25
413.365	480.25
413.589	469.25
413.812	470.25
414.035	487.25
414.258	462.25
414.482	435.25
414.705	467.25
414.928	459.25
415.151	447.25
415.374	472.25
415.597	460.25
415.821	460.25
416.044	460.25
416.267	481.25
416.49	459.25
416.713	440.25
416.936	450.25
417.159	468.25
417.382	458.25
417.605	466.25
417.828	465.25
418.051	469.25
418.274	483.25
418.497	456.25
418.72	456.25
418.943	442.25
419.166	470.25
419.389	513.25
419.611	496.25
419.834	478.25
420.057	488.25
420.28	471.25
420.503	493.25
420.726	448.25
420.948	473.25
421.171	494.25
421.394	542.25
421.617	484.25
421.839	473.25
422.062	463.25
422.285	463.25
422.507	519.25
422.73	556.25
422.953	583.25
423.175	499.25
423.398	495.25
423.621	492.25
423.843	493.25
424.066	506.25
424.288	487.25
424.511	529.25
424.733	537.25
424.956	625.25
425.178	574.25
425.401	579.25
425.623	573.25
425.846	508.25
426.068	486.25
426.291	470.25
426.513	461.25
426.735	479.25
426.958	526.25
427.18	557.25
427.402	667.25
427.625	723.25
427.847	614.25
428.069	566.25
428.292	490.25
428.514	479.25
428.736	461.25
428.958	453.25
429.181	447.25
429.403	467.25
429.625	451.25
429.847	475.25
430.069	521.25
430.292	515.25
430.514	458.25
430.736	444.25
430.958	439.25
431.18	442.25
431.402	434.25
431.624	441.25
431.846	445.25
432.068	420.25
432.29	444.25
432.512	424.25
432.734	425.25
432.956	430.25
433.178	438.25
433.4	442.25
433.622	459.25
433.844	425.25
434.066	431.25
434.287	437.25
434.509	453.25
434.731	451.25
434.953	445.25
435.175	458.25
435.397	483.25
435.618	483.25
435.84	527.25
436.062	566.25
436.284	630.25
436.505	532.25
436.727	485.25
436.949	457.25
437.17	448.25
437.392	428.25
437.614	454.25
437.835	502.25
438.057	554.25
438.278	608.25
438.5	607.25
438.721	671.25
438.943	651.25
439.165	499.25
439.386	486.25
439.608	473.25
439.829	492.25
440.05	487.25
440.272	534.25
440.493	507.25
440.715	461.25
440.936	460.25
441.158	455.25
441.379	466.25
441.6	487.25
441.822	488.25
442.043	509.25
442.264	555.25
442.486	591.25
442.707	528.25
442.928	485.25
443.149	501.25
443.371	515.25
443.592	545.25
443.813	607.25
444.034	621.25
444.255	548.25
444.476	500.25
444.698	485.25
444.919	515.25
445.14	596.25
445.361	558.25
445.582	502.25
445.803	547.25
446.024	597.25
446.245	613.25
446.466	564.25
446.687	513.25
446.908	482.25
447.129	469.25
447.35	448.25
447.571	431.25
447.792	425.25
448.013	434.25
448.234	460.25
448.455	475.25
448.675	561.25
448.896	640.25
449.117	552.25
449.338	529.25
449.559	590.25
449.779	682.25
450	535.25
450.221	453.25
450.442	444.25
450.662	424.25
450.883	422.25
451.104	429.25
451.324	416.25
451.545	419.25
451.766	407.25
451.986	408.25
452.207	385.25
452.428	387.25
452.648	391.25
452.869	390.25
453.089	395.25
453.31	408.25
453.53	407.25
453.751	381.25
453.971	417.25
454.192	413.25
454.412	400.25
454.633	387.25
454.853	381.25
455.073	406.25
455.294	412.25
455.514	455.25
455.734	449.25
455.955	387.25
456.175	381.25
456.395	382.25
456.616	375.25
456.836	383.25
457.056	372.25
457.276	366.25
457.497	382.25
457.717	381.25
457.937	383.25
458.157	362.25
458.377	391.25
458.598	382.25
458.818	429.25
459.038	474.25
459.258	480.25
459.478	455.25
459.698	430.25
459.918	428.25
460.138	420.25
460.358	441.25
460.578	445.25
460.798	437.25
461.018	460.25
461.238	433.25
461.458	439.25
461.678	430.25
461.898	454.25
462.118	437.25
462.338	443.25
462.558	457.25
462.777	481.25
462.997	481.25
463.217	510.25
463.437	513.25
463.657	489.25
463.876	482.25
464.096	472.25
464.316	462.25
464.536	479.25
464.755	460.25
464.975	472.25
465.195	505.25
465.414	519.25
465.634	453.25
465.854	443.25
466.073	423.25
466.293	396.25
466.512	383.25
466.732	426.25
466.951	406.25
467.171	399.25
467.391	401.25
467.61	414.25
467.829	421.25
468.049	406.25
468.268	405.25
468.488	400.25
468.707	396.25
468.927	387.25
469.146	406.25
469.365	404.25
469.585	394.25
469.804	401.25
470.023	429.25
470.243	409.25
470.462	411.25
470.681	414.25
470.901	425.25
471.12	425.25
471.339	400.25
471.558	411.25
471.777	420.25
471.997	407.25
472.216	439.25
472.435	426.25
472.654	408.25
472.873	415.25
473.092	417.25
473.311	388.25
473.53	420.25
473.749	423.25
473.968	442.25
474.187	529.25
474.406	517.25
474.625	473.25
474.844	437.25
475.063	430.25
475.282	395.25
475.501	418.25
475.72	413.25
475.939	421.25
476.158	425.25
476.377	397.25
476.596	421.25
476.814	436.25
477.033	450.25
477.252	444.25
477.471	463.25
477.69	436.25
477.908	457.25
478.127	439.25
478.346	471.25
478.564	460.25
478.783	459.25
479.002	482.25
479.22	471.25
479.439	482.25
479.658	489.25
479.876	490.25
480.095	495.25
480.313	509.25
480.532	518.25
480.751	486.25
480.969	521.25
481.188	537.25
481.406	554.25
481.624	516.25
481.843	510.25
482.061	461.25
482.28	457.25
482.498	465.25
482.717	461.25
482.935	463.25
483.153	475.25
483.372	464.25
483.59	481.25
483.808	487.25
484.027	476.25
484.245	477.25
484.463	477.25
484.681	489.25
484.9	487.25
485.118	480.25
485.336	468.25
485.554	470.25
485.772	481.25
485.99	491.25
486.209	502.25
486.427	497.25
486.645	488.25
486.863	482.25
487.081	492.25
487.299	486.25
487.517	483.25
487.735	520.25
487.953	500.25
488.171	493.25
488.389	503.25
488.607	486.25
488.825	515.25
489.043	459.25
489.261	513.25
489.479	481.25
489.696	518.25
489.914	519.25
490.132	511.25
490.35	516.25
490.568	513.25
490.786	547.25
491.003	546.25
491.221	570.25
491.439	552.25
491.657	558.25
491.874	539.25
492.092	548.25
492.31	554.25
492.527	572.25
492.745	553.25
492.963	556.25
493.18	562.25
493.398	583.25
493.615	574.25
493.833	555.25
494.05	583.25
494.268	565.25
494.485	573.25
494.703	578.25
494.92	582.25
495.138	566.25
495.355	575.25
495.573	586.25
495.79	605.25
496.008	608.25
496.225	562.25
496.442	581.25
496.66	578.25
496.877	590.25
497.094	589.25
497.312	577.25
497.529	587.25
497.746	601.25
497.963	635.25
498.181	649.25
498.398	653.25
498.615	664.25
498.832	680.25
499.049	706.25
499.267	714.25
499.484	766.25
499.701	781.25
499.918	811.25
500.135	845.25
500.352	877.25
500.569	893.25
500.786	901.25
501.003	901.25
501.22	860.25
501.437	814.25
501.654	777.25
501.871	778.25
502.088	731.25
