Data from 1964.PennyLincolnUp.Lamp.En5.5.200Scan.071719.P1._HRD10591_14-05-25-910.txt Node
Date: Thu Jul 18 14:05:25 EDT 2019
User: cochatt
Spectrometer: HR+D1059
Trigger mode: 1
Integration Time (sec): 1.000000E-1
Scans to average: 1
Electric dark correction enabled: true
Nonlinearity correction enabled: false
Boxcar width: 0
XAxis mode: Wavelengths
Number of Pixels in Spectrum: 2048
>>>>>Begin Spectral Data<<<<<
223.165	-15.75
223.4	-15.75
223.635	-15.75
223.869	-13.75
224.104	-16.75
224.338	-15.75
224.573	-15.75
224.808	-20.75
225.042	-19.75
225.277	-17.75
225.511	4.25
225.746	8.25
225.98	11.25
226.215	12.25
226.449	14.25
226.683	32.25
226.918	18.25
227.152	35.25
227.387	35.25
227.621	42.25
227.856	33.25
228.09	41.25
228.324	57.25
228.559	59.25
228.793	54.25
229.027	99.25
229.262	94.25
229.496	112.25
229.73	112.25
229.964	127.25
230.199	121.25
230.433	106.25
230.667	104.25
230.901	110.25
231.136	96.25
231.37	99.25
231.604	112.25
231.838	112.25
232.072	88.25
232.306	122.25
232.541	108.25
232.775	118.25
233.009	112.25
233.243	109.25
233.477	108.25
233.711	116.25
233.945	104.25
234.179	104.25
234.413	114.25
234.647	123.25
234.881	98.25
235.115	108.25
235.349	113.25
235.583	120.25
235.817	130.25
236.051	125.25
236.285	118.25
236.519	118.25
236.753	130.25
236.987	125.25
237.221	157.25
237.455	190.25
237.689	163.25
237.922	144.25
238.156	130.25
238.39	119.25
238.624	148.25
238.858	117.25
239.091	128.25
239.325	129.25
239.559	133.25
239.793	118.25
240.027	127.25
240.26	140.25
240.494	135.25
240.728	136.25
240.961	152.25
241.195	130.25
241.429	146.25
241.662	143.25
241.896	124.25
242.13	125.25
242.363	124.25
242.597	148.25
242.83	128.25
243.064	123.25
243.298	140.25
243.531	134.25
243.765	145.25
243.998	125.25
244.232	142.25
244.465	158.25
244.699	127.25
244.932	146.25
245.166	144.25
245.399	143.25
245.633	141.25
245.866	144.25
246.099	141.25
246.333	143.25
246.566	140.25
246.8	146.25
247.033	163.25
247.266	169.25
247.5	176.25
247.733	173.25
247.966	164.25
248.2	176.25
248.433	180.25
248.666	173.25
248.899	174.25
249.133	176.25
249.366	193.25
249.599	193.25
249.832	194.25
250.066	185.25
250.299	181.25
250.532	194.25
250.765	203.25
250.998	195.25
251.231	220.25
251.465	209.25
251.698	198.25
251.931	197.25
252.164	195.25
252.397	192.25
252.63	197.25
252.863	205.25
253.096	206.25
253.329	209.25
253.562	206.25
253.795	212.25
254.028	210.25
254.261	220.25
254.494	207.25
254.727	244.25
254.96	259.25
255.193	267.25
255.426	245.25
255.659	236.25
255.892	236.25
256.124	228.25
256.357	237.25
256.59	246.25
256.823	210.25
257.056	203.25
257.289	209.25
257.521	216.25
257.754	206.25
257.987	205.25
258.22	202.25
258.452	218.25
258.685	206.25
258.918	217.25
259.151	217.25
259.383	216.25
259.616	232.25
259.849	228.25
260.081	230.25
260.314	235.25
260.547	247.25
260.779	245.25
261.012	238.25
261.244	242.25
261.477	237.25
261.71	220.25
261.942	246.25
262.175	244.25
262.407	242.25
262.64	234.25
262.872	221.25
263.105	215.25
263.337	229.25
263.57	214.25
263.802	229.25
264.035	222.25
264.267	217.25
264.499	229.25
264.732	209.25
264.964	219.25
265.197	213.25
265.429	235.25
265.661	240.25
265.894	234.25
266.126	235.25
266.358	230.25
266.591	235.25
266.823	233.25
267.055	220.25
267.287	232.25
267.52	215.25
267.752	251.25
267.984	233.25
268.216	234.25
268.448	250.25
268.681	245.25
268.913	256.25
269.145	275.25
269.377	275.25
269.609	282.25
269.841	275.25
270.073	272.25
270.306	309.25
270.538	332.25
270.77	308.25
271.002	296.25
271.234	277.25
271.466	311.25
271.698	323.25
271.93	297.25
272.162	313.25
272.394	329.25
272.626	320.25
272.858	296.25
273.09	282.25
273.322	283.25
273.553	267.25
273.785	270.25
274.017	277.25
274.249	280.25
274.481	263.25
274.713	269.25
274.945	275.25
275.176	279.25
275.408	294.25
275.64	289.25
275.872	289.25
276.104	277.25
276.335	280.25
276.567	277.25
276.799	284.25
277.031	310.25
277.262	333.25
277.494	322.25
277.726	309.25
277.957	302.25
278.189	296.25
278.421	283.25
278.652	285.25
278.884	294.25
279.115	285.25
279.347	305.25
279.579	296.25
279.81	290.25
280.042	295.25
280.273	275.25
280.505	278.25
280.736	287.25
280.968	305.25
281.199	281.25
281.431	295.25
281.662	296.25
281.894	284.25
282.125	299.25
282.356	298.25
282.588	312.25
282.819	318.25
283.051	299.25
283.282	304.25
283.513	299.25
283.745	307.25
283.976	299.25
284.207	311.25
284.439	296.25
284.67	308.25
284.901	308.25
285.132	307.25
285.364	306.25
285.595	302.25
285.826	302.25
286.057	305.25
286.288	326.25
286.52	321.25
286.751	305.25
286.982	315.25
287.213	302.25
287.444	320.25
287.675	320.25
287.906	331.25
288.138	328.25
288.369	315.25
288.6	325.25
288.831	341.25
289.062	312.25
289.293	320.25
289.524	320.25
289.755	315.25
289.986	317.25
290.217	313.25
290.448	312.25
290.679	304.25
290.91	330.25
291.141	321.25
291.371	317.25
291.602	324.25
291.833	318.25
292.064	314.25
292.295	329.25
292.526	320.25
292.757	325.25
292.987	307.25
293.218	307.25
293.449	320.25
293.68	329.25
293.91	316.25
294.141	338.25
294.372	300.25
294.603	315.25
294.833	323.25
295.064	344.25
295.295	351.25
295.525	323.25
295.756	331.25
295.987	317.25
296.217	346.25
296.448	349.25
296.679	334.25
296.909	340.25
297.14	333.25
297.37	334.25
297.601	314.25
297.831	331.25
298.062	332.25
298.292	332.25
298.523	339.25
298.753	322.25
298.984	340.25
299.214	355.25
299.445	332.25
299.675	331.25
299.905	344.25
300.136	340.25
300.366	339.25
300.597	351.25
300.827	360.25
301.057	377.25
301.288	364.25
301.518	354.25
301.748	359.25
301.979	362.25
302.209	368.25
302.439	377.25
302.669	349.25
302.9	360.25
303.13	354.25
303.36	338.25
303.59	375.25
303.82	380.25
304.051	359.25
304.281	364.25
304.511	360.25
304.741	356.25
304.971	364.25
305.201	371.25
305.431	352.25
305.661	368.25
305.891	374.25
306.121	367.25
306.352	381.25
306.582	376.25
306.812	369.25
307.042	374.25
307.272	358.25
307.502	370.25
307.731	370.25
307.961	371.25
308.191	369.25
308.421	342.25
308.651	354.25
308.881	377.25
309.111	374.25
309.341	368.25
309.571	389.25
309.8	377.25
310.03	393.25
310.26	406.25
310.49	408.25
310.72	402.25
310.949	405.25
311.179	392.25
311.409	406.25
311.639	397.25
311.868	384.25
312.098	403.25
312.328	396.25
312.557	408.25
312.787	422.25
313.017	406.25
313.246	410.25
313.476	405.25
313.706	402.25
313.935	404.25
314.165	432.25
314.394	405.25
314.624	405.25
314.853	400.25
315.083	398.25
315.312	413.25
315.542	405.25
315.771	395.25
316.001	390.25
316.23	436.25
316.46	386.25
316.689	404.25
316.919	398.25
317.148	401.25
317.377	411.25
317.607	404.25
317.836	404.25
318.065	385.25
318.295	403.25
318.524	402.25
318.753	389.25
318.983	402.25
319.212	421.25
319.441	410.25
319.67	420.25
319.9	411.25
320.129	401.25
320.358	388.25
320.587	414.25
320.816	410.25
321.046	422.25
321.275	417.25
321.504	429.25
321.733	419.25
321.962	438.25
322.191	417.25
322.42	438.25
322.649	424.25
322.878	442.25
323.108	462.25
323.337	454.25
323.566	485.25
323.795	479.25
324.024	522.25
324.253	583.25
324.482	807.25
324.71	1186.25
324.939	1592.25
325.168	1351.25
325.397	752.25
325.626	555.25
325.855	496.25
326.084	488.25
326.313	483.25
326.542	485.25
326.77	505.25
326.999	579.25
327.228	733.25
327.457	1076.25
327.686	1212.25
327.914	814.25
328.143	628.25
328.372	541.25
328.6	522.25
328.829	504.25
329.058	517.25
329.287	512.25
329.515	493.25
329.744	506.25
329.972	496.25
330.201	512.25
330.43	548.25
330.658	550.25
330.887	543.25
331.115	542.25
331.344	498.25
331.572	490.25
331.801	516.25
332.03	488.25
332.258	473.25
332.486	472.25
332.715	482.25
332.943	485.25
333.172	493.25
333.4	503.25
333.629	500.25
333.857	515.25
334.085	517.25
334.314	531.25
334.542	547.25
334.771	539.25
334.999	518.25
335.227	508.25
335.455	474.25
335.684	492.25
335.912	503.25
336.14	482.25
336.369	480.25
336.597	481.25
336.825	476.25
337.053	466.25
337.281	474.25
337.51	450.25
337.738	460.25
337.966	456.25
338.194	453.25
338.422	449.25
338.65	470.25
338.878	454.25
339.106	446.25
339.334	437.25
339.562	454.25
339.79	442.25
340.018	441.25
340.246	461.25
340.474	457.25
340.702	445.25
340.93	435.25
341.158	461.25
341.386	449.25
341.614	433.25
341.842	437.25
342.07	445.25
342.298	412.25
342.526	440.25
342.754	424.25
342.981	444.25
343.209	450.25
343.437	450.25
343.665	425.25
343.893	461.25
344.12	469.25
344.348	459.25
344.576	477.25
344.804	471.25
345.031	456.25
345.259	463.25
345.487	437.25
345.714	441.25
345.942	433.25
346.17	419.25
346.397	436.25
346.625	441.25
346.853	435.25
347.08	435.25
347.308	423.25
347.535	428.25
347.763	434.25
347.99	436.25
348.218	434.25
348.445	412.25
348.673	425.25
348.9	422.25
349.128	430.25
349.355	416.25
349.583	399.25
349.81	402.25
350.037	397.25
350.265	412.25
350.492	409.25
350.72	416.25
350.947	395.25
351.174	418.25
351.402	410.25
351.629	400.25
351.856	416.25
352.083	405.25
352.311	414.25
352.538	408.25
352.765	428.25
352.992	421.25
353.22	403.25
353.447	414.25
353.674	389.25
353.901	398.25
354.128	400.25
354.355	386.25
354.583	407.25
354.81	384.25
355.037	402.25
355.264	398.25
355.491	391.25
355.718	393.25
355.945	399.25
356.172	396.25
356.399	410.25
356.626	406.25
356.853	398.25
357.08	409.25
357.307	393.25
357.534	390.25
357.761	387.25
357.988	386.25
358.215	387.25
358.441	398.25
358.668	389.25
358.895	390.25
359.122	396.25
359.349	398.25
359.576	430.25
359.802	429.25
360.029	437.25
360.256	448.25
360.483	423.25
360.709	414.25
360.936	399.25
361.163	392.25
361.39	393.25
361.616	401.25
361.843	417.25
362.07	421.25
362.296	418.25
362.523	412.25
362.749	418.25
362.976	394.25
363.203	410.25
363.429	413.25
363.656	396.25
363.882	392.25
364.109	382.25
364.335	378.25
364.562	399.25
364.788	384.25
365.015	395.25
365.241	398.25
365.468	420.25
365.694	400.25
365.92	414.25
366.147	389.25
366.373	387.25
366.599	388.25
366.826	379.25
367.052	398.25
367.278	386.25
367.505	380.25
367.731	391.25
367.957	409.25
368.184	399.25
368.41	386.25
368.636	384.25
368.862	426.25
369.089	408.25
369.315	392.25
369.541	410.25
369.767	396.25
369.993	390.25
370.219	399.25
370.445	415.25
370.672	405.25
370.898	379.25
371.124	378.25
371.35	387.25
371.576	382.25
371.802	407.25
372.028	402.25
372.254	384.25
372.48	416.25
372.706	419.25
372.932	398.25
373.158	384.25
373.384	403.25
373.61	406.25
373.835	379.25
374.061	387.25
374.287	408.25
374.513	384.25
374.739	404.25
374.965	401.25
375.191	411.25
375.416	419.25
375.642	397.25
375.868	399.25
376.094	386.25
376.319	398.25
376.545	391.25
376.771	396.25
376.997	386.25
377.222	389.25
377.448	396.25
377.674	383.25
377.899	372.25
378.125	390.25
378.35	379.25
378.576	383.25
378.802	401.25
379.027	382.25
379.253	387.25
379.478	374.25
379.704	383.25
379.929	393.25
380.155	389.25
380.38	417.25
380.606	384.25
380.831	378.25
381.057	380.25
381.282	380.25
381.507	384.25
381.733	400.25
381.958	392.25
382.184	405.25
382.409	391.25
382.634	396.25
382.86	413.25
383.085	391.25
383.31	408.25
383.535	421.25
383.761	408.25
383.986	409.25
384.211	416.25
384.436	419.25
384.662	421.25
384.887	440.25
385.112	394.25
385.337	434.25
385.562	418.25
385.787	427.25
386.013	440.25
386.238	421.25
386.463	437.25
386.688	422.25
386.913	440.25
387.138	416.25
387.363	432.25
387.588	434.25
387.813	417.25
388.038	442.25
388.263	434.25
388.488	425.25
388.713	428.25
388.938	408.25
389.163	443.25
389.387	420.25
389.612	433.25
389.837	418.25
390.062	425.25
390.287	436.25
390.512	398.25
390.736	440.25
390.961	407.25
391.186	450.25
391.411	442.25
391.636	437.25
391.86	444.25
392.085	440.25
392.31	450.25
392.534	435.25
392.759	428.25
392.984	427.25
393.208	426.25
393.433	470.25
393.658	427.25
393.882	428.25
394.107	423.25
394.331	438.25
394.556	412.25
394.78	450.25
395.005	445.25
395.229	424.25
395.454	440.25
395.678	439.25
395.903	454.25
396.127	470.25
396.352	443.25
396.576	446.25
396.801	448.25
397.025	427.25
397.249	438.25
397.474	435.25
397.698	460.25
397.922	466.25
398.147	458.25
398.371	468.25
398.595	480.25
398.82	486.25
399.044	524.25
399.268	527.25
399.492	552.25
399.717	578.25
399.941	604.25
400.165	595.25
400.389	600.25
400.613	570.25
400.837	511.25
401.062	496.25
401.286	501.25
401.51	484.25
401.734	496.25
401.958	490.25
402.182	510.25
402.406	490.25
402.63	477.25
402.854	471.25
403.078	477.25
403.302	486.25
403.526	502.25
403.75	502.25
403.974	503.25
404.198	520.25
404.422	507.25
404.645	498.25
404.869	498.25
405.093	534.25
405.317	576.25
405.541	562.25
405.765	535.25
405.988	533.25
406.212	518.25
406.436	515.25
406.66	527.25
406.883	526.25
407.107	581.25
407.331	593.25
407.555	640.25
407.778	619.25
408.002	579.25
408.226	563.25
408.449	555.25
408.673	553.25
408.896	573.25
409.12	596.25
409.344	559.25
409.567	532.25
409.791	523.25
410.014	482.25
410.238	480.25
410.461	490.25
410.685	489.25
410.908	500.25
411.132	546.25
411.355	532.25
411.578	518.25
411.802	512.25
412.025	487.25
412.249	520.25
412.472	527.25
412.695	534.25
412.919	541.25
413.142	478.25
413.365	487.25
413.589	486.25
413.812	488.25
414.035	449.25
414.258	464.25
414.482	460.25
414.705	461.25
414.928	466.25
415.151	477.25
415.374	458.25
415.597	452.25
415.821	456.25
416.044	461.25
416.267	480.25
416.49	453.25
416.713	466.25
416.936	452.25
417.159	455.25
417.382	448.25
417.605	457.25
417.828	467.25
418.051	497.25
418.274	445.25
418.497	458.25
418.72	466.25
418.943	462.25
419.166	476.25
419.389	516.25
419.611	475.25
419.834	459.25
420.057	481.25
420.28	489.25
420.503	469.25
420.726	481.25
420.948	478.25
421.171	514.25
421.394	530.25
421.617	482.25
421.839	473.25
422.062	487.25
422.285	496.25
422.507	539.25
422.73	568.25
422.953	540.25
423.175	504.25
423.398	485.25
423.621	476.25
423.843	520.25
424.066	502.25
424.288	489.25
424.511	491.25
424.733	556.25
424.956	603.25
425.178	585.25
425.401	567.25
425.623	586.25
425.846	516.25
426.068	484.25
426.291	485.25
426.513	485.25
426.735	520.25
426.958	554.25
427.18	590.25
427.402	658.25
427.625	708.25
427.847	626.25
428.069	578.25
428.292	528.25
428.514	459.25
428.736	470.25
428.958	449.25
429.181	461.25
429.403	439.25
429.625	461.25
429.847	472.25
430.069	517.25
430.292	516.25
430.514	473.25
430.736	454.25
430.958	456.25
431.18	451.25
431.402	438.25
431.624	436.25
431.846	428.25
432.068	428.25
432.29	421.25
432.512	445.25
432.734	441.25
432.956	442.25
433.178	448.25
433.4	446.25
433.622	435.25
433.844	438.25
434.066	433.25
434.287	427.25
434.509	444.25
434.731	460.25
434.953	450.25
435.175	461.25
435.397	475.25
435.618	487.25
435.84	507.25
436.062	587.25
436.284	650.25
436.505	538.25
436.727	485.25
436.949	462.25
437.17	477.25
437.392	458.25
437.614	442.25
437.835	481.25
438.057	524.25
438.278	612.25
438.5	596.25
438.721	679.25
438.943	660.25
439.165	529.25
439.386	500.25
439.608	492.25
439.829	487.25
440.05	509.25
440.272	549.25
440.493	498.25
440.715	472.25
440.936	450.25
441.158	472.25
441.379	456.25
441.6	496.25
441.822	494.25
442.043	518.25
442.264	577.25
442.486	592.25
442.707	541.25
442.928	489.25
443.149	489.25
443.371	509.25
443.592	554.25
443.813	608.25
444.034	665.25
444.255	564.25
444.476	530.25
444.698	516.25
444.919	497.25
445.14	577.25
445.361	518.25
445.582	524.25
445.803	568.25
446.024	617.25
446.245	613.25
446.466	576.25
446.687	507.25
446.908	477.25
447.129	463.25
447.35	435.25
447.571	437.25
447.792	435.25
448.013	460.25
448.234	452.25
448.455	493.25
448.675	580.25
448.896	656.25
449.117	562.25
449.338	562.25
449.559	608.25
449.779	684.25
450	554.25
450.221	478.25
450.442	448.25
450.662	433.25
450.883	407.25
451.104	444.25
451.324	434.25
451.545	429.25
451.766	408.25
451.986	413.25
452.207	390.25
452.428	409.25
452.648	390.25
452.869	384.25
453.089	394.25
453.31	396.25
453.53	414.25
453.751	401.25
453.971	388.25
454.192	413.25
454.412	383.25
454.633	389.25
454.853	371.25
455.073	383.25
455.294	406.25
455.514	492.25
455.734	450.25
455.955	395.25
456.175	408.25
456.395	385.25
456.616	402.25
456.836	379.25
457.056	384.25
457.276	381.25
457.497	394.25
457.717	372.25
457.937	389.25
458.157	401.25
458.377	416.25
458.598	404.25
458.818	453.25
459.038	484.25
459.258	526.25
459.478	452.25
459.698	427.25
459.918	432.25
460.138	429.25
460.358	442.25
460.578	442.25
460.798	453.25
461.018	440.25
461.238	454.25
461.458	442.25
461.678	428.25
461.898	452.25
462.118	458.25
462.338	459.25
462.558	473.25
462.777	465.25
462.997	504.25
463.217	512.25
463.437	498.25
463.657	489.25
463.876	475.25
464.096	476.25
464.316	462.25
464.536	477.25
464.755	461.25
464.975	463.25
465.195	494.25
465.414	512.25
465.634	488.25
465.854	458.25
466.073	430.25
466.293	422.25
466.512	421.25
466.732	412.25
466.951	427.25
467.171	425.25
467.391	423.25
467.61	419.25
467.829	425.25
468.049	408.25
468.268	401.25
468.488	403.25
468.707	393.25
468.927	388.25
469.146	393.25
469.365	387.25
469.585	406.25
469.804	410.25
470.023	408.25
470.243	395.25
470.462	413.25
470.681	420.25
470.901	438.25
471.12	415.25
471.339	420.25
471.558	407.25
471.777	424.25
471.997	424.25
472.216	423.25
472.435	442.25
472.654	436.25
472.873	419.25
473.092	408.25
473.311	413.25
473.53	399.25
473.749	427.25
473.968	449.25
474.187	504.25
474.406	551.25
474.625	454.25
474.844	434.25
475.063	430.25
475.282	426.25
475.501	426.25
475.72	423.25
475.939	428.25
476.158	423.25
476.377	442.25
476.596	414.25
476.814	429.25
477.033	428.25
477.252	455.25
477.471	446.25
477.69	440.25
477.908	439.25
478.127	446.25
478.346	480.25
478.564	464.25
478.783	467.25
479.002	473.25
479.22	457.25
479.439	499.25
479.658	461.25
479.876	486.25
480.095	510.25
480.313	524.25
480.532	510.25
480.751	516.25
480.969	515.25
481.188	537.25
481.406	552.25
481.624	505.25
481.843	475.25
482.061	508.25
482.28	466.25
482.498	480.25
482.717	490.25
482.935	475.25
483.153	477.25
483.372	456.25
483.59	484.25
483.808	477.25
484.027	476.25
484.245	494.25
484.463	497.25
484.681	490.25
484.9	485.25
485.118	475.25
485.336	473.25
485.554	472.25
485.772	497.25
485.99	490.25
486.209	480.25
486.427	509.25
486.645	489.25
486.863	501.25
487.081	511.25
487.299	512.25
487.517	512.25
487.735	508.25
487.953	520.25
488.171	503.25
488.389	486.25
488.607	505.25
488.825	498.25
489.043	501.25
489.261	517.25
489.479	517.25
489.696	520.25
489.914	518.25
490.132	525.25
490.35	516.25
490.568	510.25
490.786	536.25
491.003	562.25
491.221	560.25
491.439	565.25
491.657	565.25
491.874	558.25
492.092	574.25
492.31	569.25
492.527	586.25
492.745	577.25
492.963	585.25
493.18	581.25
493.398	600.25
493.615	605.25
493.833	601.25
494.05	568.25
494.268	572.25
494.485	576.25
494.703	584.25
494.92	572.25
495.138	589.25
495.355	573.25
495.573	595.25
495.79	589.25
496.008	595.25
496.225	587.25
496.442	582.25
496.66	584.25
496.877	589.25
497.094	618.25
497.312	608.25
497.529	632.25
497.746	595.25
497.963	646.25
498.181	624.25
498.398	666.25
498.615	671.25
498.832	686.25
499.049	707.25
499.267	721.25
499.484	773.25
499.701	803.25
499.918	829.25
500.135	857.25
500.352	908.25
500.569	922.25
500.786	906.25
501.003	896.25
501.22	865.25
501.437	827.25
501.654	809.25
501.871	762.25
