Data from 1964.PennyLincolnUp.Lamp.En5.5.200Scan.071719.P1._HRD10591_14-05-17-911.txt Node
Date: Thu Jul 18 14:05:17 EDT 2019
User: cochatt
Spectrometer: HR+D1059
Trigger mode: 1
Integration Time (sec): 1.000000E-1
Scans to average: 1
Electric dark correction enabled: true
Nonlinearity correction enabled: false
Boxcar width: 0
XAxis mode: Wavelengths
Number of Pixels in Spectrum: 2048
>>>>>Begin Spectral Data<<<<<
223.165	-24.06
223.4	-24.06
223.635	-24.06
223.869	-11.06
224.104	-19.06
224.338	-16.06
224.573	-22.06
224.808	-8.06
225.042	-6.06
225.277	4.94
225.511	-9.06
225.746	-5.06
225.98	21.94
226.215	23.94
226.449	13.94
226.683	12.94
226.918	10.94
227.152	31.94
227.387	28.94
227.621	34.94
227.856	49.94
228.09	54.94
228.324	55.94
228.559	56.94
228.793	71.94
229.027	99.94
229.262	105.94
229.496	112.94
229.73	118.94
229.964	128.94
230.199	121.94
230.433	116.94
230.667	98.94
230.901	110.94
231.136	120.94
231.37	103.94
231.604	109.94
231.838	112.94
232.072	110.94
232.306	110.94
232.541	110.94
232.775	112.94
233.009	100.94
233.243	118.94
233.477	113.94
233.711	124.94
233.945	125.94
234.179	115.94
234.413	128.94
234.647	123.94
234.881	116.94
235.115	119.94
235.349	108.94
235.583	126.94
235.817	140.94
236.051	128.94
236.285	134.94
236.519	136.94
236.753	134.94
236.987	136.94
237.221	156.94
237.455	192.94
237.689	168.94
237.922	129.94
238.156	136.94
238.39	125.94
238.624	119.94
238.858	137.94
239.091	138.94
239.325	128.94
239.559	111.94
239.793	130.94
240.027	125.94
240.26	157.94
240.494	154.94
240.728	128.94
240.961	154.94
241.195	157.94
241.429	126.94
241.662	134.94
241.896	134.94
242.13	134.94
242.363	149.94
242.597	129.94
242.83	144.94
243.064	132.94
243.298	141.94
243.531	153.94
243.765	145.94
243.998	136.94
244.232	154.94
244.465	160.94
244.699	137.94
244.932	142.94
245.166	159.94
245.399	145.94
245.633	162.94
245.866	152.94
246.099	138.94
246.333	156.94
246.566	159.94
246.8	143.94
247.033	154.94
247.266	149.94
247.5	166.94
247.733	165.94
247.966	172.94
248.2	170.94
248.433	172.94
248.666	185.94
248.899	192.94
249.133	206.94
249.366	209.94
249.599	198.94
249.832	204.94
250.066	183.94
250.299	180.94
250.532	187.94
250.765	202.94
250.998	222.94
251.231	232.94
251.465	188.94
251.698	185.94
251.931	216.94
252.164	214.94
252.397	217.94
252.63	204.94
252.863	203.94
253.096	213.94
253.329	231.94
253.562	215.94
253.795	223.94
254.028	235.94
254.261	220.94
254.494	218.94
254.727	241.94
254.96	261.94
255.193	269.94
255.426	236.94
255.659	230.94
255.892	237.94
256.124	252.94
256.357	245.94
256.59	234.94
256.823	205.94
257.056	201.94
257.289	223.94
257.521	222.94
257.754	214.94
257.987	211.94
258.22	207.94
258.452	219.94
258.685	208.94
258.918	234.94
259.151	217.94
259.383	217.94
259.616	239.94
259.849	228.94
260.081	219.94
260.314	246.94
260.547	265.94
260.779	245.94
261.012	235.94
261.244	233.94
261.477	253.94
261.71	239.94
261.942	228.94
262.175	231.94
262.407	248.94
262.64	238.94
262.872	236.94
263.105	216.94
263.337	236.94
263.57	222.94
263.802	227.94
264.035	224.94
264.267	233.94
264.499	205.94
264.732	232.94
264.964	229.94
265.197	230.94
265.429	216.94
265.661	232.94
265.894	232.94
266.126	217.94
266.358	230.94
266.591	242.94
266.823	237.94
267.055	250.94
267.287	232.94
267.52	217.94
267.752	265.94
267.984	236.94
268.216	261.94
268.448	250.94
268.681	251.94
268.913	257.94
269.145	289.94
269.377	280.94
269.609	261.94
269.841	272.94
270.073	293.94
270.306	302.94
270.538	314.94
270.77	317.94
271.002	311.94
271.234	304.94
271.466	319.94
271.698	316.94
271.93	314.94
272.162	337.94
272.394	304.94
272.626	320.94
272.858	295.94
273.09	291.94
273.322	309.94
273.553	290.94
273.785	268.94
274.017	295.94
274.249	280.94
274.481	283.94
274.713	288.94
274.945	293.94
275.176	295.94
275.408	282.94
275.64	301.94
275.872	295.94
276.104	292.94
276.335	270.94
276.567	302.94
276.799	320.94
277.031	324.94
277.262	327.94
277.494	333.94
277.726	328.94
277.957	310.94
278.189	310.94
278.421	306.94
278.652	306.94
278.884	292.94
279.115	293.94
279.347	285.94
279.579	294.94
279.81	290.94
280.042	285.94
280.273	295.94
280.505	284.94
280.736	312.94
280.968	303.94
281.199	287.94
281.431	289.94
281.662	300.94
281.894	296.94
282.125	300.94
282.356	320.94
282.588	314.94
282.819	301.94
283.051	316.94
283.282	285.94
283.513	301.94
283.745	305.94
283.976	297.94
284.207	309.94
284.439	318.94
284.67	312.94
284.901	324.94
285.132	313.94
285.364	332.94
285.595	286.94
285.826	328.94
286.057	328.94
286.288	320.94
286.52	329.94
286.751	304.94
286.982	310.94
287.213	313.94
287.444	320.94
287.675	325.94
287.906	332.94
288.138	340.94
288.369	337.94
288.6	342.94
288.831	321.94
289.062	324.94
289.293	316.94
289.524	323.94
289.755	316.94
289.986	310.94
290.217	324.94
290.448	330.94
290.679	343.94
290.91	324.94
291.141	325.94
291.371	322.94
291.602	326.94
291.833	324.94
292.064	325.94
292.295	308.94
292.526	330.94
292.757	320.94
292.987	331.94
293.218	327.94
293.449	321.94
293.68	313.94
293.91	309.94
294.141	317.94
294.372	335.94
294.603	323.94
294.833	357.94
295.064	316.94
295.295	336.94
295.525	332.94
295.756	332.94
295.987	335.94
296.217	342.94
296.448	348.94
296.679	360.94
296.909	345.94
297.14	334.94
297.37	359.94
297.601	349.94
297.831	319.94
298.062	343.94
298.292	335.94
298.523	347.94
298.753	349.94
298.984	353.94
299.214	340.94
299.445	341.94
299.675	354.94
299.905	371.94
300.136	356.94
300.366	371.94
300.597	348.94
300.827	337.94
301.057	366.94
301.288	376.94
301.518	369.94
301.748	362.94
301.979	361.94
302.209	337.94
302.439	368.94
302.669	388.94
302.9	361.94
303.13	354.94
303.36	375.94
303.59	358.94
303.82	363.94
304.051	376.94
304.281	378.94
304.511	385.94
304.741	372.94
304.971	363.94
305.201	364.94
305.431	360.94
305.661	361.94
305.891	351.94
306.121	366.94
306.352	363.94
306.582	390.94
306.812	375.94
307.042	361.94
307.272	363.94
307.502	369.94
307.731	378.94
307.961	359.94
308.191	359.94
308.421	369.94
308.651	379.94
308.881	372.94
309.111	355.94
309.341	388.94
309.571	385.94
309.8	380.94
310.03	397.94
310.26	406.94
310.49	382.94
310.72	406.94
310.949	420.94
311.179	403.94
311.409	390.94
311.639	406.94
311.868	410.94
312.098	414.94
312.328	407.94
312.557	400.94
312.787	421.94
313.017	404.94
313.246	398.94
313.476	412.94
313.706	414.94
313.935	386.94
314.165	390.94
314.394	423.94
314.624	433.94
314.853	414.94
315.083	412.94
315.312	412.94
315.542	399.94
315.771	414.94
316.001	423.94
316.23	403.94
316.46	415.94
316.689	422.94
316.919	406.94
317.148	426.94
317.377	438.94
317.607	403.94
317.836	411.94
318.065	385.94
318.295	401.94
318.524	402.94
318.753	409.94
318.983	396.94
319.212	430.94
319.441	423.94
319.67	398.94
319.9	412.94
320.129	422.94
320.358	424.94
320.587	413.94
320.816	420.94
321.046	423.94
321.275	429.94
321.504	433.94
321.733	431.94
321.962	438.94
322.191	450.94
322.42	448.94
322.649	443.94
322.878	454.94
323.108	444.94
323.337	452.94
323.566	472.94
323.795	498.94
324.024	534.94
324.253	599.94
324.482	798.94
324.71	1150.94
324.939	1546.94
325.168	1340.94
325.397	762.94
325.626	572.94
325.855	495.94
326.084	476.94
326.313	484.94
326.542	500.94
326.77	521.94
326.999	588.94
327.228	772.94
327.457	1037.94
327.686	1163.94
327.914	834.94
328.143	600.94
328.372	535.94
328.6	533.94
328.829	531.94
329.058	531.94
329.287	533.94
329.515	512.94
329.744	511.94
329.972	503.94
330.201	523.94
330.43	534.94
330.658	568.94
330.887	559.94
331.115	546.94
331.344	513.94
331.572	505.94
331.801	512.94
332.03	498.94
332.258	500.94
332.486	508.94
332.715	477.94
332.943	490.94
333.172	508.94
333.4	502.94
333.629	481.94
333.857	519.94
334.085	537.94
334.314	534.94
334.542	525.94
334.771	566.94
334.999	529.94
335.227	500.94
335.455	502.94
335.684	506.94
335.912	485.94
336.14	477.94
336.369	469.94
336.597	504.94
336.825	490.94
337.053	474.94
337.281	475.94
337.51	477.94
337.738	466.94
337.966	485.94
338.194	477.94
338.422	473.94
338.65	476.94
338.878	454.94
339.106	466.94
339.334	470.94
339.562	453.94
339.79	452.94
340.018	466.94
340.246	458.94
340.474	459.94
340.702	455.94
340.93	443.94
341.158	456.94
341.386	444.94
341.614	471.94
341.842	444.94
342.07	463.94
342.298	450.94
342.526	455.94
342.754	447.94
342.981	438.94
343.209	427.94
343.437	454.94
343.665	458.94
343.893	468.94
344.12	474.94
344.348	489.94
344.576	477.94
344.804	486.94
345.031	463.94
345.259	463.94
345.487	457.94
345.714	440.94
345.942	445.94
346.17	426.94
346.397	441.94
346.625	432.94
346.853	416.94
347.08	429.94
347.308	439.94
347.535	433.94
347.763	442.94
347.99	431.94
348.218	437.94
348.445	440.94
348.673	438.94
348.9	445.94
349.128	441.94
349.355	410.94
349.583	404.94
349.81	412.94
350.037	423.94
350.265	421.94
350.492	422.94
350.72	406.94
350.947	429.94
351.174	413.94
351.402	415.94
351.629	417.94
351.856	414.94
352.083	429.94
352.311	422.94
352.538	422.94
352.765	425.94
352.992	446.94
353.22	417.94
353.447	422.94
353.674	394.94
353.901	416.94
354.128	410.94
354.355	396.94
354.583	414.94
354.81	397.94
355.037	388.94
355.264	412.94
355.491	415.94
355.718	412.94
355.945	378.94
356.172	395.94
356.399	421.94
356.626	394.94
356.853	390.94
357.08	401.94
357.307	406.94
357.534	422.94
357.761	408.94
357.988	390.94
358.215	398.94
358.441	410.94
358.668	408.94
358.895	408.94
359.122	414.94
359.349	424.94
359.576	419.94
359.802	402.94
360.029	448.94
360.256	462.94
360.483	436.94
360.709	396.94
360.936	423.94
361.163	422.94
361.39	415.94
361.616	405.94
361.843	420.94
362.07	394.94
362.296	425.94
362.523	400.94
362.749	402.94
362.976	418.94
363.203	394.94
363.429	398.94
363.656	406.94
363.882	434.94
364.109	381.94
364.335	404.94
364.562	407.94
364.788	399.94
365.015	397.94
365.241	386.94
365.468	415.94
365.694	418.94
365.92	387.94
366.147	401.94
366.373	394.94
366.599	410.94
366.826	409.94
367.052	385.94
367.278	408.94
367.505	409.94
367.731	414.94
367.957	395.94
368.184	377.94
368.41	403.94
368.636	384.94
368.862	394.94
369.089	384.94
369.315	413.94
369.541	402.94
369.767	401.94
369.993	402.94
370.219	417.94
370.445	406.94
370.672	413.94
370.898	404.94
371.124	395.94
371.35	384.94
371.576	410.94
371.802	416.94
372.028	396.94
372.254	410.94
372.48	415.94
372.706	403.94
372.932	407.94
373.158	401.94
373.384	428.94
373.61	403.94
373.835	408.94
374.061	416.94
374.287	391.94
374.513	395.94
374.739	396.94
374.965	403.94
375.191	412.94
375.416	420.94
375.642	413.94
375.868	392.94
376.094	429.94
376.319	408.94
376.545	383.94
376.771	405.94
376.997	397.94
377.222	400.94
377.448	398.94
377.674	383.94
377.899	384.94
378.125	396.94
378.35	414.94
378.576	376.94
378.802	384.94
379.027	424.94
379.253	401.94
379.478	378.94
379.704	398.94
379.929	383.94
380.155	381.94
380.38	390.94
380.606	398.94
380.831	405.94
381.057	388.94
381.282	407.94
381.507	390.94
381.733	410.94
381.958	406.94
382.184	388.94
382.409	402.94
382.634	389.94
382.86	417.94
383.085	416.94
383.31	413.94
383.535	428.94
383.761	418.94
383.986	411.94
384.211	436.94
384.436	414.94
384.662	420.94
384.887	430.94
385.112	425.94
385.337	432.94
385.562	429.94
385.787	424.94
386.013	436.94
386.238	454.94
386.463	445.94
386.688	437.94
386.913	437.94
387.138	430.94
387.363	420.94
387.588	430.94
387.813	461.94
388.038	447.94
388.263	416.94
388.488	428.94
388.713	439.94
388.938	446.94
389.163	431.94
389.387	444.94
389.612	418.94
389.837	449.94
390.062	437.94
390.287	427.94
390.512	433.94
390.736	412.94
390.961	432.94
391.186	442.94
391.411	419.94
391.636	440.94
391.86	459.94
392.085	452.94
392.31	459.94
392.534	440.94
392.759	444.94
392.984	445.94
393.208	445.94
393.433	449.94
393.658	428.94
393.882	446.94
394.107	437.94
394.331	441.94
394.556	434.94
394.78	428.94
395.005	457.94
395.229	426.94
395.454	446.94
395.678	457.94
395.903	466.94
396.127	477.94
396.352	469.94
396.576	456.94
396.801	460.94
397.025	455.94
397.249	434.94
397.474	476.94
397.698	438.94
397.922	480.94
398.147	476.94
398.371	486.94
398.595	491.94
398.82	493.94
399.044	510.94
399.268	500.94
399.492	569.94
399.717	596.94
399.941	590.94
400.165	600.94
400.389	600.94
400.613	535.94
400.837	497.94
401.062	502.94
401.286	488.94
401.51	490.94
401.734	492.94
401.958	495.94
402.182	492.94
402.406	488.94
402.63	500.94
402.854	479.94
403.078	483.94
403.302	499.94
403.526	526.94
403.75	484.94
403.974	503.94
404.198	516.94
404.422	521.94
404.645	497.94
404.869	505.94
405.093	522.94
405.317	557.94
405.541	606.94
405.765	544.94
405.988	524.94
406.212	529.94
406.436	535.94
406.66	537.94
406.883	523.94
407.107	566.94
407.331	585.94
407.555	629.94
407.778	614.94
408.002	613.94
408.226	549.94
408.449	529.94
408.673	546.94
408.896	571.94
409.12	589.94
409.344	588.94
409.567	503.94
409.791	520.94
410.014	491.94
410.238	489.94
410.461	486.94
410.685	501.94
410.908	502.94
411.132	531.94
411.355	568.94
411.578	543.94
411.802	520.94
412.025	494.94
412.249	524.94
412.472	527.94
412.695	535.94
412.919	540.94
413.142	492.94
413.365	484.94
413.589	497.94
413.812	470.94
414.035	468.94
414.258	454.94
414.482	462.94
414.705	476.94
414.928	465.94
415.151	481.94
415.374	470.94
415.597	461.94
415.821	457.94
416.044	490.94
416.267	469.94
416.49	477.94
416.713	460.94
416.936	458.94
417.159	456.94
417.382	459.94
417.605	465.94
417.828	477.94
418.051	491.94
418.274	485.94
418.497	482.94
418.72	481.94
418.943	466.94
419.166	487.94
419.389	523.94
419.611	502.94
419.834	508.94
420.057	494.94
420.28	504.94
420.503	484.94
420.726	477.94
420.948	476.94
421.171	524.94
421.394	544.94
421.617	500.94
421.839	484.94
422.062	484.94
422.285	485.94
422.507	544.94
422.73	581.94
422.953	543.94
423.175	536.94
423.398	511.94
423.621	473.94
423.843	544.94
424.066	524.94
424.288	466.94
424.511	528.94
424.733	554.94
424.956	630.94
425.178	576.94
425.401	576.94
425.623	619.94
425.846	514.94
426.068	497.94
426.291	502.94
426.513	477.94
426.735	503.94
426.958	532.94
427.18	602.94
427.402	693.94
427.625	744.94
427.847	644.94
428.069	572.94
428.292	538.94
428.514	480.94
428.736	474.94
428.958	458.94
429.181	465.94
429.403	469.94
429.625	469.94
429.847	481.94
430.069	549.94
430.292	534.94
430.514	465.94
430.736	448.94
430.958	432.94
431.18	452.94
431.402	438.94
431.624	437.94
431.846	430.94
432.068	436.94
432.29	441.94
432.512	443.94
432.734	445.94
432.956	462.94
433.178	447.94
433.4	465.94
433.622	437.94
433.844	427.94
434.066	439.94
434.287	427.94
434.509	434.94
434.731	460.94
434.953	464.94
435.175	466.94
435.397	506.94
435.618	505.94
435.84	525.94
436.062	595.94
436.284	642.94
436.505	534.94
436.727	475.94
436.949	458.94
437.17	468.94
437.392	440.94
437.614	469.94
437.835	488.94
438.057	548.94
438.278	625.94
438.5	651.94
438.721	682.94
438.943	644.94
439.165	537.94
439.386	496.94
439.608	480.94
439.829	495.94
440.05	501.94
440.272	537.94
440.493	511.94
440.715	474.94
440.936	456.94
441.158	454.94
441.379	462.94
441.6	478.94
441.822	488.94
442.043	524.94
442.264	613.94
442.486	600.94
442.707	528.94
442.928	515.94
443.149	506.94
443.371	527.94
443.592	555.94
443.813	622.94
444.034	646.94
444.255	588.94
444.476	519.94
444.698	492.94
444.919	501.94
445.14	650.94
445.361	569.94
445.582	520.94
445.803	550.94
446.024	634.94
446.245	640.94
446.466	582.94
446.687	518.94
446.908	473.94
447.129	468.94
447.35	463.94
447.571	456.94
447.792	456.94
448.013	454.94
448.234	459.94
448.455	498.94
448.675	573.94
448.896	658.94
449.117	558.94
449.338	566.94
449.559	634.94
449.779	669.94
450	564.94
450.221	480.94
450.442	446.94
450.662	446.94
450.883	433.94
451.104	433.94
451.324	420.94
451.545	411.94
451.766	411.94
451.986	414.94
452.207	396.94
452.428	424.94
452.648	406.94
452.869	365.94
453.089	416.94
453.31	422.94
453.53	402.94
453.751	423.94
453.971	399.94
454.192	398.94
454.412	384.94
454.633	391.94
454.853	387.94
455.073	393.94
455.294	425.94
455.514	457.94
455.734	456.94
455.955	389.94
456.175	378.94
456.395	392.94
456.616	383.94
456.836	412.94
457.056	397.94
457.276	390.94
457.497	401.94
457.717	394.94
457.937	429.94
458.157	404.94
458.377	397.94
458.598	419.94
458.818	442.94
459.038	482.94
459.258	523.94
459.478	438.94
459.698	441.94
459.918	440.94
460.138	446.94
460.358	458.94
460.578	417.94
460.798	454.94
461.018	453.94
461.238	441.94
461.458	436.94
461.678	457.94
461.898	455.94
462.118	450.94
462.338	462.94
462.558	474.94
462.777	476.94
462.997	502.94
463.217	543.94
463.437	534.94
463.657	492.94
463.876	497.94
464.096	486.94
464.316	489.94
464.536	497.94
464.755	474.94
464.975	492.94
465.195	501.94
465.414	524.94
465.634	462.94
465.854	442.94
466.073	438.94
466.293	452.94
466.512	423.94
466.732	430.94
466.951	417.94
467.171	397.94
467.391	417.94
467.61	426.94
467.829	424.94
468.049	437.94
468.268	433.94
468.488	390.94
468.707	397.94
468.927	391.94
469.146	418.94
469.365	398.94
469.585	400.94
469.804	408.94
470.023	402.94
470.243	412.94
470.462	437.94
470.681	446.94
470.901	429.94
471.12	423.94
471.339	424.94
471.558	413.94
471.777	410.94
471.997	415.94
472.216	418.94
472.435	448.94
472.654	412.94
472.873	422.94
473.092	406.94
473.311	428.94
473.53	409.94
473.749	416.94
473.968	440.94
474.187	505.94
474.406	545.94
474.625	448.94
474.844	452.94
475.063	423.94
475.282	438.94
475.501	430.94
475.72	427.94
475.939	449.94
476.158	443.94
476.377	434.94
476.596	439.94
476.814	447.94
477.033	454.94
477.252	441.94
477.471	437.94
477.69	446.94
477.908	444.94
478.127	467.94
478.346	470.94
478.564	486.94
478.783	449.94
479.002	452.94
479.22	460.94
479.439	497.94
479.658	495.94
479.876	483.94
480.095	508.94
480.313	513.94
480.532	494.94
480.751	522.94
480.969	519.94
481.188	564.94
481.406	560.94
481.624	528.94
481.843	507.94
482.061	510.94
482.28	474.94
482.498	468.94
482.717	486.94
482.935	512.94
483.153	462.94
483.372	474.94
483.59	481.94
483.808	498.94
484.027	487.94
484.245	489.94
484.463	490.94
484.681	486.94
484.9	496.94
485.118	500.94
485.336	481.94
485.554	497.94
485.772	506.94
485.99	488.94
486.209	488.94
486.427	521.94
486.645	498.94
486.863	512.94
487.081	509.94
487.299	502.94
487.517	513.94
487.735	500.94
487.953	498.94
488.171	534.94
488.389	522.94
488.607	507.94
488.825	530.94
489.043	528.94
489.261	521.94
489.479	512.94
489.696	531.94
489.914	526.94
490.132	535.94
490.35	551.94
490.568	510.94
490.786	543.94
491.003	547.94
491.221	570.94
491.439	574.94
491.657	561.94
491.874	575.94
492.092	578.94
492.31	583.94
492.527	572.94
492.745	584.94
492.963	617.94
493.18	571.94
493.398	594.94
493.615	589.94
493.833	594.94
494.05	576.94
494.268	579.94
494.485	589.94
494.703	609.94
494.92	600.94
495.138	587.94
495.355	596.94
495.573	586.94
495.79	589.94
496.008	597.94
496.225	575.94
496.442	589.94
496.66	586.94
496.877	595.94
497.094	611.94
497.312	628.94
497.529	632.94
497.746	628.94
497.963	642.94
498.181	644.94
498.398	682.94
498.615	694.94
498.832	692.94
499.049	712.94
499.267	731.94
499.484	780.94
499.701	801.94
499.918	824.94
500.135	884.94
500.352	894.94
500.569	932.94
500.786	928.94
501.003	896.94
501.22	888.94
501.437	824.94
501.654	809.94
501.871	769.94
