Data from 1964.PennyLincolnUp.Lamp.En5.5.200Scan.071719.P1._HRD10591_14-04-27-910.txt Node
Date: Thu Jul 18 14:04:27 EDT 2019
User: cochatt
Spectrometer: HR+D1059
Trigger mode: 1
Integration Time (sec): 1.000000E-1
Scans to average: 1
Electric dark correction enabled: true
Nonlinearity correction enabled: false
Boxcar width: 0
XAxis mode: Wavelengths
Number of Pixels in Spectrum: 2048
>>>>>Begin Spectral Data<<<<<
223.165	-2.81
223.4	-2.81
223.635	-2.81
223.869	-21.81
224.104	-15.81
224.338	-18.81
224.573	-6.81
224.808	-15.81
225.042	-7.81
225.277	-8.81
225.511	-15.81
225.746	11.19
225.98	-3.81
226.215	3.19
226.449	16.19
226.683	17.19
226.918	24.19
227.152	46.19
227.387	28.19
227.621	29.19
227.856	34.19
228.09	44.19
228.324	55.19
228.559	76.19
228.793	67.19
229.027	83.19
229.262	94.19
229.496	101.19
229.73	116.19
229.964	132.19
230.199	114.19
230.433	98.19
230.667	96.19
230.901	107.19
231.136	112.19
231.37	113.19
231.604	101.19
231.838	108.19
232.072	107.19
232.306	105.19
232.541	114.19
232.775	117.19
233.009	111.19
233.243	121.19
233.477	104.19
233.711	112.19
233.945	116.19
234.179	126.19
234.413	110.19
234.647	109.19
234.881	113.19
235.115	101.19
235.349	121.19
235.583	107.19
235.817	130.19
236.051	113.19
236.285	134.19
236.519	128.19
236.753	126.19
236.987	136.19
237.221	170.19
237.455	186.19
237.689	169.19
237.922	151.19
238.156	120.19
238.39	130.19
238.624	128.19
238.858	125.19
239.091	129.19
239.325	130.19
239.559	129.19
239.793	124.19
240.027	142.19
240.26	128.19
240.494	147.19
240.728	136.19
240.961	136.19
241.195	133.19
241.429	129.19
241.662	132.19
241.896	127.19
242.13	129.19
242.363	120.19
242.597	136.19
242.83	147.19
243.064	138.19
243.298	132.19
243.531	137.19
243.765	156.19
243.998	142.19
244.232	142.19
244.465	139.19
244.699	152.19
244.932	158.19
245.166	160.19
245.399	157.19
245.633	173.19
245.866	146.19
246.099	144.19
246.333	161.19
246.566	150.19
246.8	153.19
247.033	156.19
247.266	146.19
247.5	157.19
247.733	163.19
247.966	178.19
248.2	174.19
248.433	164.19
248.666	171.19
248.899	174.19
249.133	192.19
249.366	194.19
249.599	187.19
249.832	173.19
250.066	189.19
250.299	188.19
250.532	195.19
250.765	196.19
250.998	197.19
251.231	211.19
251.465	198.19
251.698	197.19
251.931	185.19
252.164	190.19
252.397	198.19
252.63	206.19
252.863	201.19
253.096	214.19
253.329	218.19
253.562	220.19
253.795	206.19
254.028	198.19
254.261	213.19
254.494	225.19
254.727	234.19
254.96	246.19
255.193	239.19
255.426	254.19
255.659	217.19
255.892	228.19
256.124	232.19
256.357	224.19
256.59	237.19
256.823	233.19
257.056	207.19
257.289	214.19
257.521	206.19
257.754	203.19
257.987	224.19
258.22	198.19
258.452	208.19
258.685	215.19
258.918	215.19
259.151	228.19
259.383	222.19
259.616	217.19
259.849	209.19
260.081	238.19
260.314	237.19
260.547	239.19
260.779	227.19
261.012	234.19
261.244	226.19
261.477	227.19
261.71	211.19
261.942	232.19
262.175	236.19
262.407	233.19
262.64	214.19
262.872	236.19
263.105	218.19
263.337	235.19
263.57	229.19
263.802	228.19
264.035	211.19
264.267	238.19
264.499	217.19
264.732	221.19
264.964	228.19
265.197	220.19
265.429	232.19
265.661	218.19
265.894	233.19
266.126	240.19
266.358	222.19
266.591	235.19
266.823	254.19
267.055	235.19
267.287	213.19
267.52	251.19
267.752	238.19
267.984	223.19
268.216	245.19
268.448	240.19
268.681	243.19
268.913	249.19
269.145	268.19
269.377	276.19
269.609	268.19
269.841	281.19
270.073	277.19
270.306	297.19
270.538	297.19
270.77	300.19
271.002	298.19
271.234	320.19
271.466	305.19
271.698	289.19
271.93	330.19
272.162	309.19
272.394	312.19
272.626	306.19
272.858	296.19
273.09	282.19
273.322	289.19
273.553	272.19
273.785	299.19
274.017	271.19
274.249	287.19
274.481	264.19
274.713	272.19
274.945	296.19
275.176	290.19
275.408	284.19
275.64	277.19
275.872	281.19
276.104	289.19
276.335	276.19
276.567	286.19
276.799	303.19
277.031	312.19
277.262	319.19
277.494	323.19
277.726	317.19
277.957	318.19
278.189	298.19
278.421	292.19
278.652	298.19
278.884	302.19
279.115	286.19
279.347	289.19
279.579	292.19
279.81	289.19
280.042	287.19
280.273	286.19
280.505	299.19
280.736	300.19
280.968	292.19
281.199	295.19
281.431	297.19
281.662	296.19
281.894	293.19
282.125	288.19
282.356	304.19
282.588	309.19
282.819	322.19
283.051	289.19
283.282	292.19
283.513	292.19
283.745	313.19
283.976	313.19
284.207	316.19
284.439	314.19
284.67	307.19
284.901	308.19
285.132	313.19
285.364	306.19
285.595	305.19
285.826	310.19
286.057	319.19
286.288	300.19
286.52	318.19
286.751	317.19
286.982	300.19
287.213	300.19
287.444	326.19
287.675	304.19
287.906	326.19
288.138	325.19
288.369	316.19
288.6	322.19
288.831	320.19
289.062	325.19
289.293	333.19
289.524	315.19
289.755	310.19
289.986	313.19
290.217	309.19
290.448	312.19
290.679	333.19
290.91	317.19
291.141	313.19
291.371	310.19
291.602	327.19
291.833	318.19
292.064	318.19
292.295	323.19
292.526	316.19
292.757	304.19
292.987	330.19
293.218	328.19
293.449	326.19
293.68	320.19
293.91	319.19
294.141	322.19
294.372	320.19
294.603	329.19
294.833	319.19
295.064	362.19
295.295	327.19
295.525	325.19
295.756	325.19
295.987	337.19
296.217	349.19
296.448	334.19
296.679	334.19
296.909	328.19
297.14	333.19
297.37	340.19
297.601	341.19
297.831	336.19
298.062	333.19
298.292	333.19
298.523	344.19
298.753	340.19
298.984	327.19
299.214	318.19
299.445	330.19
299.675	337.19
299.905	359.19
300.136	337.19
300.366	340.19
300.597	356.19
300.827	359.19
301.057	356.19
301.288	376.19
301.518	358.19
301.748	356.19
301.979	372.19
302.209	348.19
302.439	361.19
302.669	342.19
302.9	364.19
303.13	346.19
303.36	378.19
303.59	360.19
303.82	366.19
304.051	368.19
304.281	372.19
304.511	357.19
304.741	372.19
304.971	353.19
305.201	380.19
305.431	364.19
305.661	348.19
305.891	363.19
306.121	362.19
306.352	384.19
306.582	374.19
306.812	377.19
307.042	373.19
307.272	368.19
307.502	372.19
307.731	361.19
307.961	371.19
308.191	336.19
308.421	353.19
308.651	376.19
308.881	376.19
309.111	369.19
309.341	379.19
309.571	386.19
309.8	382.19
310.03	377.19
310.26	401.19
310.49	382.19
310.72	381.19
310.949	416.19
311.179	386.19
311.409	396.19
311.639	379.19
311.868	405.19
312.098	402.19
312.328	410.19
312.557	434.19
312.787	395.19
313.017	389.19
313.246	420.19
313.476	400.19
313.706	402.19
313.935	427.19
314.165	401.19
314.394	412.19
314.624	412.19
314.853	406.19
315.083	407.19
315.312	396.19
315.542	408.19
315.771	397.19
316.001	392.19
316.23	414.19
316.46	392.19
316.689	397.19
316.919	415.19
317.148	422.19
317.377	400.19
317.607	413.19
317.836	394.19
318.065	410.19
318.295	410.19
318.524	419.19
318.753	426.19
318.983	403.19
319.212	399.19
319.441	397.19
319.67	409.19
319.9	400.19
320.129	386.19
320.358	404.19
320.587	420.19
320.816	416.19
321.046	410.19
321.275	432.19
321.504	401.19
321.733	400.19
321.962	423.19
322.191	437.19
322.42	436.19
322.649	437.19
322.878	451.19
323.108	445.19
323.337	453.19
323.566	479.19
323.795	474.19
324.024	503.19
324.253	581.19
324.482	769.19
324.71	1054.19
324.939	1488.19
325.168	1260.19
325.397	717.19
325.626	542.19
325.855	493.19
326.084	461.19
326.313	465.19
326.542	471.19
326.77	496.19
326.999	585.19
327.228	728.19
327.457	998.19
327.686	1101.19
327.914	785.19
328.143	600.19
328.372	563.19
328.6	506.19
328.829	510.19
329.058	517.19
329.287	509.19
329.515	496.19
329.744	483.19
329.972	494.19
330.201	508.19
330.43	497.19
330.658	561.19
330.887	535.19
331.115	520.19
331.344	501.19
331.572	492.19
331.801	473.19
332.03	480.19
332.258	472.19
332.486	481.19
332.715	456.19
332.943	470.19
333.172	485.19
333.4	501.19
333.629	489.19
333.857	513.19
334.085	512.19
334.314	526.19
334.542	541.19
334.771	555.19
334.999	524.19
335.227	507.19
335.455	492.19
335.684	499.19
335.912	468.19
336.14	471.19
336.369	476.19
336.597	491.19
336.825	484.19
337.053	486.19
337.281	475.19
337.51	460.19
337.738	442.19
337.966	474.19
338.194	482.19
338.422	453.19
338.65	468.19
338.878	463.19
339.106	442.19
339.334	455.19
339.562	468.19
339.79	457.19
340.018	453.19
340.246	430.19
340.474	444.19
340.702	456.19
340.93	456.19
341.158	461.19
341.386	431.19
341.614	464.19
341.842	442.19
342.07	434.19
342.298	441.19
342.526	430.19
342.754	423.19
342.981	428.19
343.209	446.19
343.437	459.19
343.665	454.19
343.893	462.19
344.12	484.19
344.348	472.19
344.576	483.19
344.804	464.19
345.031	473.19
345.259	461.19
345.487	459.19
345.714	445.19
345.942	439.19
346.17	433.19
346.397	417.19
346.625	430.19
346.853	431.19
347.08	410.19
347.308	425.19
347.535	452.19
347.763	426.19
347.99	436.19
348.218	430.19
348.445	439.19
348.673	406.19
348.9	414.19
349.128	421.19
349.355	406.19
349.583	408.19
349.81	414.19
350.037	418.19
350.265	400.19
350.492	423.19
350.72	414.19
350.947	409.19
351.174	422.19
351.402	438.19
351.629	416.19
351.856	420.19
352.083	417.19
352.311	430.19
352.538	431.19
352.765	413.19
352.992	413.19
353.22	428.19
353.447	398.19
353.674	407.19
353.901	402.19
354.128	385.19
354.355	390.19
354.583	405.19
354.81	384.19
355.037	408.19
355.264	378.19
355.491	391.19
355.718	412.19
355.945	386.19
356.172	415.19
356.399	389.19
356.626	381.19
356.853	409.19
357.08	397.19
357.307	383.19
357.534	401.19
357.761	402.19
357.988	413.19
358.215	402.19
358.441	412.19
358.668	386.19
358.895	406.19
359.122	414.19
359.349	408.19
359.576	425.19
359.802	420.19
360.029	405.19
360.256	443.19
360.483	416.19
360.709	403.19
360.936	398.19
361.163	415.19
361.39	415.19
361.616	411.19
361.843	409.19
362.07	404.19
362.296	420.19
362.523	414.19
362.749	424.19
362.976	399.19
363.203	408.19
363.429	385.19
363.656	389.19
363.882	380.19
364.109	387.19
364.335	425.19
364.562	394.19
364.788	398.19
365.015	383.19
365.241	390.19
365.468	398.19
365.694	401.19
365.92	397.19
366.147	399.19
366.373	387.19
366.599	381.19
366.826	393.19
367.052	395.19
367.278	377.19
367.505	380.19
367.731	384.19
367.957	405.19
368.184	397.19
368.41	403.19
368.636	405.19
368.862	397.19
369.089	400.19
369.315	404.19
369.541	416.19
369.767	379.19
369.993	396.19
370.219	378.19
370.445	406.19
370.672	377.19
370.898	386.19
371.124	417.19
371.35	409.19
371.576	397.19
371.802	388.19
372.028	398.19
372.254	394.19
372.48	404.19
372.706	414.19
372.932	400.19
373.158	386.19
373.384	418.19
373.61	393.19
373.835	401.19
374.061	415.19
374.287	396.19
374.513	398.19
374.739	407.19
374.965	388.19
375.191	406.19
375.416	415.19
375.642	396.19
375.868	393.19
376.094	377.19
376.319	393.19
376.545	407.19
376.771	400.19
376.997	402.19
377.222	382.19
377.448	388.19
377.674	412.19
377.899	378.19
378.125	385.19
378.35	385.19
378.576	398.19
378.802	404.19
379.027	400.19
379.253	400.19
379.478	376.19
379.704	392.19
379.929	365.19
380.155	382.19
380.38	408.19
380.606	400.19
380.831	375.19
381.057	396.19
381.282	425.19
381.507	420.19
381.733	416.19
381.958	416.19
382.184	378.19
382.409	407.19
382.634	412.19
382.86	406.19
383.085	402.19
383.31	386.19
383.535	395.19
383.761	406.19
383.986	408.19
384.211	416.19
384.436	407.19
384.662	399.19
384.887	431.19
385.112	408.19
385.337	422.19
385.562	438.19
385.787	442.19
386.013	454.19
386.238	427.19
386.463	461.19
386.688	434.19
386.913	419.19
387.138	449.19
387.363	438.19
387.588	450.19
387.813	434.19
388.038	425.19
388.263	421.19
388.488	446.19
388.713	431.19
388.938	457.19
389.163	442.19
389.387	426.19
389.612	416.19
389.837	420.19
390.062	424.19
390.287	429.19
390.512	415.19
390.736	432.19
390.961	427.19
391.186	446.19
391.411	454.19
391.636	459.19
391.86	433.19
392.085	454.19
392.31	448.19
392.534	433.19
392.759	449.19
392.984	431.19
393.208	437.19
393.433	426.19
393.658	440.19
393.882	445.19
394.107	443.19
394.331	440.19
394.556	425.19
394.78	442.19
395.005	426.19
395.229	449.19
395.454	438.19
395.678	446.19
395.903	457.19
396.127	465.19
396.352	463.19
396.576	438.19
396.801	449.19
397.025	462.19
397.249	448.19
397.474	446.19
397.698	450.19
397.922	452.19
398.147	470.19
398.371	490.19
398.595	474.19
398.82	472.19
399.044	507.19
399.268	520.19
399.492	567.19
399.717	586.19
399.941	598.19
400.165	632.19
400.389	600.19
400.613	530.19
400.837	513.19
401.062	528.19
401.286	517.19
401.51	508.19
401.734	502.19
401.958	469.19
402.182	483.19
402.406	486.19
402.63	487.19
402.854	508.19
403.078	516.19
403.302	506.19
403.526	524.19
403.75	507.19
403.974	523.19
404.198	500.19
404.422	495.19
404.645	514.19
404.869	502.19
405.093	529.19
405.317	564.19
405.541	592.19
405.765	527.19
405.988	534.19
406.212	523.19
406.436	552.19
406.66	531.19
406.883	531.19
407.107	561.19
407.331	586.19
407.555	611.19
407.778	646.19
408.002	603.19
408.226	546.19
408.449	548.19
408.673	541.19
408.896	552.19
409.12	570.19
409.344	559.19
409.567	517.19
409.791	494.19
410.014	513.19
410.238	472.19
410.461	488.19
410.685	489.19
410.908	504.19
411.132	542.19
411.355	558.19
411.578	539.19
411.802	492.19
412.025	512.19
412.249	510.19
412.472	520.19
412.695	538.19
412.919	550.19
413.142	494.19
413.365	502.19
413.589	488.19
413.812	478.19
414.035	469.19
414.258	501.19
414.482	483.19
414.705	475.19
414.928	469.19
415.151	475.19
415.374	473.19
415.597	482.19
415.821	475.19
416.044	448.19
416.267	457.19
416.49	446.19
416.713	457.19
416.936	499.19
417.159	464.19
417.382	463.19
417.605	444.19
417.828	490.19
418.051	474.19
418.274	465.19
418.497	476.19
418.72	460.19
418.943	460.19
419.166	472.19
419.389	514.19
419.611	496.19
419.834	488.19
420.057	469.19
420.28	489.19
420.503	483.19
420.726	483.19
420.948	487.19
421.171	524.19
421.394	519.19
421.617	495.19
421.839	479.19
422.062	473.19
422.285	485.19
422.507	536.19
422.73	590.19
422.953	549.19
423.175	504.19
423.398	499.19
423.621	501.19
423.843	505.19
424.066	506.19
424.288	504.19
424.511	514.19
424.733	549.19
424.956	611.19
425.178	589.19
425.401	618.19
425.623	617.19
425.846	533.19
426.068	514.19
426.291	490.19
426.513	486.19
426.735	508.19
426.958	522.19
427.18	596.19
427.402	666.19
427.625	700.19
427.847	621.19
428.069	564.19
428.292	508.19
428.514	473.19
428.736	472.19
428.958	472.19
429.181	456.19
429.403	463.19
429.625	450.19
429.847	473.19
430.069	521.19
430.292	529.19
430.514	475.19
430.736	471.19
430.958	439.19
431.18	433.19
431.402	466.19
431.624	441.19
431.846	441.19
432.068	422.19
432.29	424.19
432.512	461.19
432.734	462.19
432.956	453.19
433.178	456.19
433.4	435.19
433.622	450.19
433.844	466.19
434.066	440.19
434.287	429.19
434.509	462.19
434.731	451.19
434.953	444.19
435.175	462.19
435.397	489.19
435.618	482.19
435.84	511.19
436.062	578.19
436.284	607.19
436.505	536.19
436.727	491.19
436.949	466.19
437.17	470.19
437.392	461.19
437.614	464.19
437.835	471.19
438.057	550.19
438.278	622.19
438.5	581.19
438.721	678.19
438.943	648.19
439.165	503.19
439.386	500.19
439.608	498.19
439.829	473.19
440.05	519.19
440.272	530.19
440.493	492.19
440.715	476.19
440.936	463.19
441.158	461.19
441.379	472.19
441.6	446.19
441.822	475.19
442.043	505.19
442.264	561.19
442.486	615.19
442.707	544.19
442.928	501.19
443.149	520.19
443.371	503.19
443.592	560.19
443.813	632.19
444.034	665.19
444.255	545.19
444.476	513.19
444.698	493.19
444.919	507.19
445.14	642.19
445.361	566.19
445.582	532.19
445.803	540.19
446.024	650.19
446.245	630.19
446.466	565.19
446.687	492.19
446.908	472.19
447.129	463.19
447.35	460.19
447.571	440.19
447.792	441.19
448.013	438.19
448.234	438.19
448.455	491.19
448.675	585.19
448.896	632.19
449.117	557.19
449.338	534.19
449.559	612.19
449.779	668.19
450	543.19
450.221	479.19
450.442	455.19
450.662	429.19
450.883	433.19
451.104	432.19
451.324	437.19
451.545	409.19
451.766	393.19
451.986	392.19
452.207	389.19
452.428	398.19
452.648	382.19
452.869	392.19
453.089	390.19
453.31	399.19
453.53	388.19
453.751	399.19
453.971	401.19
454.192	412.19
454.412	388.19
454.633	395.19
454.853	389.19
455.073	383.19
455.294	411.19
455.514	476.19
455.734	443.19
455.955	390.19
456.175	384.19
456.395	375.19
456.616	374.19
456.836	387.19
457.056	399.19
457.276	386.19
457.497	379.19
457.717	376.19
457.937	383.19
458.157	398.19
458.377	388.19
458.598	391.19
458.818	460.19
459.038	480.19
459.258	493.19
459.478	446.19
459.698	416.19
459.918	430.19
460.138	443.19
460.358	434.19
460.578	460.19
460.798	448.19
461.018	451.19
461.238	447.19
461.458	447.19
461.678	446.19
461.898	461.19
462.118	463.19
462.338	463.19
462.558	481.19
462.777	500.19
462.997	488.19
463.217	511.19
463.437	508.19
463.657	482.19
463.876	479.19
464.096	500.19
464.316	502.19
464.536	472.19
464.755	485.19
464.975	472.19
465.195	498.19
465.414	504.19
465.634	458.19
465.854	451.19
466.073	443.19
466.293	402.19
466.512	413.19
466.732	405.19
466.951	408.19
467.171	403.19
467.391	415.19
467.61	398.19
467.829	409.19
468.049	445.19
468.268	396.19
468.488	402.19
468.707	399.19
468.927	398.19
469.146	412.19
469.365	419.19
469.585	411.19
469.804	426.19
470.023	400.19
470.243	420.19
470.462	415.19
470.681	423.19
470.901	416.19
471.12	404.19
471.339	416.19
471.558	411.19
471.777	419.19
471.997	409.19
472.216	434.19
472.435	441.19
472.654	449.19
472.873	414.19
473.092	416.19
473.311	417.19
473.53	422.19
473.749	412.19
473.968	440.19
474.187	494.19
474.406	518.19
474.625	461.19
474.844	425.19
475.063	405.19
475.282	432.19
475.501	432.19
475.72	430.19
475.939	427.19
476.158	414.19
476.377	416.19
476.596	423.19
476.814	415.19
477.033	402.19
477.252	449.19
477.471	450.19
477.69	451.19
477.908	474.19
478.127	447.19
478.346	443.19
478.564	455.19
478.783	490.19
479.002	475.19
479.22	480.19
479.439	500.19
479.658	488.19
479.876	493.19
480.095	514.19
480.313	521.19
480.532	532.19
480.751	500.19
480.969	511.19
481.188	533.19
481.406	559.19
481.624	512.19
481.843	495.19
482.061	478.19
482.28	484.19
482.498	466.19
482.717	497.19
482.935	471.19
483.153	474.19
483.372	482.19
483.59	488.19
483.808	490.19
484.027	478.19
484.245	489.19
484.463	469.19
484.681	488.19
484.9	495.19
485.118	491.19
485.336	527.19
485.554	517.19
485.772	477.19
485.99	503.19
486.209	500.19
486.427	497.19
486.645	520.19
486.863	525.19
487.081	521.19
487.299	518.19
487.517	503.19
487.735	502.19
487.953	526.19
488.171	512.19
488.389	491.19
488.607	529.19
488.825	520.19
489.043	526.19
489.261	537.19
489.479	522.19
489.696	504.19
489.914	523.19
490.132	535.19
490.35	534.19
490.568	521.19
490.786	561.19
491.003	533.19
491.221	557.19
491.439	547.19
491.657	548.19
491.874	557.19
492.092	577.19
492.31	566.19
492.527	570.19
492.745	559.19
492.963	572.19
493.18	566.19
493.398	557.19
493.615	585.19
493.833	593.19
494.05	569.19
494.268	574.19
494.485	584.19
494.703	581.19
494.92	591.19
495.138	562.19
495.355	606.19
495.573	610.19
495.79	582.19
496.008	571.19
496.225	584.19
496.442	587.19
496.66	597.19
496.877	595.19
497.094	598.19
497.312	601.19
497.529	621.19
497.746	621.19
497.963	636.19
498.181	664.19
498.398	657.19
498.615	678.19
498.832	688.19
499.049	709.19
499.267	760.19
499.484	779.19
499.701	797.19
499.918	811.19
500.135	855.19
500.352	919.19
500.569	932.19
500.786	967.19
501.003	917.19
501.22	868.19
501.437	852.19
501.654	794.19
501.871	756.19
502.088	739.19
