Data from 1964.PennyLincolnUp.Lamp.En5.5.200Scan.071719.P1._HRD10591_14-06-14-911.txt Node
Date: Thu Jul 18 14:06:14 EDT 2019
User: cochatt
Spectrometer: HR+D1059
Trigger mode: 1
Integration Time (sec): 1.000000E-1
Scans to average: 1
Electric dark correction enabled: true
Nonlinearity correction enabled: false
Boxcar width: 0
XAxis mode: Wavelengths
Number of Pixels in Spectrum: 2048
>>>>>Begin Spectral Data<<<<<
223.165	1.69
223.4	1.69
223.635	1.69
223.869	-12.31
224.104	-15.31
224.338	4.69
224.573	-12.31
224.808	-17.31
225.042	3.69
225.277	-11.31
225.511	-28.31
225.746	-4.31
225.98	-20.31
226.215	11.69
226.449	15.69
226.683	23.69
226.918	24.69
227.152	35.69
227.387	32.69
227.621	43.69
227.856	41.69
228.09	26.69
228.324	31.69
228.559	48.69
228.793	60.69
229.027	91.69
229.262	96.69
229.496	91.69
229.73	109.69
229.964	158.69
230.199	124.69
230.433	100.69
230.667	102.69
230.901	102.69
231.136	113.69
231.37	122.69
231.604	125.69
231.838	110.69
232.072	115.69
232.306	97.69
232.541	116.69
232.775	103.69
233.009	104.69
233.243	103.69
233.477	117.69
233.711	117.69
233.945	109.69
234.179	127.69
234.413	117.69
234.647	135.69
234.881	99.69
235.115	112.69
235.349	120.69
235.583	126.69
235.817	126.69
236.051	105.69
236.285	109.69
236.519	131.69
236.753	126.69
236.987	144.69
237.221	180.69
237.455	218.69
237.689	161.69
237.922	146.69
238.156	145.69
238.39	123.69
238.624	126.69
238.858	122.69
239.091	134.69
239.325	122.69
239.559	122.69
239.793	121.69
240.027	128.69
240.26	131.69
240.494	164.69
240.728	158.69
240.961	141.69
241.195	136.69
241.429	133.69
241.662	144.69
241.896	139.69
242.13	139.69
242.363	146.69
242.597	138.69
242.83	118.69
243.064	133.69
243.298	155.69
243.531	149.69
243.765	155.69
243.998	155.69
244.232	128.69
244.465	161.69
244.699	149.69
244.932	147.69
245.166	150.69
245.399	158.69
245.633	152.69
245.866	151.69
246.099	140.69
246.333	147.69
246.566	154.69
246.8	153.69
247.033	156.69
247.266	162.69
247.5	160.69
247.733	158.69
247.966	151.69
248.2	170.69
248.433	170.69
248.666	187.69
248.899	170.69
249.133	198.69
249.366	207.69
249.599	173.69
249.832	195.69
250.066	190.69
250.299	198.69
250.532	179.69
250.765	204.69
250.998	215.69
251.231	234.69
251.465	224.69
251.698	209.69
251.931	185.69
252.164	188.69
252.397	198.69
252.63	210.69
252.863	213.69
253.096	221.69
253.329	219.69
253.562	214.69
253.795	223.69
254.028	221.69
254.261	220.69
254.494	223.69
254.727	266.69
254.96	272.69
255.193	259.69
255.426	256.69
255.659	230.69
255.892	222.69
256.124	240.69
256.357	240.69
256.59	241.69
256.823	223.69
257.056	218.69
257.289	220.69
257.521	206.69
257.754	217.69
257.987	227.69
258.22	225.69
258.452	213.69
258.685	218.69
258.918	208.69
259.151	221.69
259.383	224.69
259.616	220.69
259.849	220.69
260.081	248.69
260.314	252.69
260.547	257.69
260.779	259.69
261.012	248.69
261.244	251.69
261.477	247.69
261.71	232.69
261.942	237.69
262.175	229.69
262.407	228.69
262.64	202.69
262.872	237.69
263.105	241.69
263.337	240.69
263.57	229.69
263.802	233.69
264.035	231.69
264.267	225.69
264.499	218.69
264.732	227.69
264.964	222.69
265.197	238.69
265.429	233.69
265.661	242.69
265.894	252.69
266.126	227.69
266.358	244.69
266.591	242.69
266.823	247.69
267.055	249.69
267.287	240.69
267.52	253.69
267.752	245.69
267.984	250.69
268.216	249.69
268.448	253.69
268.681	259.69
268.913	271.69
269.145	268.69
269.377	271.69
269.609	283.69
269.841	284.69
270.073	283.69
270.306	285.69
270.538	309.69
270.77	316.69
271.002	304.69
271.234	309.69
271.466	310.69
271.698	324.69
271.93	324.69
272.162	318.69
272.394	329.69
272.626	311.69
272.858	309.69
273.09	294.69
273.322	299.69
273.553	277.69
273.785	288.69
274.017	302.69
274.249	284.69
274.481	283.69
274.713	297.69
274.945	296.69
275.176	286.69
275.408	283.69
275.64	290.69
275.872	298.69
276.104	291.69
276.335	288.69
276.567	294.69
276.799	292.69
277.031	317.69
277.262	326.69
277.494	327.69
277.726	314.69
277.957	309.69
278.189	305.69
278.421	289.69
278.652	312.69
278.884	304.69
279.115	284.69
279.347	307.69
279.579	294.69
279.81	293.69
280.042	305.69
280.273	309.69
280.505	310.69
280.736	294.69
280.968	295.69
281.199	310.69
281.431	311.69
281.662	297.69
281.894	319.69
282.125	312.69
282.356	309.69
282.588	328.69
282.819	328.69
283.051	301.69
283.282	303.69
283.513	331.69
283.745	339.69
283.976	315.69
284.207	297.69
284.439	319.69
284.67	331.69
284.901	318.69
285.132	308.69
285.364	313.69
285.595	333.69
285.826	323.69
286.057	326.69
286.288	341.69
286.52	320.69
286.751	316.69
286.982	334.69
287.213	318.69
287.444	326.69
287.675	314.69
287.906	333.69
288.138	327.69
288.369	330.69
288.6	327.69
288.831	334.69
289.062	343.69
289.293	328.69
289.524	347.69
289.755	333.69
289.986	309.69
290.217	318.69
290.448	326.69
290.679	340.69
290.91	325.69
291.141	335.69
291.371	337.69
291.602	319.69
291.833	328.69
292.064	340.69
292.295	320.69
292.526	324.69
292.757	325.69
292.987	304.69
293.218	324.69
293.449	317.69
293.68	325.69
293.91	332.69
294.141	341.69
294.372	334.69
294.603	320.69
294.833	339.69
295.064	325.69
295.295	340.69
295.525	350.69
295.756	328.69
295.987	353.69
296.217	347.69
296.448	357.69
296.679	344.69
296.909	338.69
297.14	346.69
297.37	332.69
297.601	342.69
297.831	335.69
298.062	329.69
298.292	362.69
298.523	360.69
298.753	341.69
298.984	341.69
299.214	337.69
299.445	357.69
299.675	349.69
299.905	350.69
300.136	352.69
300.366	347.69
300.597	347.69
300.827	380.69
301.057	333.69
301.288	365.69
301.518	370.69
301.748	382.69
301.979	357.69
302.209	376.69
302.439	384.69
302.669	371.69
302.9	366.69
303.13	381.69
303.36	378.69
303.59	377.69
303.82	365.69
304.051	384.69
304.281	344.69
304.511	358.69
304.741	356.69
304.971	366.69
305.201	375.69
305.431	368.69
305.661	389.69
305.891	368.69
306.121	368.69
306.352	384.69
306.582	380.69
306.812	373.69
307.042	380.69
307.272	374.69
307.502	389.69
307.731	374.69
307.961	370.69
308.191	372.69
308.421	383.69
308.651	391.69
308.881	372.69
309.111	388.69
309.341	378.69
309.571	398.69
309.8	385.69
310.03	411.69
310.26	417.69
310.49	382.69
310.72	410.69
310.949	423.69
311.179	438.69
311.409	416.69
311.639	403.69
311.868	416.69
312.098	413.69
312.328	401.69
312.557	425.69
312.787	428.69
313.017	432.69
313.246	418.69
313.476	437.69
313.706	402.69
313.935	426.69
314.165	427.69
314.394	426.69
314.624	428.69
314.853	416.69
315.083	397.69
315.312	422.69
315.542	418.69
315.771	425.69
316.001	407.69
316.23	405.69
316.46	425.69
316.689	430.69
316.919	432.69
317.148	412.69
317.377	428.69
317.607	439.69
317.836	410.69
318.065	416.69
318.295	411.69
318.524	421.69
318.753	413.69
318.983	424.69
319.212	425.69
319.441	435.69
319.67	419.69
319.9	408.69
320.129	407.69
320.358	402.69
320.587	436.69
320.816	436.69
321.046	444.69
321.275	433.69
321.504	434.69
321.733	432.69
321.962	434.69
322.191	430.69
322.42	468.69
322.649	457.69
322.878	473.69
323.108	453.69
323.337	489.69
323.566	487.69
323.795	526.69
324.024	554.69
324.253	652.69
324.482	882.69
324.71	1260.69
324.939	1776.69
325.168	1506.69
325.397	808.69
325.626	593.69
325.855	522.69
326.084	506.69
326.313	493.69
326.542	494.69
326.77	544.69
326.999	637.69
327.228	814.69
327.457	1152.69
327.686	1297.69
327.914	912.69
328.143	633.69
328.372	566.69
328.6	566.69
328.829	538.69
329.058	516.69
329.287	561.69
329.515	524.69
329.744	516.69
329.972	531.69
330.201	550.69
330.43	554.69
330.658	573.69
330.887	589.69
331.115	557.69
331.344	532.69
331.572	518.69
331.801	520.69
332.03	522.69
332.258	493.69
332.486	473.69
332.715	491.69
332.943	490.69
333.172	516.69
333.4	498.69
333.629	506.69
333.857	530.69
334.085	557.69
334.314	565.69
334.542	586.69
334.771	574.69
334.999	532.69
335.227	525.69
335.455	503.69
335.684	499.69
335.912	512.69
336.14	492.69
336.369	518.69
336.597	529.69
336.825	503.69
337.053	475.69
337.281	491.69
337.51	483.69
337.738	475.69
337.966	473.69
338.194	466.69
338.422	458.69
338.65	481.69
338.878	471.69
339.106	445.69
339.334	480.69
339.562	482.69
339.79	454.69
340.018	471.69
340.246	463.69
340.474	460.69
340.702	467.69
340.93	460.69
341.158	461.69
341.386	441.69
341.614	481.69
341.842	471.69
342.07	467.69
342.298	445.69
342.526	467.69
342.754	445.69
342.981	451.69
343.209	453.69
343.437	442.69
343.665	466.69
343.893	467.69
344.12	474.69
344.348	482.69
344.576	493.69
344.804	460.69
345.031	476.69
345.259	482.69
345.487	436.69
345.714	446.69
345.942	444.69
346.17	450.69
346.397	450.69
346.625	422.69
346.853	434.69
347.08	432.69
347.308	425.69
347.535	450.69
347.763	432.69
347.99	445.69
348.218	454.69
348.445	438.69
348.673	421.69
348.9	447.69
349.128	442.69
349.355	413.69
349.583	438.69
349.81	429.69
350.037	424.69
350.265	430.69
350.492	419.69
350.72	414.69
350.947	424.69
351.174	438.69
351.402	453.69
351.629	430.69
351.856	425.69
352.083	442.69
352.311	436.69
352.538	440.69
352.765	439.69
352.992	424.69
353.22	438.69
353.447	432.69
353.674	433.69
353.901	415.69
354.128	406.69
354.355	412.69
354.583	382.69
354.81	404.69
355.037	395.69
355.264	405.69
355.491	405.69
355.718	417.69
355.945	382.69
356.172	401.69
356.399	420.69
356.626	405.69
356.853	431.69
357.08	401.69
357.307	402.69
357.534	427.69
357.761	406.69
357.988	413.69
358.215	423.69
358.441	406.69
358.668	416.69
358.895	406.69
359.122	432.69
359.349	414.69
359.576	442.69
359.802	430.69
360.029	458.69
360.256	456.69
360.483	441.69
360.709	433.69
360.936	416.69
361.163	430.69
361.39	433.69
361.616	418.69
361.843	434.69
362.07	424.69
362.296	427.69
362.523	410.69
362.749	434.69
362.976	420.69
363.203	424.69
363.429	409.69
363.656	404.69
363.882	397.69
364.109	408.69
364.335	399.69
364.562	402.69
364.788	405.69
365.015	433.69
365.241	429.69
365.468	406.69
365.694	391.69
365.92	422.69
366.147	438.69
366.373	402.69
366.599	408.69
366.826	397.69
367.052	403.69
367.278	414.69
367.505	394.69
367.731	413.69
367.957	406.69
368.184	416.69
368.41	401.69
368.636	405.69
368.862	407.69
369.089	401.69
369.315	408.69
369.541	416.69
369.767	424.69
369.993	404.69
370.219	407.69
370.445	392.69
370.672	396.69
370.898	418.69
371.124	415.69
371.35	406.69
371.576	404.69
371.802	409.69
372.028	417.69
372.254	411.69
372.48	377.69
372.706	397.69
372.932	401.69
373.158	412.69
373.384	403.69
373.61	406.69
373.835	404.69
374.061	425.69
374.287	398.69
374.513	413.69
374.739	406.69
374.965	448.69
375.191	438.69
375.416	417.69
375.642	427.69
375.868	424.69
376.094	405.69
376.319	406.69
376.545	407.69
376.771	417.69
376.997	411.69
377.222	417.69
377.448	386.69
377.674	377.69
377.899	396.69
378.125	394.69
378.35	405.69
378.576	391.69
378.802	405.69
379.027	392.69
379.253	394.69
379.478	401.69
379.704	392.69
379.929	394.69
380.155	381.69
380.38	377.69
380.606	398.69
380.831	399.69
381.057	376.69
381.282	388.69
381.507	417.69
381.733	407.69
381.958	398.69
382.184	405.69
382.409	400.69
382.634	438.69
382.86	392.69
383.085	412.69
383.31	416.69
383.535	404.69
383.761	399.69
383.986	418.69
384.211	409.69
384.436	411.69
384.662	420.69
384.887	421.69
385.112	434.69
385.337	436.69
385.562	417.69
385.787	425.69
386.013	433.69
386.238	448.69
386.463	437.69
386.688	441.69
386.913	426.69
387.138	416.69
387.363	453.69
387.588	416.69
387.813	444.69
388.038	434.69
388.263	423.69
388.488	430.69
388.713	416.69
388.938	458.69
389.163	440.69
389.387	446.69
389.612	427.69
389.837	438.69
390.062	430.69
390.287	436.69
390.512	432.69
390.736	422.69
390.961	448.69
391.186	422.69
391.411	440.69
391.636	466.69
391.86	456.69
392.085	452.69
392.31	476.69
392.534	444.69
392.759	437.69
392.984	433.69
393.208	452.69
393.433	436.69
393.658	473.69
393.882	436.69
394.107	434.69
394.331	460.69
394.556	446.69
394.78	432.69
395.005	442.69
395.229	450.69
395.454	453.69
395.678	440.69
395.903	460.69
396.127	490.69
396.352	462.69
396.576	460.69
396.801	465.69
397.025	458.69
397.249	433.69
397.474	460.69
397.698	456.69
397.922	471.69
398.147	470.69
398.371	507.69
398.595	496.69
398.82	497.69
399.044	481.69
399.268	524.69
399.492	562.69
399.717	599.69
399.941	620.69
400.165	610.69
400.389	603.69
400.613	555.69
400.837	525.69
401.062	530.69
401.286	496.69
401.51	513.69
401.734	490.69
401.958	506.69
402.182	516.69
402.406	491.69
402.63	500.69
402.854	511.69
403.078	487.69
403.302	511.69
403.526	527.69
403.75	514.69
403.974	520.69
404.198	514.69
404.422	527.69
404.645	522.69
404.869	548.69
405.093	533.69
405.317	590.69
405.541	618.69
405.765	571.69
405.988	544.69
406.212	547.69
406.436	558.69
406.66	538.69
406.883	542.69
407.107	576.69
407.331	589.69
407.555	672.69
407.778	660.69
408.002	609.69
408.226	580.69
408.449	567.69
408.673	562.69
408.896	589.69
409.12	577.69
409.344	577.69
409.567	510.69
409.791	525.69
410.014	522.69
410.238	500.69
410.461	522.69
410.685	529.69
410.908	524.69
411.132	564.69
411.355	582.69
411.578	533.69
411.802	521.69
412.025	486.69
412.249	516.69
412.472	530.69
412.695	538.69
412.919	573.69
413.142	501.69
413.365	518.69
413.589	501.69
413.812	471.69
414.035	472.69
414.258	480.69
414.482	466.69
414.705	464.69
414.928	480.69
415.151	484.69
415.374	490.69
415.597	497.69
415.821	454.69
416.044	480.69
416.267	493.69
416.49	482.69
416.713	466.69
416.936	483.69
417.159	478.69
417.382	474.69
417.605	485.69
417.828	498.69
418.051	487.69
418.274	478.69
418.497	465.69
418.72	463.69
418.943	467.69
419.166	470.69
419.389	497.69
419.611	513.69
419.834	484.69
420.057	481.69
420.28	507.69
420.503	474.69
420.726	492.69
420.948	505.69
421.171	527.69
421.394	549.69
421.617	512.69
421.839	491.69
422.062	503.69
422.285	503.69
422.507	545.69
422.73	596.69
422.953	560.69
423.175	520.69
423.398	499.69
423.621	516.69
423.843	522.69
424.066	508.69
424.288	512.69
424.511	534.69
424.733	585.69
424.956	645.69
425.178	592.69
425.401	616.69
425.623	601.69
425.846	537.69
426.068	496.69
426.291	488.69
426.513	498.69
426.735	507.69
426.958	532.69
427.18	591.69
427.402	685.69
427.625	761.69
427.847	642.69
428.069	587.69
428.292	547.69
428.514	476.69
428.736	471.69
428.958	477.69
429.181	452.69
429.403	469.69
429.625	485.69
429.847	492.69
430.069	554.69
430.292	547.69
430.514	500.69
430.736	458.69
430.958	463.69
431.18	456.69
431.402	450.69
431.624	460.69
431.846	448.69
432.068	462.69
432.29	453.69
432.512	444.69
432.734	443.69
432.956	450.69
433.178	460.69
433.4	468.69
433.622	472.69
433.844	467.69
434.066	432.69
434.287	441.69
434.509	463.69
434.731	453.69
434.953	460.69
435.175	476.69
435.397	508.69
435.618	513.69
435.84	533.69
436.062	598.69
436.284	646.69
436.505	551.69
436.727	502.69
436.949	486.69
437.17	474.69
437.392	446.69
437.614	473.69
437.835	508.69
438.057	547.69
438.278	652.69
438.5	655.69
438.721	724.69
438.943	681.69
439.165	556.69
439.386	483.69
439.608	491.69
439.829	512.69
440.05	526.69
440.272	558.69
440.493	489.69
440.715	483.69
440.936	462.69
441.158	474.69
441.379	459.69
441.6	508.69
441.822	486.69
442.043	553.69
442.264	605.69
442.486	617.69
442.707	545.69
442.928	500.69
443.149	492.69
443.371	513.69
443.592	556.69
443.813	640.69
444.034	683.69
444.255	585.69
444.476	542.69
444.698	498.69
444.919	538.69
445.14	609.69
445.361	553.69
445.582	529.69
445.803	577.69
446.024	660.69
446.245	660.69
446.466	587.69
446.687	511.69
446.908	497.69
447.129	469.69
447.35	476.69
447.571	477.69
447.792	458.69
448.013	468.69
448.234	462.69
448.455	530.69
448.675	616.69
448.896	689.69
449.117	573.69
449.338	544.69
449.559	644.69
449.779	716.69
450	593.69
450.221	472.69
450.442	471.69
450.662	433.69
450.883	432.69
451.104	451.69
451.324	440.69
451.545	427.69
451.766	416.69
451.986	428.69
452.207	418.69
452.428	398.69
452.648	409.69
452.869	412.69
453.089	421.69
453.31	409.69
453.53	409.69
453.751	390.69
453.971	404.69
454.192	402.69
454.412	395.69
454.633	390.69
454.853	424.69
455.073	413.69
455.294	421.69
455.514	479.69
455.734	467.69
455.955	409.69
456.175	382.69
456.395	402.69
456.616	392.69
456.836	406.69
457.056	396.69
457.276	370.69
457.497	380.69
457.717	373.69
457.937	406.69
458.157	389.69
458.377	387.69
458.598	413.69
458.818	465.69
459.038	492.69
459.258	523.69
459.478	474.69
459.698	445.69
459.918	435.69
460.138	434.69
460.358	445.69
460.578	453.69
460.798	461.69
461.018	476.69
461.238	462.69
461.458	461.69
461.678	437.69
461.898	451.69
462.118	448.69
462.338	471.69
462.558	491.69
462.777	478.69
462.997	494.69
463.217	508.69
463.437	520.69
463.657	498.69
463.876	508.69
464.096	489.69
464.316	474.69
464.536	501.69
464.755	470.69
464.975	472.69
465.195	500.69
465.414	534.69
465.634	481.69
465.854	452.69
466.073	440.69
466.293	441.69
466.512	420.69
466.732	407.69
466.951	436.69
467.171	434.69
467.391	426.69
467.61	418.69
467.829	410.69
468.049	426.69
468.268	420.69
468.488	402.69
468.707	421.69
468.927	394.69
469.146	410.69
469.365	409.69
469.585	417.69
469.804	415.69
470.023	416.69
470.243	414.69
470.462	429.69
470.681	439.69
470.901	418.69
471.12	444.69
471.339	457.69
471.558	443.69
471.777	454.69
471.997	425.69
472.216	424.69
472.435	454.69
472.654	434.69
472.873	427.69
473.092	419.69
473.311	402.69
473.53	432.69
473.749	442.69
473.968	456.69
474.187	534.69
474.406	577.69
474.625	461.69
474.844	425.69
475.063	417.69
475.282	428.69
475.501	426.69
475.72	451.69
475.939	432.69
476.158	452.69
476.377	442.69
476.596	437.69
476.814	437.69
477.033	434.69
477.252	453.69
477.471	449.69
477.69	443.69
477.908	461.69
478.127	463.69
478.346	464.69
478.564	465.69
478.783	471.69
479.002	484.69
479.22	470.69
479.439	489.69
479.658	479.69
479.876	509.69
480.095	526.69
480.313	532.69
480.532	525.69
480.751	538.69
480.969	534.69
481.188	550.69
481.406	562.69
481.624	524.69
481.843	488.69
482.061	500.69
482.28	496.69
482.498	499.69
482.717	494.69
482.935	465.69
483.153	487.69
483.372	505.69
483.59	467.69
483.808	493.69
484.027	479.69
484.245	466.69
484.463	483.69
484.681	497.69
484.9	492.69
485.118	508.69
485.336	493.69
485.554	508.69
485.772	486.69
485.99	510.69
486.209	516.69
486.427	504.69
486.645	513.69
486.863	521.69
487.081	527.69
487.299	528.69
487.517	515.69
487.735	507.69
487.953	526.69
488.171	519.69
488.389	538.69
488.607	516.69
488.825	529.69
489.043	525.69
489.261	517.69
489.479	533.69
489.696	525.69
489.914	537.69
490.132	543.69
490.35	538.69
490.568	524.69
490.786	540.69
491.003	548.69
491.221	569.69
491.439	578.69
491.657	564.69
491.874	549.69
492.092	565.69
492.31	578.69
492.527	581.69
492.745	610.69
492.963	591.69
493.18	585.69
493.398	587.69
493.615	599.69
493.833	596.69
494.05	581.69
494.268	622.69
494.485	599.69
494.703	604.69
494.92	594.69
495.138	602.69
495.355	591.69
495.573	612.69
495.79	616.69
496.008	599.69
496.225	600.69
496.442	594.69
496.66	590.69
496.877	626.69
497.094	641.69
497.312	634.69
497.529	658.69
497.746	620.69
497.963	668.69
498.181	655.69
498.398	669.69
498.615	714.69
498.832	702.69
499.049	727.69
499.267	746.69
499.484	766.69
499.701	808.69
499.918	850.69
500.135	863.69
500.352	925.69
500.569	925.69
500.786	944.69
501.003	925.69
501.22	894.69
501.437	837.69
501.654	824.69
501.871	800.69
502.088	740.69
