Data from 1964.PennyLincolnUp.Lamp.En5.5.200Scan.071719.P1._HRD10591_14-05-33-910.txt Node
Date: Thu Jul 18 14:05:33 EDT 2019
User: cochatt
Spectrometer: HR+D1059
Trigger mode: 1
Integration Time (sec): 1.000000E-1
Scans to average: 1
Electric dark correction enabled: true
Nonlinearity correction enabled: false
Boxcar width: 0
XAxis mode: Wavelengths
Number of Pixels in Spectrum: 2048
>>>>>Begin Spectral Data<<<<<
223.165	-7.38
223.4	-7.38
223.635	-7.38
223.869	-20.38
224.104	-19.38
224.338	-23.38
224.573	-18.38
224.808	-14.38
225.042	-7.38
225.277	6.62
225.511	4.62
225.746	0.62
225.98	-1.38
226.215	13.62
226.449	15.62
226.683	15.62
226.918	22.62
227.152	32.62
227.387	26.62
227.621	40.62
227.856	43.62
228.09	53.62
228.324	42.62
228.559	54.62
228.793	57.62
229.027	71.62
229.262	94.62
229.496	109.62
229.73	128.62
229.964	131.62
230.199	105.62
230.433	111.62
230.667	103.62
230.901	128.62
231.136	93.62
231.37	108.62
231.604	105.62
231.838	109.62
232.072	112.62
232.306	118.62
232.541	102.62
232.775	105.62
233.009	118.62
233.243	125.62
233.477	113.62
233.711	105.62
233.945	117.62
234.179	115.62
234.413	115.62
234.647	114.62
234.881	125.62
235.115	117.62
235.349	110.62
235.583	115.62
235.817	133.62
236.051	132.62
236.285	130.62
236.519	127.62
236.753	128.62
236.987	136.62
237.221	172.62
237.455	212.62
237.689	168.62
237.922	133.62
238.156	125.62
238.39	126.62
238.624	124.62
238.858	127.62
239.091	120.62
239.325	127.62
239.559	125.62
239.793	127.62
240.027	129.62
240.26	125.62
240.494	153.62
240.728	145.62
240.961	147.62
241.195	136.62
241.429	135.62
241.662	128.62
241.896	131.62
242.13	141.62
242.363	140.62
242.597	132.62
242.83	135.62
243.064	147.62
243.298	138.62
243.531	153.62
243.765	140.62
243.998	167.62
244.232	138.62
244.465	150.62
244.699	135.62
244.932	139.62
245.166	135.62
245.399	141.62
245.633	157.62
245.866	142.62
246.099	150.62
246.333	150.62
246.566	151.62
246.8	135.62
247.033	140.62
247.266	144.62
247.5	179.62
247.733	177.62
247.966	176.62
248.2	165.62
248.433	164.62
248.666	164.62
248.899	176.62
249.133	184.62
249.366	192.62
249.599	195.62
249.832	175.62
250.066	172.62
250.299	192.62
250.532	199.62
250.765	199.62
250.998	220.62
251.231	230.62
251.465	225.62
251.698	187.62
251.931	188.62
252.164	200.62
252.397	195.62
252.63	206.62
252.863	196.62
253.096	213.62
253.329	209.62
253.562	211.62
253.795	219.62
254.028	215.62
254.261	227.62
254.494	220.62
254.727	245.62
254.96	259.62
255.193	264.62
255.426	246.62
255.659	238.62
255.892	253.62
256.124	234.62
256.357	237.62
256.59	232.62
256.823	227.62
257.056	215.62
257.289	217.62
257.521	215.62
257.754	215.62
257.987	213.62
258.22	212.62
258.452	210.62
258.685	219.62
258.918	225.62
259.151	221.62
259.383	225.62
259.616	224.62
259.849	243.62
260.081	239.62
260.314	236.62
260.547	248.62
260.779	243.62
261.012	232.62
261.244	239.62
261.477	221.62
261.71	231.62
261.942	228.62
262.175	217.62
262.407	220.62
262.64	245.62
262.872	219.62
263.105	228.62
263.337	215.62
263.57	222.62
263.802	225.62
264.035	230.62
264.267	236.62
264.499	241.62
264.732	219.62
264.964	230.62
265.197	247.62
265.429	231.62
265.661	237.62
265.894	248.62
266.126	238.62
266.358	237.62
266.591	237.62
266.823	229.62
267.055	242.62
267.287	236.62
267.52	237.62
267.752	259.62
267.984	258.62
268.216	232.62
268.448	263.62
268.681	243.62
268.913	266.62
269.145	291.62
269.377	273.62
269.609	289.62
269.841	283.62
270.073	283.62
270.306	288.62
270.538	307.62
270.77	304.62
271.002	311.62
271.234	295.62
271.466	288.62
271.698	304.62
271.93	328.62
272.162	301.62
272.394	322.62
272.626	291.62
272.858	293.62
273.09	294.62
273.322	299.62
273.553	286.62
273.785	294.62
274.017	279.62
274.249	282.62
274.481	285.62
274.713	302.62
274.945	279.62
275.176	291.62
275.408	284.62
275.64	274.62
275.872	304.62
276.104	298.62
276.335	272.62
276.567	284.62
276.799	299.62
277.031	314.62
277.262	325.62
277.494	329.62
277.726	317.62
277.957	320.62
278.189	310.62
278.421	278.62
278.652	299.62
278.884	293.62
279.115	297.62
279.347	284.62
279.579	305.62
279.81	299.62
280.042	286.62
280.273	304.62
280.505	300.62
280.736	288.62
280.968	285.62
281.199	287.62
281.431	293.62
281.662	293.62
281.894	299.62
282.125	309.62
282.356	321.62
282.588	318.62
282.819	311.62
283.051	288.62
283.282	288.62
283.513	284.62
283.745	287.62
283.976	319.62
284.207	333.62
284.439	321.62
284.67	311.62
284.901	329.62
285.132	325.62
285.364	307.62
285.595	319.62
285.826	305.62
286.057	316.62
286.288	321.62
286.52	327.62
286.751	313.62
286.982	304.62
287.213	315.62
287.444	318.62
287.675	316.62
287.906	337.62
288.138	344.62
288.369	316.62
288.6	341.62
288.831	330.62
289.062	337.62
289.293	308.62
289.524	330.62
289.755	316.62
289.986	345.62
290.217	325.62
290.448	344.62
290.679	321.62
290.91	333.62
291.141	321.62
291.371	341.62
291.602	338.62
291.833	336.62
292.064	326.62
292.295	333.62
292.526	313.62
292.757	321.62
292.987	331.62
293.218	327.62
293.449	336.62
293.68	341.62
293.91	340.62
294.141	351.62
294.372	325.62
294.603	332.62
294.833	329.62
295.064	329.62
295.295	320.62
295.525	330.62
295.756	334.62
295.987	345.62
296.217	341.62
296.448	363.62
296.679	344.62
296.909	337.62
297.14	332.62
297.37	341.62
297.601	337.62
297.831	343.62
298.062	338.62
298.292	352.62
298.523	344.62
298.753	346.62
298.984	335.62
299.214	344.62
299.445	348.62
299.675	353.62
299.905	345.62
300.136	373.62
300.366	353.62
300.597	355.62
300.827	353.62
301.057	350.62
301.288	363.62
301.518	380.62
301.748	368.62
301.979	371.62
302.209	379.62
302.439	362.62
302.669	359.62
302.9	366.62
303.13	363.62
303.36	365.62
303.59	381.62
303.82	386.62
304.051	364.62
304.281	377.62
304.511	344.62
304.741	353.62
304.971	374.62
305.201	375.62
305.431	367.62
305.661	354.62
305.891	378.62
306.121	358.62
306.352	375.62
306.582	382.62
306.812	369.62
307.042	362.62
307.272	360.62
307.502	363.62
307.731	367.62
307.961	364.62
308.191	376.62
308.421	387.62
308.651	379.62
308.881	366.62
309.111	385.62
309.341	366.62
309.571	375.62
309.8	381.62
310.03	406.62
310.26	397.62
310.49	383.62
310.72	398.62
310.949	406.62
311.179	427.62
311.409	411.62
311.639	410.62
311.868	402.62
312.098	406.62
312.328	418.62
312.557	418.62
312.787	418.62
313.017	433.62
313.246	441.62
313.476	419.62
313.706	418.62
313.935	422.62
314.165	422.62
314.394	425.62
314.624	390.62
314.853	413.62
315.083	402.62
315.312	415.62
315.542	407.62
315.771	425.62
316.001	401.62
316.23	410.62
316.46	419.62
316.689	420.62
316.919	416.62
317.148	425.62
317.377	422.62
317.607	411.62
317.836	428.62
318.065	403.62
318.295	408.62
318.524	405.62
318.753	404.62
318.983	417.62
319.212	411.62
319.441	398.62
319.67	404.62
319.9	409.62
320.129	427.62
320.358	421.62
320.587	401.62
320.816	417.62
321.046	402.62
321.275	419.62
321.504	422.62
321.733	425.62
321.962	441.62
322.191	439.62
322.42	440.62
322.649	450.62
322.878	437.62
323.108	441.62
323.337	467.62
323.566	492.62
323.795	499.62
324.024	537.62
324.253	639.62
324.482	824.62
324.71	1211.62
324.939	1641.62
325.168	1415.62
325.397	771.62
325.626	561.62
325.855	521.62
326.084	485.62
326.313	489.62
326.542	483.62
326.77	545.62
326.999	603.62
327.228	787.62
327.457	1070.62
327.686	1222.62
327.914	856.62
328.143	605.62
328.372	568.62
328.6	536.62
328.829	554.62
329.058	542.62
329.287	537.62
329.515	538.62
329.744	513.62
329.972	514.62
330.201	499.62
330.43	568.62
330.658	549.62
330.887	567.62
331.115	538.62
331.344	499.62
331.572	499.62
331.801	513.62
332.03	489.62
332.258	483.62
332.486	499.62
332.715	505.62
332.943	460.62
333.172	502.62
333.4	492.62
333.629	505.62
333.857	511.62
334.085	523.62
334.314	533.62
334.542	541.62
334.771	571.62
334.999	529.62
335.227	516.62
335.455	519.62
335.684	506.62
335.912	488.62
336.14	487.62
336.369	477.62
336.597	466.62
336.825	449.62
337.053	484.62
337.281	462.62
337.51	463.62
337.738	505.62
337.966	499.62
338.194	473.62
338.422	474.62
338.65	471.62
338.878	454.62
339.106	451.62
339.334	465.62
339.562	449.62
339.79	452.62
340.018	452.62
340.246	477.62
340.474	453.62
340.702	447.62
340.93	471.62
341.158	435.62
341.386	437.62
341.614	452.62
341.842	463.62
342.07	436.62
342.298	448.62
342.526	439.62
342.754	441.62
342.981	463.62
343.209	429.62
343.437	461.62
343.665	472.62
343.893	483.62
344.12	485.62
344.348	472.62
344.576	480.62
344.804	477.62
345.031	455.62
345.259	467.62
345.487	453.62
345.714	448.62
345.942	454.62
346.17	441.62
346.397	453.62
346.625	432.62
346.853	454.62
347.08	424.62
347.308	429.62
347.535	427.62
347.763	405.62
347.99	407.62
348.218	436.62
348.445	434.62
348.673	436.62
348.9	437.62
349.128	415.62
349.355	414.62
349.583	410.62
349.81	413.62
350.037	420.62
350.265	406.62
350.492	420.62
350.72	427.62
350.947	448.62
351.174	431.62
351.402	425.62
351.629	414.62
351.856	413.62
352.083	444.62
352.311	440.62
352.538	418.62
352.765	450.62
352.992	423.62
353.22	421.62
353.447	397.62
353.674	397.62
353.901	402.62
354.128	419.62
354.355	403.62
354.583	420.62
354.81	415.62
355.037	403.62
355.264	390.62
355.491	385.62
355.718	398.62
355.945	411.62
356.172	399.62
356.399	386.62
356.626	406.62
356.853	406.62
357.08	394.62
357.307	388.62
357.534	409.62
357.761	407.62
357.988	406.62
358.215	404.62
358.441	406.62
358.668	406.62
358.895	408.62
359.122	413.62
359.349	401.62
359.576	425.62
359.802	421.62
360.029	437.62
360.256	442.62
360.483	421.62
360.709	426.62
360.936	408.62
361.163	417.62
361.39	415.62
361.616	413.62
361.843	402.62
362.07	416.62
362.296	401.62
362.523	401.62
362.749	415.62
362.976	432.62
363.203	402.62
363.429	383.62
363.656	415.62
363.882	420.62
364.109	409.62
364.335	401.62
364.562	397.62
364.788	408.62
365.015	419.62
365.241	419.62
365.468	417.62
365.694	409.62
365.92	398.62
366.147	391.62
366.373	420.62
366.599	393.62
366.826	404.62
367.052	409.62
367.278	405.62
367.505	388.62
367.731	405.62
367.957	391.62
368.184	394.62
368.41	413.62
368.636	401.62
368.862	408.62
369.089	401.62
369.315	392.62
369.541	400.62
369.767	405.62
369.993	397.62
370.219	406.62
370.445	404.62
370.672	385.62
370.898	401.62
371.124	407.62
371.35	399.62
371.576	406.62
371.802	404.62
372.028	394.62
372.254	420.62
372.48	410.62
372.706	432.62
372.932	422.62
373.158	420.62
373.384	426.62
373.61	410.62
373.835	404.62
374.061	408.62
374.287	406.62
374.513	422.62
374.739	412.62
374.965	426.62
375.191	413.62
375.416	430.62
375.642	417.62
375.868	409.62
376.094	402.62
376.319	405.62
376.545	408.62
376.771	395.62
376.997	395.62
377.222	406.62
377.448	408.62
377.674	387.62
377.899	396.62
378.125	382.62
378.35	402.62
378.576	389.62
378.802	401.62
379.027	403.62
379.253	418.62
379.478	400.62
379.704	383.62
379.929	397.62
380.155	407.62
380.38	377.62
380.606	405.62
380.831	377.62
381.057	380.62
381.282	383.62
381.507	401.62
381.733	404.62
381.958	407.62
382.184	415.62
382.409	411.62
382.634	400.62
382.86	427.62
383.085	417.62
383.31	400.62
383.535	413.62
383.761	401.62
383.986	395.62
384.211	408.62
384.436	417.62
384.662	423.62
384.887	414.62
385.112	424.62
385.337	425.62
385.562	423.62
385.787	426.62
386.013	439.62
386.238	432.62
386.463	438.62
386.688	452.62
386.913	428.62
387.138	421.62
387.363	422.62
387.588	422.62
387.813	424.62
388.038	440.62
388.263	433.62
388.488	431.62
388.713	441.62
388.938	426.62
389.163	433.62
389.387	429.62
389.612	426.62
389.837	428.62
390.062	435.62
390.287	411.62
390.512	421.62
390.736	413.62
390.961	434.62
391.186	451.62
391.411	464.62
391.636	436.62
391.86	454.62
392.085	455.62
392.31	445.62
392.534	453.62
392.759	430.62
392.984	420.62
393.208	419.62
393.433	437.62
393.658	449.62
393.882	428.62
394.107	428.62
394.331	432.62
394.556	424.62
394.78	422.62
395.005	445.62
395.229	439.62
395.454	448.62
395.678	460.62
395.903	473.62
396.127	464.62
396.352	480.62
396.576	468.62
396.801	436.62
397.025	447.62
397.249	447.62
397.474	463.62
397.698	462.62
397.922	457.62
398.147	466.62
398.371	478.62
398.595	453.62
398.82	488.62
399.044	494.62
399.268	553.62
399.492	572.62
399.717	586.62
399.941	590.62
400.165	606.62
400.389	601.62
400.613	549.62
400.837	504.62
401.062	504.62
401.286	521.62
401.51	483.62
401.734	487.62
401.958	488.62
402.182	490.62
402.406	490.62
402.63	472.62
402.854	485.62
403.078	495.62
403.302	517.62
403.526	505.62
403.75	519.62
403.974	493.62
404.198	519.62
404.422	515.62
404.645	507.62
404.869	526.62
405.093	518.62
405.317	592.62
405.541	588.62
405.765	532.62
405.988	515.62
406.212	529.62
406.436	541.62
406.66	524.62
406.883	535.62
407.107	576.62
407.331	608.62
407.555	638.62
407.778	641.62
408.002	590.62
408.226	547.62
408.449	547.62
408.673	550.62
408.896	561.62
409.12	603.62
409.344	581.62
409.567	502.62
409.791	500.62
410.014	502.62
410.238	491.62
410.461	494.62
410.685	508.62
410.908	515.62
411.132	511.62
411.355	545.62
411.578	570.62
411.802	485.62
412.025	492.62
412.249	500.62
412.472	536.62
412.695	548.62
412.919	557.62
413.142	493.62
413.365	492.62
413.589	490.62
413.812	484.62
414.035	498.62
414.258	476.62
414.482	461.62
414.705	457.62
414.928	476.62
415.151	486.62
415.374	472.62
415.597	469.62
415.821	479.62
416.044	457.62
416.267	460.62
416.49	468.62
416.713	467.62
416.936	487.62
417.159	479.62
417.382	463.62
417.605	470.62
417.828	486.62
418.051	465.62
418.274	465.62
418.497	461.62
418.72	461.62
418.943	438.62
419.166	484.62
419.389	496.62
419.611	501.62
419.834	494.62
420.057	485.62
420.28	486.62
420.503	491.62
420.726	482.62
420.948	493.62
421.171	528.62
421.394	535.62
421.617	487.62
421.839	462.62
422.062	485.62
422.285	469.62
422.507	546.62
422.73	593.62
422.953	557.62
423.175	517.62
423.398	500.62
423.621	470.62
423.843	490.62
424.066	517.62
424.288	503.62
424.511	542.62
424.733	577.62
424.956	609.62
425.178	580.62
425.401	593.62
425.623	609.62
425.846	530.62
426.068	515.62
426.291	471.62
426.513	523.62
426.735	499.62
426.958	520.62
427.18	597.62
427.402	687.62
427.625	745.62
427.847	621.62
428.069	557.62
428.292	512.62
428.514	471.62
428.736	458.62
428.958	469.62
429.181	460.62
429.403	455.62
429.625	459.62
429.847	490.62
430.069	539.62
430.292	552.62
430.514	484.62
430.736	444.62
430.958	461.62
431.18	441.62
431.402	441.62
431.624	448.62
431.846	426.62
432.068	457.62
432.29	437.62
432.512	439.62
432.734	451.62
432.956	449.62
433.178	449.62
433.4	450.62
433.622	452.62
433.844	437.62
434.066	449.62
434.287	416.62
434.509	450.62
434.731	441.62
434.953	451.62
435.175	468.62
435.397	487.62
435.618	494.62
435.84	532.62
436.062	586.62
436.284	632.62
436.505	528.62
436.727	510.62
436.949	477.62
437.17	474.62
437.392	470.62
437.614	456.62
437.835	492.62
438.057	548.62
438.278	619.62
438.5	624.62
438.721	662.62
438.943	639.62
439.165	520.62
439.386	501.62
439.608	487.62
439.829	492.62
440.05	517.62
440.272	536.62
440.493	518.62
440.715	476.62
440.936	479.62
441.158	461.62
441.379	457.62
441.6	477.62
441.822	484.62
442.043	516.62
442.264	569.62
442.486	624.62
442.707	519.62
442.928	512.62
443.149	502.62
443.371	506.62
443.592	547.62
443.813	612.62
444.034	668.62
444.255	549.62
444.476	514.62
444.698	484.62
444.919	519.62
445.14	579.62
445.361	557.62
445.582	544.62
445.803	576.62
446.024	643.62
446.245	638.62
446.466	571.62
446.687	528.62
446.908	470.62
447.129	462.62
447.35	458.62
447.571	452.62
447.792	439.62
448.013	452.62
448.234	473.62
448.455	502.62
448.675	585.62
448.896	679.62
449.117	561.62
449.338	529.62
449.559	609.62
449.779	699.62
450	546.62
450.221	464.62
450.442	425.62
450.662	438.62
450.883	435.62
451.104	432.62
451.324	450.62
451.545	404.62
451.766	393.62
451.986	401.62
452.207	392.62
452.428	401.62
452.648	398.62
452.869	411.62
453.089	393.62
453.31	426.62
453.53	394.62
453.751	398.62
453.971	391.62
454.192	424.62
454.412	405.62
454.633	383.62
454.853	394.62
455.073	397.62
455.294	439.62
455.514	450.62
455.734	439.62
455.955	391.62
456.175	387.62
456.395	388.62
456.616	383.62
456.836	380.62
457.056	386.62
457.276	375.62
457.497	397.62
457.717	401.62
457.937	393.62
458.157	395.62
458.377	383.62
458.598	417.62
458.818	447.62
459.038	502.62
459.258	518.62
459.478	457.62
459.698	441.62
459.918	447.62
460.138	431.62
460.358	439.62
460.578	445.62
460.798	447.62
461.018	447.62
461.238	455.62
461.458	471.62
461.678	429.62
461.898	455.62
462.118	440.62
462.338	463.62
462.558	471.62
462.777	476.62
462.997	492.62
463.217	496.62
463.437	515.62
463.657	485.62
463.876	485.62
464.096	503.62
464.316	474.62
464.536	488.62
464.755	451.62
464.975	485.62
465.195	478.62
465.414	519.62
465.634	473.62
465.854	460.62
466.073	445.62
466.293	434.62
466.512	436.62
466.732	442.62
466.951	424.62
467.171	427.62
467.391	422.62
467.61	400.62
467.829	401.62
468.049	447.62
468.268	438.62
468.488	400.62
468.707	404.62
468.927	398.62
469.146	387.62
469.365	408.62
469.585	381.62
469.804	407.62
470.023	418.62
470.243	415.62
470.462	416.62
470.681	459.62
470.901	420.62
471.12	431.62
471.339	413.62
471.558	415.62
471.777	409.62
471.997	435.62
472.216	421.62
472.435	463.62
472.654	427.62
472.873	414.62
473.092	418.62
473.311	421.62
473.53	412.62
473.749	429.62
473.968	469.62
474.187	536.62
474.406	533.62
474.625	463.62
474.844	417.62
475.063	423.62
475.282	430.62
475.501	426.62
475.72	438.62
475.939	429.62
476.158	433.62
476.377	436.62
476.596	424.62
476.814	424.62
477.033	438.62
477.252	444.62
477.471	466.62
477.69	455.62
477.908	450.62
478.127	471.62
478.346	466.62
478.564	472.62
478.783	472.62
479.002	462.62
479.22	463.62
479.439	491.62
479.658	496.62
479.876	506.62
480.095	503.62
480.313	537.62
480.532	513.62
480.751	519.62
480.969	534.62
481.188	545.62
481.406	577.62
481.624	541.62
481.843	509.62
482.061	473.62
482.28	495.62
482.498	471.62
482.717	501.62
482.935	480.62
483.153	474.62
483.372	486.62
483.59	476.62
483.808	475.62
484.027	484.62
484.245	479.62
484.463	500.62
484.681	511.62
484.9	485.62
485.118	499.62
485.336	496.62
485.554	481.62
485.772	492.62
485.99	492.62
486.209	519.62
486.427	496.62
486.645	501.62
486.863	511.62
487.081	522.62
487.299	507.62
487.517	496.62
487.735	517.62
487.953	521.62
488.171	521.62
488.389	503.62
488.607	536.62
488.825	501.62
489.043	499.62
489.261	512.62
489.479	513.62
489.696	535.62
489.914	519.62
490.132	548.62
490.35	531.62
490.568	540.62
490.786	538.62
491.003	555.62
491.221	546.62
491.439	574.62
491.657	571.62
491.874	554.62
492.092	557.62
492.31	596.62
492.527	591.62
492.745	596.62
492.963	578.62
493.18	604.62
493.398	597.62
493.615	581.62
493.833	594.62
494.05	621.62
494.268	588.62
494.485	599.62
494.703	598.62
494.92	602.62
495.138	586.62
495.355	593.62
495.573	594.62
495.79	593.62
496.008	601.62
496.225	590.62
496.442	592.62
496.66	612.62
496.877	629.62
497.094	643.62
497.312	599.62
497.529	633.62
497.746	628.62
497.963	619.62
498.181	647.62
498.398	653.62
498.615	665.62
498.832	705.62
499.049	738.62
499.267	732.62
499.484	771.62
499.701	801.62
499.918	851.62
500.135	844.62
500.352	933.62
500.569	941.62
500.786	951.62
501.003	897.62
501.22	891.62
501.437	829.62
501.654	777.62
501.871	792.62
502.088	760.62
