Data from 1964.PennyLincolnUp.Lamp.En5.5.200Scan.071719.P1._HRD10591_14-06-03-910.txt Node
Date: Thu Jul 18 14:06:03 EDT 2019
User: cochatt
Spectrometer: HR+D1059
Trigger mode: 1
Integration Time (sec): 1.000000E-1
Scans to average: 1
Electric dark correction enabled: true
Nonlinearity correction enabled: false
Boxcar width: 0
XAxis mode: Wavelengths
Number of Pixels in Spectrum: 2048
>>>>>Begin Spectral Data<<<<<
223.165	-9.56
223.4	-9.56
223.635	-9.56
223.869	-16.56
224.104	-22.56
224.338	-24.56
224.573	-13.56
224.808	-26.56
225.042	-0.56
225.277	-4.56
225.511	-10.56
225.746	16.44
225.98	10.44
226.215	24.44
226.449	16.44
226.683	14.44
226.918	21.44
227.152	25.44
227.387	34.44
227.621	39.44
227.856	36.44
228.09	39.44
228.324	58.44
228.559	51.44
228.793	59.44
229.027	106.44
229.262	106.44
229.496	111.44
229.73	119.44
229.964	144.44
230.199	123.44
230.433	103.44
230.667	123.44
230.901	106.44
231.136	107.44
231.37	116.44
231.604	105.44
231.838	111.44
232.072	110.44
232.306	110.44
232.541	109.44
232.775	104.44
233.009	116.44
233.243	94.44
233.477	114.44
233.711	114.44
233.945	123.44
234.179	114.44
234.413	122.44
234.647	109.44
234.881	99.44
235.115	126.44
235.349	108.44
235.583	130.44
235.817	131.44
236.051	124.44
236.285	118.44
236.519	122.44
236.753	139.44
236.987	162.44
237.221	163.44
237.455	187.44
237.689	165.44
237.922	130.44
238.156	129.44
238.39	120.44
238.624	115.44
238.858	136.44
239.091	120.44
239.325	148.44
239.559	117.44
239.793	135.44
240.027	141.44
240.26	138.44
240.494	167.44
240.728	151.44
240.961	154.44
241.195	156.44
241.429	144.44
241.662	138.44
241.896	134.44
242.13	130.44
242.363	131.44
242.597	143.44
242.83	127.44
243.064	142.44
243.298	147.44
243.531	158.44
243.765	119.44
243.998	130.44
244.232	132.44
244.465	148.44
244.699	144.44
244.932	145.44
245.166	149.44
245.399	147.44
245.633	133.44
245.866	159.44
246.099	150.44
246.333	159.44
246.566	160.44
246.8	139.44
247.033	154.44
247.266	149.44
247.5	173.44
247.733	183.44
247.966	173.44
248.2	162.44
248.433	180.44
248.666	181.44
248.899	174.44
249.133	188.44
249.366	221.44
249.599	196.44
249.832	166.44
250.066	174.44
250.299	194.44
250.532	184.44
250.765	203.44
250.998	210.44
251.231	224.44
251.465	208.44
251.698	207.44
251.931	190.44
252.164	189.44
252.397	198.44
252.63	210.44
252.863	219.44
253.096	218.44
253.329	238.44
253.562	216.44
253.795	223.44
254.028	221.44
254.261	227.44
254.494	231.44
254.727	279.44
254.96	266.44
255.193	282.44
255.426	249.44
255.659	242.44
255.892	223.44
256.124	236.44
256.357	239.44
256.59	222.44
256.823	229.44
257.056	208.44
257.289	215.44
257.521	215.44
257.754	196.44
257.987	209.44
258.22	228.44
258.452	211.44
258.685	222.44
258.918	219.44
259.151	234.44
259.383	227.44
259.616	231.44
259.849	239.44
260.081	251.44
260.314	262.44
260.547	266.44
260.779	267.44
261.012	232.44
261.244	237.44
261.477	237.44
261.71	219.44
261.942	238.44
262.175	238.44
262.407	221.44
262.64	238.44
262.872	244.44
263.105	241.44
263.337	226.44
263.57	212.44
263.802	229.44
264.035	226.44
264.267	240.44
264.499	231.44
264.732	234.44
264.964	237.44
265.197	243.44
265.429	237.44
265.661	214.44
265.894	222.44
266.126	250.44
266.358	249.44
266.591	235.44
266.823	234.44
267.055	245.44
267.287	239.44
267.52	246.44
267.752	250.44
267.984	253.44
268.216	242.44
268.448	238.44
268.681	266.44
268.913	273.44
269.145	282.44
269.377	278.44
269.609	269.44
269.841	297.44
270.073	272.44
270.306	298.44
270.538	320.44
270.77	311.44
271.002	310.44
271.234	294.44
271.466	310.44
271.698	324.44
271.93	331.44
272.162	326.44
272.394	332.44
272.626	302.44
272.858	313.44
273.09	308.44
273.322	312.44
273.553	290.44
273.785	302.44
274.017	270.44
274.249	273.44
274.481	262.44
274.713	281.44
274.945	286.44
275.176	280.44
275.408	277.44
275.64	281.44
275.872	283.44
276.104	302.44
276.335	276.44
276.567	295.44
276.799	291.44
277.031	319.44
277.262	332.44
277.494	335.44
277.726	332.44
277.957	299.44
278.189	300.44
278.421	293.44
278.652	291.44
278.884	314.44
279.115	292.44
279.347	294.44
279.579	306.44
279.81	296.44
280.042	310.44
280.273	323.44
280.505	308.44
280.736	304.44
280.968	298.44
281.199	304.44
281.431	284.44
281.662	308.44
281.894	306.44
282.125	308.44
282.356	302.44
282.588	315.44
282.819	326.44
283.051	310.44
283.282	310.44
283.513	308.44
283.745	313.44
283.976	300.44
284.207	304.44
284.439	330.44
284.67	300.44
284.901	303.44
285.132	292.44
285.364	320.44
285.595	314.44
285.826	312.44
286.057	315.44
286.288	311.44
286.52	304.44
286.751	289.44
286.982	325.44
287.213	312.44
287.444	330.44
287.675	327.44
287.906	344.44
288.138	332.44
288.369	333.44
288.6	326.44
288.831	322.44
289.062	327.44
289.293	332.44
289.524	326.44
289.755	332.44
289.986	331.44
290.217	330.44
290.448	309.44
290.679	322.44
290.91	307.44
291.141	316.44
291.371	327.44
291.602	320.44
291.833	312.44
292.064	321.44
292.295	331.44
292.526	329.44
292.757	327.44
292.987	331.44
293.218	328.44
293.449	334.44
293.68	321.44
293.91	335.44
294.141	324.44
294.372	347.44
294.603	334.44
294.833	333.44
295.064	335.44
295.295	342.44
295.525	334.44
295.756	336.44
295.987	339.44
296.217	346.44
296.448	336.44
296.679	323.44
296.909	349.44
297.14	342.44
297.37	349.44
297.601	349.44
297.831	331.44
298.062	342.44
298.292	350.44
298.523	355.44
298.753	366.44
298.984	351.44
299.214	340.44
299.445	357.44
299.675	363.44
299.905	363.44
300.136	338.44
300.366	343.44
300.597	355.44
300.827	360.44
301.057	372.44
301.288	351.44
301.518	348.44
301.748	360.44
301.979	370.44
302.209	388.44
302.439	359.44
302.669	376.44
302.9	373.44
303.13	360.44
303.36	377.44
303.59	366.44
303.82	370.44
304.051	375.44
304.281	365.44
304.511	359.44
304.741	365.44
304.971	358.44
305.201	362.44
305.431	376.44
305.661	367.44
305.891	350.44
306.121	359.44
306.352	387.44
306.582	372.44
306.812	367.44
307.042	376.44
307.272	376.44
307.502	365.44
307.731	386.44
307.961	370.44
308.191	378.44
308.421	361.44
308.651	380.44
308.881	370.44
309.111	372.44
309.341	390.44
309.571	372.44
309.8	393.44
310.03	398.44
310.26	413.44
310.49	414.44
310.72	413.44
310.949	416.44
311.179	423.44
311.409	412.44
311.639	410.44
311.868	424.44
312.098	415.44
312.328	417.44
312.557	426.44
312.787	445.44
313.017	442.44
313.246	441.44
313.476	419.44
313.706	412.44
313.935	406.44
314.165	415.44
314.394	414.44
314.624	420.44
314.853	412.44
315.083	413.44
315.312	414.44
315.542	428.44
315.771	416.44
316.001	426.44
316.23	432.44
316.46	410.44
316.689	406.44
316.919	431.44
317.148	421.44
317.377	423.44
317.607	423.44
317.836	440.44
318.065	398.44
318.295	414.44
318.524	404.44
318.753	407.44
318.983	423.44
319.212	423.44
319.441	425.44
319.67	416.44
319.9	405.44
320.129	421.44
320.358	402.44
320.587	411.44
320.816	406.44
321.046	423.44
321.275	418.44
321.504	432.44
321.733	426.44
321.962	435.44
322.191	456.44
322.42	447.44
322.649	459.44
322.878	470.44
323.108	451.44
323.337	484.44
323.566	498.44
323.795	501.44
324.024	530.44
324.253	637.44
324.482	852.44
324.71	1288.44
324.939	1757.44
325.168	1460.44
325.397	802.44
325.626	590.44
325.855	548.44
326.084	493.44
326.313	475.44
326.542	501.44
326.77	542.44
326.999	615.44
327.228	796.44
327.457	1112.44
327.686	1328.44
327.914	913.44
328.143	617.44
328.372	583.44
328.6	548.44
328.829	545.44
329.058	549.44
329.287	552.44
329.515	542.44
329.744	520.44
329.972	511.44
330.201	531.44
330.43	557.44
330.658	585.44
330.887	581.44
331.115	568.44
331.344	523.44
331.572	485.44
331.801	504.44
332.03	514.44
332.258	544.44
332.486	502.44
332.715	515.44
332.943	492.44
333.172	485.44
333.4	518.44
333.629	505.44
333.857	520.44
334.085	563.44
334.314	544.44
334.542	577.44
334.771	577.44
334.999	532.44
335.227	535.44
335.455	522.44
335.684	476.44
335.912	485.44
336.14	489.44
336.369	493.44
336.597	491.44
336.825	494.44
337.053	499.44
337.281	473.44
337.51	490.44
337.738	477.44
337.966	491.44
338.194	499.44
338.422	468.44
338.65	491.44
338.878	476.44
339.106	472.44
339.334	445.44
339.562	442.44
339.79	451.44
340.018	475.44
340.246	438.44
340.474	472.44
340.702	458.44
340.93	459.44
341.158	468.44
341.386	449.44
341.614	446.44
341.842	461.44
342.07	454.44
342.298	426.44
342.526	465.44
342.754	442.44
342.981	439.44
343.209	436.44
343.437	454.44
343.665	451.44
343.893	477.44
344.12	491.44
344.348	489.44
344.576	464.44
344.804	454.44
345.031	491.44
345.259	459.44
345.487	462.44
345.714	461.44
345.942	439.44
346.17	451.44
346.397	437.44
346.625	423.44
346.853	426.44
347.08	444.44
347.308	429.44
347.535	445.44
347.763	450.44
347.99	419.44
348.218	426.44
348.445	436.44
348.673	451.44
348.9	431.44
349.128	428.44
349.355	428.44
349.583	428.44
349.81	431.44
350.037	430.44
350.265	411.44
350.492	421.44
350.72	426.44
350.947	424.44
351.174	440.44
351.402	403.44
351.629	434.44
351.856	438.44
352.083	455.44
352.311	440.44
352.538	435.44
352.765	437.44
352.992	442.44
353.22	416.44
353.447	426.44
353.674	400.44
353.901	415.44
354.128	423.44
354.355	413.44
354.583	423.44
354.81	399.44
355.037	425.44
355.264	408.44
355.491	398.44
355.718	412.44
355.945	391.44
356.172	421.44
356.399	409.44
356.626	410.44
356.853	398.44
357.08	415.44
357.307	395.44
357.534	415.44
357.761	416.44
357.988	405.44
358.215	387.44
358.441	412.44
358.668	421.44
358.895	421.44
359.122	405.44
359.349	428.44
359.576	438.44
359.802	438.44
360.029	442.44
360.256	471.44
360.483	430.44
360.709	429.44
360.936	436.44
361.163	411.44
361.39	408.44
361.616	415.44
361.843	408.44
362.07	419.44
362.296	404.44
362.523	414.44
362.749	424.44
362.976	407.44
363.203	394.44
363.429	428.44
363.656	406.44
363.882	407.44
364.109	396.44
364.335	398.44
364.562	412.44
364.788	418.44
365.015	394.44
365.241	393.44
365.468	391.44
365.694	397.44
365.92	414.44
366.147	407.44
366.373	391.44
366.599	398.44
366.826	408.44
367.052	401.44
367.278	382.44
367.505	386.44
367.731	394.44
367.957	394.44
368.184	396.44
368.41	404.44
368.636	410.44
368.862	391.44
369.089	388.44
369.315	389.44
369.541	406.44
369.767	385.44
369.993	406.44
370.219	394.44
370.445	404.44
370.672	403.44
370.898	391.44
371.124	411.44
371.35	394.44
371.576	400.44
371.802	411.44
372.028	400.44
372.254	409.44
372.48	401.44
372.706	400.44
372.932	407.44
373.158	424.44
373.384	394.44
373.61	395.44
373.835	382.44
374.061	420.44
374.287	410.44
374.513	425.44
374.739	426.44
374.965	404.44
375.191	406.44
375.416	428.44
375.642	411.44
375.868	422.44
376.094	396.44
376.319	396.44
376.545	399.44
376.771	404.44
376.997	392.44
377.222	404.44
377.448	404.44
377.674	404.44
377.899	388.44
378.125	408.44
378.35	399.44
378.576	392.44
378.802	376.44
379.027	388.44
379.253	398.44
379.478	401.44
379.704	383.44
379.929	376.44
380.155	386.44
380.38	386.44
380.606	395.44
380.831	409.44
381.057	411.44
381.282	407.44
381.507	410.44
381.733	387.44
381.958	387.44
382.184	394.44
382.409	380.44
382.634	389.44
382.86	378.44
383.085	391.44
383.31	415.44
383.535	414.44
383.761	415.44
383.986	396.44
384.211	405.44
384.436	396.44
384.662	431.44
384.887	429.44
385.112	418.44
385.337	424.44
385.562	426.44
385.787	440.44
386.013	432.44
386.238	439.44
386.463	458.44
386.688	457.44
386.913	429.44
387.138	424.44
387.363	411.44
387.588	452.44
387.813	442.44
388.038	435.44
388.263	424.44
388.488	434.44
388.713	418.44
388.938	430.44
389.163	428.44
389.387	418.44
389.612	440.44
389.837	456.44
390.062	439.44
390.287	452.44
390.512	409.44
390.736	429.44
390.961	430.44
391.186	445.44
391.411	428.44
391.636	426.44
391.86	447.44
392.085	469.44
392.31	457.44
392.534	446.44
392.759	433.44
392.984	438.44
393.208	428.44
393.433	432.44
393.658	438.44
393.882	446.44
394.107	418.44
394.331	431.44
394.556	429.44
394.78	428.44
395.005	450.44
395.229	447.44
395.454	457.44
395.678	475.44
395.903	440.44
396.127	484.44
396.352	482.44
396.576	441.44
396.801	450.44
397.025	450.44
397.249	469.44
397.474	454.44
397.698	480.44
397.922	477.44
398.147	476.44
398.371	478.44
398.595	484.44
398.82	492.44
399.044	515.44
399.268	504.44
399.492	563.44
399.717	587.44
399.941	605.44
400.165	634.44
400.389	611.44
400.613	564.44
400.837	531.44
401.062	510.44
401.286	497.44
401.51	480.44
401.734	476.44
401.958	483.44
402.182	474.44
402.406	475.44
402.63	491.44
402.854	504.44
403.078	498.44
403.302	511.44
403.526	527.44
403.75	518.44
403.974	515.44
404.198	486.44
404.422	522.44
404.645	519.44
404.869	512.44
405.093	550.44
405.317	584.44
405.541	592.44
405.765	567.44
405.988	556.44
406.212	535.44
406.436	539.44
406.66	568.44
406.883	549.44
407.107	564.44
407.331	613.44
407.555	638.44
407.778	655.44
408.002	596.44
408.226	570.44
408.449	567.44
408.673	549.44
408.896	560.44
409.12	604.44
409.344	555.44
409.567	528.44
409.791	518.44
410.014	498.44
410.238	482.44
410.461	508.44
410.685	514.44
410.908	517.44
411.132	548.44
411.355	574.44
411.578	548.44
411.802	504.44
412.025	500.44
412.249	513.44
412.472	557.44
412.695	539.44
412.919	535.44
413.142	493.44
413.365	459.44
413.589	483.44
413.812	487.44
414.035	485.44
414.258	484.44
414.482	469.44
414.705	450.44
414.928	471.44
415.151	486.44
415.374	474.44
415.597	465.44
415.821	470.44
416.044	479.44
416.267	485.44
416.49	446.44
416.713	461.44
416.936	468.44
417.159	446.44
417.382	471.44
417.605	488.44
417.828	484.44
418.051	482.44
418.274	477.44
418.497	447.44
418.72	470.44
418.943	468.44
419.166	477.44
419.389	518.44
419.611	512.44
419.834	495.44
420.057	479.44
420.28	512.44
420.503	488.44
420.726	502.44
420.948	504.44
421.171	515.44
421.394	527.44
421.617	499.44
421.839	486.44
422.062	509.44
422.285	480.44
422.507	547.44
422.73	589.44
422.953	567.44
423.175	527.44
423.398	479.44
423.621	500.44
423.843	527.44
424.066	507.44
424.288	521.44
424.511	537.44
424.733	571.44
424.956	589.44
425.178	584.44
425.401	587.44
425.623	611.44
425.846	528.44
426.068	526.44
426.291	492.44
426.513	499.44
426.735	517.44
426.958	533.44
427.18	603.44
427.402	700.44
427.625	757.44
427.847	674.44
428.069	592.44
428.292	531.44
428.514	490.44
428.736	473.44
428.958	472.44
429.181	478.44
429.403	471.44
429.625	490.44
429.847	486.44
430.069	541.44
430.292	528.44
430.514	493.44
430.736	482.44
430.958	442.44
431.18	451.44
431.402	410.44
431.624	446.44
431.846	441.44
432.068	425.44
432.29	432.44
432.512	442.44
432.734	464.44
432.956	456.44
433.178	444.44
433.4	471.44
433.622	438.44
433.844	458.44
434.066	446.44
434.287	445.44
434.509	447.44
434.731	443.44
434.953	472.44
435.175	485.44
435.397	483.44
435.618	487.44
435.84	546.44
436.062	597.44
436.284	650.44
436.505	556.44
436.727	520.44
436.949	481.44
437.17	471.44
437.392	459.44
437.614	464.44
437.835	494.44
438.057	561.44
438.278	637.44
438.5	626.44
438.721	688.44
438.943	656.44
439.165	541.44
439.386	509.44
439.608	489.44
439.829	486.44
440.05	531.44
440.272	558.44
440.493	510.44
440.715	499.44
440.936	459.44
441.158	473.44
441.379	467.44
441.6	470.44
441.822	493.44
442.043	520.44
442.264	594.44
442.486	610.44
442.707	555.44
442.928	505.44
443.149	523.44
443.371	525.44
443.592	562.44
443.813	632.44
444.034	664.44
444.255	578.44
444.476	535.44
444.698	512.44
444.919	495.44
445.14	649.44
445.361	570.44
445.582	528.44
445.803	600.44
446.024	671.44
446.245	657.44
446.466	612.44
446.687	516.44
446.908	484.44
447.129	454.44
447.35	443.44
447.571	438.44
447.792	462.44
448.013	463.44
448.234	473.44
448.455	516.44
448.675	572.44
448.896	664.44
449.117	565.44
449.338	558.44
449.559	638.44
449.779	698.44
450	563.44
450.221	482.44
450.442	455.44
450.662	440.44
450.883	428.44
451.104	435.44
451.324	425.44
451.545	435.44
451.766	420.44
451.986	414.44
452.207	412.44
452.428	407.44
452.648	414.44
452.869	416.44
453.089	409.44
453.31	438.44
453.53	400.44
453.751	392.44
453.971	416.44
454.192	406.44
454.412	417.44
454.633	403.44
454.853	408.44
455.073	406.44
455.294	424.44
455.514	471.44
455.734	469.44
455.955	405.44
456.175	401.44
456.395	383.44
456.616	381.44
456.836	378.44
457.056	397.44
457.276	391.44
457.497	395.44
457.717	390.44
457.937	382.44
458.157	400.44
458.377	384.44
458.598	429.44
458.818	472.44
459.038	507.44
459.258	520.44
459.478	457.44
459.698	416.44
459.918	419.44
460.138	438.44
460.358	435.44
460.578	418.44
460.798	459.44
461.018	456.44
461.238	452.44
461.458	439.44
461.678	452.44
461.898	460.44
462.118	460.44
462.338	476.44
462.558	491.44
462.777	500.44
462.997	487.44
463.217	512.44
463.437	521.44
463.657	501.44
463.876	491.44
464.096	490.44
464.316	482.44
464.536	472.44
464.755	461.44
464.975	490.44
465.195	507.44
465.414	553.44
465.634	479.44
465.854	446.44
466.073	441.44
466.293	437.44
466.512	435.44
466.732	406.44
466.951	432.44
467.171	427.44
467.391	422.44
467.61	429.44
467.829	414.44
468.049	420.44
468.268	412.44
468.488	421.44
468.707	412.44
468.927	406.44
469.146	407.44
469.365	400.44
469.585	413.44
469.804	419.44
470.023	416.44
470.243	429.44
470.462	439.44
470.681	416.44
470.901	410.44
471.12	418.44
471.339	440.44
471.558	423.44
471.777	444.44
471.997	415.44
472.216	403.44
472.435	457.44
472.654	439.44
472.873	426.44
473.092	419.44
473.311	408.44
473.53	439.44
473.749	410.44
473.968	471.44
474.187	539.44
474.406	530.44
474.625	469.44
474.844	443.44
475.063	412.44
475.282	429.44
475.501	424.44
475.72	412.44
475.939	445.44
476.158	453.44
476.377	422.44
476.596	437.44
476.814	426.44
477.033	438.44
477.252	441.44
477.471	451.44
477.69	447.44
477.908	474.44
478.127	469.44
478.346	457.44
478.564	456.44
478.783	470.44
479.002	465.44
479.22	472.44
479.439	485.44
479.658	514.44
479.876	513.44
480.095	506.44
480.313	550.44
480.532	531.44
480.751	510.44
480.969	506.44
481.188	572.44
481.406	582.44
481.624	533.44
481.843	499.44
482.061	484.44
482.28	496.44
482.498	474.44
482.717	496.44
482.935	503.44
483.153	481.44
483.372	467.44
483.59	482.44
483.808	476.44
484.027	500.44
484.245	486.44
484.463	482.44
484.681	500.44
484.9	498.44
485.118	498.44
485.336	506.44
485.554	482.44
485.772	493.44
485.99	504.44
486.209	490.44
486.427	498.44
486.645	504.44
486.863	519.44
487.081	528.44
487.299	512.44
487.517	519.44
487.735	491.44
487.953	503.44
488.171	493.44
488.389	511.44
488.607	520.44
488.825	521.44
489.043	512.44
489.261	534.44
489.479	524.44
489.696	540.44
489.914	511.44
490.132	517.44
490.35	538.44
490.568	524.44
490.786	534.44
491.003	544.44
491.221	559.44
491.439	584.44
491.657	583.44
491.874	567.44
492.092	556.44
492.31	597.44
492.527	550.44
492.745	582.44
492.963	587.44
493.18	590.44
493.398	593.44
493.615	605.44
493.833	578.44
494.05	617.44
494.268	604.44
494.485	585.44
494.703	598.44
494.92	602.44
495.138	601.44
495.355	610.44
495.573	574.44
495.79	610.44
496.008	618.44
496.225	599.44
496.442	613.44
496.66	631.44
496.877	599.44
497.094	610.44
497.312	600.44
497.529	631.44
497.746	642.44
497.963	639.44
498.181	672.44
498.398	700.44
498.615	703.44
498.832	702.44
499.049	731.44
499.267	746.44
499.484	758.44
499.701	783.44
499.918	826.44
500.135	879.44
500.352	927.44
500.569	962.44
500.786	954.44
501.003	935.44
501.22	890.44
501.437	858.44
501.654	822.44
501.871	826.44
