Data from 1964.PennyLincolnUp.Lamp.En5.5.200Scan.071719.P1._HRD10591_14-03-32-908.txt Node
Date: Thu Jul 18 14:03:32 EDT 2019
User: cochatt
Spectrometer: HR+D1059
Trigger mode: 1
Integration Time (sec): 1.000000E-1
Scans to average: 1
Electric dark correction enabled: true
Nonlinearity correction enabled: false
Boxcar width: 0
XAxis mode: Wavelengths
Number of Pixels in Spectrum: 2048
>>>>>Begin Spectral Data<<<<<
223.165	-18.81
223.4	-18.81
223.635	-18.81
223.869	-26.81
224.104	-28.81
224.338	-11.81
224.573	1.19
224.808	-2.81
225.042	-21.81
225.277	-21.81
225.511	-4.81
225.746	5.19
225.98	14.19
226.215	5.19
226.449	22.19
226.683	29.19
226.918	27.19
227.152	33.19
227.387	29.19
227.621	44.19
227.856	33.19
228.09	50.19
228.324	53.19
228.559	65.19
228.793	52.19
229.027	84.19
229.262	86.19
229.496	105.19
229.73	110.19
229.964	103.19
230.199	109.19
230.433	92.19
230.667	98.19
230.901	116.19
231.136	102.19
231.37	107.19
231.604	110.19
231.838	108.19
232.072	114.19
232.306	100.19
232.541	101.19
232.775	98.19
233.009	107.19
233.243	124.19
233.477	106.19
233.711	109.19
233.945	100.19
234.179	114.19
234.413	110.19
234.647	133.19
234.881	105.19
235.115	113.19
235.349	101.19
235.583	107.19
235.817	103.19
236.051	137.19
236.285	121.19
236.519	122.19
236.753	103.19
236.987	120.19
237.221	149.19
237.455	168.19
237.689	134.19
237.922	121.19
238.156	129.19
238.39	119.19
238.624	109.19
238.858	116.19
239.091	115.19
239.325	118.19
239.559	123.19
239.793	122.19
240.027	123.19
240.26	131.19
240.494	142.19
240.728	137.19
240.961	139.19
241.195	138.19
241.429	132.19
241.662	133.19
241.896	130.19
242.13	126.19
242.363	137.19
242.597	129.19
242.83	141.19
243.064	134.19
243.298	131.19
243.531	123.19
243.765	129.19
243.998	138.19
244.232	133.19
244.465	140.19
244.699	136.19
244.932	150.19
245.166	153.19
245.399	145.19
245.633	150.19
245.866	134.19
246.099	145.19
246.333	129.19
246.566	134.19
246.8	155.19
247.033	156.19
247.266	160.19
247.5	141.19
247.733	152.19
247.966	158.19
248.2	150.19
248.433	172.19
248.666	177.19
248.899	166.19
249.133	181.19
249.366	185.19
249.599	178.19
249.832	169.19
250.066	168.19
250.299	178.19
250.532	183.19
250.765	170.19
250.998	201.19
251.231	203.19
251.465	206.19
251.698	181.19
251.931	181.19
252.164	184.19
252.397	180.19
252.63	197.19
252.863	199.19
253.096	198.19
253.329	190.19
253.562	204.19
253.795	208.19
254.028	206.19
254.261	195.19
254.494	230.19
254.727	207.19
254.96	246.19
255.193	233.19
255.426	223.19
255.659	209.19
255.892	196.19
256.124	198.19
256.357	231.19
256.59	204.19
256.823	198.19
257.056	196.19
257.289	202.19
257.521	198.19
257.754	201.19
257.987	189.19
258.22	194.19
258.452	201.19
258.685	210.19
258.918	189.19
259.151	194.19
259.383	197.19
259.616	197.19
259.849	208.19
260.081	217.19
260.314	235.19
260.547	218.19
260.779	208.19
261.012	219.19
261.244	215.19
261.477	233.19
261.71	215.19
261.942	210.19
262.175	212.19
262.407	199.19
262.64	208.19
262.872	222.19
263.105	206.19
263.337	213.19
263.57	194.19
263.802	210.19
264.035	192.19
264.267	212.19
264.499	213.19
264.732	211.19
264.964	210.19
265.197	227.19
265.429	205.19
265.661	225.19
265.894	224.19
266.126	221.19
266.358	211.19
266.591	239.19
266.823	213.19
267.055	232.19
267.287	229.19
267.52	219.19
267.752	235.19
267.984	212.19
268.216	235.19
268.448	247.19
268.681	223.19
268.913	235.19
269.145	255.19
269.377	262.19
269.609	264.19
269.841	277.19
270.073	266.19
270.306	268.19
270.538	292.19
270.77	271.19
271.002	278.19
271.234	277.19
271.466	291.19
271.698	304.19
271.93	271.19
272.162	279.19
272.394	279.19
272.626	264.19
272.858	278.19
273.09	289.19
273.322	264.19
273.553	259.19
273.785	284.19
274.017	246.19
274.249	281.19
274.481	260.19
274.713	269.19
274.945	290.19
275.176	273.19
275.408	261.19
275.64	239.19
275.872	282.19
276.104	250.19
276.335	256.19
276.567	272.19
276.799	278.19
277.031	276.19
277.262	304.19
277.494	311.19
277.726	270.19
277.957	296.19
278.189	284.19
278.421	276.19
278.652	261.19
278.884	276.19
279.115	287.19
279.347	281.19
279.579	286.19
279.81	279.19
280.042	265.19
280.273	277.19
280.505	289.19
280.736	295.19
280.968	289.19
281.199	266.19
281.431	279.19
281.662	265.19
281.894	269.19
282.125	281.19
282.356	295.19
282.588	287.19
282.819	298.19
283.051	265.19
283.282	285.19
283.513	300.19
283.745	307.19
283.976	303.19
284.207	284.19
284.439	294.19
284.67	279.19
284.901	305.19
285.132	302.19
285.364	274.19
285.595	295.19
285.826	290.19
286.057	287.19
286.288	278.19
286.52	294.19
286.751	293.19
286.982	290.19
287.213	293.19
287.444	289.19
287.675	297.19
287.906	295.19
288.138	315.19
288.369	307.19
288.6	303.19
288.831	323.19
289.062	310.19
289.293	308.19
289.524	298.19
289.755	302.19
289.986	302.19
290.217	316.19
290.448	307.19
290.679	308.19
290.91	306.19
291.141	300.19
291.371	297.19
291.602	290.19
291.833	302.19
292.064	289.19
292.295	319.19
292.526	309.19
292.757	308.19
292.987	308.19
293.218	306.19
293.449	302.19
293.68	312.19
293.91	313.19
294.141	303.19
294.372	288.19
294.603	307.19
294.833	311.19
295.064	289.19
295.295	299.19
295.525	315.19
295.756	314.19
295.987	302.19
296.217	318.19
296.448	325.19
296.679	313.19
296.909	332.19
297.14	315.19
297.37	335.19
297.601	318.19
297.831	307.19
298.062	311.19
298.292	321.19
298.523	292.19
298.753	336.19
298.984	309.19
299.214	327.19
299.445	341.19
299.675	338.19
299.905	331.19
300.136	324.19
300.366	339.19
300.597	318.19
300.827	324.19
301.057	327.19
301.288	342.19
301.518	356.19
301.748	334.19
301.979	338.19
302.209	338.19
302.439	338.19
302.669	325.19
302.9	337.19
303.13	327.19
303.36	345.19
303.59	342.19
303.82	369.19
304.051	358.19
304.281	336.19
304.511	324.19
304.741	332.19
304.971	343.19
305.201	334.19
305.431	340.19
305.661	340.19
305.891	351.19
306.121	354.19
306.352	354.19
306.582	328.19
306.812	332.19
307.042	341.19
307.272	336.19
307.502	344.19
307.731	360.19
307.961	335.19
308.191	342.19
308.421	353.19
308.651	363.19
308.881	343.19
309.111	363.19
309.341	345.19
309.571	362.19
309.8	347.19
310.03	372.19
310.26	373.19
310.49	361.19
310.72	350.19
310.949	389.19
311.179	385.19
311.409	358.19
311.639	368.19
311.868	373.19
312.098	356.19
312.328	362.19
312.557	387.19
312.787	405.19
313.017	390.19
313.246	381.19
313.476	382.19
313.706	377.19
313.935	386.19
314.165	387.19
314.394	391.19
314.624	392.19
314.853	389.19
315.083	374.19
315.312	374.19
315.542	378.19
315.771	363.19
316.001	378.19
316.23	377.19
316.46	411.19
316.689	385.19
316.919	400.19
317.148	394.19
317.377	389.19
317.607	394.19
317.836	381.19
318.065	379.19
318.295	398.19
318.524	388.19
318.753	380.19
318.983	381.19
319.212	400.19
319.441	381.19
319.67	389.19
319.9	382.19
320.129	385.19
320.358	365.19
320.587	393.19
320.816	377.19
321.046	379.19
321.275	392.19
321.504	383.19
321.733	387.19
321.962	398.19
322.191	394.19
322.42	404.19
322.649	410.19
322.878	417.19
323.108	410.19
323.337	423.19
323.566	438.19
323.795	465.19
324.024	456.19
324.253	538.19
324.482	705.19
324.71	1009.19
324.939	1375.19
325.168	1141.19
325.397	651.19
325.626	509.19
325.855	452.19
326.084	420.19
326.313	437.19
326.542	403.19
326.77	457.19
326.999	499.19
327.228	646.19
327.457	921.19
327.686	989.19
327.914	698.19
328.143	526.19
328.372	494.19
328.6	494.19
328.829	463.19
329.058	473.19
329.287	484.19
329.515	473.19
329.744	469.19
329.972	443.19
330.201	458.19
330.43	489.19
330.658	463.19
330.887	476.19
331.115	467.19
331.344	457.19
331.572	433.19
331.801	445.19
332.03	444.19
332.258	436.19
332.486	449.19
332.715	441.19
332.943	457.19
333.172	442.19
333.4	450.19
333.629	464.19
333.857	495.19
334.085	473.19
334.314	482.19
334.542	490.19
334.771	519.19
334.999	491.19
335.227	465.19
335.455	465.19
335.684	473.19
335.912	443.19
336.14	437.19
336.369	444.19
336.597	453.19
336.825	436.19
337.053	447.19
337.281	431.19
337.51	422.19
337.738	425.19
337.966	444.19
338.194	445.19
338.422	427.19
338.65	442.19
338.878	446.19
339.106	411.19
339.334	439.19
339.562	418.19
339.79	414.19
340.018	408.19
340.246	437.19
340.474	435.19
340.702	410.19
340.93	409.19
341.158	427.19
341.386	430.19
341.614	413.19
341.842	422.19
342.07	412.19
342.298	411.19
342.526	410.19
342.754	434.19
342.981	405.19
343.209	422.19
343.437	420.19
343.665	447.19
343.893	425.19
344.12	452.19
344.348	428.19
344.576	437.19
344.804	431.19
345.031	446.19
345.259	454.19
345.487	430.19
345.714	409.19
345.942	392.19
346.17	389.19
346.397	392.19
346.625	389.19
346.853	405.19
347.08	392.19
347.308	397.19
347.535	405.19
347.763	386.19
347.99	417.19
348.218	395.19
348.445	400.19
348.673	391.19
348.9	391.19
349.128	398.19
349.355	398.19
349.583	395.19
349.81	386.19
350.037	387.19
350.265	416.19
350.492	404.19
350.72	383.19
350.947	389.19
351.174	374.19
351.402	393.19
351.629	385.19
351.856	381.19
352.083	399.19
352.311	388.19
352.538	391.19
352.765	385.19
352.992	405.19
353.22	390.19
353.447	389.19
353.674	370.19
353.901	391.19
354.128	376.19
354.355	373.19
354.583	370.19
354.81	376.19
355.037	367.19
355.264	382.19
355.491	359.19
355.718	369.19
355.945	384.19
356.172	380.19
356.399	376.19
356.626	388.19
356.853	372.19
357.08	373.19
357.307	382.19
357.534	371.19
357.761	399.19
357.988	373.19
358.215	366.19
358.441	389.19
358.668	388.19
358.895	373.19
359.122	392.19
359.349	383.19
359.576	382.19
359.802	391.19
360.029	396.19
360.256	399.19
360.483	411.19
360.709	401.19
360.936	390.19
361.163	375.19
361.39	382.19
361.616	359.19
361.843	372.19
362.07	393.19
362.296	391.19
362.523	374.19
362.749	365.19
362.976	377.19
363.203	372.19
363.429	370.19
363.656	367.19
363.882	375.19
364.109	393.19
364.335	373.19
364.562	379.19
364.788	405.19
365.015	390.19
365.241	399.19
365.468	373.19
365.694	383.19
365.92	380.19
366.147	390.19
366.373	373.19
366.599	369.19
366.826	367.19
367.052	379.19
367.278	345.19
367.505	374.19
367.731	363.19
367.957	367.19
368.184	371.19
368.41	390.19
368.636	384.19
368.862	395.19
369.089	362.19
369.315	357.19
369.541	377.19
369.767	381.19
369.993	370.19
370.219	352.19
370.445	371.19
370.672	377.19
370.898	383.19
371.124	354.19
371.35	377.19
371.576	380.19
371.802	378.19
372.028	379.19
372.254	376.19
372.48	375.19
372.706	391.19
372.932	374.19
373.158	378.19
373.384	407.19
373.61	390.19
373.835	396.19
374.061	367.19
374.287	387.19
374.513	396.19
374.739	402.19
374.965	379.19
375.191	409.19
375.416	393.19
375.642	383.19
375.868	382.19
376.094	393.19
376.319	380.19
376.545	360.19
376.771	346.19
376.997	385.19
377.222	381.19
377.448	375.19
377.674	370.19
377.899	359.19
378.125	391.19
378.35	357.19
378.576	370.19
378.802	373.19
379.027	371.19
379.253	377.19
379.478	364.19
379.704	369.19
379.929	361.19
380.155	377.19
380.38	373.19
380.606	395.19
380.831	377.19
381.057	367.19
381.282	377.19
381.507	389.19
381.733	375.19
381.958	387.19
382.184	376.19
382.409	387.19
382.634	385.19
382.86	392.19
383.085	389.19
383.31	394.19
383.535	393.19
383.761	379.19
383.986	392.19
384.211	406.19
384.436	388.19
384.662	403.19
384.887	391.19
385.112	384.19
385.337	387.19
385.562	415.19
385.787	407.19
386.013	422.19
386.238	387.19
386.463	422.19
386.688	403.19
386.913	414.19
387.138	416.19
387.363	382.19
387.588	415.19
387.813	404.19
388.038	398.19
388.263	406.19
388.488	419.19
388.713	398.19
388.938	415.19
389.163	393.19
389.387	433.19
389.612	408.19
389.837	401.19
390.062	408.19
390.287	407.19
390.512	413.19
390.736	403.19
390.961	406.19
391.186	399.19
391.411	434.19
391.636	407.19
391.86	426.19
392.085	425.19
392.31	423.19
392.534	414.19
392.759	425.19
392.984	423.19
393.208	418.19
393.433	424.19
393.658	417.19
393.882	402.19
394.107	422.19
394.331	410.19
394.556	399.19
394.78	410.19
395.005	430.19
395.229	414.19
395.454	415.19
395.678	410.19
395.903	436.19
396.127	438.19
396.352	427.19
396.576	418.19
396.801	419.19
397.025	434.19
397.249	435.19
397.474	446.19
397.698	444.19
397.922	419.19
398.147	453.19
398.371	447.19
398.595	470.19
398.82	442.19
399.044	459.19
399.268	478.19
399.492	538.19
399.717	558.19
399.941	576.19
400.165	587.19
400.389	554.19
400.613	524.19
400.837	504.19
401.062	466.19
401.286	469.19
401.51	440.19
401.734	470.19
401.958	445.19
402.182	476.19
402.406	481.19
402.63	466.19
402.854	465.19
403.078	462.19
403.302	471.19
403.526	481.19
403.75	476.19
403.974	480.19
404.198	472.19
404.422	505.19
404.645	468.19
404.869	483.19
405.093	511.19
405.317	542.19
405.541	551.19
405.765	518.19
405.988	519.19
406.212	487.19
406.436	493.19
406.66	515.19
406.883	501.19
407.107	536.19
407.331	543.19
407.555	611.19
407.778	585.19
408.002	548.19
408.226	528.19
408.449	521.19
408.673	518.19
408.896	556.19
409.12	555.19
409.344	534.19
409.567	483.19
409.791	484.19
410.014	472.19
410.238	476.19
410.461	482.19
410.685	461.19
410.908	479.19
411.132	499.19
411.355	535.19
411.578	505.19
411.802	466.19
412.025	479.19
412.249	484.19
412.472	487.19
412.695	501.19
412.919	521.19
413.142	476.19
413.365	450.19
413.589	450.19
413.812	451.19
414.035	446.19
414.258	437.19
414.482	437.19
414.705	424.19
414.928	425.19
415.151	456.19
415.374	442.19
415.597	439.19
415.821	423.19
416.044	451.19
416.267	442.19
416.49	451.19
416.713	433.19
416.936	433.19
417.159	409.19
417.382	443.19
417.605	452.19
417.828	456.19
418.051	439.19
418.274	442.19
418.497	429.19
418.72	451.19
418.943	425.19
419.166	431.19
419.389	473.19
419.611	467.19
419.834	464.19
420.057	458.19
420.28	446.19
420.503	452.19
420.726	447.19
420.948	441.19
421.171	489.19
421.394	504.19
421.617	454.19
421.839	469.19
422.062	469.19
422.285	443.19
422.507	500.19
422.73	549.19
422.953	538.19
423.175	497.19
423.398	459.19
423.621	449.19
423.843	486.19
424.066	462.19
424.288	483.19
424.511	490.19
424.733	507.19
424.956	573.19
425.178	547.19
425.401	550.19
425.623	558.19
425.846	490.19
426.068	459.19
426.291	459.19
426.513	458.19
426.735	435.19
426.958	501.19
427.18	541.19
427.402	636.19
427.625	680.19
427.847	590.19
428.069	507.19
428.292	508.19
428.514	451.19
428.736	436.19
428.958	420.19
429.181	421.19
429.403	404.19
429.625	434.19
429.847	457.19
430.069	491.19
430.292	468.19
430.514	435.19
430.736	421.19
430.958	425.19
431.18	398.19
431.402	394.19
431.624	421.19
431.846	425.19
432.068	421.19
432.29	406.19
432.512	412.19
432.734	426.19
432.956	414.19
433.178	406.19
433.4	426.19
433.622	406.19
433.844	419.19
434.066	407.19
434.287	395.19
434.509	423.19
434.731	423.19
434.953	436.19
435.175	428.19
435.397	439.19
435.618	455.19
435.84	487.19
436.062	546.19
436.284	577.19
436.505	518.19
436.727	456.19
436.949	461.19
437.17	427.19
437.392	423.19
437.614	429.19
437.835	441.19
438.057	505.19
438.278	574.19
438.5	569.19
438.721	649.19
438.943	598.19
439.165	470.19
439.386	461.19
439.608	449.19
439.829	473.19
440.05	461.19
440.272	482.19
440.493	464.19
440.715	441.19
440.936	433.19
441.158	419.19
441.379	428.19
441.6	437.19
441.822	441.19
442.043	465.19
442.264	537.19
442.486	531.19
442.707	474.19
442.928	447.19
443.149	456.19
443.371	471.19
443.592	523.19
443.813	576.19
444.034	602.19
444.255	515.19
444.476	486.19
444.698	479.19
444.919	485.19
445.14	598.19
445.361	525.19
445.582	487.19
445.803	554.19
446.024	577.19
446.245	585.19
446.466	541.19
446.687	459.19
446.908	436.19
447.129	449.19
447.35	410.19
447.571	405.19
447.792	401.19
448.013	400.19
448.234	424.19
448.455	456.19
448.675	525.19
448.896	596.19
449.117	515.19
449.338	505.19
449.559	589.19
449.779	629.19
450	506.19
450.221	411.19
450.442	404.19
450.662	395.19
450.883	419.19
451.104	411.19
451.324	401.19
451.545	393.19
451.766	368.19
451.986	376.19
452.207	394.19
452.428	373.19
452.648	362.19
452.869	377.19
453.089	363.19
453.31	375.19
453.53	387.19
453.751	366.19
453.971	355.19
454.192	372.19
454.412	379.19
454.633	375.19
454.853	348.19
455.073	363.19
455.294	381.19
455.514	429.19
455.734	417.19
455.955	371.19
456.175	379.19
456.395	362.19
456.616	359.19
456.836	354.19
457.056	363.19
457.276	347.19
457.497	358.19
457.717	348.19
457.937	367.19
458.157	368.19
458.377	367.19
458.598	383.19
458.818	415.19
459.038	452.19
459.258	469.19
459.478	420.19
459.698	422.19
459.918	406.19
460.138	397.19
460.358	429.19
460.578	433.19
460.798	407.19
461.018	427.19
461.238	419.19
461.458	416.19
461.678	428.19
461.898	442.19
462.118	428.19
462.338	441.19
462.558	455.19
462.777	459.19
462.997	447.19
463.217	467.19
463.437	493.19
463.657	481.19
463.876	463.19
464.096	446.19
464.316	461.19
464.536	445.19
464.755	461.19
464.975	446.19
465.195	445.19
465.414	465.19
465.634	434.19
465.854	441.19
466.073	406.19
466.293	393.19
466.512	381.19
466.732	394.19
466.951	399.19
467.171	391.19
467.391	369.19
467.61	365.19
467.829	384.19
468.049	397.19
468.268	396.19
468.488	403.19
468.707	381.19
468.927	389.19
469.146	379.19
469.365	389.19
469.585	387.19
469.804	387.19
470.023	408.19
470.243	366.19
470.462	397.19
470.681	407.19
470.901	417.19
471.12	391.19
471.339	382.19
471.558	400.19
471.777	398.19
471.997	393.19
472.216	385.19
472.435	391.19
472.654	400.19
472.873	389.19
473.092	374.19
473.311	391.19
473.53	404.19
473.749	399.19
473.968	395.19
474.187	461.19
474.406	503.19
474.625	441.19
474.844	405.19
475.063	409.19
475.282	397.19
475.501	375.19
475.72	392.19
475.939	396.19
476.158	403.19
476.377	399.19
476.596	400.19
476.814	417.19
477.033	410.19
477.252	403.19
477.471	414.19
477.69	438.19
477.908	424.19
478.127	441.19
478.346	425.19
478.564	425.19
478.783	449.19
479.002	456.19
479.22	453.19
479.439	458.19
479.658	434.19
479.876	447.19
480.095	452.19
480.313	475.19
480.532	482.19
480.751	482.19
480.969	474.19
481.188	492.19
481.406	506.19
481.624	487.19
481.843	467.19
482.061	447.19
482.28	449.19
482.498	454.19
482.717	451.19
482.935	449.19
483.153	454.19
483.372	437.19
483.59	463.19
483.808	430.19
484.027	457.19
484.245	459.19
484.463	452.19
484.681	457.19
484.9	458.19
485.118	455.19
485.336	469.19
485.554	452.19
485.772	466.19
485.99	477.19
486.209	489.19
486.427	470.19
486.645	463.19
486.863	499.19
487.081	477.19
487.299	482.19
487.517	467.19
487.735	476.19
487.953	478.19
488.171	456.19
488.389	486.19
488.607	476.19
488.825	473.19
489.043	495.19
489.261	462.19
489.479	499.19
489.696	493.19
489.914	496.19
490.132	501.19
490.35	501.19
490.568	495.19
490.786	488.19
491.003	496.19
491.221	505.19
491.439	522.19
491.657	511.19
491.874	517.19
492.092	539.19
492.31	502.19
492.527	523.19
492.745	521.19
492.963	535.19
493.18	545.19
493.398	532.19
493.615	525.19
493.833	544.19
494.05	555.19
494.268	526.19
494.485	562.19
494.703	564.19
494.92	559.19
495.138	534.19
495.355	541.19
495.573	554.19
495.79	550.19
496.008	528.19
496.225	539.19
496.442	545.19
496.66	578.19
496.877	554.19
497.094	553.19
497.312	554.19
497.529	571.19
497.746	580.19
497.963	599.19
498.181	605.19
498.398	601.19
498.615	645.19
498.832	654.19
499.049	660.19
499.267	687.19
499.484	719.19
499.701	749.19
499.918	767.19
500.135	809.19
500.352	860.19
500.569	880.19
500.786	895.19
501.003	890.19
501.22	833.19
501.437	808.19
501.654	760.19
501.871	715.19
502.088	695.19
