Data from 1964.PennyLincolnUp.Lamp.En5.5.200Scan.071719.P1._HRD10591_14-05-48-909.txt Node
Date: Thu Jul 18 14:05:48 EDT 2019
User: cochatt
Spectrometer: HR+D1059
Trigger mode: 1
Integration Time (sec): 1.000000E-1
Scans to average: 1
Electric dark correction enabled: true
Nonlinearity correction enabled: false
Boxcar width: 0
XAxis mode: Wavelengths
Number of Pixels in Spectrum: 2048
>>>>>Begin Spectral Data<<<<<
223.165	-12.5
223.4	-12.5
223.635	-12.5
223.869	-19.5
224.104	-15.5
224.338	-11.5
224.573	-12.5
224.808	-4.5
225.042	-16.5
225.277	-2.5
225.511	0.5
225.746	-5.5
225.98	12.5
226.215	15.5
226.449	5.5
226.683	17.5
226.918	19.5
227.152	29.5
227.387	13.5
227.621	30.5
227.856	37.5
228.09	32.5
228.324	40.5
228.559	69.5
228.793	79.5
229.027	87.5
229.262	96.5
229.496	95.5
229.73	108.5
229.964	134.5
230.199	111.5
230.433	113.5
230.667	95.5
230.901	91.5
231.136	98.5
231.37	112.5
231.604	116.5
231.838	112.5
232.072	88.5
232.306	102.5
232.541	102.5
232.775	99.5
233.009	126.5
233.243	124.5
233.477	106.5
233.711	101.5
233.945	115.5
234.179	109.5
234.413	113.5
234.647	104.5
234.881	103.5
235.115	101.5
235.349	105.5
235.583	108.5
235.817	110.5
236.051	129.5
236.285	122.5
236.519	118.5
236.753	114.5
236.987	135.5
237.221	166.5
237.455	197.5
237.689	172.5
237.922	138.5
238.156	137.5
238.39	129.5
238.624	118.5
238.858	132.5
239.091	123.5
239.325	125.5
239.559	118.5
239.793	129.5
240.027	147.5
240.26	134.5
240.494	138.5
240.728	135.5
240.961	149.5
241.195	145.5
241.429	148.5
241.662	128.5
241.896	131.5
242.13	120.5
242.363	116.5
242.597	142.5
242.83	148.5
243.064	127.5
243.298	133.5
243.531	136.5
243.765	139.5
243.998	132.5
244.232	145.5
244.465	135.5
244.699	149.5
244.932	140.5
245.166	133.5
245.399	162.5
245.633	149.5
245.866	154.5
246.099	138.5
246.333	154.5
246.566	144.5
246.8	141.5
247.033	156.5
247.266	153.5
247.5	167.5
247.733	171.5
247.966	159.5
248.2	168.5
248.433	171.5
248.666	176.5
248.899	192.5
249.133	192.5
249.366	202.5
249.599	182.5
249.832	191.5
250.066	163.5
250.299	183.5
250.532	205.5
250.765	205.5
250.998	219.5
251.231	221.5
251.465	208.5
251.698	214.5
251.931	201.5
252.164	192.5
252.397	196.5
252.63	206.5
252.863	200.5
253.096	205.5
253.329	219.5
253.562	198.5
253.795	192.5
254.028	224.5
254.261	209.5
254.494	205.5
254.727	252.5
254.96	269.5
255.193	259.5
255.426	232.5
255.659	227.5
255.892	217.5
256.124	217.5
256.357	227.5
256.59	219.5
256.823	220.5
257.056	215.5
257.289	233.5
257.521	213.5
257.754	236.5
257.987	235.5
258.22	221.5
258.452	223.5
258.685	205.5
258.918	221.5
259.151	215.5
259.383	215.5
259.616	216.5
259.849	231.5
260.081	225.5
260.314	241.5
260.547	267.5
260.779	242.5
261.012	225.5
261.244	236.5
261.477	257.5
261.71	217.5
261.942	223.5
262.175	231.5
262.407	228.5
262.64	231.5
262.872	209.5
263.105	222.5
263.337	232.5
263.57	233.5
263.802	218.5
264.035	232.5
264.267	231.5
264.499	236.5
264.732	233.5
264.964	218.5
265.197	230.5
265.429	229.5
265.661	216.5
265.894	231.5
266.126	222.5
266.358	232.5
266.591	234.5
266.823	230.5
267.055	262.5
267.287	235.5
267.52	231.5
267.752	241.5
267.984	257.5
268.216	241.5
268.448	256.5
268.681	257.5
268.913	274.5
269.145	268.5
269.377	289.5
269.609	279.5
269.841	285.5
270.073	269.5
270.306	283.5
270.538	324.5
270.77	312.5
271.002	299.5
271.234	313.5
271.466	316.5
271.698	312.5
271.93	320.5
272.162	321.5
272.394	300.5
272.626	308.5
272.858	312.5
273.09	300.5
273.322	275.5
273.553	267.5
273.785	268.5
274.017	289.5
274.249	265.5
274.481	275.5
274.713	280.5
274.945	289.5
275.176	299.5
275.408	289.5
275.64	283.5
275.872	279.5
276.104	276.5
276.335	289.5
276.567	286.5
276.799	282.5
277.031	315.5
277.262	327.5
277.494	316.5
277.726	315.5
277.957	295.5
278.189	294.5
278.421	285.5
278.652	288.5
278.884	255.5
279.115	283.5
279.347	292.5
279.579	289.5
279.81	301.5
280.042	267.5
280.273	281.5
280.505	305.5
280.736	299.5
280.968	299.5
281.199	293.5
281.431	287.5
281.662	289.5
281.894	291.5
282.125	303.5
282.356	282.5
282.588	295.5
282.819	305.5
283.051	299.5
283.282	298.5
283.513	313.5
283.745	317.5
283.976	306.5
284.207	299.5
284.439	305.5
284.67	300.5
284.901	323.5
285.132	315.5
285.364	302.5
285.595	296.5
285.826	289.5
286.057	290.5
286.288	300.5
286.52	304.5
286.751	319.5
286.982	329.5
287.213	322.5
287.444	315.5
287.675	328.5
287.906	332.5
288.138	329.5
288.369	315.5
288.6	308.5
288.831	332.5
289.062	331.5
289.293	315.5
289.524	308.5
289.755	311.5
289.986	335.5
290.217	338.5
290.448	325.5
290.679	320.5
290.91	333.5
291.141	325.5
291.371	337.5
291.602	318.5
291.833	311.5
292.064	335.5
292.295	337.5
292.526	330.5
292.757	323.5
292.987	297.5
293.218	322.5
293.449	309.5
293.68	299.5
293.91	338.5
294.141	326.5
294.372	323.5
294.603	337.5
294.833	326.5
295.064	299.5
295.295	315.5
295.525	334.5
295.756	337.5
295.987	343.5
296.217	348.5
296.448	348.5
296.679	327.5
296.909	319.5
297.14	329.5
297.37	354.5
297.601	342.5
297.831	348.5
298.062	339.5
298.292	347.5
298.523	354.5
298.753	344.5
298.984	325.5
299.214	335.5
299.445	326.5
299.675	341.5
299.905	337.5
300.136	345.5
300.366	348.5
300.597	351.5
300.827	347.5
301.057	370.5
301.288	359.5
301.518	353.5
301.748	360.5
301.979	370.5
302.209	372.5
302.439	361.5
302.669	369.5
302.9	349.5
303.13	367.5
303.36	367.5
303.59	368.5
303.82	373.5
304.051	369.5
304.281	372.5
304.511	360.5
304.741	370.5
304.971	359.5
305.201	352.5
305.431	366.5
305.661	369.5
305.891	359.5
306.121	350.5
306.352	351.5
306.582	372.5
306.812	358.5
307.042	389.5
307.272	365.5
307.502	372.5
307.731	382.5
307.961	364.5
308.191	371.5
308.421	369.5
308.651	386.5
308.881	348.5
309.111	371.5
309.341	373.5
309.571	370.5
309.8	376.5
310.03	384.5
310.26	406.5
310.49	381.5
310.72	388.5
310.949	404.5
311.179	411.5
311.409	395.5
311.639	397.5
311.868	400.5
312.098	413.5
312.328	402.5
312.557	409.5
312.787	402.5
313.017	436.5
313.246	403.5
313.476	409.5
313.706	393.5
313.935	411.5
314.165	416.5
314.394	427.5
314.624	420.5
314.853	425.5
315.083	410.5
315.312	420.5
315.542	409.5
315.771	404.5
316.001	387.5
316.23	408.5
316.46	398.5
316.689	418.5
316.919	409.5
317.148	406.5
317.377	409.5
317.607	403.5
317.836	395.5
318.065	405.5
318.295	405.5
318.524	413.5
318.753	417.5
318.983	412.5
319.212	400.5
319.441	431.5
319.67	403.5
319.9	411.5
320.129	420.5
320.358	389.5
320.587	422.5
320.816	419.5
321.046	402.5
321.275	405.5
321.504	446.5
321.733	425.5
321.962	419.5
322.191	419.5
322.42	434.5
322.649	431.5
322.878	443.5
323.108	451.5
323.337	455.5
323.566	491.5
323.795	488.5
324.024	534.5
324.253	620.5
324.482	824.5
324.71	1207.5
324.939	1675.5
325.168	1400.5
325.397	761.5
325.626	569.5
325.855	509.5
326.084	503.5
326.313	473.5
326.542	505.5
326.77	517.5
326.999	579.5
327.228	743.5
327.457	1036.5
327.686	1227.5
327.914	831.5
328.143	622.5
328.372	536.5
328.6	548.5
328.829	521.5
329.058	529.5
329.287	541.5
329.515	515.5
329.744	515.5
329.972	517.5
330.201	525.5
330.43	531.5
330.658	522.5
330.887	571.5
331.115	538.5
331.344	501.5
331.572	495.5
331.801	486.5
332.03	497.5
332.258	475.5
332.486	496.5
332.715	467.5
332.943	477.5
333.172	491.5
333.4	476.5
333.629	522.5
333.857	522.5
334.085	539.5
334.314	547.5
334.542	538.5
334.771	553.5
334.999	527.5
335.227	523.5
335.455	485.5
335.684	497.5
335.912	487.5
336.14	478.5
336.369	458.5
336.597	479.5
336.825	463.5
337.053	477.5
337.281	473.5
337.51	470.5
337.738	487.5
337.966	455.5
338.194	471.5
338.422	476.5
338.65	483.5
338.878	451.5
339.106	444.5
339.334	473.5
339.562	454.5
339.79	446.5
340.018	442.5
340.246	462.5
340.474	452.5
340.702	453.5
340.93	443.5
341.158	455.5
341.386	429.5
341.614	452.5
341.842	471.5
342.07	443.5
342.298	447.5
342.526	458.5
342.754	435.5
342.981	443.5
343.209	460.5
343.437	469.5
343.665	459.5
343.893	467.5
344.12	473.5
344.348	461.5
344.576	469.5
344.804	471.5
345.031	462.5
345.259	448.5
345.487	426.5
345.714	448.5
345.942	450.5
346.17	430.5
346.397	435.5
346.625	427.5
346.853	437.5
347.08	423.5
347.308	432.5
347.535	424.5
347.763	435.5
347.99	423.5
348.218	445.5
348.445	432.5
348.673	425.5
348.9	412.5
349.128	421.5
349.355	407.5
349.583	415.5
349.81	413.5
350.037	382.5
350.265	402.5
350.492	423.5
350.72	424.5
350.947	419.5
351.174	417.5
351.402	428.5
351.629	427.5
351.856	435.5
352.083	448.5
352.311	425.5
352.538	421.5
352.765	423.5
352.992	435.5
353.22	425.5
353.447	416.5
353.674	421.5
353.901	417.5
354.128	422.5
354.355	403.5
354.583	404.5
354.81	391.5
355.037	396.5
355.264	402.5
355.491	395.5
355.718	398.5
355.945	387.5
356.172	385.5
356.399	384.5
356.626	396.5
356.853	398.5
357.08	417.5
357.307	392.5
357.534	416.5
357.761	399.5
357.988	402.5
358.215	386.5
358.441	376.5
358.668	389.5
358.895	425.5
359.122	383.5
359.349	412.5
359.576	415.5
359.802	430.5
360.029	434.5
360.256	435.5
360.483	417.5
360.709	413.5
360.936	418.5
361.163	396.5
361.39	412.5
361.616	408.5
361.843	414.5
362.07	418.5
362.296	421.5
362.523	404.5
362.749	385.5
362.976	416.5
363.203	414.5
363.429	393.5
363.656	404.5
363.882	402.5
364.109	409.5
364.335	386.5
364.562	403.5
364.788	401.5
365.015	403.5
365.241	371.5
365.468	404.5
365.694	397.5
365.92	406.5
366.147	399.5
366.373	400.5
366.599	415.5
366.826	379.5
367.052	392.5
367.278	392.5
367.505	377.5
367.731	388.5
367.957	383.5
368.184	388.5
368.41	407.5
368.636	399.5
368.862	402.5
369.089	384.5
369.315	415.5
369.541	401.5
369.767	393.5
369.993	389.5
370.219	404.5
370.445	419.5
370.672	387.5
370.898	402.5
371.124	414.5
371.35	384.5
371.576	388.5
371.802	388.5
372.028	396.5
372.254	397.5
372.48	395.5
372.706	410.5
372.932	391.5
373.158	398.5
373.384	398.5
373.61	397.5
373.835	414.5
374.061	380.5
374.287	419.5
374.513	413.5
374.739	423.5
374.965	405.5
375.191	420.5
375.416	422.5
375.642	393.5
375.868	395.5
376.094	384.5
376.319	370.5
376.545	383.5
376.771	398.5
376.997	387.5
377.222	391.5
377.448	387.5
377.674	413.5
377.899	393.5
378.125	393.5
378.35	390.5
378.576	376.5
378.802	380.5
379.027	385.5
379.253	395.5
379.478	375.5
379.704	390.5
379.929	399.5
380.155	384.5
380.38	372.5
380.606	400.5
380.831	400.5
381.057	410.5
381.282	394.5
381.507	396.5
381.733	402.5
381.958	378.5
382.184	406.5
382.409	411.5
382.634	405.5
382.86	415.5
383.085	393.5
383.31	417.5
383.535	395.5
383.761	404.5
383.986	395.5
384.211	407.5
384.436	421.5
384.662	440.5
384.887	411.5
385.112	398.5
385.337	403.5
385.562	428.5
385.787	433.5
386.013	425.5
386.238	431.5
386.463	433.5
386.688	445.5
386.913	410.5
387.138	411.5
387.363	417.5
387.588	417.5
387.813	429.5
388.038	460.5
388.263	431.5
388.488	451.5
388.713	439.5
388.938	422.5
389.163	432.5
389.387	433.5
389.612	406.5
389.837	433.5
390.062	411.5
390.287	425.5
390.512	422.5
390.736	436.5
390.961	444.5
391.186	416.5
391.411	439.5
391.636	428.5
391.86	439.5
392.085	436.5
392.31	438.5
392.534	440.5
392.759	439.5
392.984	454.5
393.208	433.5
393.433	429.5
393.658	442.5
393.882	420.5
394.107	425.5
394.331	444.5
394.556	431.5
394.78	426.5
395.005	431.5
395.229	450.5
395.454	449.5
395.678	442.5
395.903	449.5
396.127	453.5
396.352	449.5
396.576	460.5
396.801	451.5
397.025	440.5
397.249	458.5
397.474	467.5
397.698	445.5
397.922	452.5
398.147	473.5
398.371	467.5
398.595	472.5
398.82	468.5
399.044	498.5
399.268	509.5
399.492	536.5
399.717	592.5
399.941	577.5
400.165	610.5
400.389	593.5
400.613	547.5
400.837	524.5
401.062	519.5
401.286	489.5
401.51	474.5
401.734	481.5
401.958	489.5
402.182	472.5
402.406	469.5
402.63	481.5
402.854	495.5
403.078	506.5
403.302	501.5
403.526	525.5
403.75	537.5
403.974	532.5
404.198	496.5
404.422	509.5
404.645	521.5
404.869	535.5
405.093	542.5
405.317	582.5
405.541	595.5
405.765	553.5
405.988	535.5
406.212	548.5
406.436	532.5
406.66	563.5
406.883	511.5
407.107	559.5
407.331	580.5
407.555	645.5
407.778	618.5
408.002	589.5
408.226	560.5
408.449	526.5
408.673	544.5
408.896	563.5
409.12	583.5
409.344	577.5
409.567	506.5
409.791	499.5
410.014	486.5
410.238	501.5
410.461	488.5
410.685	507.5
410.908	513.5
411.132	544.5
411.355	552.5
411.578	517.5
411.802	503.5
412.025	480.5
412.249	501.5
412.472	506.5
412.695	560.5
412.919	546.5
413.142	508.5
413.365	485.5
413.589	481.5
413.812	468.5
414.035	480.5
414.258	476.5
414.482	484.5
414.705	461.5
414.928	477.5
415.151	487.5
415.374	453.5
415.597	455.5
415.821	440.5
416.044	479.5
416.267	461.5
416.49	467.5
416.713	461.5
416.936	463.5
417.159	458.5
417.382	477.5
417.605	475.5
417.828	472.5
418.051	487.5
418.274	480.5
418.497	490.5
418.72	465.5
418.943	466.5
419.166	489.5
419.389	511.5
419.611	483.5
419.834	472.5
420.057	482.5
420.28	487.5
420.503	478.5
420.726	487.5
420.948	483.5
421.171	502.5
421.394	519.5
421.617	509.5
421.839	477.5
422.062	473.5
422.285	485.5
422.507	511.5
422.73	583.5
422.953	552.5
423.175	520.5
423.398	487.5
423.621	488.5
423.843	517.5
424.066	519.5
424.288	498.5
424.511	543.5
424.733	565.5
424.956	593.5
425.178	579.5
425.401	578.5
425.623	581.5
425.846	542.5
426.068	502.5
426.291	470.5
426.513	480.5
426.735	492.5
426.958	525.5
427.18	594.5
427.402	689.5
427.625	717.5
427.847	615.5
428.069	572.5
428.292	516.5
428.514	475.5
428.736	477.5
428.958	445.5
429.181	452.5
429.403	446.5
429.625	466.5
429.847	481.5
430.069	530.5
430.292	524.5
430.514	472.5
430.736	458.5
430.958	475.5
431.18	456.5
431.402	422.5
431.624	437.5
431.846	433.5
432.068	433.5
432.29	427.5
432.512	443.5
432.734	448.5
432.956	444.5
433.178	445.5
433.4	447.5
433.622	441.5
433.844	435.5
434.066	437.5
434.287	434.5
434.509	457.5
434.731	475.5
434.953	444.5
435.175	457.5
435.397	492.5
435.618	469.5
435.84	545.5
436.062	589.5
436.284	618.5
436.505	540.5
436.727	482.5
436.949	460.5
437.17	456.5
437.392	453.5
437.614	451.5
437.835	483.5
438.057	544.5
438.278	641.5
438.5	610.5
438.721	678.5
438.943	659.5
439.165	517.5
439.386	499.5
439.608	491.5
439.829	476.5
440.05	480.5
440.272	529.5
440.493	504.5
440.715	467.5
440.936	468.5
441.158	436.5
441.379	470.5
441.6	500.5
441.822	483.5
442.043	535.5
442.264	579.5
442.486	606.5
442.707	538.5
442.928	489.5
443.149	502.5
443.371	510.5
443.592	559.5
443.813	622.5
444.034	664.5
444.255	572.5
444.476	519.5
444.698	519.5
444.919	516.5
445.14	626.5
445.361	567.5
445.582	543.5
445.803	581.5
446.024	649.5
446.245	637.5
446.466	583.5
446.687	519.5
446.908	490.5
447.129	437.5
447.35	439.5
447.571	459.5
447.792	441.5
448.013	449.5
448.234	458.5
448.455	505.5
448.675	590.5
448.896	663.5
449.117	540.5
449.338	527.5
449.559	624.5
449.779	703.5
450	575.5
450.221	464.5
450.442	460.5
450.662	439.5
450.883	424.5
451.104	449.5
451.324	419.5
451.545	428.5
451.766	392.5
451.986	404.5
452.207	387.5
452.428	390.5
452.648	394.5
452.869	395.5
453.089	395.5
453.31	412.5
453.53	397.5
453.751	413.5
453.971	379.5
454.192	397.5
454.412	394.5
454.633	380.5
454.853	386.5
455.073	411.5
455.294	435.5
455.514	453.5
455.734	450.5
455.955	420.5
456.175	379.5
456.395	356.5
456.616	391.5
456.836	377.5
457.056	377.5
457.276	368.5
457.497	398.5
457.717	383.5
457.937	390.5
458.157	402.5
458.377	410.5
458.598	405.5
458.818	433.5
459.038	490.5
459.258	519.5
459.478	450.5
459.698	431.5
459.918	441.5
460.138	424.5
460.358	435.5
460.578	442.5
460.798	451.5
461.018	474.5
461.238	445.5
461.458	443.5
461.678	433.5
461.898	450.5
462.118	445.5
462.338	445.5
462.558	447.5
462.777	493.5
462.997	510.5
463.217	499.5
463.437	498.5
463.657	496.5
463.876	488.5
464.096	486.5
464.316	465.5
464.536	469.5
464.755	483.5
464.975	459.5
465.195	508.5
465.414	515.5
465.634	462.5
465.854	432.5
466.073	437.5
466.293	429.5
466.512	408.5
466.732	412.5
466.951	410.5
467.171	426.5
467.391	412.5
467.61	423.5
467.829	411.5
468.049	409.5
468.268	401.5
468.488	416.5
468.707	396.5
468.927	414.5
469.146	398.5
469.365	401.5
469.585	397.5
469.804	408.5
470.023	425.5
470.243	423.5
470.462	414.5
470.681	420.5
470.901	425.5
471.12	426.5
471.339	428.5
471.558	451.5
471.777	409.5
471.997	409.5
472.216	427.5
472.435	432.5
472.654	414.5
472.873	425.5
473.092	415.5
473.311	417.5
473.53	427.5
473.749	420.5
473.968	449.5
474.187	518.5
474.406	520.5
474.625	470.5
474.844	438.5
475.063	419.5
475.282	410.5
475.501	428.5
475.72	434.5
475.939	425.5
476.158	422.5
476.377	436.5
476.596	434.5
476.814	436.5
477.033	439.5
477.252	435.5
477.471	449.5
477.69	450.5
477.908	451.5
478.127	467.5
478.346	435.5
478.564	466.5
478.783	465.5
479.002	464.5
479.22	470.5
479.439	491.5
479.658	487.5
479.876	482.5
480.095	507.5
480.313	530.5
480.532	507.5
480.751	511.5
480.969	522.5
481.188	550.5
481.406	547.5
481.624	508.5
481.843	482.5
482.061	488.5
482.28	488.5
482.498	468.5
482.717	492.5
482.935	478.5
483.153	486.5
483.372	479.5
483.59	478.5
483.808	476.5
484.027	469.5
484.245	457.5
484.463	473.5
484.681	501.5
484.9	507.5
485.118	498.5
485.336	475.5
485.554	473.5
485.772	504.5
485.99	487.5
486.209	513.5
486.427	509.5
486.645	500.5
486.863	505.5
487.081	498.5
487.299	507.5
487.517	501.5
487.735	499.5
487.953	520.5
488.171	495.5
488.389	496.5
488.607	511.5
488.825	515.5
489.043	503.5
489.261	533.5
489.479	515.5
489.696	518.5
489.914	534.5
490.132	509.5
490.35	533.5
490.568	535.5
490.786	549.5
491.003	536.5
491.221	554.5
491.439	565.5
491.657	559.5
491.874	580.5
492.092	566.5
492.31	598.5
492.527	581.5
492.745	568.5
492.963	589.5
493.18	574.5
493.398	555.5
493.615	587.5
493.833	593.5
494.05	559.5
494.268	563.5
494.485	587.5
494.703	572.5
494.92	573.5
495.138	583.5
495.355	595.5
495.573	604.5
495.79	587.5
496.008	577.5
496.225	572.5
496.442	599.5
496.66	601.5
496.877	587.5
497.094	598.5
497.312	604.5
497.529	614.5
497.746	644.5
497.963	640.5
498.181	651.5
498.398	663.5
498.615	696.5
498.832	677.5
499.049	724.5
499.267	751.5
499.484	748.5
499.701	804.5
499.918	828.5
500.135	893.5
500.352	913.5
500.569	912.5
500.786	918.5
501.003	914.5
501.22	864.5
501.437	849.5
501.654	808.5
501.871	805.5
502.088	734.5
502.305	732.5
502.522	699.5
502.739	682.5
502.956	665.5
503.172	635.5
503.389	615.5
503.606	637.5
503.823	616.5
504.04	583.5
504.256	609.5
504.473	611.5
504.69	613.5
504.907	610.5
505.123	593.5
505.34	590.5
505.557	589.5
505.773	594.5
505.99	571.5
506.207	559.5
506.423	563.5
506.64	590.5
506.856	548.5
507.073	547.5
507.289	535.5
507.506	546.5
507.722	547.5
507.939	559.5
508.155	540.5
508.372	531.5
508.588	514.5
508.805	535.5
509.021	521.5
509.238	522.5
509.454	519.5
509.67	508.5
509.887	517.5
510.103	529.5
510.319	488.5
510.536	561.5
510.752	758.5
510.968	651.5
511.184	524.5
511.401	499.5
511.617	497.5
511.833	476.5
512.049	498.5
512.265	474.5
512.481	497.5
512.698	475.5
512.914	509.5
513.13	491.5
513.346	494.5
513.562	479.5
513.778	476.5
513.994	511.5
514.21	487.5
514.426	496.5
514.642	513.5
514.858	539.5
515.074	549.5
515.29	615.5
515.506	782.5
515.721	677.5
515.937	549.5
516.153	522.5
516.369	503.5
516.585	545.5
516.801	505.5
517.016	524.5
517.232	542.5
517.448	554.5
517.664	549.5
517.879	537.5
518.095	503.5
518.311	501.5
518.527	509.5
518.742	522.5
518.958	520.5
519.173	482.5
519.389	472.5
519.605	484.5
519.82	504.5
520.036	503.5
