Data from 1964.PennyLincolnUp.Lamp.En5.5.200Scan.071719.P1._HRD10591_14-06-29-910.txt Node
Date: Thu Jul 18 14:06:29 EDT 2019
User: cochatt
Spectrometer: HR+D1059
Trigger mode: 1
Integration Time (sec): 1.000000E-1
Scans to average: 1
Electric dark correction enabled: true
Nonlinearity correction enabled: false
Boxcar width: 0
XAxis mode: Wavelengths
Number of Pixels in Spectrum: 2048
>>>>>Begin Spectral Data<<<<<
223.165	-9.62
223.4	-9.62
223.635	-9.62
223.869	-23.62
224.104	-8.62
224.338	-14.62
224.573	3.38
224.808	-18.62
225.042	6.38
225.277	12.38
225.511	-9.62
225.746	-5.62
225.98	11.38
226.215	1.38
226.449	3.38
226.683	8.38
226.918	20.38
227.152	23.38
227.387	41.38
227.621	38.38
227.856	36.38
228.09	29.38
228.324	39.38
228.559	54.38
228.793	69.38
229.027	95.38
229.262	96.38
229.496	103.38
229.73	118.38
229.964	146.38
230.199	124.38
230.433	100.38
230.667	118.38
230.901	107.38
231.136	121.38
231.37	96.38
231.604	114.38
231.838	116.38
232.072	111.38
232.306	108.38
232.541	127.38
232.775	116.38
233.009	111.38
233.243	120.38
233.477	121.38
233.711	118.38
233.945	106.38
234.179	124.38
234.413	113.38
234.647	104.38
234.881	125.38
235.115	103.38
235.349	116.38
235.583	114.38
235.817	125.38
236.051	119.38
236.285	127.38
236.519	117.38
236.753	132.38
236.987	142.38
237.221	175.38
237.455	208.38
237.689	166.38
237.922	138.38
238.156	134.38
238.39	136.38
238.624	131.38
238.858	136.38
239.091	140.38
239.325	123.38
239.559	134.38
239.793	120.38
240.027	130.38
240.26	140.38
240.494	147.38
240.728	148.38
240.961	147.38
241.195	143.38
241.429	137.38
241.662	131.38
241.896	138.38
242.13	140.38
242.363	128.38
242.597	145.38
242.83	156.38
243.064	137.38
243.298	139.38
243.531	140.38
243.765	146.38
243.998	159.38
244.232	146.38
244.465	148.38
244.699	157.38
244.932	149.38
245.166	144.38
245.399	143.38
245.633	164.38
245.866	165.38
246.099	163.38
246.333	160.38
246.566	165.38
246.8	174.38
247.033	183.38
247.266	161.38
247.5	163.38
247.733	180.38
247.966	182.38
248.2	170.38
248.433	180.38
248.666	194.38
248.899	195.38
249.133	199.38
249.366	208.38
249.599	207.38
249.832	195.38
250.066	200.38
250.299	188.38
250.532	211.38
250.765	221.38
250.998	237.38
251.231	234.38
251.465	215.38
251.698	206.38
251.931	210.38
252.164	199.38
252.397	223.38
252.63	213.38
252.863	212.38
253.096	216.38
253.329	234.38
253.562	233.38
253.795	229.38
254.028	215.38
254.261	215.38
254.494	229.38
254.727	262.38
254.96	288.38
255.193	272.38
255.426	251.38
255.659	262.38
255.892	235.38
256.124	249.38
256.357	263.38
256.59	251.38
256.823	227.38
257.056	228.38
257.289	222.38
257.521	223.38
257.754	228.38
257.987	211.38
258.22	222.38
258.452	227.38
258.685	218.38
258.918	217.38
259.151	241.38
259.383	233.38
259.616	218.38
259.849	224.38
260.081	256.38
260.314	267.38
260.547	266.38
260.779	279.38
261.012	264.38
261.244	244.38
261.477	237.38
261.71	240.38
261.942	247.38
262.175	230.38
262.407	256.38
262.64	251.38
262.872	215.38
263.105	253.38
263.337	233.38
263.57	233.38
263.802	238.38
264.035	248.38
264.267	239.38
264.499	219.38
264.732	212.38
264.964	234.38
265.197	220.38
265.429	248.38
265.661	212.38
265.894	254.38
266.126	256.38
266.358	246.38
266.591	265.38
266.823	246.38
267.055	238.38
267.287	258.38
267.52	265.38
267.752	268.38
267.984	256.38
268.216	262.38
268.448	265.38
268.681	253.38
268.913	278.38
269.145	288.38
269.377	289.38
269.609	298.38
269.841	283.38
270.073	306.38
270.306	318.38
270.538	336.38
270.77	350.38
271.002	327.38
271.234	321.38
271.466	323.38
271.698	326.38
271.93	349.38
272.162	333.38
272.394	338.38
272.626	318.38
272.858	323.38
273.09	302.38
273.322	330.38
273.553	302.38
273.785	292.38
274.017	312.38
274.249	306.38
274.481	298.38
274.713	285.38
274.945	298.38
275.176	291.38
275.408	308.38
275.64	290.38
275.872	303.38
276.104	280.38
276.335	300.38
276.567	295.38
276.799	319.38
277.031	336.38
277.262	347.38
277.494	346.38
277.726	331.38
277.957	327.38
278.189	334.38
278.421	328.38
278.652	322.38
278.884	311.38
279.115	299.38
279.347	314.38
279.579	322.38
279.81	287.38
280.042	299.38
280.273	321.38
280.505	292.38
280.736	312.38
280.968	311.38
281.199	305.38
281.431	283.38
281.662	316.38
281.894	314.38
282.125	307.38
282.356	326.38
282.588	346.38
282.819	344.38
283.051	315.38
283.282	316.38
283.513	303.38
283.745	303.38
283.976	328.38
284.207	331.38
284.439	312.38
284.67	316.38
284.901	338.38
285.132	322.38
285.364	329.38
285.595	325.38
285.826	317.38
286.057	321.38
286.288	328.38
286.52	330.38
286.751	331.38
286.982	346.38
287.213	323.38
287.444	338.38
287.675	343.38
287.906	355.38
288.138	340.38
288.369	335.38
288.6	334.38
288.831	354.38
289.062	341.38
289.293	331.38
289.524	348.38
289.755	321.38
289.986	341.38
290.217	355.38
290.448	344.38
290.679	319.38
290.91	342.38
291.141	337.38
291.371	345.38
291.602	341.38
291.833	329.38
292.064	354.38
292.295	343.38
292.526	336.38
292.757	332.38
292.987	330.38
293.218	344.38
293.449	354.38
293.68	346.38
293.91	343.38
294.141	349.38
294.372	330.38
294.603	354.38
294.833	355.38
295.064	331.38
295.295	357.38
295.525	351.38
295.756	333.38
295.987	357.38
296.217	369.38
296.448	357.38
296.679	371.38
296.909	350.38
297.14	350.38
297.37	353.38
297.601	342.38
297.831	334.38
298.062	365.38
298.292	361.38
298.523	360.38
298.753	370.38
298.984	359.38
299.214	372.38
299.445	368.38
299.675	352.38
299.905	364.38
300.136	357.38
300.366	348.38
300.597	366.38
300.827	374.38
301.057	374.38
301.288	390.38
301.518	378.38
301.748	381.38
301.979	381.38
302.209	374.38
302.439	367.38
302.669	375.38
302.9	370.38
303.13	392.38
303.36	380.38
303.59	394.38
303.82	410.38
304.051	400.38
304.281	391.38
304.511	376.38
304.741	374.38
304.971	378.38
305.201	404.38
305.431	374.38
305.661	388.38
305.891	383.38
306.121	388.38
306.352	384.38
306.582	409.38
306.812	363.38
307.042	397.38
307.272	382.38
307.502	386.38
307.731	377.38
307.961	387.38
308.191	372.38
308.421	386.38
308.651	373.38
308.881	387.38
309.111	403.38
309.341	409.38
309.571	397.38
309.8	409.38
310.03	408.38
310.26	410.38
310.49	404.38
310.72	427.38
310.949	421.38
311.179	431.38
311.409	423.38
311.639	401.38
311.868	423.38
312.098	408.38
312.328	437.38
312.557	432.38
312.787	460.38
313.017	453.38
313.246	438.38
313.476	438.38
313.706	451.38
313.935	431.38
314.165	445.38
314.394	446.38
314.624	435.38
314.853	426.38
315.083	432.38
315.312	443.38
315.542	424.38
315.771	423.38
316.001	430.38
316.23	424.38
316.46	410.38
316.689	438.38
316.919	450.38
317.148	452.38
317.377	426.38
317.607	428.38
317.836	430.38
318.065	424.38
318.295	429.38
318.524	420.38
318.753	414.38
318.983	428.38
319.212	444.38
319.441	442.38
319.67	458.38
319.9	437.38
320.129	431.38
320.358	438.38
320.587	437.38
320.816	441.38
321.046	464.38
321.275	447.38
321.504	438.38
321.733	452.38
321.962	453.38
322.191	466.38
322.42	477.38
322.649	483.38
322.878	470.38
323.108	495.38
323.337	516.38
323.566	503.38
323.795	552.38
324.024	580.38
324.253	691.38
324.482	927.38
324.71	1380.38
324.939	1892.38
325.168	1594.38
325.397	857.38
325.626	628.38
325.855	557.38
326.084	552.38
326.313	514.38
326.542	510.38
326.77	578.38
326.999	640.38
327.228	846.38
327.457	1243.38
327.686	1414.38
327.914	976.38
328.143	684.38
328.372	621.38
328.6	591.38
328.829	570.38
329.058	591.38
329.287	571.38
329.515	559.38
329.744	534.38
329.972	528.38
330.201	571.38
330.43	607.38
330.658	584.38
330.887	617.38
331.115	591.38
331.344	560.38
331.572	519.38
331.801	510.38
332.03	543.38
332.258	498.38
332.486	515.38
332.715	523.38
332.943	502.38
333.172	517.38
333.4	525.38
333.629	524.38
333.857	549.38
334.085	564.38
334.314	584.38
334.542	598.38
334.771	584.38
334.999	546.38
335.227	543.38
335.455	532.38
335.684	506.38
335.912	487.38
336.14	507.38
336.369	511.38
336.597	517.38
336.825	515.38
337.053	530.38
337.281	490.38
337.51	494.38
337.738	484.38
337.966	492.38
338.194	506.38
338.422	478.38
338.65	466.38
338.878	491.38
339.106	493.38
339.334	479.38
339.562	484.38
339.79	463.38
340.018	473.38
340.246	470.38
340.474	482.38
340.702	464.38
340.93	483.38
341.158	483.38
341.386	480.38
341.614	471.38
341.842	465.38
342.07	510.38
342.298	463.38
342.526	456.38
342.754	471.38
342.981	475.38
343.209	474.38
343.437	472.38
343.665	474.38
343.893	510.38
344.12	476.38
344.348	488.38
344.576	474.38
344.804	485.38
345.031	464.38
345.259	484.38
345.487	477.38
345.714	450.38
345.942	454.38
346.17	458.38
346.397	445.38
346.625	470.38
346.853	464.38
347.08	442.38
347.308	464.38
347.535	447.38
347.763	463.38
347.99	454.38
348.218	448.38
348.445	460.38
348.673	430.38
348.9	422.38
349.128	441.38
349.355	436.38
349.583	444.38
349.81	437.38
350.037	447.38
350.265	430.38
350.492	432.38
350.72	440.38
350.947	465.38
351.174	438.38
351.402	447.38
351.629	438.38
351.856	428.38
352.083	455.38
352.311	455.38
352.538	460.38
352.765	449.38
352.992	438.38
353.22	456.38
353.447	456.38
353.674	441.38
353.901	448.38
354.128	431.38
354.355	409.38
354.583	423.38
354.81	421.38
355.037	409.38
355.264	410.38
355.491	422.38
355.718	405.38
355.945	422.38
356.172	408.38
356.399	423.38
356.626	411.38
356.853	410.38
357.08	434.38
357.307	409.38
357.534	423.38
357.761	428.38
357.988	397.38
358.215	408.38
358.441	412.38
358.668	400.38
358.895	427.38
359.122	420.38
359.349	422.38
359.576	448.38
359.802	459.38
360.029	479.38
360.256	473.38
360.483	445.38
360.709	444.38
360.936	422.38
361.163	425.38
361.39	423.38
361.616	446.38
361.843	414.38
362.07	444.38
362.296	446.38
362.523	420.38
362.749	450.38
362.976	423.38
363.203	413.38
363.429	422.38
363.656	415.38
363.882	422.38
364.109	409.38
364.335	394.38
364.562	424.38
364.788	412.38
365.015	423.38
365.241	412.38
365.468	427.38
365.694	418.38
365.92	418.38
366.147	427.38
366.373	423.38
366.599	425.38
366.826	430.38
367.052	422.38
367.278	411.38
367.505	422.38
367.731	420.38
367.957	423.38
368.184	428.38
368.41	431.38
368.636	402.38
368.862	422.38
369.089	420.38
369.315	411.38
369.541	414.38
369.767	404.38
369.993	405.38
370.219	410.38
370.445	431.38
370.672	445.38
370.898	406.38
371.124	431.38
371.35	427.38
371.576	423.38
371.802	414.38
372.028	428.38
372.254	408.38
372.48	427.38
372.706	425.38
372.932	418.38
373.158	419.38
373.384	428.38
373.61	432.38
373.835	443.38
374.061	418.38
374.287	427.38
374.513	427.38
374.739	410.38
374.965	428.38
375.191	428.38
375.416	421.38
375.642	425.38
375.868	418.38
376.094	424.38
376.319	400.38
376.545	406.38
376.771	432.38
376.997	400.38
377.222	414.38
377.448	421.38
377.674	423.38
377.899	388.38
378.125	408.38
378.35	413.38
378.576	410.38
378.802	400.38
379.027	410.38
379.253	412.38
379.478	423.38
379.704	400.38
379.929	395.38
380.155	408.38
380.38	404.38
380.606	410.38
380.831	414.38
381.057	404.38
381.282	426.38
381.507	424.38
381.733	392.38
381.958	405.38
382.184	420.38
382.409	402.38
382.634	411.38
382.86	427.38
383.085	431.38
383.31	431.38
383.535	421.38
383.761	415.38
383.986	420.38
384.211	437.38
384.436	414.38
384.662	438.38
384.887	436.38
385.112	440.38
385.337	418.38
385.562	417.38
385.787	448.38
386.013	459.38
386.238	455.38
386.463	463.38
386.688	471.38
386.913	472.38
387.138	459.38
387.363	445.38
387.588	436.38
387.813	447.38
388.038	439.38
388.263	428.38
388.488	458.38
388.713	450.38
388.938	445.38
389.163	459.38
389.387	464.38
389.612	448.38
389.837	455.38
390.062	452.38
390.287	428.38
390.512	435.38
390.736	432.38
390.961	451.38
391.186	448.38
391.411	441.38
391.636	454.38
391.86	451.38
392.085	470.38
392.31	468.38
392.534	476.38
392.759	453.38
392.984	444.38
393.208	450.38
393.433	448.38
393.658	458.38
393.882	448.38
394.107	449.38
394.331	456.38
394.556	460.38
394.78	463.38
395.005	452.38
395.229	446.38
395.454	470.38
395.678	464.38
395.903	488.38
396.127	489.38
396.352	491.38
396.576	470.38
396.801	471.38
397.025	460.38
397.249	481.38
397.474	478.38
397.698	448.38
397.922	483.38
398.147	492.38
398.371	513.38
398.595	504.38
398.82	514.38
399.044	500.38
399.268	533.38
399.492	572.38
399.717	606.38
399.941	635.38
400.165	636.38
400.389	615.38
400.613	564.38
400.837	551.38
401.062	528.38
401.286	519.38
401.51	498.38
401.734	480.38
401.958	507.38
402.182	524.38
402.406	488.38
402.63	522.38
402.854	521.38
403.078	518.38
403.302	500.38
403.526	535.38
403.75	507.38
403.974	493.38
404.198	508.38
404.422	547.38
404.645	517.38
404.869	547.38
405.093	588.38
405.317	584.38
405.541	618.38
405.765	555.38
405.988	541.38
406.212	549.38
406.436	568.38
406.66	558.38
406.883	564.38
407.107	580.38
407.331	622.38
407.555	685.38
407.778	664.38
408.002	620.38
408.226	578.38
408.449	592.38
408.673	568.38
408.896	591.38
409.12	619.38
409.344	598.38
409.567	543.38
409.791	527.38
410.014	528.38
410.238	526.38
410.461	512.38
410.685	522.38
410.908	528.38
411.132	543.38
411.355	617.38
411.578	572.38
411.802	525.38
412.025	515.38
412.249	505.38
412.472	522.38
412.695	595.38
412.919	568.38
413.142	528.38
413.365	517.38
413.589	498.38
413.812	505.38
414.035	484.38
414.258	491.38
414.482	493.38
414.705	492.38
414.928	481.38
415.151	478.38
415.374	463.38
415.597	490.38
415.821	485.38
416.044	505.38
416.267	473.38
416.49	483.38
416.713	452.38
416.936	491.38
417.159	468.38
417.382	468.38
417.605	477.38
417.828	518.38
418.051	500.38
418.274	486.38
418.497	469.38
418.72	494.38
418.943	474.38
419.166	504.38
419.389	504.38
419.611	510.38
419.834	503.38
420.057	514.38
420.28	528.38
420.503	531.38
420.726	507.38
420.948	490.38
421.171	546.38
421.394	541.38
421.617	534.38
421.839	481.38
422.062	482.38
422.285	507.38
422.507	549.38
422.73	613.38
422.953	592.38
423.175	524.38
423.398	527.38
423.621	520.38
423.843	555.38
424.066	541.38
424.288	550.38
424.511	528.38
424.733	571.38
424.956	656.38
425.178	630.38
425.401	638.38
425.623	642.38
425.846	570.38
426.068	531.38
426.291	524.38
426.513	524.38
426.735	522.38
426.958	536.38
427.18	626.38
427.402	744.38
427.625	810.38
427.847	686.38
428.069	590.38
428.292	554.38
428.514	513.38
428.736	497.38
428.958	490.38
429.181	466.38
429.403	480.38
429.625	471.38
429.847	526.38
430.069	561.38
430.292	576.38
430.514	499.38
430.736	485.38
430.958	451.38
431.18	454.38
431.402	456.38
431.624	481.38
431.846	462.38
432.068	472.38
432.29	468.38
432.512	457.38
432.734	486.38
432.956	477.38
433.178	472.38
433.4	474.38
433.622	470.38
433.844	479.38
434.066	463.38
434.287	457.38
434.509	468.38
434.731	498.38
434.953	501.38
435.175	510.38
435.397	512.38
435.618	521.38
435.84	564.38
436.062	623.38
436.284	679.38
436.505	566.38
436.727	520.38
436.949	500.38
437.17	490.38
437.392	467.38
437.614	465.38
437.835	519.38
438.057	564.38
438.278	661.38
438.5	644.38
438.721	720.38
438.943	698.38
439.165	556.38
439.386	525.38
439.608	515.38
439.829	506.38
440.05	527.38
440.272	585.38
440.493	539.38
440.715	488.38
440.936	490.38
441.158	499.38
441.379	502.38
441.6	511.38
441.822	506.38
442.043	538.38
442.264	605.38
442.486	628.38
442.707	566.38
442.928	522.38
443.149	565.38
443.371	571.38
443.592	592.38
443.813	667.38
444.034	726.38
444.255	586.38
444.476	534.38
444.698	531.38
444.919	536.38
445.14	611.38
445.361	571.38
445.582	543.38
445.803	605.38
446.024	696.38
446.245	671.38
446.466	612.38
446.687	559.38
446.908	508.38
447.129	480.38
447.35	468.38
447.571	485.38
447.792	472.38
448.013	485.38
448.234	475.38
448.455	523.38
448.675	630.38
448.896	717.38
449.117	606.38
449.338	583.38
449.559	675.38
449.779	751.38
450	598.38
450.221	488.38
450.442	473.38
450.662	436.38
450.883	445.38
451.104	482.38
451.324	436.38
451.545	451.38
451.766	441.38
451.986	410.38
452.207	423.38
452.428	422.38
452.648	437.38
452.869	406.38
453.089	416.38
453.31	444.38
453.53	421.38
453.751	414.38
453.971	419.38
454.192	419.38
454.412	425.38
454.633	415.38
454.853	423.38
455.073	434.38
455.294	463.38
455.514	495.38
455.734	476.38
455.955	435.38
456.175	411.38
456.395	418.38
456.616	382.38
456.836	407.38
457.056	384.38
457.276	398.38
457.497	388.38
457.717	399.38
457.937	422.38
458.157	407.38
458.377	418.38
458.598	404.38
458.818	444.38
459.038	524.38
459.258	549.38
459.478	483.38
459.698	462.38
459.918	442.38
460.138	450.38
460.358	455.38
460.578	462.38
460.798	466.38
461.018	473.38
461.238	462.38
461.458	475.38
461.678	491.38
461.898	488.38
462.118	456.38
462.338	474.38
462.558	502.38
462.777	514.38
462.997	526.38
463.217	531.38
463.437	534.38
463.657	511.38
463.876	513.38
464.096	485.38
464.316	517.38
464.536	519.38
464.755	503.38
464.975	498.38
465.195	515.38
465.414	536.38
465.634	482.38
465.854	442.38
466.073	455.38
466.293	427.38
466.512	454.38
466.732	438.38
466.951	437.38
467.171	427.38
467.391	424.38
467.61	441.38
467.829	444.38
468.049	448.38
468.268	439.38
468.488	426.38
468.707	427.38
468.927	423.38
469.146	413.38
469.365	407.38
469.585	386.38
469.804	430.38
470.023	451.38
470.243	446.38
470.462	464.38
470.681	454.38
470.901	446.38
471.12	436.38
471.339	444.38
471.558	445.38
471.777	447.38
471.997	444.38
472.216	438.38
472.435	476.38
472.654	435.38
472.873	429.38
473.092	444.38
473.311	435.38
473.53	429.38
473.749	436.38
473.968	477.38
474.187	576.38
474.406	582.38
474.625	504.38
474.844	461.38
475.063	444.38
475.282	442.38
475.501	428.38
475.72	420.38
475.939	461.38
476.158	462.38
476.377	439.38
476.596	450.38
476.814	462.38
477.033	468.38
477.252	461.38
477.471	451.38
477.69	474.38
477.908	481.38
478.127	459.38
478.346	482.38
478.564	522.38
478.783	501.38
479.002	500.38
479.22	498.38
479.439	504.38
479.658	527.38
479.876	494.38
480.095	530.38
480.313	541.38
480.532	537.38
480.751	540.38
480.969	534.38
481.188	591.38
481.406	610.38
481.624	554.38
481.843	521.38
482.061	518.38
482.28	506.38
482.498	506.38
482.717	502.38
482.935	499.38
483.153	515.38
483.372	512.38
483.59	517.38
483.808	507.38
484.027	486.38
484.245	488.38
484.463	517.38
484.681	522.38
484.9	509.38
485.118	523.38
485.336	518.38
485.554	506.38
485.772	531.38
485.99	519.38
486.209	514.38
486.427	528.38
486.645	532.38
486.863	550.38
487.081	539.38
487.299	542.38
487.517	533.38
487.735	523.38
487.953	522.38
488.171	534.38
488.389	534.38
488.607	533.38
488.825	554.38
489.043	537.38
489.261	563.38
489.479	544.38
489.696	532.38
489.914	528.38
490.132	558.38
490.35	564.38
490.568	562.38
490.786	573.38
491.003	565.38
491.221	582.38
491.439	595.38
491.657	606.38
491.874	606.38
492.092	615.38
492.31	623.38
492.527	583.38
492.745	624.38
492.963	610.38
493.18	610.38
493.398	617.38
493.615	614.38
493.833	615.38
494.05	618.38
494.268	624.38
494.485	583.38
494.703	628.38
494.92	617.38
495.138	648.38
495.355	608.38
495.573	613.38
495.79	634.38
496.008	629.38
496.225	602.38
496.442	628.38
496.66	646.38
496.877	626.38
497.094	624.38
497.312	619.38
497.529	652.38
497.746	657.38
497.963	662.38
498.181	692.38
498.398	701.38
498.615	734.38
498.832	715.38
499.049	739.38
499.267	777.38
499.484	796.38
499.701	847.38
499.918	872.38
500.135	910.38
500.352	943.38
500.569	954.38
500.786	961.38
501.003	907.38
501.22	933.38
501.437	887.38
501.654	843.38
501.871	835.38
502.088	805.38
