Data from 1964.PennyLincolnUp.Lamp.En5.5.200Scan.071719.P1._HRD10591_14-05-04-909.txt Node
Date: Thu Jul 18 14:05:04 EDT 2019
User: cochatt
Spectrometer: HR+D1059
Trigger mode: 1
Integration Time (sec): 1.000000E-1
Scans to average: 1
Electric dark correction enabled: true
Nonlinearity correction enabled: false
Boxcar width: 0
XAxis mode: Wavelengths
Number of Pixels in Spectrum: 2048
>>>>>Begin Spectral Data<<<<<
223.165	-20.81
223.4	-20.81
223.635	-20.81
223.869	-10.81
224.104	-20.81
224.338	-15.81
224.573	-1.81
224.808	-20.81
225.042	-22.81
225.277	-5.81
225.511	-7.81
225.746	12.19
225.98	3.19
226.215	11.19
226.449	20.19
226.683	17.19
226.918	28.19
227.152	35.19
227.387	45.19
227.621	37.19
227.856	47.19
228.09	57.19
228.324	45.19
228.559	58.19
228.793	64.19
229.027	76.19
229.262	109.19
229.496	99.19
229.73	120.19
229.964	127.19
230.199	101.19
230.433	111.19
230.667	105.19
230.901	107.19
231.136	111.19
231.37	101.19
231.604	102.19
231.838	103.19
232.072	103.19
232.306	108.19
232.541	99.19
232.775	111.19
233.009	120.19
233.243	111.19
233.477	122.19
233.711	131.19
233.945	113.19
234.179	124.19
234.413	123.19
234.647	103.19
234.881	115.19
235.115	126.19
235.349	117.19
235.583	124.19
235.817	107.19
236.051	127.19
236.285	145.19
236.519	130.19
236.753	135.19
236.987	131.19
237.221	160.19
237.455	191.19
237.689	171.19
237.922	133.19
238.156	126.19
238.39	129.19
238.624	127.19
238.858	124.19
239.091	128.19
239.325	113.19
239.559	116.19
239.793	127.19
240.027	135.19
240.26	131.19
240.494	151.19
240.728	151.19
240.961	148.19
241.195	137.19
241.429	133.19
241.662	127.19
241.896	125.19
242.13	136.19
242.363	135.19
242.597	128.19
242.83	111.19
243.064	146.19
243.298	156.19
243.531	145.19
243.765	153.19
243.998	151.19
244.232	132.19
244.465	149.19
244.699	146.19
244.932	145.19
245.166	136.19
245.399	135.19
245.633	155.19
245.866	146.19
246.099	145.19
246.333	145.19
246.566	137.19
246.8	160.19
247.033	153.19
247.266	153.19
247.5	164.19
247.733	184.19
247.966	180.19
248.2	180.19
248.433	168.19
248.666	171.19
248.899	168.19
249.133	196.19
249.366	209.19
249.599	167.19
249.832	181.19
250.066	188.19
250.299	179.19
250.532	197.19
250.765	192.19
250.998	219.19
251.231	212.19
251.465	225.19
251.698	181.19
251.931	213.19
252.164	207.19
252.397	205.19
252.63	215.19
252.863	203.19
253.096	206.19
253.329	231.19
253.562	207.19
253.795	218.19
254.028	206.19
254.261	221.19
254.494	232.19
254.727	251.19
254.96	265.19
255.193	236.19
255.426	254.19
255.659	224.19
255.892	235.19
256.124	246.19
256.357	252.19
256.59	233.19
256.823	219.19
257.056	208.19
257.289	217.19
257.521	209.19
257.754	218.19
257.987	226.19
258.22	209.19
258.452	231.19
258.685	222.19
258.918	209.19
259.151	218.19
259.383	219.19
259.616	212.19
259.849	238.19
260.081	246.19
260.314	259.19
260.547	265.19
260.779	248.19
261.012	234.19
261.244	239.19
261.477	219.19
261.71	227.19
261.942	229.19
262.175	218.19
262.407	223.19
262.64	224.19
262.872	224.19
263.105	226.19
263.337	227.19
263.57	212.19
263.802	235.19
264.035	222.19
264.267	234.19
264.499	219.19
264.732	227.19
264.964	215.19
265.197	223.19
265.429	238.19
265.661	228.19
265.894	229.19
266.126	226.19
266.358	243.19
266.591	228.19
266.823	244.19
267.055	224.19
267.287	241.19
267.52	253.19
267.752	247.19
267.984	230.19
268.216	248.19
268.448	266.19
268.681	246.19
268.913	254.19
269.145	251.19
269.377	291.19
269.609	261.19
269.841	281.19
270.073	263.19
270.306	287.19
270.538	311.19
270.77	330.19
271.002	306.19
271.234	289.19
271.466	315.19
271.698	304.19
271.93	328.19
272.162	308.19
272.394	309.19
272.626	315.19
272.858	287.19
273.09	274.19
273.322	294.19
273.553	273.19
273.785	273.19
274.017	284.19
274.249	275.19
274.481	280.19
274.713	286.19
274.945	288.19
275.176	279.19
275.408	281.19
275.64	273.19
275.872	292.19
276.104	303.19
276.335	284.19
276.567	295.19
276.799	316.19
277.031	306.19
277.262	309.19
277.494	339.19
277.726	315.19
277.957	325.19
278.189	297.19
278.421	304.19
278.652	293.19
278.884	279.19
279.115	285.19
279.347	302.19
279.579	303.19
279.81	304.19
280.042	303.19
280.273	285.19
280.505	294.19
280.736	281.19
280.968	283.19
281.199	292.19
281.431	290.19
281.662	303.19
281.894	317.19
282.125	309.19
282.356	296.19
282.588	319.19
282.819	324.19
283.051	300.19
283.282	317.19
283.513	297.19
283.745	316.19
283.976	312.19
284.207	317.19
284.439	307.19
284.67	300.19
284.901	305.19
285.132	334.19
285.364	313.19
285.595	307.19
285.826	301.19
286.057	314.19
286.288	295.19
286.52	313.19
286.751	308.19
286.982	310.19
287.213	316.19
287.444	305.19
287.675	328.19
287.906	334.19
288.138	334.19
288.369	311.19
288.6	326.19
288.831	333.19
289.062	342.19
289.293	318.19
289.524	319.19
289.755	333.19
289.986	323.19
290.217	322.19
290.448	319.19
290.679	317.19
290.91	319.19
291.141	331.19
291.371	314.19
291.602	302.19
291.833	318.19
292.064	334.19
292.295	294.19
292.526	316.19
292.757	326.19
292.987	321.19
293.218	348.19
293.449	335.19
293.68	319.19
293.91	317.19
294.141	335.19
294.372	331.19
294.603	323.19
294.833	324.19
295.064	319.19
295.295	336.19
295.525	326.19
295.756	354.19
295.987	327.19
296.217	341.19
296.448	350.19
296.679	333.19
296.909	327.19
297.14	346.19
297.37	344.19
297.601	338.19
297.831	341.19
298.062	345.19
298.292	324.19
298.523	334.19
298.753	340.19
298.984	341.19
299.214	319.19
299.445	348.19
299.675	335.19
299.905	349.19
300.136	345.19
300.366	359.19
300.597	348.19
300.827	359.19
301.057	354.19
301.288	346.19
301.518	360.19
301.748	356.19
301.979	365.19
302.209	353.19
302.439	334.19
302.669	358.19
302.9	365.19
303.13	350.19
303.36	364.19
303.59	364.19
303.82	380.19
304.051	372.19
304.281	361.19
304.511	371.19
304.741	372.19
304.971	374.19
305.201	372.19
305.431	369.19
305.661	381.19
305.891	362.19
306.121	377.19
306.352	369.19
306.582	366.19
306.812	352.19
307.042	361.19
307.272	369.19
307.502	367.19
307.731	375.19
307.961	355.19
308.191	354.19
308.421	376.19
308.651	383.19
308.881	375.19
309.111	374.19
309.341	364.19
309.571	375.19
309.8	393.19
310.03	396.19
310.26	396.19
310.49	399.19
310.72	396.19
310.949	407.19
311.179	415.19
311.409	395.19
311.639	381.19
311.868	395.19
312.098	402.19
312.328	395.19
312.557	436.19
312.787	399.19
313.017	399.19
313.246	408.19
313.476	408.19
313.706	419.19
313.935	402.19
314.165	419.19
314.394	419.19
314.624	412.19
314.853	397.19
315.083	411.19
315.312	399.19
315.542	402.19
315.771	397.19
316.001	407.19
316.23	401.19
316.46	399.19
316.689	416.19
316.919	408.19
317.148	412.19
317.377	408.19
317.607	424.19
317.836	391.19
318.065	398.19
318.295	401.19
318.524	402.19
318.753	393.19
318.983	417.19
319.212	414.19
319.441	397.19
319.67	414.19
319.9	406.19
320.129	404.19
320.358	401.19
320.587	393.19
320.816	408.19
321.046	424.19
321.275	417.19
321.504	414.19
321.733	423.19
321.962	411.19
322.191	420.19
322.42	450.19
322.649	441.19
322.878	440.19
323.108	457.19
323.337	490.19
323.566	468.19
323.795	481.19
324.024	523.19
324.253	623.19
324.482	801.19
324.71	1173.19
324.939	1579.19
325.168	1337.19
325.397	733.19
325.626	559.19
325.855	489.19
326.084	481.19
326.313	490.19
326.542	483.19
326.77	503.19
326.999	578.19
327.228	744.19
327.457	1052.19
327.686	1197.19
327.914	816.19
328.143	608.19
328.372	555.19
328.6	511.19
328.829	523.19
329.058	512.19
329.287	517.19
329.515	500.19
329.744	499.19
329.972	525.19
330.201	516.19
330.43	521.19
330.658	539.19
330.887	536.19
331.115	552.19
331.344	495.19
331.572	509.19
331.801	468.19
332.03	491.19
332.258	478.19
332.486	483.19
332.715	469.19
332.943	492.19
333.172	507.19
333.4	487.19
333.629	517.19
333.857	494.19
334.085	517.19
334.314	528.19
334.542	549.19
334.771	567.19
334.999	529.19
335.227	518.19
335.455	521.19
335.684	500.19
335.912	479.19
336.14	474.19
336.369	489.19
336.597	471.19
336.825	499.19
337.053	485.19
337.281	471.19
337.51	465.19
337.738	477.19
337.966	475.19
338.194	463.19
338.422	449.19
338.65	467.19
338.878	446.19
339.106	451.19
339.334	454.19
339.562	449.19
339.79	443.19
340.018	465.19
340.246	451.19
340.474	443.19
340.702	464.19
340.93	459.19
341.158	443.19
341.386	442.19
341.614	443.19
341.842	424.19
342.07	439.19
342.298	461.19
342.526	456.19
342.754	462.19
342.981	461.19
343.209	452.19
343.437	454.19
343.665	466.19
343.893	476.19
344.12	491.19
344.348	484.19
344.576	457.19
344.804	470.19
345.031	454.19
345.259	479.19
345.487	463.19
345.714	437.19
345.942	437.19
346.17	450.19
346.397	428.19
346.625	438.19
346.853	410.19
347.08	424.19
347.308	421.19
347.535	426.19
347.763	432.19
347.99	435.19
348.218	445.19
348.445	428.19
348.673	414.19
348.9	427.19
349.128	443.19
349.355	404.19
349.583	405.19
349.81	429.19
350.037	409.19
350.265	419.19
350.492	390.19
350.72	411.19
350.947	387.19
351.174	443.19
351.402	432.19
351.629	420.19
351.856	427.19
352.083	398.19
352.311	439.19
352.538	439.19
352.765	430.19
352.992	415.19
353.22	421.19
353.447	424.19
353.674	403.19
353.901	405.19
354.128	398.19
354.355	403.19
354.583	379.19
354.81	398.19
355.037	396.19
355.264	395.19
355.491	377.19
355.718	396.19
355.945	385.19
356.172	377.19
356.399	404.19
356.626	394.19
356.853	401.19
357.08	382.19
357.307	404.19
357.534	390.19
357.761	409.19
357.988	398.19
358.215	413.19
358.441	387.19
358.668	406.19
358.895	407.19
359.122	409.19
359.349	410.19
359.576	417.19
359.802	415.19
360.029	442.19
360.256	456.19
360.483	391.19
360.709	422.19
360.936	408.19
361.163	406.19
361.39	416.19
361.616	425.19
361.843	419.19
362.07	417.19
362.296	417.19
362.523	414.19
362.749	416.19
362.976	401.19
363.203	408.19
363.429	384.19
363.656	402.19
363.882	401.19
364.109	396.19
364.335	396.19
364.562	421.19
364.788	383.19
365.015	421.19
365.241	397.19
365.468	415.19
365.694	418.19
365.92	417.19
366.147	379.19
366.373	383.19
366.599	419.19
366.826	379.19
367.052	393.19
367.278	417.19
367.505	382.19
367.731	396.19
367.957	384.19
368.184	403.19
368.41	385.19
368.636	415.19
368.862	393.19
369.089	400.19
369.315	398.19
369.541	410.19
369.767	385.19
369.993	405.19
370.219	405.19
370.445	397.19
370.672	389.19
370.898	411.19
371.124	407.19
371.35	416.19
371.576	397.19
371.802	387.19
372.028	411.19
372.254	397.19
372.48	378.19
372.706	407.19
372.932	399.19
373.158	412.19
373.384	411.19
373.61	377.19
373.835	399.19
374.061	391.19
374.287	393.19
374.513	407.19
374.739	427.19
374.965	402.19
375.191	403.19
375.416	423.19
375.642	408.19
375.868	396.19
376.094	394.19
376.319	389.19
376.545	395.19
376.771	405.19
376.997	388.19
377.222	371.19
377.448	401.19
377.674	381.19
377.899	400.19
378.125	388.19
378.35	390.19
378.576	393.19
378.802	408.19
379.027	383.19
379.253	406.19
379.478	372.19
379.704	382.19
379.929	379.19
380.155	394.19
380.38	402.19
380.606	397.19
380.831	391.19
381.057	401.19
381.282	389.19
381.507	387.19
381.733	407.19
381.958	392.19
382.184	392.19
382.409	392.19
382.634	394.19
382.86	394.19
383.085	405.19
383.31	397.19
383.535	405.19
383.761	415.19
383.986	424.19
384.211	409.19
384.436	419.19
384.662	414.19
384.887	419.19
385.112	424.19
385.337	410.19
385.562	426.19
385.787	425.19
386.013	432.19
386.238	437.19
386.463	443.19
386.688	456.19
386.913	418.19
387.138	439.19
387.363	429.19
387.588	432.19
387.813	412.19
388.038	423.19
388.263	434.19
388.488	424.19
388.713	432.19
388.938	437.19
389.163	425.19
389.387	424.19
389.612	408.19
389.837	416.19
390.062	431.19
390.287	415.19
390.512	428.19
390.736	445.19
390.961	423.19
391.186	429.19
391.411	439.19
391.636	458.19
391.86	427.19
392.085	442.19
392.31	455.19
392.534	453.19
392.759	435.19
392.984	412.19
393.208	423.19
393.433	455.19
393.658	413.19
393.882	427.19
394.107	439.19
394.331	448.19
394.556	419.19
394.78	431.19
395.005	449.19
395.229	429.19
395.454	448.19
395.678	456.19
395.903	460.19
396.127	456.19
396.352	480.19
396.576	457.19
396.801	441.19
397.025	458.19
397.249	453.19
397.474	456.19
397.698	465.19
397.922	466.19
398.147	459.19
398.371	486.19
398.595	501.19
398.82	483.19
399.044	505.19
399.268	527.19
399.492	555.19
399.717	577.19
399.941	607.19
400.165	600.19
400.389	577.19
400.613	546.19
400.837	518.19
401.062	522.19
401.286	499.19
401.51	489.19
401.734	476.19
401.958	478.19
402.182	483.19
402.406	482.19
402.63	492.19
402.854	491.19
403.078	513.19
403.302	518.19
403.526	488.19
403.75	492.19
403.974	484.19
404.198	481.19
404.422	502.19
404.645	523.19
404.869	535.19
405.093	520.19
405.317	553.19
405.541	584.19
405.765	536.19
405.988	513.19
406.212	540.19
406.436	540.19
406.66	536.19
406.883	527.19
407.107	558.19
407.331	596.19
407.555	633.19
407.778	641.19
408.002	611.19
408.226	550.19
408.449	559.19
408.673	554.19
408.896	566.19
409.12	570.19
409.344	573.19
409.567	496.19
409.791	523.19
410.014	487.19
410.238	494.19
410.461	517.19
410.685	512.19
410.908	537.19
411.132	547.19
411.355	555.19
411.578	520.19
411.802	511.19
412.025	503.19
412.249	507.19
412.472	518.19
412.695	550.19
412.919	550.19
413.142	498.19
413.365	487.19
413.589	484.19
413.812	474.19
414.035	471.19
414.258	455.19
414.482	492.19
414.705	476.19
414.928	473.19
415.151	460.19
415.374	461.19
415.597	496.19
415.821	470.19
416.044	475.19
416.267	452.19
416.49	475.19
416.713	463.19
416.936	454.19
417.159	454.19
417.382	472.19
417.605	455.19
417.828	453.19
418.051	485.19
418.274	464.19
418.497	470.19
418.72	477.19
418.943	471.19
419.166	480.19
419.389	509.19
419.611	503.19
419.834	494.19
420.057	470.19
420.28	496.19
420.503	477.19
420.726	489.19
420.948	493.19
421.171	511.19
421.394	541.19
421.617	484.19
421.839	457.19
422.062	471.19
422.285	489.19
422.507	542.19
422.73	588.19
422.953	547.19
423.175	509.19
423.398	475.19
423.621	490.19
423.843	492.19
424.066	504.19
424.288	521.19
424.511	530.19
424.733	574.19
424.956	590.19
425.178	576.19
425.401	582.19
425.623	599.19
425.846	535.19
426.068	489.19
426.291	479.19
426.513	489.19
426.735	493.19
426.958	541.19
427.18	592.19
427.402	669.19
427.625	715.19
427.847	643.19
428.069	567.19
428.292	515.19
428.514	479.19
428.736	475.19
428.958	462.19
429.181	454.19
429.403	446.19
429.625	436.19
429.847	493.19
430.069	528.19
430.292	522.19
430.514	465.19
430.736	445.19
430.958	454.19
431.18	432.19
431.402	454.19
431.624	439.19
431.846	462.19
432.068	455.19
432.29	440.19
432.512	421.19
432.734	440.19
432.956	425.19
433.178	449.19
433.4	445.19
433.622	433.19
433.844	423.19
434.066	436.19
434.287	450.19
434.509	457.19
434.731	462.19
434.953	456.19
435.175	478.19
435.397	488.19
435.618	500.19
435.84	516.19
436.062	567.19
436.284	644.19
436.505	542.19
436.727	477.19
436.949	464.19
437.17	456.19
437.392	454.19
437.614	460.19
437.835	487.19
438.057	544.19
438.278	599.19
438.5	627.19
438.721	675.19
438.943	624.19
439.165	522.19
439.386	480.19
439.608	483.19
439.829	479.19
440.05	504.19
440.272	541.19
440.493	507.19
440.715	474.19
440.936	461.19
441.158	456.19
441.379	451.19
441.6	484.19
441.822	460.19
442.043	523.19
442.264	578.19
442.486	581.19
442.707	515.19
442.928	472.19
443.149	490.19
443.371	521.19
443.592	543.19
443.813	616.19
444.034	661.19
444.255	580.19
444.476	509.19
444.698	507.19
444.919	518.19
445.14	621.19
445.361	555.19
445.582	529.19
445.803	548.19
446.024	628.19
446.245	644.19
446.466	565.19
446.687	520.19
446.908	472.19
447.129	455.19
447.35	460.19
447.571	445.19
447.792	448.19
448.013	440.19
448.234	477.19
448.455	488.19
448.675	571.19
448.896	648.19
449.117	567.19
449.338	533.19
449.559	637.19
449.779	701.19
450	563.19
450.221	465.19
450.442	467.19
450.662	442.19
450.883	413.19
451.104	463.19
451.324	427.19
451.545	393.19
451.766	404.19
451.986	407.19
452.207	419.19
452.428	395.19
452.648	401.19
452.869	410.19
453.089	410.19
453.31	397.19
453.53	421.19
453.751	397.19
453.971	395.19
454.192	404.19
454.412	393.19
454.633	400.19
454.853	380.19
455.073	379.19
455.294	411.19
455.514	459.19
455.734	451.19
455.955	413.19
456.175	392.19
456.395	379.19
456.616	389.19
456.836	384.19
457.056	387.19
457.276	369.19
457.497	377.19
457.717	374.19
457.937	388.19
458.157	389.19
458.377	417.19
458.598	411.19
458.818	431.19
459.038	494.19
459.258	510.19
459.478	479.19
459.698	436.19
459.918	422.19
460.138	414.19
460.358	430.19
460.578	451.19
460.798	464.19
461.018	466.19
461.238	455.19
461.458	451.19
461.678	451.19
461.898	473.19
462.118	452.19
462.338	471.19
462.558	465.19
462.777	479.19
462.997	487.19
463.217	515.19
463.437	498.19
463.657	508.19
463.876	469.19
464.096	467.19
464.316	470.19
464.536	481.19
464.755	475.19
464.975	480.19
465.195	500.19
465.414	490.19
465.634	477.19
465.854	444.19
466.073	445.19
466.293	417.19
466.512	422.19
466.732	401.19
466.951	409.19
467.171	423.19
467.391	422.19
467.61	389.19
467.829	415.19
468.049	422.19
468.268	407.19
468.488	397.19
468.707	402.19
468.927	391.19
469.146	398.19
469.365	409.19
469.585	415.19
469.804	410.19
470.023	423.19
470.243	437.19
470.462	416.19
470.681	427.19
470.901	417.19
471.12	416.19
471.339	416.19
471.558	433.19
471.777	439.19
471.997	413.19
472.216	435.19
472.435	435.19
472.654	445.19
472.873	408.19
473.092	417.19
473.311	407.19
473.53	406.19
473.749	414.19
473.968	463.19
474.187	522.19
474.406	531.19
474.625	468.19
474.844	395.19
475.063	419.19
475.282	432.19
475.501	428.19
475.72	428.19
475.939	424.19
476.158	424.19
476.377	427.19
476.596	421.19
476.814	457.19
477.033	435.19
477.252	448.19
477.471	446.19
477.69	435.19
477.908	423.19
478.127	461.19
478.346	477.19
478.564	463.19
478.783	485.19
479.002	463.19
479.22	470.19
479.439	496.19
479.658	494.19
479.876	494.19
480.095	504.19
480.313	517.19
480.532	530.19
480.751	521.19
480.969	514.19
481.188	542.19
481.406	563.19
481.624	521.19
481.843	521.19
482.061	491.19
482.28	487.19
482.498	525.19
482.717	491.19
482.935	491.19
483.153	474.19
483.372	474.19
483.59	485.19
483.808	476.19
484.027	481.19
484.245	501.19
484.463	475.19
484.681	517.19
484.9	484.19
485.118	492.19
485.336	501.19
485.554	501.19
485.772	507.19
485.99	489.19
486.209	502.19
486.427	495.19
486.645	515.19
486.863	511.19
487.081	527.19
487.299	512.19
487.517	516.19
487.735	477.19
487.953	508.19
488.171	496.19
488.389	515.19
488.607	507.19
488.825	511.19
489.043	531.19
489.261	509.19
489.479	539.19
489.696	520.19
489.914	525.19
490.132	534.19
490.35	534.19
490.568	526.19
490.786	544.19
491.003	544.19
491.221	576.19
491.439	572.19
491.657	566.19
491.874	583.19
492.092	556.19
492.31	581.19
492.527	587.19
492.745	571.19
492.963	571.19
493.18	603.19
493.398	587.19
493.615	591.19
493.833	584.19
494.05	579.19
494.268	603.19
494.485	579.19
494.703	580.19
494.92	563.19
495.138	582.19
495.355	590.19
495.573	603.19
495.79	599.19
496.008	590.19
496.225	581.19
496.442	594.19
496.66	590.19
496.877	596.19
497.094	604.19
497.312	619.19
497.529	625.19
497.746	619.19
497.963	612.19
498.181	683.19
498.398	677.19
498.615	694.19
498.832	725.19
499.049	701.19
499.267	719.19
499.484	758.19
499.701	777.19
499.918	825.19
500.135	906.19
500.352	923.19
500.569	927.19
500.786	943.19
501.003	914.19
501.22	893.19
501.437	843.19
501.654	824.19
501.871	789.19
