Data from 1964.PennyLincolnUp.Lamp.En5.5.200Scan.071719.P1._HRD10591_14-04-59-912.txt Node
Date: Thu Jul 18 14:04:59 EDT 2019
User: cochatt
Spectrometer: HR+D1059
Trigger mode: 1
Integration Time (sec): 1.000000E-1
Scans to average: 1
Electric dark correction enabled: true
Nonlinearity correction enabled: false
Boxcar width: 0
XAxis mode: Wavelengths
Number of Pixels in Spectrum: 2048
>>>>>Begin Spectral Data<<<<<
223.165	-11.81
223.4	-11.81
223.635	-11.81
223.869	-20.81
224.104	-25.81
224.338	-1.81
224.573	-21.81
224.808	-2.81
225.042	-0.81
225.277	-3.81
225.511	-15.81
225.746	7.19
225.98	9.19
226.215	6.19
226.449	8.19
226.683	20.19
226.918	24.19
227.152	30.19
227.387	29.19
227.621	36.19
227.856	37.19
228.09	49.19
228.324	54.19
228.559	69.19
228.793	74.19
229.027	97.19
229.262	98.19
229.496	105.19
229.73	118.19
229.964	144.19
230.199	129.19
230.433	109.19
230.667	100.19
230.901	100.19
231.136	117.19
231.37	110.19
231.604	102.19
231.838	110.19
232.072	104.19
232.306	101.19
232.541	107.19
232.775	116.19
233.009	101.19
233.243	120.19
233.477	108.19
233.711	111.19
233.945	120.19
234.179	115.19
234.413	126.19
234.647	118.19
234.881	114.19
235.115	130.19
235.349	126.19
235.583	116.19
235.817	125.19
236.051	116.19
236.285	137.19
236.519	131.19
236.753	123.19
236.987	130.19
237.221	150.19
237.455	183.19
237.689	153.19
237.922	136.19
238.156	122.19
238.39	130.19
238.624	127.19
238.858	124.19
239.091	113.19
239.325	132.19
239.559	125.19
239.793	131.19
240.027	122.19
240.26	142.19
240.494	140.19
240.728	152.19
240.961	135.19
241.195	160.19
241.429	139.19
241.662	145.19
241.896	140.19
242.13	140.19
242.363	146.19
242.597	136.19
242.83	140.19
243.064	140.19
243.298	128.19
243.531	132.19
243.765	138.19
243.998	149.19
244.232	135.19
244.465	137.19
244.699	145.19
244.932	137.19
245.166	144.19
245.399	134.19
245.633	140.19
245.866	141.19
246.099	137.19
246.333	140.19
246.566	145.19
246.8	151.19
247.033	164.19
247.266	156.19
247.5	169.19
247.733	148.19
247.966	161.19
248.2	162.19
248.433	189.19
248.666	176.19
248.899	178.19
249.133	193.19
249.366	194.19
249.599	180.19
249.832	172.19
250.066	192.19
250.299	196.19
250.532	184.19
250.765	197.19
250.998	206.19
251.231	217.19
251.465	208.19
251.698	193.19
251.931	202.19
252.164	180.19
252.397	191.19
252.63	205.19
252.863	217.19
253.096	209.19
253.329	228.19
253.562	209.19
253.795	211.19
254.028	216.19
254.261	211.19
254.494	228.19
254.727	246.19
254.96	265.19
255.193	245.19
255.426	240.19
255.659	224.19
255.892	219.19
256.124	240.19
256.357	241.19
256.59	230.19
256.823	222.19
257.056	229.19
257.289	208.19
257.521	219.19
257.754	216.19
257.987	207.19
258.22	216.19
258.452	209.19
258.685	208.19
258.918	216.19
259.151	215.19
259.383	223.19
259.616	221.19
259.849	228.19
260.081	239.19
260.314	258.19
260.547	264.19
260.779	231.19
261.012	244.19
261.244	234.19
261.477	240.19
261.71	226.19
261.942	231.19
262.175	233.19
262.407	210.19
262.64	221.19
262.872	239.19
263.105	232.19
263.337	218.19
263.57	216.19
263.802	205.19
264.035	223.19
264.267	210.19
264.499	226.19
264.732	248.19
264.964	237.19
265.197	230.19
265.429	237.19
265.661	224.19
265.894	240.19
266.126	227.19
266.358	231.19
266.591	236.19
266.823	224.19
267.055	260.19
267.287	251.19
267.52	244.19
267.752	239.19
267.984	251.19
268.216	248.19
268.448	244.19
268.681	244.19
268.913	266.19
269.145	267.19
269.377	289.19
269.609	268.19
269.841	275.19
270.073	281.19
270.306	290.19
270.538	304.19
270.77	302.19
271.002	323.19
271.234	285.19
271.466	308.19
271.698	316.19
271.93	319.19
272.162	304.19
272.394	320.19
272.626	303.19
272.858	273.19
273.09	275.19
273.322	289.19
273.553	288.19
273.785	281.19
274.017	271.19
274.249	290.19
274.481	284.19
274.713	279.19
274.945	284.19
275.176	280.19
275.408	287.19
275.64	288.19
275.872	302.19
276.104	313.19
276.335	283.19
276.567	288.19
276.799	316.19
277.031	312.19
277.262	318.19
277.494	324.19
277.726	313.19
277.957	285.19
278.189	304.19
278.421	292.19
278.652	292.19
278.884	293.19
279.115	292.19
279.347	300.19
279.579	305.19
279.81	292.19
280.042	274.19
280.273	274.19
280.505	289.19
280.736	284.19
280.968	295.19
281.199	295.19
281.431	290.19
281.662	308.19
281.894	309.19
282.125	292.19
282.356	326.19
282.588	313.19
282.819	298.19
283.051	300.19
283.282	302.19
283.513	299.19
283.745	314.19
283.976	324.19
284.207	315.19
284.439	300.19
284.67	318.19
284.901	318.19
285.132	314.19
285.364	296.19
285.595	319.19
285.826	302.19
286.057	309.19
286.288	319.19
286.52	329.19
286.751	311.19
286.982	310.19
287.213	314.19
287.444	333.19
287.675	323.19
287.906	331.19
288.138	319.19
288.369	344.19
288.6	327.19
288.831	324.19
289.062	331.19
289.293	317.19
289.524	316.19
289.755	319.19
289.986	336.19
290.217	327.19
290.448	304.19
290.679	310.19
290.91	309.19
291.141	328.19
291.371	333.19
291.602	312.19
291.833	318.19
292.064	331.19
292.295	329.19
292.526	312.19
292.757	335.19
292.987	323.19
293.218	318.19
293.449	336.19
293.68	318.19
293.91	314.19
294.141	328.19
294.372	342.19
294.603	327.19
294.833	316.19
295.064	338.19
295.295	310.19
295.525	336.19
295.756	326.19
295.987	337.19
296.217	352.19
296.448	337.19
296.679	347.19
296.909	330.19
297.14	342.19
297.37	357.19
297.601	327.19
297.831	336.19
298.062	336.19
298.292	328.19
298.523	337.19
298.753	344.19
298.984	318.19
299.214	350.19
299.445	358.19
299.675	344.19
299.905	334.19
300.136	349.19
300.366	349.19
300.597	366.19
300.827	358.19
301.057	355.19
301.288	368.19
301.518	353.19
301.748	347.19
301.979	371.19
302.209	364.19
302.439	378.19
302.669	376.19
302.9	369.19
303.13	365.19
303.36	373.19
303.59	365.19
303.82	363.19
304.051	377.19
304.281	378.19
304.511	354.19
304.741	361.19
304.971	372.19
305.201	358.19
305.431	353.19
305.661	337.19
305.891	367.19
306.121	354.19
306.352	349.19
306.582	383.19
306.812	367.19
307.042	367.19
307.272	372.19
307.502	353.19
307.731	368.19
307.961	357.19
308.191	376.19
308.421	369.19
308.651	374.19
308.881	356.19
309.111	374.19
309.341	383.19
309.571	385.19
309.8	380.19
310.03	384.19
310.26	392.19
310.49	392.19
310.72	381.19
310.949	396.19
311.179	408.19
311.409	404.19
311.639	397.19
311.868	406.19
312.098	402.19
312.328	388.19
312.557	439.19
312.787	385.19
313.017	411.19
313.246	391.19
313.476	402.19
313.706	410.19
313.935	413.19
314.165	408.19
314.394	410.19
314.624	421.19
314.853	430.19
315.083	411.19
315.312	406.19
315.542	405.19
315.771	406.19
316.001	397.19
316.23	402.19
316.46	408.19
316.689	398.19
316.919	404.19
317.148	416.19
317.377	418.19
317.607	399.19
317.836	428.19
318.065	415.19
318.295	413.19
318.524	412.19
318.753	400.19
318.983	426.19
319.212	414.19
319.441	408.19
319.67	420.19
319.9	397.19
320.129	420.19
320.358	419.19
320.587	412.19
320.816	426.19
321.046	431.19
321.275	407.19
321.504	421.19
321.733	421.19
321.962	441.19
322.191	429.19
322.42	433.19
322.649	443.19
322.878	465.19
323.108	442.19
323.337	464.19
323.566	486.19
323.795	509.19
324.024	522.19
324.253	604.19
324.482	784.19
324.71	1158.19
324.939	1549.19
325.168	1284.19
325.397	737.19
325.626	562.19
325.855	493.19
326.084	476.19
326.313	485.19
326.542	491.19
326.77	521.19
326.999	597.19
327.228	729.19
327.457	1038.19
327.686	1162.19
327.914	797.19
328.143	602.19
328.372	564.19
328.6	534.19
328.829	509.19
329.058	515.19
329.287	546.19
329.515	508.19
329.744	483.19
329.972	482.19
330.201	488.19
330.43	524.19
330.658	527.19
330.887	542.19
331.115	518.19
331.344	489.19
331.572	505.19
331.801	486.19
332.03	479.19
332.258	479.19
332.486	481.19
332.715	458.19
332.943	472.19
333.172	494.19
333.4	478.19
333.629	508.19
333.857	516.19
334.085	515.19
334.314	549.19
334.542	557.19
334.771	549.19
334.999	520.19
335.227	511.19
335.455	493.19
335.684	492.19
335.912	477.19
336.14	469.19
336.369	476.19
336.597	474.19
336.825	480.19
337.053	470.19
337.281	446.19
337.51	451.19
337.738	484.19
337.966	467.19
338.194	470.19
338.422	465.19
338.65	444.19
338.878	470.19
339.106	447.19
339.334	447.19
339.562	461.19
339.79	454.19
340.018	466.19
340.246	461.19
340.474	461.19
340.702	461.19
340.93	441.19
341.158	427.19
341.386	432.19
341.614	452.19
341.842	448.19
342.07	456.19
342.298	426.19
342.526	440.19
342.754	438.19
342.981	433.19
343.209	438.19
343.437	421.19
343.665	446.19
343.893	449.19
344.12	503.19
344.348	470.19
344.576	461.19
344.804	474.19
345.031	448.19
345.259	486.19
345.487	444.19
345.714	446.19
345.942	445.19
346.17	444.19
346.397	404.19
346.625	422.19
346.853	443.19
347.08	446.19
347.308	428.19
347.535	432.19
347.763	449.19
347.99	412.19
348.218	408.19
348.445	434.19
348.673	422.19
348.9	413.19
349.128	429.19
349.355	428.19
349.583	413.19
349.81	405.19
350.037	414.19
350.265	405.19
350.492	402.19
350.72	428.19
350.947	432.19
351.174	411.19
351.402	433.19
351.629	424.19
351.856	424.19
352.083	432.19
352.311	409.19
352.538	434.19
352.765	416.19
352.992	420.19
353.22	421.19
353.447	430.19
353.674	413.19
353.901	417.19
354.128	427.19
354.355	390.19
354.583	414.19
354.81	394.19
355.037	397.19
355.264	400.19
355.491	383.19
355.718	403.19
355.945	424.19
356.172	392.19
356.399	411.19
356.626	388.19
356.853	413.19
357.08	399.19
357.307	409.19
357.534	424.19
357.761	397.19
357.988	390.19
358.215	411.19
358.441	394.19
358.668	379.19
358.895	387.19
359.122	404.19
359.349	406.19
359.576	411.19
359.802	397.19
360.029	446.19
360.256	439.19
360.483	410.19
360.709	408.19
360.936	419.19
361.163	399.19
361.39	414.19
361.616	403.19
361.843	421.19
362.07	417.19
362.296	398.19
362.523	400.19
362.749	407.19
362.976	396.19
363.203	428.19
363.429	396.19
363.656	398.19
363.882	409.19
364.109	400.19
364.335	377.19
364.562	400.19
364.788	396.19
365.015	385.19
365.241	400.19
365.468	396.19
365.694	383.19
365.92	414.19
366.147	390.19
366.373	402.19
366.599	399.19
366.826	384.19
367.052	404.19
367.278	385.19
367.505	400.19
367.731	396.19
367.957	404.19
368.184	403.19
368.41	414.19
368.636	401.19
368.862	430.19
369.089	400.19
369.315	417.19
369.541	394.19
369.767	392.19
369.993	409.19
370.219	402.19
370.445	398.19
370.672	393.19
370.898	401.19
371.124	401.19
371.35	402.19
371.576	417.19
371.802	389.19
372.028	408.19
372.254	401.19
372.48	388.19
372.706	405.19
372.932	410.19
373.158	418.19
373.384	410.19
373.61	412.19
373.835	409.19
374.061	409.19
374.287	416.19
374.513	412.19
374.739	401.19
374.965	396.19
375.191	413.19
375.416	424.19
375.642	390.19
375.868	429.19
376.094	410.19
376.319	409.19
376.545	402.19
376.771	403.19
376.997	384.19
377.222	382.19
377.448	397.19
377.674	397.19
377.899	392.19
378.125	395.19
378.35	410.19
378.576	386.19
378.802	391.19
379.027	398.19
379.253	384.19
379.478	354.19
379.704	367.19
379.929	388.19
380.155	394.19
380.38	375.19
380.606	392.19
380.831	385.19
381.057	407.19
381.282	394.19
381.507	408.19
381.733	401.19
381.958	390.19
382.184	401.19
382.409	407.19
382.634	428.19
382.86	400.19
383.085	414.19
383.31	406.19
383.535	407.19
383.761	418.19
383.986	400.19
384.211	418.19
384.436	423.19
384.662	415.19
384.887	440.19
385.112	418.19
385.337	439.19
385.562	425.19
385.787	420.19
386.013	455.19
386.238	452.19
386.463	428.19
386.688	470.19
386.913	416.19
387.138	412.19
387.363	439.19
387.588	414.19
387.813	429.19
388.038	443.19
388.263	436.19
388.488	467.19
388.713	424.19
388.938	420.19
389.163	429.19
389.387	441.19
389.612	410.19
389.837	407.19
390.062	434.19
390.287	430.19
390.512	413.19
390.736	426.19
390.961	423.19
391.186	446.19
391.411	452.19
391.636	442.19
391.86	457.19
392.085	457.19
392.31	457.19
392.534	433.19
392.759	440.19
392.984	445.19
393.208	441.19
393.433	433.19
393.658	440.19
393.882	426.19
394.107	439.19
394.331	432.19
394.556	406.19
394.78	440.19
395.005	438.19
395.229	439.19
395.454	421.19
395.678	465.19
395.903	455.19
396.127	455.19
396.352	470.19
396.576	440.19
396.801	432.19
397.025	444.19
397.249	443.19
397.474	463.19
397.698	455.19
397.922	477.19
398.147	477.19
398.371	480.19
398.595	485.19
398.82	488.19
399.044	501.19
399.268	536.19
399.492	560.19
399.717	580.19
399.941	600.19
400.165	622.19
400.389	587.19
400.613	552.19
400.837	509.19
401.062	504.19
401.286	483.19
401.51	493.19
401.734	487.19
401.958	483.19
402.182	480.19
402.406	500.19
402.63	502.19
402.854	496.19
403.078	495.19
403.302	495.19
403.526	494.19
403.75	509.19
403.974	488.19
404.198	495.19
404.422	501.19
404.645	505.19
404.869	530.19
405.093	550.19
405.317	592.19
405.541	576.19
405.765	535.19
405.988	530.19
406.212	523.19
406.436	526.19
406.66	536.19
406.883	552.19
407.107	572.19
407.331	599.19
407.555	620.19
407.778	628.19
408.002	570.19
408.226	538.19
408.449	548.19
408.673	553.19
408.896	557.19
409.12	607.19
409.344	562.19
409.567	519.19
409.791	507.19
410.014	506.19
410.238	486.19
410.461	494.19
410.685	489.19
410.908	499.19
411.132	551.19
411.355	538.19
411.578	544.19
411.802	503.19
412.025	511.19
412.249	505.19
412.472	537.19
412.695	546.19
412.919	536.19
413.142	524.19
413.365	496.19
413.589	461.19
413.812	484.19
414.035	466.19
414.258	495.19
414.482	484.19
414.705	464.19
414.928	486.19
415.151	484.19
415.374	483.19
415.597	479.19
415.821	455.19
416.044	467.19
416.267	471.19
416.49	451.19
416.713	463.19
416.936	487.19
417.159	467.19
417.382	458.19
417.605	457.19
417.828	448.19
418.051	494.19
418.274	471.19
418.497	478.19
418.72	482.19
418.943	463.19
419.166	484.19
419.389	503.19
419.611	478.19
419.834	481.19
420.057	481.19
420.28	488.19
420.503	484.19
420.726	490.19
420.948	514.19
421.171	515.19
421.394	543.19
421.617	489.19
421.839	468.19
422.062	480.19
422.285	487.19
422.507	547.19
422.73	575.19
422.953	544.19
423.175	526.19
423.398	500.19
423.621	487.19
423.843	518.19
424.066	514.19
424.288	524.19
424.511	512.19
424.733	560.19
424.956	600.19
425.178	576.19
425.401	585.19
425.623	584.19
425.846	517.19
426.068	513.19
426.291	496.19
426.513	489.19
426.735	500.19
426.958	522.19
427.18	588.19
427.402	679.19
427.625	729.19
427.847	633.19
428.069	564.19
428.292	528.19
428.514	471.19
428.736	461.19
428.958	473.19
429.181	448.19
429.403	449.19
429.625	461.19
429.847	504.19
430.069	540.19
430.292	538.19
430.514	458.19
430.736	490.19
430.958	452.19
431.18	444.19
431.402	428.19
431.624	430.19
431.846	451.19
432.068	433.19
432.29	474.19
432.512	440.19
432.734	443.19
432.956	440.19
433.178	456.19
433.4	451.19
433.622	436.19
433.844	439.19
434.066	431.19
434.287	431.19
434.509	427.19
434.731	450.19
434.953	434.19
435.175	491.19
435.397	488.19
435.618	479.19
435.84	507.19
436.062	561.19
436.284	628.19
436.505	536.19
436.727	474.19
436.949	502.19
437.17	454.19
437.392	459.19
437.614	470.19
437.835	466.19
438.057	545.19
438.278	622.19
438.5	596.19
438.721	662.19
438.943	638.19
439.165	538.19
439.386	497.19
439.608	480.19
439.829	477.19
440.05	529.19
440.272	527.19
440.493	495.19
440.715	471.19
440.936	470.19
441.158	449.19
441.379	457.19
441.6	484.19
441.822	498.19
442.043	514.19
442.264	593.19
442.486	592.19
442.707	505.19
442.928	490.19
443.149	482.19
443.371	500.19
443.592	533.19
443.813	614.19
444.034	679.19
444.255	559.19
444.476	526.19
444.698	502.19
444.919	496.19
445.14	648.19
445.361	550.19
445.582	526.19
445.803	561.19
446.024	630.19
446.245	633.19
446.466	559.19
446.687	516.19
446.908	472.19
447.129	460.19
447.35	458.19
447.571	457.19
447.792	438.19
448.013	446.19
448.234	470.19
448.455	478.19
448.675	576.19
448.896	639.19
449.117	557.19
449.338	534.19
449.559	636.19
449.779	658.19
450	565.19
450.221	477.19
450.442	440.19
450.662	414.19
450.883	430.19
451.104	421.19
451.324	417.19
451.545	420.19
451.766	409.19
451.986	392.19
452.207	403.19
452.428	399.19
452.648	413.19
452.869	413.19
453.089	405.19
453.31	401.19
453.53	408.19
453.751	407.19
453.971	379.19
454.192	413.19
454.412	389.19
454.633	406.19
454.853	403.19
455.073	396.19
455.294	409.19
455.514	448.19
455.734	454.19
455.955	423.19
456.175	405.19
456.395	360.19
456.616	370.19
456.836	363.19
457.056	379.19
457.276	378.19
457.497	374.19
457.717	396.19
457.937	400.19
458.157	380.19
458.377	377.19
458.598	414.19
458.818	437.19
459.038	498.19
459.258	502.19
459.478	429.19
459.698	448.19
459.918	434.19
460.138	453.19
460.358	459.19
460.578	457.19
460.798	443.19
461.018	463.19
461.238	460.19
461.458	477.19
461.678	451.19
461.898	450.19
462.118	464.19
462.338	465.19
462.558	489.19
462.777	496.19
462.997	502.19
463.217	505.19
463.437	516.19
463.657	479.19
463.876	488.19
464.096	473.19
464.316	501.19
464.536	494.19
464.755	500.19
464.975	476.19
465.195	481.19
465.414	520.19
465.634	472.19
465.854	434.19
466.073	424.19
466.293	429.19
466.512	428.19
466.732	400.19
466.951	409.19
467.171	410.19
467.391	414.19
467.61	423.19
467.829	411.19
468.049	414.19
468.268	430.19
468.488	406.19
468.707	421.19
468.927	397.19
469.146	388.19
469.365	396.19
469.585	389.19
469.804	416.19
470.023	406.19
470.243	428.19
470.462	459.19
470.681	431.19
470.901	441.19
471.12	427.19
471.339	436.19
471.558	409.19
471.777	430.19
471.997	415.19
472.216	440.19
472.435	445.19
472.654	422.19
472.873	432.19
473.092	422.19
473.311	407.19
473.53	414.19
473.749	411.19
473.968	443.19
474.187	529.19
474.406	536.19
474.625	461.19
474.844	446.19
475.063	436.19
475.282	413.19
475.501	410.19
475.72	450.19
475.939	430.19
476.158	422.19
476.377	427.19
476.596	436.19
476.814	404.19
477.033	423.19
477.252	442.19
477.471	441.19
477.69	450.19
477.908	460.19
478.127	474.19
478.346	455.19
478.564	476.19
478.783	466.19
479.002	482.19
479.22	478.19
479.439	462.19
479.658	493.19
479.876	476.19
480.095	518.19
480.313	513.19
480.532	497.19
480.751	510.19
480.969	523.19
481.188	558.19
481.406	551.19
481.624	545.19
481.843	483.19
482.061	488.19
482.28	473.19
482.498	470.19
482.717	468.19
482.935	496.19
483.153	472.19
483.372	492.19
483.59	480.19
483.808	481.19
484.027	497.19
484.245	493.19
484.463	490.19
484.681	476.19
484.9	481.19
485.118	482.19
485.336	495.19
485.554	501.19
485.772	514.19
485.99	520.19
486.209	487.19
486.427	492.19
486.645	492.19
486.863	506.19
487.081	516.19
487.299	495.19
487.517	500.19
487.735	502.19
487.953	507.19
488.171	508.19
488.389	515.19
488.607	526.19
488.825	510.19
489.043	516.19
489.261	491.19
489.479	526.19
489.696	518.19
489.914	507.19
490.132	522.19
490.35	522.19
490.568	507.19
490.786	536.19
491.003	547.19
491.221	585.19
491.439	551.19
491.657	578.19
491.874	558.19
492.092	583.19
492.31	560.19
492.527	580.19
492.745	586.19
492.963	572.19
493.18	551.19
493.398	586.19
493.615	559.19
493.833	596.19
494.05	592.19
494.268	591.19
494.485	588.19
494.703	598.19
494.92	584.19
495.138	590.19
495.355	580.19
495.573	582.19
495.79	602.19
496.008	588.19
496.225	594.19
496.442	597.19
496.66	582.19
496.877	614.19
497.094	612.19
497.312	628.19
497.529	631.19
497.746	621.19
497.963	639.19
498.181	650.19
498.398	673.19
498.615	687.19
498.832	716.19
499.049	720.19
499.267	734.19
499.484	788.19
499.701	806.19
499.918	844.19
500.135	879.19
500.352	917.19
500.569	928.19
500.786	920.19
501.003	919.19
501.22	909.19
501.437	851.19
501.654	807.19
501.871	785.19
502.088	756.19
