Data from 1964.PennyLincolnUp.Lamp.En5.5.200Scan.071719.P1._HRD10591_14-05-50-910.txt Node
Date: Thu Jul 18 14:05:50 EDT 2019
User: cochatt
Spectrometer: HR+D1059
Trigger mode: 1
Integration Time (sec): 1.000000E-1
Scans to average: 1
Electric dark correction enabled: true
Nonlinearity correction enabled: false
Boxcar width: 0
XAxis mode: Wavelengths
Number of Pixels in Spectrum: 2048
>>>>>Begin Spectral Data<<<<<
223.165	-5.19
223.4	-5.19
223.635	-5.19
223.869	-10.19
224.104	-20.19
224.338	-9.19
224.573	-19.19
224.808	-20.19
225.042	-11.19
225.277	-11.19
225.511	-3.19
225.746	-2.19
225.98	8.81
226.215	14.81
226.449	13.81
226.683	20.81
226.918	27.81
227.152	25.81
227.387	36.81
227.621	45.81
227.856	44.81
228.09	43.81
228.324	60.81
228.559	48.81
228.793	50.81
229.027	90.81
229.262	95.81
229.496	116.81
229.73	132.81
229.964	135.81
230.199	111.81
230.433	130.81
230.667	110.81
230.901	116.81
231.136	109.81
231.37	102.81
231.604	111.81
231.838	107.81
232.072	98.81
232.306	112.81
232.541	104.81
232.775	106.81
233.009	116.81
233.243	112.81
233.477	116.81
233.711	131.81
233.945	101.81
234.179	125.81
234.413	110.81
234.647	132.81
234.881	98.81
235.115	119.81
235.349	110.81
235.583	124.81
235.817	134.81
236.051	123.81
236.285	140.81
236.519	119.81
236.753	123.81
236.987	164.81
237.221	182.81
237.455	211.81
237.689	167.81
237.922	125.81
238.156	143.81
238.39	133.81
238.624	125.81
238.858	126.81
239.091	112.81
239.325	127.81
239.559	127.81
239.793	131.81
240.027	124.81
240.26	123.81
240.494	143.81
240.728	140.81
240.961	154.81
241.195	141.81
241.429	135.81
241.662	133.81
241.896	134.81
242.13	143.81
242.363	129.81
242.597	144.81
242.83	141.81
243.064	145.81
243.298	142.81
243.531	134.81
243.765	137.81
243.998	134.81
244.232	145.81
244.465	148.81
244.699	144.81
244.932	157.81
245.166	152.81
245.399	151.81
245.633	153.81
245.866	145.81
246.099	144.81
246.333	157.81
246.566	157.81
246.8	147.81
247.033	171.81
247.266	171.81
247.5	187.81
247.733	163.81
247.966	182.81
248.2	180.81
248.433	172.81
248.666	191.81
248.899	171.81
249.133	186.81
249.366	199.81
249.599	196.81
249.832	193.81
250.066	179.81
250.299	186.81
250.532	203.81
250.765	208.81
250.998	211.81
251.231	214.81
251.465	228.81
251.698	194.81
251.931	190.81
252.164	211.81
252.397	220.81
252.63	198.81
252.863	206.81
253.096	234.81
253.329	220.81
253.562	233.81
253.795	218.81
254.028	214.81
254.261	228.81
254.494	237.81
254.727	258.81
254.96	281.81
255.193	253.81
255.426	255.81
255.659	245.81
255.892	232.81
256.124	226.81
256.357	239.81
256.59	228.81
256.823	221.81
257.056	217.81
257.289	209.81
257.521	224.81
257.754	217.81
257.987	210.81
258.22	192.81
258.452	224.81
258.685	214.81
258.918	217.81
259.151	216.81
259.383	219.81
259.616	228.81
259.849	233.81
260.081	246.81
260.314	250.81
260.547	256.81
260.779	250.81
261.012	246.81
261.244	234.81
261.477	227.81
261.71	235.81
261.942	231.81
262.175	238.81
262.407	224.81
262.64	235.81
262.872	244.81
263.105	227.81
263.337	215.81
263.57	228.81
263.802	230.81
264.035	229.81
264.267	221.81
264.499	231.81
264.732	217.81
264.964	231.81
265.197	245.81
265.429	243.81
265.661	237.81
265.894	218.81
266.126	232.81
266.358	231.81
266.591	239.81
266.823	259.81
267.055	260.81
267.287	243.81
267.52	258.81
267.752	245.81
267.984	248.81
268.216	253.81
268.448	249.81
268.681	270.81
268.913	247.81
269.145	278.81
269.377	298.81
269.609	280.81
269.841	278.81
270.073	274.81
270.306	263.81
270.538	315.81
270.77	323.81
271.002	336.81
271.234	298.81
271.466	297.81
271.698	306.81
271.93	326.81
272.162	357.81
272.394	330.81
272.626	318.81
272.858	299.81
273.09	296.81
273.322	309.81
273.553	262.81
273.785	292.81
274.017	287.81
274.249	298.81
274.481	282.81
274.713	289.81
274.945	295.81
275.176	290.81
275.408	285.81
275.64	291.81
275.872	279.81
276.104	293.81
276.335	293.81
276.567	284.81
276.799	309.81
277.031	316.81
277.262	326.81
277.494	323.81
277.726	322.81
277.957	302.81
278.189	306.81
278.421	298.81
278.652	304.81
278.884	303.81
279.115	287.81
279.347	314.81
279.579	303.81
279.81	299.81
280.042	287.81
280.273	302.81
280.505	264.81
280.736	294.81
280.968	302.81
281.199	297.81
281.431	299.81
281.662	288.81
281.894	276.81
282.125	310.81
282.356	298.81
282.588	317.81
282.819	308.81
283.051	321.81
283.282	294.81
283.513	318.81
283.745	306.81
283.976	318.81
284.207	309.81
284.439	311.81
284.67	317.81
284.901	298.81
285.132	314.81
285.364	317.81
285.595	301.81
285.826	316.81
286.057	318.81
286.288	315.81
286.52	318.81
286.751	312.81
286.982	314.81
287.213	325.81
287.444	324.81
287.675	326.81
287.906	330.81
288.138	342.81
288.369	330.81
288.6	363.81
288.831	331.81
289.062	342.81
289.293	330.81
289.524	326.81
289.755	327.81
289.986	318.81
290.217	322.81
290.448	317.81
290.679	342.81
290.91	327.81
291.141	313.81
291.371	335.81
291.602	319.81
291.833	334.81
292.064	346.81
292.295	344.81
292.526	306.81
292.757	324.81
292.987	328.81
293.218	333.81
293.449	336.81
293.68	329.81
293.91	327.81
294.141	331.81
294.372	338.81
294.603	334.81
294.833	327.81
295.064	333.81
295.295	352.81
295.525	335.81
295.756	339.81
295.987	329.81
296.217	344.81
296.448	356.81
296.679	325.81
296.909	342.81
297.14	338.81
297.37	348.81
297.601	334.81
297.831	339.81
298.062	348.81
298.292	351.81
298.523	343.81
298.753	347.81
298.984	340.81
299.214	357.81
299.445	335.81
299.675	340.81
299.905	357.81
300.136	359.81
300.366	352.81
300.597	359.81
300.827	358.81
301.057	366.81
301.288	357.81
301.518	350.81
301.748	358.81
301.979	377.81
302.209	367.81
302.439	390.81
302.669	366.81
302.9	349.81
303.13	367.81
303.36	369.81
303.59	360.81
303.82	352.81
304.051	371.81
304.281	364.81
304.511	366.81
304.741	360.81
304.971	381.81
305.201	376.81
305.431	365.81
305.661	349.81
305.891	360.81
306.121	354.81
306.352	382.81
306.582	374.81
306.812	393.81
307.042	364.81
307.272	359.81
307.502	376.81
307.731	362.81
307.961	366.81
308.191	373.81
308.421	365.81
308.651	364.81
308.881	365.81
309.111	376.81
309.341	398.81
309.571	392.81
309.8	406.81
310.03	416.81
310.26	397.81
310.49	404.81
310.72	421.81
310.949	416.81
311.179	393.81
311.409	416.81
311.639	390.81
311.868	402.81
312.098	391.81
312.328	418.81
312.557	422.81
312.787	415.81
313.017	429.81
313.246	425.81
313.476	414.81
313.706	413.81
313.935	417.81
314.165	426.81
314.394	415.81
314.624	412.81
314.853	426.81
315.083	421.81
315.312	395.81
315.542	420.81
315.771	401.81
316.001	392.81
316.23	412.81
316.46	398.81
316.689	407.81
316.919	405.81
317.148	423.81
317.377	427.81
317.607	416.81
317.836	402.81
318.065	416.81
318.295	426.81
318.524	420.81
318.753	407.81
318.983	392.81
319.212	419.81
319.441	433.81
319.67	437.81
319.9	421.81
320.129	397.81
320.358	424.81
320.587	420.81
320.816	410.81
321.046	430.81
321.275	436.81
321.504	425.81
321.733	427.81
321.962	409.81
322.191	434.81
322.42	448.81
322.649	443.81
322.878	442.81
323.108	470.81
323.337	481.81
323.566	480.81
323.795	500.81
324.024	549.81
324.253	641.81
324.482	857.81
324.71	1255.81
324.939	1692.81
325.168	1455.81
325.397	768.81
325.626	564.81
325.855	542.81
326.084	490.81
326.313	496.81
326.542	502.81
326.77	538.81
326.999	592.81
327.228	798.81
327.457	1107.81
327.686	1285.81
327.914	874.81
328.143	661.81
328.372	575.81
328.6	552.81
328.829	535.81
329.058	531.81
329.287	550.81
329.515	510.81
329.744	524.81
329.972	518.81
330.201	539.81
330.43	572.81
330.658	541.81
330.887	567.81
331.115	562.81
331.344	520.81
331.572	494.81
331.801	510.81
332.03	490.81
332.258	487.81
332.486	475.81
332.715	482.81
332.943	486.81
333.172	495.81
333.4	498.81
333.629	503.81
333.857	535.81
334.085	526.81
334.314	549.81
334.542	565.81
334.771	577.81
334.999	542.81
335.227	519.81
335.455	524.81
335.684	503.81
335.912	499.81
336.14	485.81
336.369	491.81
336.597	479.81
336.825	486.81
337.053	473.81
337.281	464.81
337.51	469.81
337.738	468.81
337.966	475.81
338.194	470.81
338.422	469.81
338.65	456.81
338.878	477.81
339.106	457.81
339.334	478.81
339.562	444.81
339.79	467.81
340.018	432.81
340.246	444.81
340.474	484.81
340.702	454.81
340.93	461.81
341.158	449.81
341.386	462.81
341.614	466.81
341.842	470.81
342.07	455.81
342.298	446.81
342.526	430.81
342.754	434.81
342.981	416.81
343.209	454.81
343.437	450.81
343.665	441.81
343.893	465.81
344.12	478.81
344.348	472.81
344.576	453.81
344.804	462.81
345.031	466.81
345.259	479.81
345.487	464.81
345.714	447.81
345.942	442.81
346.17	458.81
346.397	419.81
346.625	434.81
346.853	427.81
347.08	427.81
347.308	432.81
347.535	432.81
347.763	429.81
347.99	446.81
348.218	440.81
348.445	447.81
348.673	444.81
348.9	438.81
349.128	424.81
349.355	414.81
349.583	410.81
349.81	410.81
350.037	422.81
350.265	409.81
350.492	416.81
350.72	400.81
350.947	428.81
351.174	440.81
351.402	454.81
351.629	426.81
351.856	431.81
352.083	437.81
352.311	451.81
352.538	451.81
352.765	419.81
352.992	418.81
353.22	423.81
353.447	440.81
353.674	424.81
353.901	393.81
354.128	390.81
354.355	426.81
354.583	399.81
354.81	391.81
355.037	408.81
355.264	408.81
355.491	402.81
355.718	403.81
355.945	390.81
356.172	405.81
356.399	424.81
356.626	401.81
356.853	400.81
357.08	416.81
357.307	412.81
357.534	405.81
357.761	396.81
357.988	403.81
358.215	403.81
358.441	395.81
358.668	394.81
358.895	399.81
359.122	409.81
359.349	400.81
359.576	425.81
359.802	439.81
360.029	446.81
360.256	434.81
360.483	437.81
360.709	420.81
360.936	412.81
361.163	406.81
361.39	426.81
361.616	427.81
361.843	425.81
362.07	410.81
362.296	413.81
362.523	421.81
362.749	398.81
362.976	430.81
363.203	419.81
363.429	412.81
363.656	398.81
363.882	408.81
364.109	400.81
364.335	404.81
364.562	394.81
364.788	419.81
365.015	411.81
365.241	402.81
365.468	412.81
365.694	425.81
365.92	404.81
366.147	392.81
366.373	392.81
366.599	385.81
366.826	390.81
367.052	382.81
367.278	404.81
367.505	371.81
367.731	379.81
367.957	381.81
368.184	382.81
368.41	389.81
368.636	393.81
368.862	422.81
369.089	406.81
369.315	372.81
369.541	388.81
369.767	399.81
369.993	398.81
370.219	406.81
370.445	403.81
370.672	424.81
370.898	398.81
371.124	404.81
371.35	413.81
371.576	389.81
371.802	382.81
372.028	404.81
372.254	408.81
372.48	393.81
372.706	408.81
372.932	405.81
373.158	396.81
373.384	399.81
373.61	414.81
373.835	406.81
374.061	399.81
374.287	406.81
374.513	393.81
374.739	390.81
374.965	405.81
375.191	392.81
375.416	415.81
375.642	415.81
375.868	420.81
376.094	395.81
376.319	383.81
376.545	394.81
376.771	400.81
376.997	407.81
377.222	396.81
377.448	420.81
377.674	372.81
377.899	393.81
378.125	366.81
378.35	395.81
378.576	376.81
378.802	381.81
379.027	378.81
379.253	385.81
379.478	394.81
379.704	406.81
379.929	401.81
380.155	395.81
380.38	382.81
380.606	392.81
380.831	388.81
381.057	367.81
381.282	386.81
381.507	382.81
381.733	394.81
381.958	392.81
382.184	391.81
382.409	411.81
382.634	406.81
382.86	381.81
383.085	415.81
383.31	400.81
383.535	419.81
383.761	408.81
383.986	397.81
384.211	417.81
384.436	414.81
384.662	424.81
384.887	415.81
385.112	426.81
385.337	416.81
385.562	434.81
385.787	454.81
386.013	437.81
386.238	451.81
386.463	430.81
386.688	448.81
386.913	434.81
387.138	413.81
387.363	436.81
387.588	432.81
387.813	410.81
388.038	436.81
388.263	431.81
388.488	424.81
388.713	445.81
388.938	438.81
389.163	434.81
389.387	416.81
389.612	439.81
389.837	432.81
390.062	421.81
390.287	443.81
390.512	418.81
390.736	432.81
390.961	435.81
391.186	444.81
391.411	417.81
391.636	454.81
391.86	439.81
392.085	443.81
392.31	444.81
392.534	443.81
392.759	458.81
392.984	411.81
393.208	461.81
393.433	441.81
393.658	457.81
393.882	417.81
394.107	429.81
394.331	424.81
394.556	435.81
394.78	427.81
395.005	438.81
395.229	450.81
395.454	457.81
395.678	447.81
395.903	450.81
396.127	475.81
396.352	475.81
396.576	464.81
396.801	453.81
397.025	453.81
397.249	447.81
397.474	446.81
397.698	437.81
397.922	460.81
398.147	483.81
398.371	466.81
398.595	500.81
398.82	486.81
399.044	480.81
399.268	533.81
399.492	554.81
399.717	583.81
399.941	590.81
400.165	614.81
400.389	614.81
400.613	550.81
400.837	518.81
401.062	514.81
401.286	496.81
401.51	488.81
401.734	508.81
401.958	501.81
402.182	498.81
402.406	505.81
402.63	495.81
402.854	502.81
403.078	508.81
403.302	493.81
403.526	522.81
403.75	524.81
403.974	499.81
404.198	506.81
404.422	512.81
404.645	523.81
404.869	533.81
405.093	535.81
405.317	554.81
405.541	610.81
405.765	533.81
405.988	510.81
406.212	528.81
406.436	554.81
406.66	559.81
406.883	540.81
407.107	550.81
407.331	596.81
407.555	652.81
407.778	637.81
408.002	596.81
408.226	566.81
408.449	527.81
408.673	546.81
408.896	576.81
409.12	612.81
409.344	558.81
409.567	510.81
409.791	521.81
410.014	504.81
410.238	515.81
410.461	495.81
410.685	498.81
410.908	522.81
411.132	523.81
411.355	556.81
411.578	546.81
411.802	521.81
412.025	490.81
412.249	492.81
412.472	523.81
412.695	584.81
412.919	545.81
413.142	479.81
413.365	487.81
413.589	476.81
413.812	489.81
414.035	487.81
414.258	468.81
414.482	475.81
414.705	452.81
414.928	461.81
415.151	473.81
415.374	472.81
415.597	454.81
415.821	465.81
416.044	451.81
416.267	453.81
416.49	469.81
416.713	464.81
416.936	460.81
417.159	467.81
417.382	461.81
417.605	464.81
417.828	463.81
418.051	485.81
418.274	468.81
418.497	460.81
418.72	472.81
418.943	445.81
419.166	492.81
419.389	505.81
419.611	506.81
419.834	494.81
420.057	494.81
420.28	489.81
420.503	495.81
420.726	487.81
420.948	496.81
421.171	519.81
421.394	543.81
421.617	502.81
421.839	472.81
422.062	470.81
422.285	488.81
422.507	550.81
422.73	590.81
422.953	574.81
423.175	486.81
423.398	500.81
423.621	485.81
423.843	524.81
424.066	505.81
424.288	528.81
424.511	543.81
424.733	560.81
424.956	627.81
425.178	574.81
425.401	592.81
425.623	604.81
425.846	550.81
426.068	505.81
426.291	514.81
426.513	508.81
426.735	508.81
426.958	513.81
427.18	594.81
427.402	711.81
427.625	732.81
427.847	653.81
428.069	588.81
428.292	535.81
428.514	480.81
428.736	491.81
428.958	470.81
429.181	446.81
429.403	461.81
429.625	481.81
429.847	492.81
430.069	545.81
430.292	509.81
430.514	482.81
430.736	487.81
430.958	464.81
431.18	439.81
431.402	414.81
431.624	424.81
431.846	453.81
432.068	442.81
432.29	444.81
432.512	446.81
432.734	461.81
432.956	444.81
433.178	478.81
433.4	456.81
433.622	449.81
433.844	446.81
434.066	430.81
434.287	439.81
434.509	469.81
434.731	455.81
434.953	467.81
435.175	492.81
435.397	479.81
435.618	486.81
435.84	503.81
436.062	615.81
436.284	626.81
436.505	552.81
436.727	511.81
436.949	478.81
437.17	461.81
437.392	451.81
437.614	461.81
437.835	486.81
438.057	541.81
438.278	621.81
438.5	622.81
438.721	678.81
438.943	638.81
439.165	539.81
439.386	497.81
439.608	489.81
439.829	492.81
440.05	507.81
440.272	565.81
440.493	511.81
440.715	482.81
440.936	475.81
441.158	476.81
441.379	470.81
441.6	484.81
441.822	484.81
442.043	524.81
442.264	581.81
442.486	606.81
442.707	542.81
442.928	522.81
443.149	487.81
443.371	538.81
443.592	538.81
443.813	633.81
444.034	653.81
444.255	560.81
444.476	509.81
444.698	528.81
444.919	508.81
445.14	636.81
445.361	578.81
445.582	535.81
445.803	568.81
446.024	656.81
446.245	653.81
446.466	595.81
446.687	532.81
446.908	450.81
447.129	455.81
447.35	445.81
447.571	459.81
447.792	458.81
448.013	462.81
448.234	455.81
448.455	495.81
448.675	599.81
448.896	661.81
449.117	560.81
449.338	534.81
449.559	618.81
449.779	710.81
450	575.81
450.221	475.81
450.442	456.81
450.662	445.81
450.883	439.81
451.104	439.81
451.324	454.81
451.545	428.81
451.766	404.81
451.986	399.81
452.207	411.81
452.428	411.81
452.648	418.81
452.869	424.81
453.089	415.81
453.31	397.81
453.53	434.81
453.751	391.81
453.971	401.81
454.192	417.81
454.412	402.81
454.633	399.81
454.853	399.81
455.073	367.81
455.294	400.81
455.514	475.81
455.734	461.81
455.955	398.81
456.175	398.81
456.395	371.81
456.616	383.81
456.836	386.81
457.056	402.81
457.276	383.81
457.497	399.81
457.717	391.81
457.937	395.81
458.157	388.81
458.377	396.81
458.598	424.81
458.818	441.81
459.038	495.81
459.258	511.81
459.478	460.81
459.698	433.81
459.918	458.81
460.138	428.81
460.358	426.81
460.578	447.81
460.798	448.81
461.018	461.81
461.238	464.81
461.458	436.81
461.678	427.81
461.898	442.81
462.118	453.81
462.338	459.81
462.558	468.81
462.777	471.81
462.997	484.81
463.217	504.81
463.437	507.81
463.657	488.81
463.876	480.81
464.096	460.81
464.316	476.81
464.536	485.81
464.755	497.81
464.975	460.81
465.195	487.81
465.414	515.81
465.634	467.81
465.854	446.81
466.073	424.81
466.293	430.81
466.512	388.81
466.732	412.81
466.951	422.81
467.171	416.81
467.391	428.81
467.61	429.81
467.829	413.81
468.049	421.81
468.268	421.81
468.488	419.81
468.707	405.81
468.927	408.81
469.146	399.81
469.365	384.81
469.585	383.81
469.804	420.81
470.023	406.81
470.243	414.81
470.462	438.81
470.681	442.81
470.901	403.81
471.12	418.81
471.339	407.81
471.558	407.81
471.777	427.81
471.997	402.81
472.216	419.81
472.435	446.81
472.654	415.81
472.873	436.81
473.092	426.81
473.311	429.81
473.53	398.81
473.749	410.81
473.968	462.81
474.187	539.81
474.406	554.81
474.625	455.81
474.844	441.81
475.063	422.81
475.282	411.81
475.501	428.81
475.72	434.81
475.939	434.81
476.158	422.81
476.377	434.81
476.596	426.81
476.814	455.81
477.033	447.81
477.252	446.81
477.471	453.81
477.69	460.81
477.908	456.81
478.127	445.81
478.346	434.81
478.564	452.81
478.783	469.81
479.002	472.81
479.22	477.81
479.439	479.81
479.658	471.81
479.876	523.81
480.095	501.81
480.313	504.81
480.532	524.81
480.751	521.81
480.969	509.81
481.188	558.81
481.406	554.81
481.624	523.81
481.843	510.81
482.061	468.81
482.28	479.81
482.498	474.81
482.717	469.81
482.935	488.81
483.153	479.81
483.372	483.81
483.59	481.81
483.808	478.81
484.027	490.81
484.245	482.81
484.463	469.81
484.681	507.81
484.9	482.81
485.118	483.81
485.336	513.81
485.554	499.81
485.772	496.81
485.99	503.81
486.209	493.81
486.427	469.81
486.645	519.81
486.863	508.81
487.081	518.81
487.299	515.81
487.517	506.81
487.735	511.81
487.953	502.81
488.171	500.81
488.389	524.81
488.607	500.81
488.825	511.81
489.043	495.81
489.261	525.81
489.479	533.81
489.696	527.81
489.914	532.81
490.132	543.81
490.35	554.81
490.568	527.81
490.786	535.81
491.003	544.81
491.221	560.81
491.439	568.81
491.657	589.81
491.874	555.81
492.092	572.81
492.31	583.81
492.527	581.81
492.745	586.81
492.963	593.81
493.18	598.81
493.398	588.81
493.615	582.81
493.833	583.81
494.05	607.81
494.268	595.81
494.485	573.81
494.703	611.81
494.92	578.81
495.138	596.81
495.355	610.81
495.573	603.81
495.79	583.81
496.008	626.81
496.225	602.81
496.442	610.81
496.66	592.81
496.877	600.81
497.094	619.81
497.312	603.81
497.529	639.81
497.746	631.81
497.963	650.81
498.181	680.81
498.398	659.81
498.615	688.81
498.832	694.81
499.049	708.81
499.267	733.81
499.484	718.81
499.701	776.81
499.918	840.81
500.135	861.81
500.352	910.81
500.569	926.81
500.786	949.81
501.003	904.81
501.22	875.81
501.437	834.81
501.654	834.81
501.871	796.81
502.088	747.81
