Data from 1964.PennyLincolnUp.Lamp.En5.5.200Scan.071719.P1._HRD10591_14-05-09-910.txt Node
Date: Thu Jul 18 14:05:09 EDT 2019
User: cochatt
Spectrometer: HR+D1059
Trigger mode: 1
Integration Time (sec): 1.000000E-1
Scans to average: 1
Electric dark correction enabled: true
Nonlinearity correction enabled: false
Boxcar width: 0
XAxis mode: Wavelengths
Number of Pixels in Spectrum: 2048
>>>>>Begin Spectral Data<<<<<
223.165	-20.25
223.4	-20.25
223.635	-20.25
223.869	-25.25
224.104	-14.25
224.338	-4.25
224.573	-13.25
224.808	-8.25
225.042	-0.25
225.277	-5.25
225.511	1.75
225.746	-12.25
225.98	-13.25
226.215	20.75
226.449	12.75
226.683	35.75
226.918	23.75
227.152	21.75
227.387	23.75
227.621	23.75
227.856	43.75
228.09	39.75
228.324	48.75
228.559	58.75
228.793	64.75
229.027	90.75
229.262	96.75
229.496	112.75
229.73	120.75
229.964	127.75
230.199	116.75
230.433	100.75
230.667	101.75
230.901	99.75
231.136	109.75
231.37	98.75
231.604	109.75
231.838	123.75
232.072	106.75
232.306	107.75
232.541	102.75
232.775	114.75
233.009	112.75
233.243	116.75
233.477	124.75
233.711	116.75
233.945	114.75
234.179	105.75
234.413	110.75
234.647	122.75
234.881	115.75
235.115	105.75
235.349	113.75
235.583	121.75
235.817	121.75
236.051	125.75
236.285	127.75
236.519	123.75
236.753	132.75
236.987	129.75
237.221	160.75
237.455	208.75
237.689	165.75
237.922	142.75
238.156	124.75
238.39	124.75
238.624	108.75
238.858	120.75
239.091	128.75
239.325	124.75
239.559	128.75
239.793	130.75
240.027	131.75
240.26	126.75
240.494	136.75
240.728	149.75
240.961	124.75
241.195	143.75
241.429	128.75
241.662	142.75
241.896	129.75
242.13	124.75
242.363	139.75
242.597	141.75
242.83	129.75
243.064	131.75
243.298	130.75
243.531	128.75
243.765	134.75
243.998	137.75
244.232	141.75
244.465	131.75
244.699	144.75
244.932	155.75
245.166	150.75
245.399	142.75
245.633	150.75
245.866	160.75
246.099	138.75
246.333	152.75
246.566	153.75
246.8	144.75
247.033	155.75
247.266	168.75
247.5	166.75
247.733	180.75
247.966	178.75
248.2	184.75
248.433	171.75
248.666	178.75
248.899	178.75
249.133	178.75
249.366	198.75
249.599	195.75
249.832	166.75
250.066	170.75
250.299	187.75
250.532	180.75
250.765	188.75
250.998	206.75
251.231	201.75
251.465	199.75
251.698	209.75
251.931	204.75
252.164	178.75
252.397	200.75
252.63	198.75
252.863	201.75
253.096	194.75
253.329	216.75
253.562	222.75
253.795	218.75
254.028	212.75
254.261	208.75
254.494	228.75
254.727	243.75
254.96	279.75
255.193	264.75
255.426	213.75
255.659	225.75
255.892	242.75
256.124	232.75
256.357	221.75
256.59	218.75
256.823	220.75
257.056	203.75
257.289	216.75
257.521	230.75
257.754	216.75
257.987	201.75
258.22	204.75
258.452	201.75
258.685	217.75
258.918	211.75
259.151	202.75
259.383	224.75
259.616	233.75
259.849	234.75
260.081	224.75
260.314	236.75
260.547	249.75
260.779	236.75
261.012	228.75
261.244	217.75
261.477	220.75
261.71	224.75
261.942	227.75
262.175	234.75
262.407	230.75
262.64	213.75
262.872	232.75
263.105	230.75
263.337	226.75
263.57	226.75
263.802	234.75
264.035	222.75
264.267	224.75
264.499	197.75
264.732	215.75
264.964	209.75
265.197	215.75
265.429	221.75
265.661	226.75
265.894	226.75
266.126	229.75
266.358	223.75
266.591	223.75
266.823	216.75
267.055	214.75
267.287	230.75
267.52	233.75
267.752	238.75
267.984	244.75
268.216	261.75
268.448	245.75
268.681	254.75
268.913	250.75
269.145	262.75
269.377	292.75
269.609	263.75
269.841	267.75
270.073	274.75
270.306	277.75
270.538	310.75
270.77	297.75
271.002	293.75
271.234	293.75
271.466	295.75
271.698	303.75
271.93	311.75
272.162	311.75
272.394	330.75
272.626	297.75
272.858	301.75
273.09	282.75
273.322	293.75
273.553	289.75
273.785	262.75
274.017	267.75
274.249	273.75
274.481	276.75
274.713	273.75
274.945	293.75
275.176	278.75
275.408	275.75
275.64	276.75
275.872	287.75
276.104	290.75
276.335	277.75
276.567	298.75
276.799	280.75
277.031	302.75
277.262	310.75
277.494	338.75
277.726	311.75
277.957	299.75
278.189	283.75
278.421	292.75
278.652	274.75
278.884	288.75
279.115	291.75
279.347	299.75
279.579	296.75
279.81	296.75
280.042	288.75
280.273	295.75
280.505	300.75
280.736	297.75
280.968	275.75
281.199	277.75
281.431	307.75
281.662	303.75
281.894	294.75
282.125	276.75
282.356	299.75
282.588	306.75
282.819	314.75
283.051	311.75
283.282	290.75
283.513	316.75
283.745	290.75
283.976	318.75
284.207	305.75
284.439	296.75
284.67	283.75
284.901	293.75
285.132	296.75
285.364	297.75
285.595	316.75
285.826	317.75
286.057	312.75
286.288	313.75
286.52	320.75
286.751	315.75
286.982	290.75
287.213	313.75
287.444	320.75
287.675	329.75
287.906	334.75
288.138	326.75
288.369	330.75
288.6	323.75
288.831	322.75
289.062	338.75
289.293	322.75
289.524	326.75
289.755	323.75
289.986	302.75
290.217	320.75
290.448	323.75
290.679	331.75
290.91	331.75
291.141	320.75
291.371	315.75
291.602	329.75
291.833	340.75
292.064	327.75
292.295	330.75
292.526	337.75
292.757	308.75
292.987	312.75
293.218	321.75
293.449	329.75
293.68	338.75
293.91	319.75
294.141	321.75
294.372	321.75
294.603	339.75
294.833	329.75
295.064	334.75
295.295	337.75
295.525	320.75
295.756	315.75
295.987	335.75
296.217	349.75
296.448	330.75
296.679	332.75
296.909	339.75
297.14	332.75
297.37	323.75
297.601	338.75
297.831	326.75
298.062	338.75
298.292	325.75
298.523	329.75
298.753	330.75
298.984	341.75
299.214	338.75
299.445	349.75
299.675	359.75
299.905	368.75
300.136	348.75
300.366	330.75
300.597	341.75
300.827	342.75
301.057	346.75
301.288	372.75
301.518	342.75
301.748	353.75
301.979	358.75
302.209	351.75
302.439	368.75
302.669	346.75
302.9	365.75
303.13	360.75
303.36	363.75
303.59	364.75
303.82	388.75
304.051	373.75
304.281	363.75
304.511	351.75
304.741	354.75
304.971	349.75
305.201	350.75
305.431	372.75
305.661	364.75
305.891	372.75
306.121	363.75
306.352	360.75
306.582	371.75
306.812	381.75
307.042	356.75
307.272	373.75
307.502	376.75
307.731	353.75
307.961	374.75
308.191	368.75
308.421	356.75
308.651	362.75
308.881	360.75
309.111	336.75
309.341	365.75
309.571	373.75
309.8	394.75
310.03	380.75
310.26	411.75
310.49	398.75
310.72	398.75
310.949	398.75
311.179	393.75
311.409	384.75
311.639	398.75
311.868	373.75
312.098	395.75
312.328	408.75
312.557	392.75
312.787	409.75
313.017	424.75
313.246	415.75
313.476	405.75
313.706	392.75
313.935	413.75
314.165	425.75
314.394	398.75
314.624	429.75
314.853	383.75
315.083	398.75
315.312	401.75
315.542	392.75
315.771	396.75
316.001	391.75
316.23	405.75
316.46	404.75
316.689	405.75
316.919	409.75
317.148	421.75
317.377	422.75
317.607	399.75
317.836	406.75
318.065	386.75
318.295	397.75
318.524	395.75
318.753	389.75
318.983	389.75
319.212	389.75
319.441	407.75
319.67	406.75
319.9	394.75
320.129	402.75
320.358	409.75
320.587	433.75
320.816	394.75
321.046	419.75
321.275	414.75
321.504	419.75
321.733	390.75
321.962	415.75
322.191	450.75
322.42	428.75
322.649	425.75
322.878	446.75
323.108	453.75
323.337	459.75
323.566	473.75
323.795	515.75
324.024	507.75
324.253	589.75
324.482	791.75
324.71	1126.75
324.939	1566.75
325.168	1331.75
325.397	728.75
325.626	560.75
325.855	500.75
326.084	488.75
326.313	488.75
326.542	459.75
326.77	534.75
326.999	606.75
327.228	765.75
327.457	1045.75
327.686	1176.75
327.914	836.75
328.143	620.75
328.372	548.75
328.6	532.75
328.829	521.75
329.058	537.75
329.287	530.75
329.515	491.75
329.744	495.75
329.972	494.75
330.201	533.75
330.43	522.75
330.658	544.75
330.887	537.75
331.115	520.75
331.344	498.75
331.572	477.75
331.801	486.75
332.03	490.75
332.258	469.75
332.486	483.75
332.715	487.75
332.943	488.75
333.172	498.75
333.4	492.75
333.629	510.75
333.857	497.75
334.085	491.75
334.314	532.75
334.542	562.75
334.771	540.75
334.999	504.75
335.227	499.75
335.455	491.75
335.684	490.75
335.912	496.75
336.14	477.75
336.369	475.75
336.597	474.75
336.825	480.75
337.053	480.75
337.281	487.75
337.51	468.75
337.738	469.75
337.966	474.75
338.194	468.75
338.422	466.75
338.65	456.75
338.878	471.75
339.106	456.75
339.334	451.75
339.562	467.75
339.79	449.75
340.018	446.75
340.246	439.75
340.474	479.75
340.702	466.75
340.93	455.75
341.158	441.75
341.386	456.75
341.614	454.75
341.842	450.75
342.07	450.75
342.298	442.75
342.526	447.75
342.754	426.75
342.981	415.75
343.209	446.75
343.437	460.75
343.665	449.75
343.893	464.75
344.12	485.75
344.348	460.75
344.576	446.75
344.804	452.75
345.031	472.75
345.259	470.75
345.487	456.75
345.714	446.75
345.942	436.75
346.17	413.75
346.397	405.75
346.625	433.75
346.853	396.75
347.08	425.75
347.308	422.75
347.535	450.75
347.763	413.75
347.99	430.75
348.218	426.75
348.445	435.75
348.673	436.75
348.9	408.75
349.128	435.75
349.355	404.75
349.583	425.75
349.81	406.75
350.037	430.75
350.265	417.75
350.492	405.75
350.72	412.75
350.947	421.75
351.174	440.75
351.402	438.75
351.629	420.75
351.856	418.75
352.083	417.75
352.311	428.75
352.538	412.75
352.765	421.75
352.992	430.75
353.22	403.75
353.447	406.75
353.674	411.75
353.901	410.75
354.128	410.75
354.355	401.75
354.583	386.75
354.81	410.75
355.037	400.75
355.264	409.75
355.491	392.75
355.718	393.75
355.945	412.75
356.172	379.75
356.399	398.75
356.626	378.75
356.853	396.75
357.08	404.75
357.307	406.75
357.534	394.75
357.761	406.75
357.988	403.75
358.215	398.75
358.441	392.75
358.668	404.75
358.895	406.75
359.122	390.75
359.349	410.75
359.576	411.75
359.802	416.75
360.029	429.75
360.256	446.75
360.483	422.75
360.709	410.75
360.936	413.75
361.163	390.75
361.39	412.75
361.616	421.75
361.843	411.75
362.07	420.75
362.296	413.75
362.523	397.75
362.749	437.75
362.976	416.75
363.203	404.75
363.429	393.75
363.656	391.75
363.882	398.75
364.109	401.75
364.335	403.75
364.562	403.75
364.788	409.75
365.015	404.75
365.241	390.75
365.468	397.75
365.694	387.75
365.92	405.75
366.147	398.75
366.373	399.75
366.599	396.75
366.826	390.75
367.052	389.75
367.278	404.75
367.505	383.75
367.731	411.75
367.957	384.75
368.184	380.75
368.41	409.75
368.636	414.75
368.862	397.75
369.089	404.75
369.315	388.75
369.541	384.75
369.767	404.75
369.993	389.75
370.219	392.75
370.445	387.75
370.672	404.75
370.898	388.75
371.124	409.75
371.35	424.75
371.576	398.75
371.802	402.75
372.028	399.75
372.254	409.75
372.48	389.75
372.706	397.75
372.932	393.75
373.158	398.75
373.384	406.75
373.61	393.75
373.835	397.75
374.061	393.75
374.287	389.75
374.513	404.75
374.739	416.75
374.965	399.75
375.191	420.75
375.416	410.75
375.642	398.75
375.868	410.75
376.094	408.75
376.319	387.75
376.545	395.75
376.771	411.75
376.997	398.75
377.222	414.75
377.448	395.75
377.674	381.75
377.899	389.75
378.125	379.75
378.35	404.75
378.576	395.75
378.802	404.75
379.027	400.75
379.253	409.75
379.478	391.75
379.704	380.75
379.929	387.75
380.155	384.75
380.38	395.75
380.606	399.75
380.831	397.75
381.057	386.75
381.282	390.75
381.507	406.75
381.733	391.75
381.958	378.75
382.184	379.75
382.409	419.75
382.634	390.75
382.86	401.75
383.085	401.75
383.31	398.75
383.535	413.75
383.761	403.75
383.986	415.75
384.211	408.75
384.436	401.75
384.662	436.75
384.887	407.75
385.112	423.75
385.337	416.75
385.562	426.75
385.787	421.75
386.013	427.75
386.238	435.75
386.463	430.75
386.688	438.75
386.913	430.75
387.138	433.75
387.363	424.75
387.588	417.75
387.813	421.75
388.038	422.75
388.263	409.75
388.488	432.75
388.713	435.75
388.938	416.75
389.163	427.75
389.387	426.75
389.612	406.75
389.837	408.75
390.062	422.75
390.287	423.75
390.512	423.75
390.736	397.75
390.961	414.75
391.186	435.75
391.411	429.75
391.636	436.75
391.86	440.75
392.085	442.75
392.31	429.75
392.534	439.75
392.759	430.75
392.984	459.75
393.208	444.75
393.433	429.75
393.658	440.75
393.882	436.75
394.107	437.75
394.331	432.75
394.556	428.75
394.78	443.75
395.005	446.75
395.229	419.75
395.454	456.75
395.678	445.75
395.903	436.75
396.127	458.75
396.352	478.75
396.576	462.75
396.801	448.75
397.025	444.75
397.249	440.75
397.474	452.75
397.698	446.75
397.922	471.75
398.147	458.75
398.371	484.75
398.595	480.75
398.82	514.75
399.044	512.75
399.268	525.75
399.492	542.75
399.717	575.75
399.941	589.75
400.165	612.75
400.389	588.75
400.613	565.75
400.837	523.75
401.062	497.75
401.286	477.75
401.51	477.75
401.734	496.75
401.958	498.75
402.182	487.75
402.406	502.75
402.63	487.75
402.854	493.75
403.078	518.75
403.302	502.75
403.526	488.75
403.75	512.75
403.974	492.75
404.198	506.75
404.422	508.75
404.645	507.75
404.869	505.75
405.093	555.75
405.317	570.75
405.541	567.75
405.765	553.75
405.988	517.75
406.212	516.75
406.436	530.75
406.66	544.75
406.883	553.75
407.107	556.75
407.331	594.75
407.555	634.75
407.778	626.75
408.002	589.75
408.226	548.75
408.449	532.75
408.673	541.75
408.896	534.75
409.12	594.75
409.344	558.75
409.567	522.75
409.791	512.75
410.014	489.75
410.238	496.75
410.461	478.75
410.685	498.75
410.908	501.75
411.132	520.75
411.355	542.75
411.578	543.75
411.802	509.75
412.025	489.75
412.249	501.75
412.472	528.75
412.695	536.75
412.919	524.75
413.142	501.75
413.365	488.75
413.589	493.75
413.812	472.75
414.035	451.75
414.258	456.75
414.482	466.75
414.705	452.75
414.928	466.75
415.151	454.75
415.374	444.75
415.597	456.75
415.821	449.75
416.044	460.75
416.267	463.75
416.49	451.75
416.713	449.75
416.936	460.75
417.159	457.75
417.382	449.75
417.605	456.75
417.828	476.75
418.051	485.75
418.274	468.75
418.497	445.75
418.72	468.75
418.943	448.75
419.166	477.75
419.389	496.75
419.611	506.75
419.834	450.75
420.057	498.75
420.28	500.75
420.503	479.75
420.726	488.75
420.948	487.75
421.171	511.75
421.394	520.75
421.617	484.75
421.839	458.75
422.062	460.75
422.285	500.75
422.507	534.75
422.73	573.75
422.953	553.75
423.175	493.75
423.398	474.75
423.621	486.75
423.843	500.75
424.066	500.75
424.288	502.75
424.511	523.75
424.733	563.75
424.956	627.75
425.178	568.75
425.401	596.75
425.623	571.75
425.846	532.75
426.068	508.75
426.291	494.75
426.513	485.75
426.735	507.75
426.958	528.75
427.18	607.75
427.402	681.75
427.625	730.75
427.847	634.75
428.069	564.75
428.292	494.75
428.514	475.75
428.736	447.75
428.958	474.75
429.181	447.75
429.403	436.75
429.625	459.75
429.847	474.75
430.069	524.75
430.292	534.75
430.514	481.75
430.736	452.75
430.958	444.75
431.18	439.75
431.402	442.75
431.624	429.75
431.846	410.75
432.068	433.75
432.29	448.75
432.512	449.75
432.734	436.75
432.956	452.75
433.178	444.75
433.4	453.75
433.622	433.75
433.844	413.75
434.066	466.75
434.287	432.75
434.509	440.75
434.731	441.75
434.953	467.75
435.175	469.75
435.397	485.75
435.618	499.75
435.84	517.75
436.062	594.75
436.284	644.75
436.505	533.75
436.727	485.75
436.949	459.75
437.17	456.75
437.392	448.75
437.614	444.75
437.835	468.75
438.057	555.75
438.278	613.75
438.5	616.75
438.721	649.75
438.943	636.75
439.165	528.75
439.386	506.75
439.608	468.75
439.829	486.75
440.05	501.75
440.272	530.75
440.493	493.75
440.715	461.75
440.936	459.75
441.158	467.75
441.379	467.75
441.6	463.75
441.822	478.75
442.043	512.75
442.264	570.75
442.486	594.75
442.707	547.75
442.928	490.75
443.149	491.75
443.371	530.75
443.592	547.75
443.813	610.75
444.034	645.75
444.255	572.75
444.476	533.75
444.698	496.75
444.919	488.75
445.14	610.75
445.361	560.75
445.582	530.75
445.803	553.75
446.024	621.75
446.245	648.75
446.466	582.75
446.687	496.75
446.908	475.75
447.129	441.75
447.35	439.75
447.571	446.75
447.792	457.75
448.013	429.75
448.234	450.75
448.455	510.75
448.675	589.75
448.896	659.75
449.117	562.75
449.338	548.75
449.559	617.75
449.779	678.75
450	542.75
450.221	475.75
450.442	444.75
450.662	433.75
450.883	413.75
451.104	412.75
451.324	421.75
451.545	414.75
451.766	402.75
451.986	396.75
452.207	386.75
452.428	412.75
452.648	389.75
452.869	392.75
453.089	423.75
453.31	394.75
453.53	393.75
453.751	398.75
453.971	396.75
454.192	410.75
454.412	374.75
454.633	392.75
454.853	412.75
455.073	396.75
455.294	425.75
455.514	440.75
455.734	442.75
455.955	388.75
456.175	390.75
456.395	358.75
456.616	387.75
456.836	389.75
457.056	369.75
457.276	389.75
457.497	397.75
457.717	380.75
457.937	389.75
458.157	395.75
458.377	380.75
458.598	405.75
458.818	425.75
459.038	493.75
459.258	504.75
459.478	454.75
459.698	433.75
459.918	418.75
460.138	433.75
460.358	438.75
460.578	455.75
460.798	452.75
461.018	452.75
461.238	438.75
461.458	454.75
461.678	433.75
461.898	452.75
462.118	452.75
462.338	461.75
462.558	474.75
462.777	469.75
462.997	499.75
463.217	510.75
463.437	517.75
463.657	492.75
463.876	476.75
464.096	487.75
464.316	472.75
464.536	483.75
464.755	477.75
464.975	458.75
465.195	501.75
465.414	514.75
465.634	482.75
465.854	438.75
466.073	417.75
466.293	428.75
466.512	428.75
466.732	411.75
466.951	425.75
467.171	418.75
467.391	414.75
467.61	412.75
467.829	429.75
468.049	409.75
468.268	419.75
468.488	416.75
468.707	400.75
468.927	405.75
469.146	391.75
469.365	413.75
469.585	391.75
469.804	400.75
470.023	420.75
470.243	414.75
470.462	423.75
470.681	429.75
470.901	404.75
471.12	404.75
471.339	448.75
471.558	425.75
471.777	443.75
471.997	407.75
472.216	398.75
472.435	432.75
472.654	424.75
472.873	398.75
473.092	401.75
473.311	416.75
473.53	409.75
473.749	422.75
473.968	459.75
474.187	529.75
474.406	535.75
474.625	444.75
474.844	439.75
475.063	413.75
475.282	426.75
475.501	420.75
475.72	430.75
475.939	428.75
476.158	418.75
476.377	416.75
476.596	422.75
476.814	418.75
477.033	443.75
477.252	444.75
477.471	450.75
477.69	453.75
477.908	445.75
478.127	453.75
478.346	464.75
478.564	449.75
478.783	457.75
479.002	476.75
479.22	484.75
479.439	481.75
479.658	497.75
479.876	492.75
480.095	500.75
480.313	547.75
480.532	526.75
480.751	508.75
480.969	497.75
481.188	533.75
481.406	564.75
481.624	529.75
481.843	481.75
482.061	466.75
482.28	466.75
482.498	479.75
482.717	488.75
482.935	464.75
483.153	475.75
483.372	486.75
483.59	478.75
483.808	473.75
484.027	465.75
484.245	485.75
484.463	483.75
484.681	483.75
484.9	471.75
485.118	498.75
485.336	477.75
485.554	466.75
485.772	478.75
485.99	477.75
486.209	488.75
486.427	492.75
486.645	501.75
486.863	521.75
487.081	505.75
487.299	494.75
487.517	498.75
487.735	510.75
487.953	505.75
488.171	502.75
488.389	512.75
488.607	509.75
488.825	526.75
489.043	484.75
489.261	524.75
489.479	518.75
489.696	514.75
489.914	521.75
490.132	517.75
490.35	535.75
490.568	522.75
490.786	516.75
491.003	535.75
491.221	551.75
491.439	550.75
491.657	548.75
491.874	554.75
492.092	569.75
492.31	563.75
492.527	560.75
492.745	555.75
492.963	573.75
493.18	566.75
493.398	577.75
493.615	596.75
493.833	593.75
494.05	576.75
494.268	590.75
494.485	614.75
494.703	589.75
494.92	587.75
495.138	567.75
495.355	584.75
495.573	597.75
495.79	615.75
496.008	578.75
496.225	575.75
496.442	588.75
496.66	626.75
496.877	577.75
497.094	590.75
497.312	599.75
497.529	634.75
497.746	644.75
497.963	627.75
498.181	644.75
498.398	629.75
498.615	665.75
498.832	669.75
499.049	694.75
499.267	730.75
499.484	799.75
499.701	788.75
499.918	806.75
500.135	893.75
500.352	894.75
500.569	921.75
500.786	944.75
501.003	920.75
501.22	868.75
501.437	840.75
501.654	810.75
501.871	766.75
