Data from 1964.PennyLincolnUp.Lamp.En5.5.200Scan.071719.P1._HRD10591_14-06-04-909.txt Node
Date: Thu Jul 18 14:06:04 EDT 2019
User: cochatt
Spectrometer: HR+D1059
Trigger mode: 1
Integration Time (sec): 1.000000E-1
Scans to average: 1
Electric dark correction enabled: true
Nonlinearity correction enabled: false
Boxcar width: 0
XAxis mode: Wavelengths
Number of Pixels in Spectrum: 2048
>>>>>Begin Spectral Data<<<<<
223.165	-17.81
223.4	-17.81
223.635	-17.81
223.869	-6.81
224.104	-27.81
224.338	-34.81
224.573	-8.81
224.808	-10.81
225.042	-5.81
225.277	-7.81
225.511	8.19
225.746	-8.81
225.98	14.19
226.215	16.19
226.449	21.19
226.683	13.19
226.918	31.19
227.152	25.19
227.387	35.19
227.621	41.19
227.856	49.19
228.09	32.19
228.324	40.19
228.559	61.19
228.793	66.19
229.027	87.19
229.262	104.19
229.496	109.19
229.73	114.19
229.964	125.19
230.199	115.19
230.433	98.19
230.667	100.19
230.901	108.19
231.136	119.19
231.37	103.19
231.604	109.19
231.838	116.19
232.072	113.19
232.306	121.19
232.541	115.19
232.775	105.19
233.009	124.19
233.243	107.19
233.477	124.19
233.711	117.19
233.945	115.19
234.179	114.19
234.413	115.19
234.647	120.19
234.881	105.19
235.115	103.19
235.349	109.19
235.583	125.19
235.817	109.19
236.051	129.19
236.285	110.19
236.519	109.19
236.753	130.19
236.987	157.19
237.221	163.19
237.455	198.19
237.689	171.19
237.922	137.19
238.156	133.19
238.39	130.19
238.624	127.19
238.858	134.19
239.091	116.19
239.325	128.19
239.559	127.19
239.793	126.19
240.027	134.19
240.26	139.19
240.494	141.19
240.728	135.19
240.961	135.19
241.195	149.19
241.429	131.19
241.662	129.19
241.896	142.19
242.13	124.19
242.363	137.19
242.597	137.19
242.83	119.19
243.064	153.19
243.298	137.19
243.531	152.19
243.765	138.19
243.998	164.19
244.232	136.19
244.465	157.19
244.699	152.19
244.932	158.19
245.166	152.19
245.399	155.19
245.633	146.19
245.866	166.19
246.099	154.19
246.333	145.19
246.566	150.19
246.8	170.19
247.033	170.19
247.266	150.19
247.5	170.19
247.733	165.19
247.966	175.19
248.2	178.19
248.433	172.19
248.666	174.19
248.899	183.19
249.133	213.19
249.366	203.19
249.599	193.19
249.832	198.19
250.066	176.19
250.299	176.19
250.532	184.19
250.765	211.19
250.998	203.19
251.231	214.19
251.465	221.19
251.698	217.19
251.931	196.19
252.164	197.19
252.397	199.19
252.63	213.19
252.863	210.19
253.096	215.19
253.329	216.19
253.562	215.19
253.795	237.19
254.028	209.19
254.261	239.19
254.494	226.19
254.727	246.19
254.96	269.19
255.193	249.19
255.426	246.19
255.659	233.19
255.892	255.19
256.124	233.19
256.357	228.19
256.59	232.19
256.823	203.19
257.056	198.19
257.289	227.19
257.521	232.19
257.754	205.19
257.987	207.19
258.22	221.19
258.452	200.19
258.685	220.19
258.918	223.19
259.151	206.19
259.383	232.19
259.616	222.19
259.849	226.19
260.081	253.19
260.314	255.19
260.547	259.19
260.779	247.19
261.012	244.19
261.244	242.19
261.477	233.19
261.71	222.19
261.942	225.19
262.175	231.19
262.407	234.19
262.64	239.19
262.872	233.19
263.105	237.19
263.337	220.19
263.57	209.19
263.802	228.19
264.035	232.19
264.267	236.19
264.499	231.19
264.732	237.19
264.964	218.19
265.197	221.19
265.429	244.19
265.661	221.19
265.894	222.19
266.126	230.19
266.358	252.19
266.591	249.19
266.823	237.19
267.055	251.19
267.287	241.19
267.52	233.19
267.752	230.19
267.984	234.19
268.216	242.19
268.448	248.19
268.681	244.19
268.913	279.19
269.145	265.19
269.377	296.19
269.609	283.19
269.841	271.19
270.073	281.19
270.306	321.19
270.538	319.19
270.77	317.19
271.002	319.19
271.234	314.19
271.466	302.19
271.698	307.19
271.93	330.19
272.162	325.19
272.394	322.19
272.626	318.19
272.858	291.19
273.09	288.19
273.322	287.19
273.553	276.19
273.785	297.19
274.017	282.19
274.249	287.19
274.481	315.19
274.713	294.19
274.945	289.19
275.176	311.19
275.408	292.19
275.64	291.19
275.872	288.19
276.104	277.19
276.335	286.19
276.567	305.19
276.799	324.19
277.031	331.19
277.262	322.19
277.494	321.19
277.726	323.19
277.957	300.19
278.189	302.19
278.421	300.19
278.652	286.19
278.884	299.19
279.115	300.19
279.347	305.19
279.579	281.19
279.81	289.19
280.042	305.19
280.273	294.19
280.505	292.19
280.736	283.19
280.968	301.19
281.199	307.19
281.431	305.19
281.662	307.19
281.894	307.19
282.125	301.19
282.356	307.19
282.588	319.19
282.819	326.19
283.051	306.19
283.282	313.19
283.513	304.19
283.745	303.19
283.976	295.19
284.207	303.19
284.439	311.19
284.67	331.19
284.901	305.19
285.132	316.19
285.364	309.19
285.595	324.19
285.826	328.19
286.057	313.19
286.288	311.19
286.52	317.19
286.751	317.19
286.982	303.19
287.213	306.19
287.444	335.19
287.675	329.19
287.906	338.19
288.138	337.19
288.369	332.19
288.6	349.19
288.831	342.19
289.062	351.19
289.293	315.19
289.524	329.19
289.755	343.19
289.986	328.19
290.217	315.19
290.448	323.19
290.679	326.19
290.91	319.19
291.141	329.19
291.371	322.19
291.602	332.19
291.833	324.19
292.064	328.19
292.295	330.19
292.526	323.19
292.757	327.19
292.987	312.19
293.218	329.19
293.449	330.19
293.68	333.19
293.91	331.19
294.141	318.19
294.372	313.19
294.603	330.19
294.833	335.19
295.064	326.19
295.295	333.19
295.525	351.19
295.756	342.19
295.987	346.19
296.217	349.19
296.448	340.19
296.679	333.19
296.909	333.19
297.14	355.19
297.37	345.19
297.601	345.19
297.831	350.19
298.062	348.19
298.292	354.19
298.523	354.19
298.753	349.19
298.984	358.19
299.214	357.19
299.445	347.19
299.675	354.19
299.905	331.19
300.136	350.19
300.366	366.19
300.597	351.19
300.827	369.19
301.057	366.19
301.288	374.19
301.518	364.19
301.748	375.19
301.979	373.19
302.209	370.19
302.439	360.19
302.669	372.19
302.9	354.19
303.13	373.19
303.36	381.19
303.59	371.19
303.82	376.19
304.051	388.19
304.281	379.19
304.511	365.19
304.741	350.19
304.971	362.19
305.201	378.19
305.431	376.19
305.661	394.19
305.891	380.19
306.121	367.19
306.352	387.19
306.582	373.19
306.812	369.19
307.042	370.19
307.272	377.19
307.502	377.19
307.731	391.19
307.961	393.19
308.191	373.19
308.421	381.19
308.651	367.19
308.881	369.19
309.111	375.19
309.341	378.19
309.571	377.19
309.8	409.19
310.03	406.19
310.26	407.19
310.49	396.19
310.72	394.19
310.949	419.19
311.179	414.19
311.409	406.19
311.639	397.19
311.868	385.19
312.098	402.19
312.328	419.19
312.557	428.19
312.787	441.19
313.017	426.19
313.246	413.19
313.476	437.19
313.706	419.19
313.935	392.19
314.165	435.19
314.394	415.19
314.624	429.19
314.853	396.19
315.083	418.19
315.312	406.19
315.542	408.19
315.771	424.19
316.001	429.19
316.23	420.19
316.46	417.19
316.689	407.19
316.919	446.19
317.148	419.19
317.377	419.19
317.607	399.19
317.836	407.19
318.065	417.19
318.295	422.19
318.524	411.19
318.753	411.19
318.983	419.19
319.212	416.19
319.441	419.19
319.67	403.19
319.9	398.19
320.129	401.19
320.358	397.19
320.587	398.19
320.816	408.19
321.046	434.19
321.275	421.19
321.504	432.19
321.733	428.19
321.962	421.19
322.191	409.19
322.42	460.19
322.649	460.19
322.878	465.19
323.108	477.19
323.337	483.19
323.566	501.19
323.795	542.19
324.024	544.19
324.253	635.19
324.482	871.19
324.71	1300.19
324.939	1749.19
325.168	1473.19
325.397	807.19
325.626	606.19
325.855	531.19
326.084	505.19
326.313	499.19
326.542	493.19
326.77	539.19
326.999	621.19
327.228	824.19
327.457	1159.19
327.686	1313.19
327.914	882.19
328.143	631.19
328.372	584.19
328.6	553.19
328.829	546.19
329.058	533.19
329.287	542.19
329.515	542.19
329.744	519.19
329.972	513.19
330.201	535.19
330.43	588.19
330.658	569.19
330.887	566.19
331.115	558.19
331.344	520.19
331.572	502.19
331.801	519.19
332.03	519.19
332.258	488.19
332.486	504.19
332.715	465.19
332.943	491.19
333.172	506.19
333.4	498.19
333.629	518.19
333.857	538.19
334.085	548.19
334.314	562.19
334.542	554.19
334.771	586.19
334.999	555.19
335.227	537.19
335.455	513.19
335.684	522.19
335.912	482.19
336.14	493.19
336.369	473.19
336.597	483.19
336.825	484.19
337.053	487.19
337.281	476.19
337.51	471.19
337.738	491.19
337.966	477.19
338.194	465.19
338.422	479.19
338.65	468.19
338.878	469.19
339.106	458.19
339.334	467.19
339.562	479.19
339.79	447.19
340.018	428.19
340.246	456.19
340.474	480.19
340.702	461.19
340.93	439.19
341.158	455.19
341.386	453.19
341.614	449.19
341.842	441.19
342.07	449.19
342.298	431.19
342.526	433.19
342.754	456.19
342.981	457.19
343.209	473.19
343.437	464.19
343.665	453.19
343.893	491.19
344.12	503.19
344.348	478.19
344.576	469.19
344.804	449.19
345.031	475.19
345.259	470.19
345.487	436.19
345.714	458.19
345.942	455.19
346.17	441.19
346.397	428.19
346.625	448.19
346.853	425.19
347.08	430.19
347.308	444.19
347.535	454.19
347.763	452.19
347.99	438.19
348.218	444.19
348.445	451.19
348.673	432.19
348.9	452.19
349.128	415.19
349.355	436.19
349.583	439.19
349.81	417.19
350.037	426.19
350.265	421.19
350.492	443.19
350.72	422.19
350.947	424.19
351.174	423.19
351.402	423.19
351.629	425.19
351.856	434.19
352.083	446.19
352.311	451.19
352.538	449.19
352.765	431.19
352.992	443.19
353.22	424.19
353.447	401.19
353.674	423.19
353.901	405.19
354.128	410.19
354.355	428.19
354.583	413.19
354.81	419.19
355.037	425.19
355.264	407.19
355.491	413.19
355.718	388.19
355.945	397.19
356.172	412.19
356.399	422.19
356.626	403.19
356.853	417.19
357.08	409.19
357.307	401.19
357.534	417.19
357.761	403.19
357.988	404.19
358.215	408.19
358.441	398.19
358.668	405.19
358.895	403.19
359.122	407.19
359.349	406.19
359.576	410.19
359.802	444.19
360.029	451.19
360.256	457.19
360.483	419.19
360.709	417.19
360.936	426.19
361.163	413.19
361.39	446.19
361.616	415.19
361.843	421.19
362.07	404.19
362.296	461.19
362.523	433.19
362.749	430.19
362.976	420.19
363.203	407.19
363.429	390.19
363.656	414.19
363.882	415.19
364.109	400.19
364.335	401.19
364.562	435.19
364.788	393.19
365.015	395.19
365.241	421.19
365.468	411.19
365.694	401.19
365.92	422.19
366.147	400.19
366.373	410.19
366.599	412.19
366.826	393.19
367.052	393.19
367.278	411.19
367.505	396.19
367.731	398.19
367.957	403.19
368.184	389.19
368.41	403.19
368.636	418.19
368.862	424.19
369.089	417.19
369.315	402.19
369.541	403.19
369.767	397.19
369.993	407.19
370.219	385.19
370.445	415.19
370.672	403.19
370.898	391.19
371.124	410.19
371.35	419.19
371.576	413.19
371.802	399.19
372.028	409.19
372.254	390.19
372.48	405.19
372.706	409.19
372.932	407.19
373.158	399.19
373.384	410.19
373.61	416.19
373.835	417.19
374.061	415.19
374.287	400.19
374.513	415.19
374.739	403.19
374.965	422.19
375.191	416.19
375.416	418.19
375.642	409.19
375.868	405.19
376.094	425.19
376.319	409.19
376.545	396.19
376.771	409.19
376.997	403.19
377.222	408.19
377.448	383.19
377.674	409.19
377.899	390.19
378.125	399.19
378.35	394.19
378.576	400.19
378.802	394.19
379.027	396.19
379.253	379.19
379.478	386.19
379.704	389.19
379.929	409.19
380.155	393.19
380.38	405.19
380.606	396.19
380.831	398.19
381.057	398.19
381.282	406.19
381.507	411.19
381.733	408.19
381.958	387.19
382.184	418.19
382.409	409.19
382.634	395.19
382.86	410.19
383.085	425.19
383.31	427.19
383.535	410.19
383.761	408.19
383.986	390.19
384.211	427.19
384.436	436.19
384.662	429.19
384.887	422.19
385.112	423.19
385.337	428.19
385.562	426.19
385.787	442.19
386.013	428.19
386.238	428.19
386.463	450.19
386.688	450.19
386.913	457.19
387.138	419.19
387.363	426.19
387.588	427.19
387.813	444.19
388.038	438.19
388.263	450.19
388.488	449.19
388.713	445.19
388.938	418.19
389.163	412.19
389.387	430.19
389.612	421.19
389.837	422.19
390.062	440.19
390.287	432.19
390.512	427.19
390.736	442.19
390.961	436.19
391.186	430.19
391.411	444.19
391.636	438.19
391.86	452.19
392.085	454.19
392.31	460.19
392.534	437.19
392.759	461.19
392.984	452.19
393.208	442.19
393.433	457.19
393.658	433.19
393.882	441.19
394.107	454.19
394.331	430.19
394.556	434.19
394.78	448.19
395.005	453.19
395.229	428.19
395.454	453.19
395.678	461.19
395.903	449.19
396.127	484.19
396.352	471.19
396.576	454.19
396.801	423.19
397.025	471.19
397.249	458.19
397.474	463.19
397.698	461.19
397.922	482.19
398.147	487.19
398.371	492.19
398.595	486.19
398.82	479.19
399.044	500.19
399.268	531.19
399.492	559.19
399.717	597.19
399.941	601.19
400.165	595.19
400.389	591.19
400.613	544.19
400.837	536.19
401.062	528.19
401.286	511.19
401.51	491.19
401.734	505.19
401.958	495.19
402.182	503.19
402.406	506.19
402.63	485.19
402.854	514.19
403.078	490.19
403.302	481.19
403.526	490.19
403.75	513.19
403.974	513.19
404.198	514.19
404.422	514.19
404.645	514.19
404.869	527.19
405.093	555.19
405.317	585.19
405.541	597.19
405.765	569.19
405.988	508.19
406.212	554.19
406.436	555.19
406.66	562.19
406.883	558.19
407.107	573.19
407.331	592.19
407.555	649.19
407.778	663.19
408.002	587.19
408.226	571.19
408.449	543.19
408.673	557.19
408.896	576.19
409.12	595.19
409.344	588.19
409.567	537.19
409.791	509.19
410.014	503.19
410.238	509.19
410.461	499.19
410.685	504.19
410.908	512.19
411.132	561.19
411.355	570.19
411.578	537.19
411.802	511.19
412.025	486.19
412.249	520.19
412.472	531.19
412.695	584.19
412.919	569.19
413.142	517.19
413.365	527.19
413.589	481.19
413.812	477.19
414.035	498.19
414.258	455.19
414.482	490.19
414.705	487.19
414.928	478.19
415.151	473.19
415.374	474.19
415.597	461.19
415.821	473.19
416.044	474.19
416.267	468.19
416.49	467.19
416.713	461.19
416.936	469.19
417.159	471.19
417.382	486.19
417.605	487.19
417.828	483.19
418.051	491.19
418.274	477.19
418.497	460.19
418.72	474.19
418.943	462.19
419.166	498.19
419.389	513.19
419.611	505.19
419.834	483.19
420.057	493.19
420.28	511.19
420.503	486.19
420.726	468.19
420.948	501.19
421.171	522.19
421.394	570.19
421.617	500.19
421.839	478.19
422.062	495.19
422.285	512.19
422.507	533.19
422.73	593.19
422.953	552.19
423.175	537.19
423.398	514.19
423.621	480.19
423.843	501.19
424.066	507.19
424.288	538.19
424.511	523.19
424.733	585.19
424.956	612.19
425.178	603.19
425.401	582.19
425.623	636.19
425.846	548.19
426.068	513.19
426.291	506.19
426.513	505.19
426.735	499.19
426.958	534.19
427.18	584.19
427.402	703.19
427.625	783.19
427.847	649.19
428.069	586.19
428.292	527.19
428.514	485.19
428.736	484.19
428.958	480.19
429.181	468.19
429.403	461.19
429.625	471.19
429.847	512.19
430.069	556.19
430.292	551.19
430.514	473.19
430.736	470.19
430.958	449.19
431.18	473.19
431.402	459.19
431.624	435.19
431.846	453.19
432.068	447.19
432.29	469.19
432.512	432.19
432.734	467.19
432.956	453.19
433.178	463.19
433.4	455.19
433.622	450.19
433.844	451.19
434.066	451.19
434.287	461.19
434.509	447.19
434.731	465.19
434.953	467.19
435.175	493.19
435.397	516.19
435.618	514.19
435.84	548.19
436.062	590.19
436.284	661.19
436.505	565.19
436.727	483.19
436.949	457.19
437.17	478.19
437.392	463.19
437.614	468.19
437.835	498.19
438.057	557.19
438.278	653.19
438.5	637.19
438.721	702.19
438.943	673.19
439.165	535.19
439.386	525.19
439.608	523.19
439.829	502.19
440.05	522.19
440.272	538.19
440.493	523.19
440.715	514.19
440.936	482.19
441.158	460.19
441.379	452.19
441.6	488.19
441.822	502.19
442.043	535.19
442.264	599.19
442.486	628.19
442.707	530.19
442.928	503.19
443.149	513.19
443.371	529.19
443.592	573.19
443.813	631.19
444.034	678.19
444.255	568.19
444.476	535.19
444.698	520.19
444.919	522.19
445.14	655.19
445.361	588.19
445.582	551.19
445.803	572.19
446.024	657.19
446.245	671.19
446.466	591.19
446.687	520.19
446.908	501.19
447.129	474.19
447.35	453.19
447.571	451.19
447.792	480.19
448.013	461.19
448.234	486.19
448.455	492.19
448.675	580.19
448.896	681.19
449.117	579.19
449.338	571.19
449.559	630.19
449.779	702.19
450	570.19
450.221	490.19
450.442	461.19
450.662	441.19
450.883	435.19
451.104	436.19
451.324	437.19
451.545	431.19
451.766	413.19
451.986	399.19
452.207	397.19
452.428	417.19
452.648	410.19
452.869	395.19
453.089	388.19
453.31	427.19
453.53	393.19
453.751	412.19
453.971	397.19
454.192	418.19
454.412	392.19
454.633	412.19
454.853	391.19
455.073	422.19
455.294	434.19
455.514	472.19
455.734	464.19
455.955	407.19
456.175	388.19
456.395	393.19
456.616	390.19
456.836	378.19
457.056	380.19
457.276	384.19
457.497	407.19
457.717	415.19
457.937	391.19
458.157	391.19
458.377	398.19
458.598	426.19
458.818	458.19
459.038	507.19
459.258	530.19
459.478	464.19
459.698	464.19
459.918	453.19
460.138	440.19
460.358	441.19
460.578	460.19
460.798	448.19
461.018	477.19
461.238	475.19
461.458	446.19
461.678	450.19
461.898	469.19
462.118	455.19
462.338	470.19
462.558	470.19
462.777	480.19
462.997	493.19
463.217	494.19
463.437	497.19
463.657	505.19
463.876	513.19
464.096	509.19
464.316	499.19
464.536	498.19
464.755	493.19
464.975	500.19
465.195	498.19
465.414	555.19
465.634	485.19
465.854	449.19
466.073	455.19
466.293	444.19
466.512	431.19
466.732	419.19
466.951	421.19
467.171	437.19
467.391	429.19
467.61	433.19
467.829	421.19
468.049	427.19
468.268	417.19
468.488	422.19
468.707	394.19
468.927	419.19
469.146	414.19
469.365	406.19
469.585	409.19
469.804	434.19
470.023	429.19
470.243	423.19
470.462	418.19
470.681	454.19
470.901	434.19
471.12	424.19
471.339	435.19
471.558	428.19
471.777	438.19
471.997	416.19
472.216	419.19
472.435	439.19
472.654	455.19
472.873	415.19
473.092	409.19
473.311	414.19
473.53	425.19
473.749	437.19
473.968	457.19
474.187	533.19
474.406	533.19
474.625	454.19
474.844	443.19
475.063	435.19
475.282	436.19
475.501	439.19
475.72	433.19
475.939	441.19
476.158	426.19
476.377	423.19
476.596	436.19
476.814	435.19
477.033	423.19
477.252	451.19
477.471	461.19
477.69	440.19
477.908	450.19
478.127	458.19
478.346	461.19
478.564	472.19
478.783	475.19
479.002	481.19
479.22	492.19
479.439	492.19
479.658	486.19
479.876	483.19
480.095	507.19
480.313	539.19
480.532	530.19
480.751	514.19
480.969	523.19
481.188	554.19
481.406	588.19
481.624	531.19
481.843	489.19
482.061	513.19
482.28	520.19
482.498	508.19
482.717	489.19
482.935	503.19
483.153	489.19
483.372	484.19
483.59	487.19
483.808	477.19
484.027	480.19
484.245	502.19
484.463	494.19
484.681	519.19
484.9	500.19
485.118	516.19
485.336	530.19
485.554	515.19
485.772	496.19
485.99	513.19
486.209	509.19
486.427	507.19
486.645	523.19
486.863	501.19
487.081	530.19
487.299	508.19
487.517	505.19
487.735	526.19
487.953	523.19
488.171	530.19
488.389	533.19
488.607	535.19
488.825	521.19
489.043	525.19
489.261	523.19
489.479	532.19
489.696	535.19
489.914	513.19
490.132	531.19
490.35	541.19
490.568	546.19
490.786	551.19
491.003	565.19
491.221	571.19
491.439	572.19
491.657	587.19
491.874	563.19
492.092	596.19
492.31	575.19
492.527	589.19
492.745	587.19
492.963	600.19
493.18	582.19
493.398	585.19
493.615	612.19
493.833	593.19
494.05	597.19
494.268	594.19
494.485	592.19
494.703	591.19
494.92	590.19
495.138	597.19
495.355	617.19
495.573	625.19
495.79	603.19
496.008	576.19
496.225	590.19
496.442	600.19
496.66	605.19
496.877	614.19
497.094	631.19
497.312	615.19
497.529	608.19
497.746	631.19
497.963	659.19
498.181	657.19
498.398	694.19
498.615	710.19
498.832	728.19
499.049	719.19
499.267	757.19
499.484	777.19
499.701	820.19
499.918	838.19
500.135	889.19
500.352	941.19
500.569	952.19
500.786	953.19
501.003	941.19
501.22	895.19
501.437	846.19
501.654	821.19
501.871	791.19
