Data from 1964.PennyLincolnUp.Lamp.En5.5.200Scan.071719.P1._HRD10591_14-03-27-908.txt Node
Date: Thu Jul 18 14:03:27 EDT 2019
User: cochatt
Spectrometer: HR+D1059
Trigger mode: 1
Integration Time (sec): 1.000000E-1
Scans to average: 1
Electric dark correction enabled: true
Nonlinearity correction enabled: false
Boxcar width: 0
XAxis mode: Wavelengths
Number of Pixels in Spectrum: 2048
>>>>>Begin Spectral Data<<<<<
223.165	-20.94
223.4	-20.94
223.635	-20.94
223.869	-9.94
224.104	-5.94
224.338	-12.94
224.573	-33.94
224.808	-4.94
225.042	-6.94
225.277	-7.94
225.511	-8.94
225.746	5.06
225.98	-0.94
226.215	15.06
226.449	21.06
226.683	19.06
226.918	24.06
227.152	29.06
227.387	22.06
227.621	43.06
227.856	35.06
228.09	46.06
228.324	53.06
228.559	49.06
228.793	66.06
229.027	67.06
229.262	79.06
229.496	99.06
229.73	111.06
229.964	104.06
230.199	113.06
230.433	103.06
230.667	102.06
230.901	102.06
231.136	102.06
231.37	89.06
231.604	103.06
231.838	96.06
232.072	97.06
232.306	121.06
232.541	99.06
232.775	108.06
233.009	116.06
233.243	117.06
233.477	111.06
233.711	115.06
233.945	113.06
234.179	123.06
234.413	108.06
234.647	127.06
234.881	106.06
235.115	118.06
235.349	95.06
235.583	125.06
235.817	114.06
236.051	121.06
236.285	128.06
236.519	103.06
236.753	117.06
236.987	123.06
237.221	151.06
237.455	162.06
237.689	140.06
237.922	113.06
238.156	118.06
238.39	137.06
238.624	108.06
238.858	111.06
239.091	122.06
239.325	103.06
239.559	121.06
239.793	123.06
240.027	124.06
240.26	137.06
240.494	149.06
240.728	124.06
240.961	133.06
241.195	137.06
241.429	124.06
241.662	139.06
241.896	117.06
242.13	131.06
242.363	134.06
242.597	120.06
242.83	124.06
243.064	129.06
243.298	133.06
243.531	123.06
243.765	120.06
243.998	125.06
244.232	125.06
244.465	129.06
244.699	144.06
244.932	150.06
245.166	146.06
245.399	153.06
245.633	141.06
245.866	140.06
246.099	141.06
246.333	135.06
246.566	124.06
246.8	153.06
247.033	152.06
247.266	159.06
247.5	150.06
247.733	157.06
247.966	166.06
248.2	170.06
248.433	157.06
248.666	161.06
248.899	158.06
249.133	170.06
249.366	173.06
249.599	162.06
249.832	171.06
250.066	168.06
250.299	162.06
250.532	185.06
250.765	159.06
250.998	188.06
251.231	219.06
251.465	187.06
251.698	189.06
251.931	183.06
252.164	186.06
252.397	186.06
252.63	185.06
252.863	190.06
253.096	191.06
253.329	196.06
253.562	190.06
253.795	180.06
254.028	186.06
254.261	190.06
254.494	192.06
254.727	225.06
254.96	247.06
255.193	224.06
255.426	195.06
255.659	220.06
255.892	204.06
256.124	203.06
256.357	196.06
256.59	195.06
256.823	200.06
257.056	174.06
257.289	186.06
257.521	201.06
257.754	212.06
257.987	188.06
258.22	201.06
258.452	182.06
258.685	205.06
258.918	189.06
259.151	216.06
259.383	211.06
259.616	191.06
259.849	200.06
260.081	201.06
260.314	220.06
260.547	227.06
260.779	222.06
261.012	218.06
261.244	224.06
261.477	200.06
261.71	216.06
261.942	209.06
262.175	198.06
262.407	216.06
262.64	198.06
262.872	207.06
263.105	208.06
263.337	197.06
263.57	206.06
263.802	218.06
264.035	195.06
264.267	214.06
264.499	216.06
264.732	215.06
264.964	206.06
265.197	195.06
265.429	215.06
265.661	225.06
265.894	204.06
266.126	203.06
266.358	217.06
266.591	207.06
266.823	208.06
267.055	211.06
267.287	230.06
267.52	226.06
267.752	228.06
267.984	218.06
268.216	212.06
268.448	226.06
268.681	207.06
268.913	236.06
269.145	237.06
269.377	265.06
269.609	252.06
269.841	260.06
270.073	257.06
270.306	267.06
270.538	275.06
270.77	265.06
271.002	280.06
271.234	257.06
271.466	249.06
271.698	274.06
271.93	275.06
272.162	282.06
272.394	292.06
272.626	256.06
272.858	268.06
273.09	260.06
273.322	244.06
273.553	261.06
273.785	247.06
274.017	254.06
274.249	261.06
274.481	266.06
274.713	245.06
274.945	263.06
275.176	270.06
275.408	257.06
275.64	266.06
275.872	258.06
276.104	258.06
276.335	263.06
276.567	243.06
276.799	262.06
277.031	285.06
277.262	297.06
277.494	285.06
277.726	284.06
277.957	270.06
278.189	255.06
278.421	274.06
278.652	250.06
278.884	278.06
279.115	271.06
279.347	250.06
279.579	270.06
279.81	275.06
280.042	266.06
280.273	261.06
280.505	269.06
280.736	250.06
280.968	271.06
281.199	267.06
281.431	276.06
281.662	278.06
281.894	273.06
282.125	272.06
282.356	295.06
282.588	292.06
282.819	299.06
283.051	287.06
283.282	277.06
283.513	286.06
283.745	280.06
283.976	289.06
284.207	271.06
284.439	293.06
284.67	294.06
284.901	298.06
285.132	301.06
285.364	274.06
285.595	281.06
285.826	290.06
286.057	275.06
286.288	292.06
286.52	294.06
286.751	289.06
286.982	296.06
287.213	289.06
287.444	297.06
287.675	295.06
287.906	300.06
288.138	295.06
288.369	301.06
288.6	304.06
288.831	289.06
289.062	317.06
289.293	313.06
289.524	284.06
289.755	293.06
289.986	305.06
290.217	295.06
290.448	295.06
290.679	309.06
290.91	308.06
291.141	306.06
291.371	300.06
291.602	299.06
291.833	300.06
292.064	300.06
292.295	310.06
292.526	295.06
292.757	292.06
292.987	295.06
293.218	297.06
293.449	307.06
293.68	308.06
293.91	300.06
294.141	289.06
294.372	298.06
294.603	301.06
294.833	298.06
295.064	307.06
295.295	309.06
295.525	310.06
295.756	315.06
295.987	305.06
296.217	318.06
296.448	321.06
296.679	309.06
296.909	319.06
297.14	320.06
297.37	322.06
297.601	312.06
297.831	314.06
298.062	305.06
298.292	312.06
298.523	328.06
298.753	317.06
298.984	318.06
299.214	316.06
299.445	319.06
299.675	313.06
299.905	328.06
300.136	329.06
300.366	330.06
300.597	333.06
300.827	320.06
301.057	318.06
301.288	323.06
301.518	327.06
301.748	329.06
301.979	331.06
302.209	332.06
302.439	344.06
302.669	329.06
302.9	342.06
303.13	330.06
303.36	331.06
303.59	322.06
303.82	336.06
304.051	339.06
304.281	333.06
304.511	342.06
304.741	317.06
304.971	327.06
305.201	330.06
305.431	316.06
305.661	345.06
305.891	344.06
306.121	357.06
306.352	337.06
306.582	334.06
306.812	341.06
307.042	338.06
307.272	339.06
307.502	350.06
307.731	347.06
307.961	327.06
308.191	328.06
308.421	335.06
308.651	352.06
308.881	337.06
309.111	341.06
309.341	347.06
309.571	339.06
309.8	346.06
310.03	357.06
310.26	371.06
310.49	347.06
310.72	354.06
310.949	353.06
311.179	359.06
311.409	355.06
311.639	363.06
311.868	361.06
312.098	373.06
312.328	357.06
312.557	376.06
312.787	385.06
313.017	369.06
313.246	375.06
313.476	380.06
313.706	376.06
313.935	367.06
314.165	377.06
314.394	373.06
314.624	366.06
314.853	364.06
315.083	359.06
315.312	374.06
315.542	359.06
315.771	375.06
316.001	371.06
316.23	374.06
316.46	347.06
316.689	349.06
316.919	369.06
317.148	392.06
317.377	395.06
317.607	379.06
317.836	364.06
318.065	379.06
318.295	383.06
318.524	378.06
318.753	373.06
318.983	367.06
319.212	360.06
319.441	371.06
319.67	371.06
319.9	390.06
320.129	381.06
320.358	401.06
320.587	366.06
320.816	379.06
321.046	385.06
321.275	387.06
321.504	362.06
321.733	385.06
321.962	401.06
322.191	395.06
322.42	411.06
322.649	406.06
322.878	400.06
323.108	407.06
323.337	427.06
323.566	431.06
323.795	434.06
324.024	458.06
324.253	529.06
324.482	668.06
324.71	965.06
324.939	1295.06
325.168	1096.06
325.397	624.06
325.626	472.06
325.855	434.06
326.084	425.06
326.313	412.06
326.542	444.06
326.77	458.06
326.999	483.06
327.228	641.06
327.457	881.06
327.686	984.06
327.914	714.06
328.143	521.06
328.372	470.06
328.6	451.06
328.829	437.06
329.058	455.06
329.287	448.06
329.515	435.06
329.744	432.06
329.972	440.06
330.201	448.06
330.43	445.06
330.658	480.06
330.887	469.06
331.115	466.06
331.344	430.06
331.572	456.06
331.801	450.06
332.03	443.06
332.258	424.06
332.486	460.06
332.715	445.06
332.943	435.06
333.172	442.06
333.4	447.06
333.629	461.06
333.857	469.06
334.085	467.06
334.314	450.06
334.542	490.06
334.771	458.06
334.999	461.06
335.227	469.06
335.455	441.06
335.684	433.06
335.912	431.06
336.14	431.06
336.369	454.06
336.597	442.06
336.825	424.06
337.053	447.06
337.281	425.06
337.51	415.06
337.738	425.06
337.966	419.06
338.194	426.06
338.422	426.06
338.65	406.06
338.878	437.06
339.106	414.06
339.334	407.06
339.562	425.06
339.79	425.06
340.018	421.06
340.246	413.06
340.474	421.06
340.702	424.06
340.93	407.06
341.158	391.06
341.386	428.06
341.614	412.06
341.842	414.06
342.07	400.06
342.298	404.06
342.526	397.06
342.754	404.06
342.981	399.06
343.209	417.06
343.437	426.06
343.665	436.06
343.893	429.06
344.12	437.06
344.348	443.06
344.576	420.06
344.804	433.06
345.031	419.06
345.259	425.06
345.487	397.06
345.714	421.06
345.942	400.06
346.17	396.06
346.397	409.06
346.625	381.06
346.853	409.06
347.08	371.06
347.308	389.06
347.535	390.06
347.763	398.06
347.99	387.06
348.218	399.06
348.445	396.06
348.673	391.06
348.9	398.06
349.128	403.06
349.355	374.06
349.583	403.06
349.81	381.06
350.037	377.06
350.265	372.06
350.492	374.06
350.72	399.06
350.947	383.06
351.174	383.06
351.402	394.06
351.629	399.06
351.856	405.06
352.083	396.06
352.311	385.06
352.538	367.06
352.765	374.06
352.992	387.06
353.22	374.06
353.447	397.06
353.674	358.06
353.901	395.06
354.128	381.06
354.355	374.06
354.583	357.06
354.81	383.06
355.037	371.06
355.264	358.06
355.491	381.06
355.718	390.06
355.945	375.06
356.172	402.06
356.399	362.06
356.626	355.06
356.853	374.06
357.08	363.06
357.307	377.06
357.534	365.06
357.761	369.06
357.988	357.06
358.215	371.06
358.441	361.06
358.668	373.06
358.895	359.06
359.122	360.06
359.349	378.06
359.576	391.06
359.802	394.06
360.029	390.06
360.256	382.06
360.483	394.06
360.709	377.06
360.936	379.06
361.163	379.06
361.39	402.06
361.616	384.06
361.843	375.06
362.07	383.06
362.296	370.06
362.523	356.06
362.749	374.06
362.976	377.06
363.203	377.06
363.429	390.06
363.656	378.06
363.882	370.06
364.109	358.06
364.335	363.06
364.562	363.06
364.788	356.06
365.015	361.06
365.241	358.06
365.468	364.06
365.694	378.06
365.92	379.06
366.147	377.06
366.373	381.06
366.599	353.06
366.826	350.06
367.052	333.06
367.278	357.06
367.505	360.06
367.731	343.06
367.957	361.06
368.184	359.06
368.41	375.06
368.636	361.06
368.862	381.06
369.089	377.06
369.315	373.06
369.541	373.06
369.767	390.06
369.993	366.06
370.219	338.06
370.445	366.06
370.672	377.06
370.898	384.06
371.124	349.06
371.35	375.06
371.576	366.06
371.802	381.06
372.028	355.06
372.254	377.06
372.48	369.06
372.706	374.06
372.932	391.06
373.158	389.06
373.384	387.06
373.61	379.06
373.835	382.06
374.061	366.06
374.287	379.06
374.513	376.06
374.739	377.06
374.965	382.06
375.191	385.06
375.416	370.06
375.642	384.06
375.868	375.06
376.094	370.06
376.319	366.06
376.545	368.06
376.771	365.06
376.997	367.06
377.222	388.06
377.448	350.06
377.674	361.06
377.899	354.06
378.125	355.06
378.35	347.06
378.576	355.06
378.802	377.06
379.027	345.06
379.253	363.06
379.478	367.06
379.704	352.06
379.929	362.06
380.155	358.06
380.38	381.06
380.606	360.06
380.831	359.06
381.057	371.06
381.282	375.06
381.507	364.06
381.733	376.06
381.958	379.06
382.184	373.06
382.409	370.06
382.634	375.06
382.86	389.06
383.085	374.06
383.31	374.06
383.535	390.06
383.761	381.06
383.986	379.06
384.211	405.06
384.436	389.06
384.662	407.06
384.887	406.06
385.112	377.06
385.337	403.06
385.562	407.06
385.787	391.06
386.013	405.06
386.238	408.06
386.463	423.06
386.688	415.06
386.913	390.06
387.138	392.06
387.363	410.06
387.588	399.06
387.813	375.06
388.038	426.06
388.263	410.06
388.488	419.06
388.713	414.06
388.938	408.06
389.163	406.06
389.387	399.06
389.612	390.06
389.837	389.06
390.062	412.06
390.287	407.06
390.512	393.06
390.736	413.06
390.961	397.06
391.186	410.06
391.411	419.06
391.636	412.06
391.86	427.06
392.085	396.06
392.31	429.06
392.534	426.06
392.759	411.06
392.984	408.06
393.208	414.06
393.433	405.06
393.658	431.06
393.882	413.06
394.107	403.06
394.331	383.06
394.556	400.06
394.78	389.06
395.005	415.06
395.229	400.06
395.454	403.06
395.678	393.06
395.903	425.06
396.127	431.06
396.352	445.06
396.576	407.06
396.801	405.06
397.025	435.06
397.249	413.06
397.474	412.06
397.698	413.06
397.922	425.06
398.147	448.06
398.371	460.06
398.595	442.06
398.82	436.06
399.044	458.06
399.268	476.06
399.492	521.06
399.717	555.06
399.941	548.06
400.165	549.06
400.389	563.06
400.613	511.06
400.837	482.06
401.062	475.06
401.286	448.06
401.51	459.06
401.734	451.06
401.958	452.06
402.182	433.06
402.406	434.06
402.63	447.06
402.854	446.06
403.078	450.06
403.302	464.06
403.526	465.06
403.75	479.06
403.974	474.06
404.198	467.06
404.422	481.06
404.645	485.06
404.869	469.06
405.093	498.06
405.317	543.06
405.541	518.06
405.765	514.06
405.988	475.06
406.212	463.06
406.436	493.06
406.66	525.06
406.883	486.06
407.107	512.06
407.331	541.06
407.555	578.06
407.778	587.06
408.002	539.06
408.226	524.06
408.449	494.06
408.673	484.06
408.896	503.06
409.12	541.06
409.344	530.06
409.567	483.06
409.791	464.06
410.014	484.06
410.238	459.06
410.461	454.06
410.685	471.06
410.908	483.06
411.132	503.06
411.355	505.06
411.578	486.06
411.802	457.06
412.025	451.06
412.249	470.06
412.472	487.06
412.695	502.06
412.919	497.06
413.142	445.06
413.365	463.06
413.589	465.06
413.812	437.06
414.035	446.06
414.258	434.06
414.482	430.06
414.705	435.06
414.928	441.06
415.151	434.06
415.374	436.06
415.597	439.06
415.821	414.06
416.044	437.06
416.267	420.06
416.49	431.06
416.713	411.06
416.936	431.06
417.159	397.06
417.382	417.06
417.605	425.06
417.828	437.06
418.051	430.06
418.274	436.06
418.497	421.06
418.72	437.06
418.943	426.06
419.166	439.06
419.389	460.06
419.611	462.06
419.834	469.06
420.057	446.06
420.28	437.06
420.503	445.06
420.726	448.06
420.948	465.06
421.171	471.06
421.394	472.06
421.617	437.06
421.839	434.06
422.062	452.06
422.285	456.06
422.507	493.06
422.73	564.06
422.953	495.06
423.175	454.06
423.398	453.06
423.621	438.06
423.843	455.06
424.066	463.06
424.288	464.06
424.511	466.06
424.733	507.06
424.956	554.06
425.178	536.06
425.401	536.06
425.623	552.06
425.846	476.06
426.068	439.06
426.291	437.06
426.513	456.06
426.735	456.06
426.958	501.06
427.18	527.06
427.402	625.06
427.625	646.06
427.847	585.06
428.069	505.06
428.292	459.06
428.514	445.06
428.736	415.06
428.958	421.06
429.181	412.06
429.403	413.06
429.625	435.06
429.847	437.06
430.069	497.06
430.292	466.06
430.514	407.06
430.736	424.06
430.958	413.06
431.18	416.06
431.402	408.06
431.624	402.06
431.846	403.06
432.068	393.06
432.29	407.06
432.512	404.06
432.734	396.06
432.956	417.06
433.178	398.06
433.4	397.06
433.622	411.06
433.844	417.06
434.066	421.06
434.287	428.06
434.509	424.06
434.731	414.06
434.953	403.06
435.175	429.06
435.397	446.06
435.618	446.06
435.84	472.06
436.062	548.06
436.284	567.06
436.505	476.06
436.727	459.06
436.949	418.06
437.17	406.06
437.392	422.06
437.614	442.06
437.835	417.06
438.057	495.06
438.278	572.06
438.5	549.06
438.721	589.06
438.943	586.06
439.165	477.06
439.386	439.06
439.608	444.06
439.829	424.06
440.05	461.06
440.272	487.06
440.493	449.06
440.715	438.06
440.936	417.06
441.158	413.06
441.379	436.06
441.6	423.06
441.822	412.06
442.043	461.06
442.264	525.06
442.486	540.06
442.707	481.06
442.928	460.06
443.149	469.06
443.371	462.06
443.592	497.06
443.813	549.06
444.034	579.06
444.255	519.06
444.476	498.06
444.698	467.06
444.919	471.06
445.14	563.06
445.361	507.06
445.582	470.06
445.803	515.06
446.024	562.06
446.245	571.06
446.466	509.06
446.687	436.06
446.908	432.06
447.129	402.06
447.35	413.06
447.571	419.06
447.792	394.06
448.013	403.06
448.234	409.06
448.455	440.06
448.675	514.06
448.896	581.06
449.117	474.06
449.338	499.06
449.559	547.06
449.779	635.06
450	515.06
450.221	450.06
450.442	389.06
450.662	380.06
450.883	402.06
451.104	377.06
451.324	370.06
451.545	381.06
451.766	373.06
451.986	372.06
452.207	347.06
452.428	367.06
452.648	361.06
452.869	358.06
453.089	389.06
453.31	371.06
453.53	365.06
453.751	382.06
453.971	365.06
454.192	369.06
454.412	364.06
454.633	361.06
454.853	365.06
455.073	359.06
455.294	346.06
455.514	417.06
455.734	411.06
455.955	362.06
456.175	364.06
456.395	346.06
456.616	345.06
456.836	353.06
457.056	361.06
457.276	333.06
457.497	357.06
457.717	348.06
457.937	341.06
458.157	371.06
458.377	373.06
458.598	366.06
458.818	393.06
459.038	436.06
459.258	440.06
459.478	404.06
459.698	377.06
459.918	373.06
460.138	394.06
460.358	427.06
460.578	405.06
460.798	419.06
461.018	397.06
461.238	413.06
461.458	413.06
461.678	431.06
461.898	427.06
462.118	427.06
462.338	439.06
462.558	425.06
462.777	441.06
462.997	476.06
463.217	454.06
463.437	469.06
463.657	461.06
463.876	459.06
464.096	455.06
464.316	436.06
464.536	434.06
464.755	451.06
464.975	453.06
465.195	463.06
465.414	462.06
465.634	410.06
465.854	422.06
466.073	393.06
466.293	379.06
466.512	382.06
466.732	383.06
466.951	394.06
467.171	368.06
467.391	366.06
467.61	399.06
467.829	409.06
468.049	375.06
468.268	381.06
468.488	370.06
468.707	363.06
468.927	375.06
469.146	369.06
469.365	376.06
469.585	378.06
469.804	382.06
470.023	388.06
470.243	385.06
470.462	386.06
470.681	407.06
470.901	408.06
471.12	379.06
471.339	400.06
471.558	401.06
471.777	396.06
471.997	383.06
472.216	387.06
472.435	381.06
472.654	380.06
472.873	391.06
473.092	401.06
473.311	386.06
473.53	387.06
473.749	378.06
473.968	405.06
474.187	478.06
474.406	470.06
474.625	425.06
474.844	391.06
475.063	385.06
475.282	381.06
475.501	387.06
475.72	391.06
475.939	387.06
476.158	386.06
476.377	401.06
476.596	406.06
476.814	415.06
477.033	413.06
477.252	410.06
477.471	415.06
477.69	386.06
477.908	418.06
478.127	413.06
478.346	416.06
478.564	438.06
478.783	435.06
479.002	448.06
479.22	437.06
479.439	426.06
479.658	450.06
479.876	474.06
480.095	446.06
480.313	469.06
480.532	469.06
480.751	494.06
480.969	467.06
481.188	479.06
481.406	506.06
481.624	489.06
481.843	462.06
482.061	445.06
482.28	459.06
482.498	475.06
482.717	443.06
482.935	448.06
483.153	449.06
483.372	433.06
483.59	455.06
483.808	436.06
484.027	437.06
484.245	449.06
484.463	466.06
484.681	458.06
484.9	461.06
485.118	437.06
485.336	447.06
485.554	442.06
485.772	478.06
485.99	459.06
486.209	471.06
486.427	462.06
486.645	481.06
486.863	491.06
487.081	461.06
487.299	469.06
487.517	466.06
487.735	457.06
487.953	464.06
488.171	487.06
488.389	485.06
488.607	477.06
488.825	472.06
489.043	460.06
489.261	477.06
489.479	477.06
489.696	506.06
489.914	484.06
490.132	489.06
490.35	468.06
490.568	482.06
490.786	481.06
491.003	512.06
491.221	514.06
491.439	517.06
491.657	513.06
491.874	511.06
492.092	526.06
492.31	515.06
492.527	524.06
492.745	509.06
492.963	522.06
493.18	550.06
493.398	537.06
493.615	519.06
493.833	516.06
494.05	497.06
494.268	524.06
494.485	525.06
494.703	534.06
494.92	514.06
495.138	527.06
495.355	542.06
495.573	531.06
495.79	564.06
496.008	530.06
496.225	518.06
496.442	542.06
496.66	549.06
496.877	548.06
497.094	568.06
497.312	558.06
497.529	559.06
497.746	556.06
497.963	572.06
498.181	600.06
498.398	616.06
498.615	649.06
498.832	656.06
499.049	635.06
499.267	695.06
499.484	706.06
499.701	744.06
499.918	757.06
500.135	814.06
500.352	855.06
500.569	862.06
500.786	863.06
501.003	827.06
501.22	823.06
501.437	774.06
501.654	719.06
501.871	700.06
502.088	691.06
