Data from 1964.PennyLincolnUp.Lamp.En5.5.200Scan.071719.P1._HRD10591_14-05-30-909.txt Node
Date: Thu Jul 18 14:05:30 EDT 2019
User: cochatt
Spectrometer: HR+D1059
Trigger mode: 1
Integration Time (sec): 1.000000E-1
Scans to average: 1
Electric dark correction enabled: true
Nonlinearity correction enabled: false
Boxcar width: 0
XAxis mode: Wavelengths
Number of Pixels in Spectrum: 2048
>>>>>Begin Spectral Data<<<<<
223.165	-25.38
223.4	-25.38
223.635	-25.38
223.869	-20.38
224.104	-22.38
224.338	-12.38
224.573	-5.38
224.808	-7.38
225.042	-14.38
225.277	-11.38
225.511	-4.38
225.746	10.62
225.98	7.62
226.215	8.62
226.449	10.62
226.683	26.62
226.918	21.62
227.152	37.62
227.387	28.62
227.621	35.62
227.856	63.62
228.09	59.62
228.324	44.62
228.559	49.62
228.793	57.62
229.027	96.62
229.262	108.62
229.496	109.62
229.73	124.62
229.964	143.62
230.199	101.62
230.433	110.62
230.667	112.62
230.901	111.62
231.136	100.62
231.37	112.62
231.604	124.62
231.838	123.62
232.072	112.62
232.306	109.62
232.541	120.62
232.775	112.62
233.009	105.62
233.243	115.62
233.477	116.62
233.711	102.62
233.945	119.62
234.179	112.62
234.413	117.62
234.647	101.62
234.881	127.62
235.115	117.62
235.349	110.62
235.583	122.62
235.817	120.62
236.051	124.62
236.285	124.62
236.519	127.62
236.753	133.62
236.987	140.62
237.221	160.62
237.455	199.62
237.689	159.62
237.922	140.62
238.156	142.62
238.39	132.62
238.624	126.62
238.858	135.62
239.091	125.62
239.325	127.62
239.559	131.62
239.793	129.62
240.027	129.62
240.26	143.62
240.494	161.62
240.728	137.62
240.961	170.62
241.195	152.62
241.429	148.62
241.662	138.62
241.896	131.62
242.13	155.62
242.363	143.62
242.597	138.62
242.83	136.62
243.064	141.62
243.298	144.62
243.531	145.62
243.765	148.62
243.998	147.62
244.232	137.62
244.465	147.62
244.699	159.62
244.932	156.62
245.166	160.62
245.399	158.62
245.633	139.62
245.866	151.62
246.099	152.62
246.333	139.62
246.566	156.62
246.8	149.62
247.033	171.62
247.266	150.62
247.5	171.62
247.733	166.62
247.966	160.62
248.2	161.62
248.433	165.62
248.666	167.62
248.899	191.62
249.133	183.62
249.366	215.62
249.599	187.62
249.832	183.62
250.066	187.62
250.299	193.62
250.532	192.62
250.765	207.62
250.998	219.62
251.231	216.62
251.465	207.62
251.698	213.62
251.931	206.62
252.164	183.62
252.397	197.62
252.63	206.62
252.863	199.62
253.096	217.62
253.329	229.62
253.562	228.62
253.795	220.62
254.028	216.62
254.261	202.62
254.494	228.62
254.727	237.62
254.96	234.62
255.193	256.62
255.426	238.62
255.659	249.62
255.892	247.62
256.124	240.62
256.357	246.62
256.59	239.62
256.823	222.62
257.056	214.62
257.289	212.62
257.521	226.62
257.754	235.62
257.987	220.62
258.22	228.62
258.452	232.62
258.685	206.62
258.918	222.62
259.151	190.62
259.383	217.62
259.616	230.62
259.849	224.62
260.081	252.62
260.314	249.62
260.547	251.62
260.779	256.62
261.012	242.62
261.244	247.62
261.477	234.62
261.71	227.62
261.942	226.62
262.175	235.62
262.407	223.62
262.64	212.62
262.872	217.62
263.105	222.62
263.337	220.62
263.57	229.62
263.802	232.62
264.035	219.62
264.267	215.62
264.499	230.62
264.732	228.62
264.964	224.62
265.197	232.62
265.429	225.62
265.661	235.62
265.894	247.62
266.126	219.62
266.358	238.62
266.591	236.62
266.823	253.62
267.055	243.62
267.287	240.62
267.52	259.62
267.752	231.62
267.984	236.62
268.216	254.62
268.448	247.62
268.681	258.62
268.913	260.62
269.145	266.62
269.377	276.62
269.609	276.62
269.841	289.62
270.073	289.62
270.306	303.62
270.538	344.62
270.77	308.62
271.002	314.62
271.234	292.62
271.466	308.62
271.698	320.62
271.93	320.62
272.162	332.62
272.394	323.62
272.626	311.62
272.858	311.62
273.09	301.62
273.322	285.62
273.553	294.62
273.785	293.62
274.017	284.62
274.249	287.62
274.481	276.62
274.713	288.62
274.945	273.62
275.176	293.62
275.408	312.62
275.64	274.62
275.872	265.62
276.104	290.62
276.335	301.62
276.567	297.62
276.799	314.62
277.031	321.62
277.262	342.62
277.494	341.62
277.726	316.62
277.957	321.62
278.189	295.62
278.421	301.62
278.652	300.62
278.884	303.62
279.115	301.62
279.347	293.62
279.579	312.62
279.81	307.62
280.042	299.62
280.273	285.62
280.505	305.62
280.736	285.62
280.968	291.62
281.199	284.62
281.431	291.62
281.662	294.62
281.894	302.62
282.125	294.62
282.356	325.62
282.588	340.62
282.819	340.62
283.051	314.62
283.282	299.62
283.513	292.62
283.745	308.62
283.976	333.62
284.207	343.62
284.439	298.62
284.67	315.62
284.901	303.62
285.132	310.62
285.364	319.62
285.595	306.62
285.826	292.62
286.057	307.62
286.288	317.62
286.52	316.62
286.751	330.62
286.982	319.62
287.213	308.62
287.444	317.62
287.675	299.62
287.906	322.62
288.138	333.62
288.369	348.62
288.6	332.62
288.831	331.62
289.062	335.62
289.293	324.62
289.524	324.62
289.755	319.62
289.986	324.62
290.217	327.62
290.448	331.62
290.679	319.62
290.91	329.62
291.141	332.62
291.371	321.62
291.602	332.62
291.833	320.62
292.064	336.62
292.295	308.62
292.526	315.62
292.757	329.62
292.987	341.62
293.218	319.62
293.449	328.62
293.68	343.62
293.91	325.62
294.141	341.62
294.372	339.62
294.603	314.62
294.833	347.62
295.064	346.62
295.295	345.62
295.525	334.62
295.756	331.62
295.987	317.62
296.217	336.62
296.448	346.62
296.679	332.62
296.909	337.62
297.14	341.62
297.37	329.62
297.601	355.62
297.831	352.62
298.062	337.62
298.292	340.62
298.523	349.62
298.753	353.62
298.984	346.62
299.214	350.62
299.445	340.62
299.675	350.62
299.905	349.62
300.136	363.62
300.366	361.62
300.597	349.62
300.827	330.62
301.057	379.62
301.288	347.62
301.518	353.62
301.748	365.62
301.979	358.62
302.209	366.62
302.439	373.62
302.669	383.62
302.9	365.62
303.13	353.62
303.36	365.62
303.59	382.62
303.82	374.62
304.051	391.62
304.281	379.62
304.511	366.62
304.741	353.62
304.971	364.62
305.201	378.62
305.431	363.62
305.661	350.62
305.891	377.62
306.121	387.62
306.352	379.62
306.582	375.62
306.812	371.62
307.042	388.62
307.272	377.62
307.502	355.62
307.731	365.62
307.961	365.62
308.191	377.62
308.421	339.62
308.651	367.62
308.881	376.62
309.111	393.62
309.341	377.62
309.571	374.62
309.8	385.62
310.03	392.62
310.26	401.62
310.49	418.62
310.72	415.62
310.949	408.62
311.179	417.62
311.409	388.62
311.639	405.62
311.868	410.62
312.098	395.62
312.328	426.62
312.557	420.62
312.787	404.62
313.017	406.62
313.246	415.62
313.476	396.62
313.706	415.62
313.935	423.62
314.165	420.62
314.394	424.62
314.624	427.62
314.853	430.62
315.083	421.62
315.312	413.62
315.542	387.62
315.771	396.62
316.001	411.62
316.23	414.62
316.46	422.62
316.689	402.62
316.919	408.62
317.148	419.62
317.377	410.62
317.607	407.62
317.836	414.62
318.065	423.62
318.295	423.62
318.524	408.62
318.753	410.62
318.983	416.62
319.212	417.62
319.441	428.62
319.67	412.62
319.9	416.62
320.129	418.62
320.358	413.62
320.587	425.62
320.816	442.62
321.046	424.62
321.275	415.62
321.504	409.62
321.733	424.62
321.962	440.62
322.191	443.62
322.42	451.62
322.649	444.62
322.878	458.62
323.108	481.62
323.337	471.62
323.566	484.62
323.795	483.62
324.024	535.62
324.253	631.62
324.482	836.62
324.71	1230.62
324.939	1677.62
325.168	1397.62
325.397	771.62
325.626	586.62
325.855	508.62
326.084	499.62
326.313	475.62
326.542	500.62
326.77	518.62
326.999	582.62
327.228	783.62
327.457	1071.62
327.686	1248.62
327.914	875.62
328.143	631.62
328.372	559.62
328.6	553.62
328.829	530.62
329.058	544.62
329.287	527.62
329.515	509.62
329.744	503.62
329.972	509.62
330.201	524.62
330.43	574.62
330.658	569.62
330.887	573.62
331.115	553.62
331.344	505.62
331.572	490.62
331.801	529.62
332.03	492.62
332.258	501.62
332.486	484.62
332.715	461.62
332.943	475.62
333.172	499.62
333.4	489.62
333.629	496.62
333.857	530.62
334.085	518.62
334.314	534.62
334.542	572.62
334.771	566.62
334.999	530.62
335.227	505.62
335.455	503.62
335.684	487.62
335.912	511.62
336.14	485.62
336.369	473.62
336.597	500.62
336.825	481.62
337.053	471.62
337.281	470.62
337.51	476.62
337.738	468.62
337.966	452.62
338.194	469.62
338.422	465.62
338.65	461.62
338.878	471.62
339.106	460.62
339.334	442.62
339.562	475.62
339.79	460.62
340.018	458.62
340.246	472.62
340.474	443.62
340.702	472.62
340.93	443.62
341.158	456.62
341.386	465.62
341.614	455.62
341.842	454.62
342.07	439.62
342.298	434.62
342.526	459.62
342.754	443.62
342.981	441.62
343.209	474.62
343.437	447.62
343.665	464.62
343.893	484.62
344.12	480.62
344.348	476.62
344.576	483.62
344.804	483.62
345.031	461.62
345.259	496.62
345.487	457.62
345.714	462.62
345.942	433.62
346.17	422.62
346.397	440.62
346.625	442.62
346.853	436.62
347.08	447.62
347.308	431.62
347.535	444.62
347.763	437.62
347.99	445.62
348.218	423.62
348.445	443.62
348.673	422.62
348.9	418.62
349.128	423.62
349.355	426.62
349.583	437.62
349.81	412.62
350.037	422.62
350.265	437.62
350.492	408.62
350.72	414.62
350.947	434.62
351.174	447.62
351.402	425.62
351.629	413.62
351.856	430.62
352.083	448.62
352.311	448.62
352.538	415.62
352.765	430.62
352.992	440.62
353.22	425.62
353.447	412.62
353.674	416.62
353.901	410.62
354.128	401.62
354.355	420.62
354.583	412.62
354.81	412.62
355.037	396.62
355.264	396.62
355.491	404.62
355.718	420.62
355.945	397.62
356.172	400.62
356.399	411.62
356.626	401.62
356.853	395.62
357.08	415.62
357.307	382.62
357.534	405.62
357.761	408.62
357.988	406.62
358.215	427.62
358.441	424.62
358.668	418.62
358.895	405.62
359.122	385.62
359.349	423.62
359.576	400.62
359.802	443.62
360.029	445.62
360.256	455.62
360.483	430.62
360.709	424.62
360.936	437.62
361.163	414.62
361.39	387.62
361.616	416.62
361.843	404.62
362.07	427.62
362.296	409.62
362.523	407.62
362.749	429.62
362.976	419.62
363.203	412.62
363.429	417.62
363.656	413.62
363.882	400.62
364.109	389.62
364.335	411.62
364.562	402.62
364.788	406.62
365.015	408.62
365.241	402.62
365.468	407.62
365.694	386.62
365.92	400.62
366.147	416.62
366.373	386.62
366.599	415.62
366.826	401.62
367.052	398.62
367.278	397.62
367.505	407.62
367.731	396.62
367.957	396.62
368.184	404.62
368.41	397.62
368.636	408.62
368.862	395.62
369.089	407.62
369.315	408.62
369.541	417.62
369.767	415.62
369.993	398.62
370.219	391.62
370.445	398.62
370.672	404.62
370.898	409.62
371.124	393.62
371.35	402.62
371.576	384.62
371.802	399.62
372.028	404.62
372.254	413.62
372.48	402.62
372.706	416.62
372.932	393.62
373.158	408.62
373.384	412.62
373.61	431.62
373.835	405.62
374.061	407.62
374.287	399.62
374.513	427.62
374.739	422.62
374.965	411.62
375.191	404.62
375.416	409.62
375.642	421.62
375.868	402.62
376.094	415.62
376.319	408.62
376.545	419.62
376.771	409.62
376.997	384.62
377.222	418.62
377.448	400.62
377.674	393.62
377.899	390.62
378.125	368.62
378.35	402.62
378.576	408.62
378.802	390.62
379.027	393.62
379.253	390.62
379.478	390.62
379.704	408.62
379.929	410.62
380.155	389.62
380.38	387.62
380.606	388.62
380.831	392.62
381.057	394.62
381.282	395.62
381.507	385.62
381.733	404.62
381.958	413.62
382.184	397.62
382.409	408.62
382.634	388.62
382.86	399.62
383.085	395.62
383.31	420.62
383.535	417.62
383.761	410.62
383.986	418.62
384.211	412.62
384.436	412.62
384.662	428.62
384.887	428.62
385.112	441.62
385.337	448.62
385.562	444.62
385.787	448.62
386.013	461.62
386.238	438.62
386.463	439.62
386.688	436.62
386.913	455.62
387.138	427.62
387.363	436.62
387.588	451.62
387.813	445.62
388.038	437.62
388.263	451.62
388.488	444.62
388.713	438.62
388.938	440.62
389.163	432.62
389.387	437.62
389.612	432.62
389.837	446.62
390.062	419.62
390.287	425.62
390.512	431.62
390.736	428.62
390.961	436.62
391.186	440.62
391.411	448.62
391.636	447.62
391.86	442.62
392.085	457.62
392.31	442.62
392.534	428.62
392.759	433.62
392.984	444.62
393.208	437.62
393.433	424.62
393.658	445.62
393.882	458.62
394.107	431.62
394.331	414.62
394.556	441.62
394.78	430.62
395.005	433.62
395.229	481.62
395.454	447.62
395.678	454.62
395.903	457.62
396.127	480.62
396.352	455.62
396.576	451.62
396.801	419.62
397.025	431.62
397.249	460.62
397.474	468.62
397.698	462.62
397.922	473.62
398.147	489.62
398.371	505.62
398.595	492.62
398.82	504.62
399.044	495.62
399.268	523.62
399.492	579.62
399.717	602.62
399.941	581.62
400.165	609.62
400.389	600.62
400.613	569.62
400.837	534.62
401.062	524.62
401.286	505.62
401.51	485.62
401.734	485.62
401.958	492.62
402.182	487.62
402.406	496.62
402.63	484.62
402.854	500.62
403.078	481.62
403.302	499.62
403.526	501.62
403.75	532.62
403.974	523.62
404.198	523.62
404.422	522.62
404.645	525.62
404.869	516.62
405.093	538.62
405.317	566.62
405.541	614.62
405.765	520.62
405.988	526.62
406.212	535.62
406.436	528.62
406.66	566.62
406.883	559.62
407.107	577.62
407.331	593.62
407.555	633.62
407.778	642.62
408.002	595.62
408.226	561.62
408.449	546.62
408.673	542.62
408.896	567.62
409.12	575.62
409.344	563.62
409.567	521.62
409.791	519.62
410.014	519.62
410.238	515.62
410.461	519.62
410.685	501.62
410.908	521.62
411.132	516.62
411.355	589.62
411.578	554.62
411.802	507.62
412.025	491.62
412.249	522.62
412.472	537.62
412.695	563.62
412.919	537.62
413.142	517.62
413.365	498.62
413.589	485.62
413.812	499.62
414.035	481.62
414.258	477.62
414.482	472.62
414.705	446.62
414.928	476.62
415.151	484.62
415.374	465.62
415.597	461.62
415.821	464.62
416.044	473.62
416.267	445.62
416.49	463.62
416.713	468.62
416.936	488.62
417.159	458.62
417.382	468.62
417.605	457.62
417.828	463.62
418.051	476.62
418.274	476.62
418.497	478.62
418.72	469.62
418.943	478.62
419.166	485.62
419.389	487.62
419.611	494.62
419.834	500.62
420.057	497.62
420.28	492.62
420.503	505.62
420.726	462.62
420.948	518.62
421.171	529.62
421.394	532.62
421.617	494.62
421.839	486.62
422.062	473.62
422.285	508.62
422.507	537.62
422.73	614.62
422.953	571.62
423.175	494.62
423.398	500.62
423.621	482.62
423.843	515.62
424.066	511.62
424.288	533.62
424.511	523.62
424.733	575.62
424.956	636.62
425.178	609.62
425.401	604.62
425.623	575.62
425.846	527.62
426.068	509.62
426.291	502.62
426.513	505.62
426.735	517.62
426.958	540.62
427.18	618.62
427.402	685.62
427.625	776.62
427.847	653.62
428.069	573.62
428.292	519.62
428.514	474.62
428.736	463.62
428.958	477.62
429.181	461.62
429.403	453.62
429.625	470.62
429.847	489.62
430.069	525.62
430.292	547.62
430.514	482.62
430.736	455.62
430.958	455.62
431.18	448.62
431.402	452.62
431.624	435.62
431.846	459.62
432.068	438.62
432.29	458.62
432.512	459.62
432.734	443.62
432.956	445.62
433.178	457.62
433.4	456.62
433.622	436.62
433.844	449.62
434.066	452.62
434.287	438.62
434.509	455.62
434.731	451.62
434.953	460.62
435.175	466.62
435.397	496.62
435.618	493.62
435.84	523.62
436.062	593.62
436.284	634.62
436.505	543.62
436.727	499.62
436.949	486.62
437.17	455.62
437.392	463.62
437.614	456.62
437.835	505.62
438.057	573.62
438.278	628.62
438.5	652.62
438.721	691.62
438.943	635.62
439.165	550.62
439.386	513.62
439.608	507.62
439.829	524.62
440.05	524.62
440.272	536.62
440.493	495.62
440.715	462.62
440.936	470.62
441.158	449.62
441.379	444.62
441.6	486.62
441.822	504.62
442.043	534.62
442.264	597.62
442.486	617.62
442.707	524.62
442.928	501.62
443.149	502.62
443.371	547.62
443.592	564.62
443.813	643.62
444.034	662.62
444.255	574.62
444.476	494.62
444.698	531.62
444.919	505.62
445.14	606.62
445.361	559.62
445.582	549.62
445.803	566.62
446.024	641.62
446.245	647.62
446.466	592.62
446.687	515.62
446.908	487.62
447.129	455.62
447.35	446.62
447.571	468.62
447.792	444.62
448.013	445.62
448.234	470.62
448.455	478.62
448.675	579.62
448.896	645.62
449.117	567.62
449.338	550.62
449.559	623.62
449.779	700.62
450	569.62
450.221	481.62
450.442	460.62
450.662	428.62
450.883	462.62
451.104	473.62
451.324	428.62
451.545	434.62
451.766	401.62
451.986	428.62
452.207	409.62
452.428	394.62
452.648	397.62
452.869	389.62
453.089	393.62
453.31	417.62
453.53	428.62
453.751	410.62
453.971	386.62
454.192	415.62
454.412	407.62
454.633	390.62
454.853	400.62
455.073	402.62
455.294	433.62
455.514	469.62
455.734	453.62
455.955	365.62
456.175	391.62
456.395	375.62
456.616	373.62
456.836	372.62
457.056	401.62
457.276	385.62
457.497	380.62
457.717	397.62
457.937	405.62
458.157	408.62
458.377	403.62
458.598	424.62
458.818	469.62
459.038	499.62
459.258	502.62
459.478	451.62
459.698	451.62
459.918	443.62
460.138	441.62
460.358	449.62
460.578	465.62
460.798	458.62
461.018	478.62
461.238	466.62
461.458	448.62
461.678	448.62
461.898	467.62
462.118	441.62
462.338	455.62
462.558	483.62
462.777	469.62
462.997	476.62
463.217	512.62
463.437	519.62
463.657	502.62
463.876	494.62
464.096	486.62
464.316	493.62
464.536	476.62
464.755	494.62
464.975	478.62
465.195	465.62
465.414	500.62
465.634	459.62
465.854	469.62
466.073	420.62
466.293	436.62
466.512	404.62
466.732	424.62
466.951	409.62
467.171	409.62
467.391	404.62
467.61	419.62
467.829	428.62
468.049	432.62
468.268	429.62
468.488	403.62
468.707	407.62
468.927	400.62
469.146	409.62
469.365	407.62
469.585	410.62
469.804	401.62
470.023	426.62
470.243	444.62
470.462	433.62
470.681	432.62
470.901	428.62
471.12	421.62
471.339	410.62
471.558	423.62
471.777	421.62
471.997	422.62
472.216	421.62
472.435	448.62
472.654	431.62
472.873	445.62
473.092	430.62
473.311	408.62
473.53	419.62
473.749	439.62
473.968	470.62
474.187	547.62
474.406	553.62
474.625	468.62
474.844	420.62
475.063	431.62
475.282	416.62
475.501	414.62
475.72	412.62
475.939	436.62
476.158	431.62
476.377	425.62
476.596	433.62
476.814	436.62
477.033	430.62
477.252	437.62
477.471	454.62
477.69	452.62
477.908	452.62
478.127	463.62
478.346	464.62
478.564	475.62
478.783	475.62
479.002	484.62
479.22	480.62
479.439	503.62
479.658	505.62
479.876	528.62
480.095	523.62
480.313	516.62
480.532	516.62
480.751	521.62
480.969	540.62
481.188	559.62
481.406	576.62
481.624	532.62
481.843	512.62
482.061	506.62
482.28	482.62
482.498	515.62
482.717	484.62
482.935	471.62
483.153	489.62
483.372	454.62
483.59	480.62
483.808	491.62
484.027	480.62
484.245	473.62
484.463	460.62
484.681	492.62
484.9	496.62
485.118	497.62
485.336	502.62
485.554	495.62
485.772	480.62
485.99	467.62
486.209	515.62
486.427	500.62
486.645	494.62
486.863	520.62
487.081	518.62
487.299	514.62
487.517	520.62
487.735	532.62
487.953	511.62
488.171	525.62
488.389	519.62
488.607	497.62
488.825	541.62
489.043	518.62
489.261	515.62
489.479	540.62
489.696	539.62
489.914	539.62
490.132	524.62
490.35	536.62
490.568	547.62
490.786	558.62
491.003	560.62
491.221	551.62
491.439	557.62
491.657	576.62
491.874	573.62
492.092	576.62
492.31	593.62
492.527	577.62
492.745	585.62
492.963	608.62
493.18	584.62
493.398	597.62
493.615	583.62
493.833	588.62
494.05	600.62
494.268	589.62
494.485	593.62
494.703	588.62
494.92	585.62
495.138	601.62
495.355	582.62
495.573	612.62
495.79	579.62
496.008	593.62
496.225	593.62
496.442	601.62
496.66	609.62
496.877	612.62
497.094	629.62
497.312	636.62
497.529	623.62
497.746	629.62
497.963	636.62
498.181	649.62
498.398	665.62
498.615	683.62
498.832	727.62
499.049	738.62
499.267	746.62
499.484	759.62
499.701	790.62
499.918	842.62
500.135	859.62
500.352	900.62
500.569	930.62
500.786	930.62
501.003	904.62
501.22	895.62
501.437	884.62
501.654	810.62
501.871	789.62
