Data from 1964.PennyLincolnUp.Lamp.En5.5.200Scan.071719.P1._HRD10591_14-04-15-908.txt Node
Date: Thu Jul 18 14:04:15 EDT 2019
User: cochatt
Spectrometer: HR+D1059
Trigger mode: 1
Integration Time (sec): 1.000000E-1
Scans to average: 1
Electric dark correction enabled: true
Nonlinearity correction enabled: false
Boxcar width: 0
XAxis mode: Wavelengths
Number of Pixels in Spectrum: 2048
>>>>>Begin Spectral Data<<<<<
223.165	-20.88
223.4	-20.88
223.635	-20.88
223.869	-9.88
224.104	-17.88
224.338	-14.88
224.573	-12.88
224.808	-7.88
225.042	-9.88
225.277	-9.88
225.511	-4.88
225.746	-9.88
225.98	4.12
226.215	13.12
226.449	15.12
226.683	33.12
226.918	27.12
227.152	26.12
227.387	30.12
227.621	30.12
227.856	22.12
228.09	54.12
228.324	48.12
228.559	55.12
228.793	74.12
229.027	94.12
229.262	96.12
229.496	98.12
229.73	104.12
229.964	127.12
230.199	116.12
230.433	102.12
230.667	109.12
230.901	105.12
231.136	110.12
231.37	94.12
231.604	110.12
231.838	103.12
232.072	102.12
232.306	113.12
232.541	97.12
232.775	94.12
233.009	104.12
233.243	117.12
233.477	113.12
233.711	115.12
233.945	107.12
234.179	117.12
234.413	115.12
234.647	103.12
234.881	105.12
235.115	106.12
235.349	115.12
235.583	123.12
235.817	116.12
236.051	111.12
236.285	115.12
236.519	113.12
236.753	125.12
236.987	131.12
237.221	147.12
237.455	167.12
237.689	153.12
237.922	131.12
238.156	127.12
238.39	122.12
238.624	115.12
238.858	127.12
239.091	115.12
239.325	117.12
239.559	110.12
239.793	113.12
240.027	126.12
240.26	125.12
240.494	134.12
240.728	134.12
240.961	131.12
241.195	149.12
241.429	121.12
241.662	125.12
241.896	118.12
242.13	116.12
242.363	133.12
242.597	131.12
242.83	137.12
243.064	136.12
243.298	126.12
243.531	133.12
243.765	127.12
243.998	129.12
244.232	129.12
244.465	143.12
244.699	137.12
244.932	142.12
245.166	136.12
245.399	142.12
245.633	134.12
245.866	136.12
246.099	143.12
246.333	145.12
246.566	135.12
246.8	142.12
247.033	152.12
247.266	149.12
247.5	162.12
247.733	168.12
247.966	165.12
248.2	169.12
248.433	167.12
248.666	147.12
248.899	175.12
249.133	186.12
249.366	186.12
249.599	163.12
249.832	177.12
250.066	163.12
250.299	166.12
250.532	175.12
250.765	186.12
250.998	188.12
251.231	200.12
251.465	197.12
251.698	190.12
251.931	193.12
252.164	186.12
252.397	201.12
252.63	195.12
252.863	198.12
253.096	206.12
253.329	189.12
253.562	210.12
253.795	207.12
254.028	203.12
254.261	189.12
254.494	217.12
254.727	215.12
254.96	240.12
255.193	229.12
255.426	212.12
255.659	193.12
255.892	192.12
256.124	202.12
256.357	230.12
256.59	215.12
256.823	217.12
257.056	212.12
257.289	200.12
257.521	186.12
257.754	202.12
257.987	183.12
258.22	206.12
258.452	181.12
258.685	207.12
258.918	198.12
259.151	201.12
259.383	220.12
259.616	205.12
259.849	220.12
260.081	207.12
260.314	230.12
260.547	244.12
260.779	228.12
261.012	210.12
261.244	211.12
261.477	220.12
261.71	204.12
261.942	218.12
262.175	206.12
262.407	210.12
262.64	204.12
262.872	197.12
263.105	210.12
263.337	199.12
263.57	213.12
263.802	203.12
264.035	219.12
264.267	206.12
264.499	213.12
264.732	215.12
264.964	203.12
265.197	214.12
265.429	216.12
265.661	214.12
265.894	228.12
266.126	213.12
266.358	215.12
266.591	222.12
266.823	235.12
267.055	214.12
267.287	215.12
267.52	219.12
267.752	218.12
267.984	230.12
268.216	231.12
268.448	215.12
268.681	232.12
268.913	231.12
269.145	248.12
269.377	276.12
269.609	258.12
269.841	267.12
270.073	259.12
270.306	256.12
270.538	293.12
270.77	270.12
271.002	270.12
271.234	269.12
271.466	272.12
271.698	281.12
271.93	286.12
272.162	300.12
272.394	298.12
272.626	277.12
272.858	282.12
273.09	274.12
273.322	260.12
273.553	259.12
273.785	255.12
274.017	257.12
274.249	257.12
274.481	275.12
274.713	265.12
274.945	265.12
275.176	271.12
275.408	243.12
275.64	260.12
275.872	265.12
276.104	287.12
276.335	269.12
276.567	275.12
276.799	276.12
277.031	281.12
277.262	308.12
277.494	298.12
277.726	282.12
277.957	285.12
278.189	271.12
278.421	291.12
278.652	269.12
278.884	263.12
279.115	280.12
279.347	273.12
279.579	281.12
279.81	265.12
280.042	284.12
280.273	264.12
280.505	263.12
280.736	271.12
280.968	277.12
281.199	294.12
281.431	295.12
281.662	285.12
281.894	272.12
282.125	279.12
282.356	286.12
282.588	292.12
282.819	297.12
283.051	293.12
283.282	291.12
283.513	280.12
283.745	296.12
283.976	277.12
284.207	283.12
284.439	281.12
284.67	307.12
284.901	293.12
285.132	284.12
285.364	280.12
285.595	271.12
285.826	279.12
286.057	285.12
286.288	282.12
286.52	301.12
286.751	302.12
286.982	292.12
287.213	271.12
287.444	296.12
287.675	300.12
287.906	315.12
288.138	305.12
288.369	311.12
288.6	302.12
288.831	317.12
289.062	321.12
289.293	294.12
289.524	327.12
289.755	280.12
289.986	289.12
290.217	286.12
290.448	302.12
290.679	317.12
290.91	293.12
291.141	311.12
291.371	306.12
291.602	305.12
291.833	303.12
292.064	309.12
292.295	305.12
292.526	289.12
292.757	300.12
292.987	293.12
293.218	313.12
293.449	296.12
293.68	300.12
293.91	293.12
294.141	279.12
294.372	298.12
294.603	303.12
294.833	325.12
295.064	313.12
295.295	309.12
295.525	332.12
295.756	309.12
295.987	323.12
296.217	343.12
296.448	321.12
296.679	302.12
296.909	323.12
297.14	331.12
297.37	302.12
297.601	323.12
297.831	302.12
298.062	310.12
298.292	307.12
298.523	315.12
298.753	313.12
298.984	313.12
299.214	317.12
299.445	310.12
299.675	305.12
299.905	322.12
300.136	338.12
300.366	309.12
300.597	318.12
300.827	319.12
301.057	329.12
301.288	331.12
301.518	348.12
301.748	336.12
301.979	319.12
302.209	355.12
302.439	347.12
302.669	351.12
302.9	360.12
303.13	327.12
303.36	325.12
303.59	340.12
303.82	329.12
304.051	354.12
304.281	345.12
304.511	339.12
304.741	327.12
304.971	344.12
305.201	326.12
305.431	350.12
305.661	321.12
305.891	331.12
306.121	355.12
306.352	354.12
306.582	348.12
306.812	351.12
307.042	342.12
307.272	338.12
307.502	342.12
307.731	353.12
307.961	329.12
308.191	350.12
308.421	339.12
308.651	341.12
308.881	354.12
309.111	332.12
309.341	330.12
309.571	379.12
309.8	339.12
310.03	359.12
310.26	363.12
310.49	350.12
310.72	358.12
310.949	381.12
311.179	381.12
311.409	374.12
311.639	385.12
311.868	396.12
312.098	361.12
312.328	379.12
312.557	385.12
312.787	391.12
313.017	373.12
313.246	358.12
313.476	363.12
313.706	375.12
313.935	375.12
314.165	356.12
314.394	393.12
314.624	391.12
314.853	394.12
315.083	360.12
315.312	375.12
315.542	372.12
315.771	381.12
316.001	372.12
316.23	376.12
316.46	377.12
316.689	381.12
316.919	370.12
317.148	380.12
317.377	391.12
317.607	396.12
317.836	376.12
318.065	373.12
318.295	379.12
318.524	370.12
318.753	379.12
318.983	357.12
319.212	369.12
319.441	380.12
319.67	372.12
319.9	374.12
320.129	364.12
320.358	369.12
320.587	366.12
320.816	398.12
321.046	385.12
321.275	381.12
321.504	379.12
321.733	375.12
321.962	391.12
322.191	410.12
322.42	407.12
322.649	405.12
322.878	409.12
323.108	419.12
323.337	424.12
323.566	430.12
323.795	455.12
324.024	466.12
324.253	547.12
324.482	695.12
324.71	1006.12
324.939	1363.12
325.168	1173.12
325.397	644.12
325.626	501.12
325.855	462.12
326.084	429.12
326.313	423.12
326.542	435.12
326.77	473.12
326.999	530.12
327.228	674.12
327.457	893.12
327.686	1025.12
327.914	718.12
328.143	531.12
328.372	509.12
328.6	485.12
328.829	458.12
329.058	492.12
329.287	465.12
329.515	463.12
329.744	457.12
329.972	467.12
330.201	482.12
330.43	499.12
330.658	496.12
330.887	517.12
331.115	490.12
331.344	463.12
331.572	468.12
331.801	470.12
332.03	442.12
332.258	448.12
332.486	445.12
332.715	459.12
332.943	435.12
333.172	445.12
333.4	459.12
333.629	457.12
333.857	460.12
334.085	494.12
334.314	502.12
334.542	517.12
334.771	516.12
334.999	485.12
335.227	478.12
335.455	458.12
335.684	449.12
335.912	471.12
336.14	431.12
336.369	467.12
336.597	451.12
336.825	445.12
337.053	429.12
337.281	445.12
337.51	430.12
337.738	438.12
337.966	424.12
338.194	427.12
338.422	455.12
338.65	426.12
338.878	431.12
339.106	415.12
339.334	437.12
339.562	423.12
339.79	399.12
340.018	412.12
340.246	406.12
340.474	427.12
340.702	415.12
340.93	430.12
341.158	422.12
341.386	393.12
341.614	411.12
341.842	399.12
342.07	425.12
342.298	413.12
342.526	392.12
342.754	426.12
342.981	416.12
343.209	435.12
343.437	430.12
343.665	426.12
343.893	445.12
344.12	454.12
344.348	446.12
344.576	428.12
344.804	441.12
345.031	419.12
345.259	433.12
345.487	428.12
345.714	394.12
345.942	402.12
346.17	409.12
346.397	395.12
346.625	383.12
346.853	393.12
347.08	412.12
347.308	408.12
347.535	405.12
347.763	394.12
347.99	393.12
348.218	403.12
348.445	387.12
348.673	402.12
348.9	412.12
349.128	410.12
349.355	386.12
349.583	397.12
349.81	380.12
350.037	414.12
350.265	395.12
350.492	376.12
350.72	395.12
350.947	392.12
351.174	389.12
351.402	396.12
351.629	399.12
351.856	393.12
352.083	401.12
352.311	404.12
352.538	411.12
352.765	389.12
352.992	397.12
353.22	403.12
353.447	391.12
353.674	378.12
353.901	375.12
354.128	383.12
354.355	374.12
354.583	366.12
354.81	387.12
355.037	378.12
355.264	379.12
355.491	389.12
355.718	372.12
355.945	362.12
356.172	385.12
356.399	371.12
356.626	381.12
356.853	366.12
357.08	377.12
357.307	369.12
357.534	365.12
357.761	377.12
357.988	385.12
358.215	371.12
358.441	372.12
358.668	373.12
358.895	384.12
359.122	380.12
359.349	368.12
359.576	383.12
359.802	403.12
360.029	407.12
360.256	403.12
360.483	389.12
360.709	374.12
360.936	397.12
361.163	394.12
361.39	371.12
361.616	364.12
361.843	397.12
362.07	353.12
362.296	393.12
362.523	375.12
362.749	385.12
362.976	394.12
363.203	370.12
363.429	358.12
363.656	399.12
363.882	369.12
364.109	360.12
364.335	409.12
364.562	371.12
364.788	369.12
365.015	353.12
365.241	359.12
365.468	381.12
365.694	358.12
365.92	355.12
366.147	381.12
366.373	369.12
366.599	380.12
366.826	366.12
367.052	378.12
367.278	372.12
367.505	371.12
367.731	363.12
367.957	375.12
368.184	373.12
368.41	387.12
368.636	351.12
368.862	368.12
369.089	378.12
369.315	393.12
369.541	378.12
369.767	383.12
369.993	375.12
370.219	362.12
370.445	371.12
370.672	363.12
370.898	379.12
371.124	369.12
371.35	380.12
371.576	359.12
371.802	379.12
372.028	377.12
372.254	370.12
372.48	377.12
372.706	365.12
372.932	389.12
373.158	383.12
373.384	379.12
373.61	388.12
373.835	377.12
374.061	372.12
374.287	375.12
374.513	384.12
374.739	380.12
374.965	379.12
375.191	382.12
375.416	378.12
375.642	373.12
375.868	366.12
376.094	361.12
376.319	397.12
376.545	385.12
376.771	386.12
376.997	374.12
377.222	358.12
377.448	375.12
377.674	385.12
377.899	361.12
378.125	369.12
378.35	369.12
378.576	357.12
378.802	371.12
379.027	352.12
379.253	358.12
379.478	357.12
379.704	361.12
379.929	364.12
380.155	362.12
380.38	364.12
380.606	366.12
380.831	378.12
381.057	377.12
381.282	355.12
381.507	366.12
381.733	393.12
381.958	377.12
382.184	380.12
382.409	369.12
382.634	373.12
382.86	375.12
383.085	375.12
383.31	385.12
383.535	397.12
383.761	366.12
383.986	383.12
384.211	373.12
384.436	383.12
384.662	400.12
384.887	381.12
385.112	385.12
385.337	404.12
385.562	396.12
385.787	403.12
386.013	409.12
386.238	422.12
386.463	425.12
386.688	421.12
386.913	390.12
387.138	409.12
387.363	399.12
387.588	407.12
387.813	406.12
388.038	392.12
388.263	402.12
388.488	407.12
388.713	418.12
388.938	420.12
389.163	413.12
389.387	415.12
389.612	390.12
389.837	393.12
390.062	397.12
390.287	404.12
390.512	406.12
390.736	400.12
390.961	400.12
391.186	427.12
391.411	411.12
391.636	428.12
391.86	418.12
392.085	417.12
392.31	417.12
392.534	423.12
392.759	410.12
392.984	399.12
393.208	417.12
393.433	426.12
393.658	393.12
393.882	397.12
394.107	402.12
394.331	389.12
394.556	396.12
394.78	422.12
395.005	406.12
395.229	411.12
395.454	405.12
395.678	423.12
395.903	436.12
396.127	437.12
396.352	442.12
396.576	430.12
396.801	407.12
397.025	429.12
397.249	428.12
397.474	437.12
397.698	449.12
397.922	438.12
398.147	479.12
398.371	450.12
398.595	418.12
398.82	475.12
399.044	456.12
399.268	478.12
399.492	518.12
399.717	533.12
399.941	542.12
400.165	562.12
400.389	561.12
400.613	506.12
400.837	475.12
401.062	486.12
401.286	469.12
401.51	462.12
401.734	449.12
401.958	442.12
402.182	464.12
402.406	468.12
402.63	464.12
402.854	467.12
403.078	466.12
403.302	477.12
403.526	471.12
403.75	463.12
403.974	468.12
404.198	471.12
404.422	477.12
404.645	481.12
404.869	470.12
405.093	509.12
405.317	524.12
405.541	521.12
405.765	513.12
405.988	476.12
406.212	509.12
406.436	481.12
406.66	491.12
406.883	485.12
407.107	520.12
407.331	546.12
407.555	568.12
407.778	601.12
408.002	534.12
408.226	509.12
408.449	517.12
408.673	507.12
408.896	523.12
409.12	539.12
409.344	520.12
409.567	497.12
409.791	478.12
410.014	485.12
410.238	483.12
410.461	462.12
410.685	462.12
410.908	464.12
411.132	497.12
411.355	507.12
411.578	511.12
411.802	463.12
412.025	461.12
412.249	457.12
412.472	499.12
412.695	506.12
412.919	514.12
413.142	477.12
413.365	458.12
413.589	438.12
413.812	446.12
414.035	454.12
414.258	448.12
414.482	433.12
414.705	438.12
414.928	436.12
415.151	435.12
415.374	429.12
415.597	431.12
415.821	434.12
416.044	429.12
416.267	411.12
416.49	431.12
416.713	440.12
416.936	430.12
417.159	425.12
417.382	419.12
417.605	426.12
417.828	453.12
418.051	441.12
418.274	424.12
418.497	442.12
418.72	450.12
418.943	441.12
419.166	435.12
419.389	446.12
419.611	457.12
419.834	452.12
420.057	461.12
420.28	457.12
420.503	438.12
420.726	451.12
420.948	465.12
421.171	482.12
421.394	494.12
421.617	473.12
421.839	449.12
422.062	464.12
422.285	471.12
422.507	485.12
422.73	545.12
422.953	539.12
423.175	471.12
423.398	459.12
423.621	452.12
423.843	477.12
424.066	468.12
424.288	461.12
424.511	488.12
424.733	506.12
424.956	573.12
425.178	538.12
425.401	533.12
425.623	529.12
425.846	489.12
426.068	470.12
426.291	446.12
426.513	455.12
426.735	452.12
426.958	486.12
427.18	543.12
427.402	604.12
427.625	677.12
427.847	571.12
428.069	518.12
428.292	461.12
428.514	456.12
428.736	452.12
428.958	419.12
429.181	403.12
429.403	411.12
429.625	420.12
429.847	449.12
430.069	496.12
430.292	482.12
430.514	428.12
430.736	438.12
430.958	414.12
431.18	406.12
431.402	412.12
431.624	397.12
431.846	414.12
432.068	402.12
432.29	394.12
432.512	396.12
432.734	413.12
432.956	420.12
433.178	401.12
433.4	394.12
433.622	408.12
433.844	392.12
434.066	400.12
434.287	424.12
434.509	419.12
434.731	423.12
434.953	425.12
435.175	452.12
435.397	458.12
435.618	462.12
435.84	485.12
436.062	552.12
436.284	567.12
436.505	482.12
436.727	453.12
436.949	431.12
437.17	434.12
437.392	427.12
437.614	427.12
437.835	436.12
438.057	515.12
438.278	572.12
438.5	585.12
438.721	632.12
438.943	601.12
439.165	488.12
439.386	461.12
439.608	450.12
439.829	455.12
440.05	465.12
440.272	493.12
440.493	485.12
440.715	425.12
440.936	450.12
441.158	433.12
441.379	424.12
441.6	461.12
441.822	435.12
442.043	483.12
442.264	531.12
442.486	529.12
442.707	490.12
442.928	458.12
443.149	477.12
443.371	489.12
443.592	509.12
443.813	568.12
444.034	591.12
444.255	498.12
444.476	453.12
444.698	475.12
444.919	471.12
445.14	577.12
445.361	521.12
445.582	487.12
445.803	516.12
446.024	565.12
446.245	586.12
446.466	505.12
446.687	463.12
446.908	451.12
447.129	416.12
447.35	403.12
447.571	439.12
447.792	426.12
448.013	420.12
448.234	427.12
448.455	443.12
448.675	531.12
448.896	625.12
449.117	525.12
449.338	505.12
449.559	580.12
449.779	630.12
450	519.12
450.221	452.12
450.442	415.12
450.662	393.12
450.883	407.12
451.104	390.12
451.324	397.12
451.545	389.12
451.766	391.12
451.986	378.12
452.207	387.12
452.428	377.12
452.648	394.12
452.869	367.12
453.089	392.12
453.31	376.12
453.53	366.12
453.751	364.12
453.971	372.12
454.192	385.12
454.412	367.12
454.633	375.12
454.853	378.12
455.073	362.12
455.294	367.12
455.514	449.12
455.734	398.12
455.955	362.12
456.175	366.12
456.395	359.12
456.616	359.12
456.836	366.12
457.056	365.12
457.276	340.12
457.497	349.12
457.717	356.12
457.937	377.12
458.157	368.12
458.377	372.12
458.598	384.12
458.818	398.12
459.038	449.12
459.258	462.12
459.478	413.12
459.698	410.12
459.918	417.12
460.138	393.12
460.358	410.12
460.578	418.12
460.798	413.12
461.018	441.12
461.238	401.12
461.458	426.12
461.678	426.12
461.898	414.12
462.118	433.12
462.338	435.12
462.558	438.12
462.777	462.12
462.997	460.12
463.217	477.12
463.437	481.12
463.657	458.12
463.876	446.12
464.096	445.12
464.316	443.12
464.536	452.12
464.755	458.12
464.975	441.12
465.195	461.12
465.414	482.12
465.634	449.12
465.854	421.12
466.073	391.12
466.293	392.12
466.512	386.12
466.732	396.12
466.951	381.12
467.171	378.12
467.391	396.12
467.61	400.12
467.829	405.12
468.049	380.12
468.268	371.12
468.488	377.12
468.707	369.12
468.927	366.12
469.146	373.12
469.365	373.12
469.585	368.12
469.804	393.12
470.023	391.12
470.243	404.12
470.462	386.12
470.681	395.12
470.901	380.12
471.12	393.12
471.339	383.12
471.558	374.12
471.777	381.12
471.997	374.12
472.216	387.12
472.435	409.12
472.654	409.12
472.873	384.12
473.092	382.12
473.311	392.12
473.53	405.12
473.749	403.12
473.968	414.12
474.187	493.12
474.406	492.12
474.625	438.12
474.844	379.12
475.063	411.12
475.282	386.12
475.501	391.12
475.72	396.12
475.939	413.12
476.158	386.12
476.377	391.12
476.596	395.12
476.814	407.12
477.033	415.12
477.252	424.12
477.471	422.12
477.69	395.12
477.908	423.12
478.127	424.12
478.346	444.12
478.564	421.12
478.783	463.12
479.002	436.12
479.22	467.12
479.439	459.12
479.658	476.12
479.876	438.12
480.095	482.12
480.313	481.12
480.532	470.12
480.751	497.12
480.969	473.12
481.188	486.12
481.406	508.12
481.624	489.12
481.843	463.12
482.061	467.12
482.28	463.12
482.498	446.12
482.717	441.12
482.935	455.12
483.153	445.12
483.372	451.12
483.59	437.12
483.808	435.12
484.027	439.12
484.245	449.12
484.463	455.12
484.681	460.12
484.9	464.12
485.118	459.12
485.336	464.12
485.554	464.12
485.772	488.12
485.99	469.12
486.209	473.12
486.427	481.12
486.645	480.12
486.863	467.12
487.081	479.12
487.299	470.12
487.517	473.12
487.735	488.12
487.953	476.12
488.171	470.12
488.389	472.12
488.607	483.12
488.825	482.12
489.043	489.12
489.261	490.12
489.479	475.12
489.696	477.12
489.914	483.12
490.132	498.12
490.35	479.12
490.568	505.12
490.786	500.12
491.003	494.12
491.221	502.12
491.439	511.12
491.657	515.12
491.874	509.12
492.092	523.12
492.31	520.12
492.527	545.12
492.745	547.12
492.963	539.12
493.18	537.12
493.398	515.12
493.615	533.12
493.833	536.12
494.05	541.12
494.268	541.12
494.485	555.12
494.703	534.12
494.92	554.12
495.138	533.12
495.355	537.12
495.573	560.12
495.79	536.12
496.008	557.12
496.225	538.12
496.442	563.12
496.66	563.12
496.877	557.12
497.094	570.12
497.312	548.12
497.529	549.12
497.746	578.12
497.963	591.12
498.181	594.12
498.398	610.12
498.615	639.12
498.832	647.12
499.049	683.12
499.267	679.12
499.484	702.12
499.701	730.12
499.918	785.12
500.135	815.12
500.352	841.12
500.569	857.12
500.786	881.12
501.003	836.12
501.22	818.12
501.437	794.12
501.654	754.12
501.871	731.12
502.088	681.12
