Data from 1964.PennyLincolnUp.Lamp.En5.5.200Scan.071719.P1._HRD10591_14-06-19-910.txt Node
Date: Thu Jul 18 14:06:19 EDT 2019
User: cochatt
Spectrometer: HR+D1059
Trigger mode: 1
Integration Time (sec): 1.000000E-1
Scans to average: 1
Electric dark correction enabled: true
Nonlinearity correction enabled: false
Boxcar width: 0
XAxis mode: Wavelengths
Number of Pixels in Spectrum: 2048
>>>>>Begin Spectral Data<<<<<
223.165	-7.88
223.4	-7.88
223.635	-7.88
223.869	-11.88
224.104	-11.88
224.338	-2.88
224.573	-20.88
224.808	-16.88
225.042	-8.88
225.277	-4.88
225.511	6.12
225.746	1.12
225.98	10.12
226.215	6.12
226.449	15.12
226.683	12.12
226.918	26.12
227.152	9.12
227.387	28.12
227.621	39.12
227.856	40.12
228.09	41.12
228.324	53.12
228.559	54.12
228.793	67.12
229.027	79.12
229.262	107.12
229.496	104.12
229.73	121.12
229.964	140.12
230.199	121.12
230.433	109.12
230.667	120.12
230.901	118.12
231.136	94.12
231.37	114.12
231.604	104.12
231.838	107.12
232.072	122.12
232.306	120.12
232.541	107.12
232.775	100.12
233.009	125.12
233.243	122.12
233.477	121.12
233.711	107.12
233.945	118.12
234.179	104.12
234.413	122.12
234.647	124.12
234.881	141.12
235.115	122.12
235.349	106.12
235.583	120.12
235.817	126.12
236.051	119.12
236.285	124.12
236.519	123.12
236.753	128.12
236.987	143.12
237.221	154.12
237.455	220.12
237.689	180.12
237.922	139.12
238.156	127.12
238.39	136.12
238.624	132.12
238.858	115.12
239.091	145.12
239.325	137.12
239.559	127.12
239.793	127.12
240.027	145.12
240.26	143.12
240.494	151.12
240.728	152.12
240.961	148.12
241.195	147.12
241.429	128.12
241.662	148.12
241.896	134.12
242.13	144.12
242.363	140.12
242.597	148.12
242.83	145.12
243.064	137.12
243.298	135.12
243.531	141.12
243.765	139.12
243.998	144.12
244.232	155.12
244.465	140.12
244.699	132.12
244.932	145.12
245.166	152.12
245.399	138.12
245.633	149.12
245.866	160.12
246.099	143.12
246.333	144.12
246.566	156.12
246.8	144.12
247.033	168.12
247.266	165.12
247.5	151.12
247.733	179.12
247.966	178.12
248.2	169.12
248.433	175.12
248.666	169.12
248.899	188.12
249.133	190.12
249.366	189.12
249.599	192.12
249.832	198.12
250.066	188.12
250.299	188.12
250.532	193.12
250.765	210.12
250.998	222.12
251.231	234.12
251.465	204.12
251.698	212.12
251.931	194.12
252.164	191.12
252.397	191.12
252.63	186.12
252.863	208.12
253.096	223.12
253.329	212.12
253.562	209.12
253.795	214.12
254.028	222.12
254.261	240.12
254.494	220.12
254.727	240.12
254.96	276.12
255.193	270.12
255.426	259.12
255.659	242.12
255.892	242.12
256.124	225.12
256.357	248.12
256.59	231.12
256.823	229.12
257.056	215.12
257.289	229.12
257.521	235.12
257.754	202.12
257.987	237.12
258.22	225.12
258.452	220.12
258.685	225.12
258.918	216.12
259.151	219.12
259.383	230.12
259.616	230.12
259.849	231.12
260.081	228.12
260.314	274.12
260.547	276.12
260.779	260.12
261.012	254.12
261.244	235.12
261.477	235.12
261.71	230.12
261.942	237.12
262.175	236.12
262.407	244.12
262.64	231.12
262.872	227.12
263.105	232.12
263.337	242.12
263.57	223.12
263.802	252.12
264.035	238.12
264.267	243.12
264.499	224.12
264.732	221.12
264.964	238.12
265.197	226.12
265.429	226.12
265.661	232.12
265.894	222.12
266.126	241.12
266.358	237.12
266.591	236.12
266.823	248.12
267.055	241.12
267.287	263.12
267.52	243.12
267.752	261.12
267.984	243.12
268.216	250.12
268.448	235.12
268.681	255.12
268.913	264.12
269.145	282.12
269.377	300.12
269.609	290.12
269.841	268.12
270.073	295.12
270.306	302.12
270.538	328.12
270.77	329.12
271.002	303.12
271.234	325.12
271.466	328.12
271.698	322.12
271.93	319.12
272.162	320.12
272.394	323.12
272.626	315.12
272.858	317.12
273.09	293.12
273.322	297.12
273.553	282.12
273.785	289.12
274.017	280.12
274.249	284.12
274.481	283.12
274.713	279.12
274.945	299.12
275.176	307.12
275.408	293.12
275.64	275.12
275.872	286.12
276.104	290.12
276.335	285.12
276.567	313.12
276.799	310.12
277.031	341.12
277.262	339.12
277.494	335.12
277.726	322.12
277.957	295.12
278.189	300.12
278.421	309.12
278.652	310.12
278.884	308.12
279.115	303.12
279.347	300.12
279.579	292.12
279.81	293.12
280.042	290.12
280.273	291.12
280.505	298.12
280.736	298.12
280.968	307.12
281.199	317.12
281.431	307.12
281.662	306.12
281.894	314.12
282.125	309.12
282.356	308.12
282.588	316.12
282.819	330.12
283.051	321.12
283.282	298.12
283.513	314.12
283.745	310.12
283.976	328.12
284.207	334.12
284.439	314.12
284.67	300.12
284.901	290.12
285.132	317.12
285.364	300.12
285.595	295.12
285.826	298.12
286.057	334.12
286.288	328.12
286.52	330.12
286.751	328.12
286.982	327.12
287.213	317.12
287.444	333.12
287.675	327.12
287.906	321.12
288.138	334.12
288.369	349.12
288.6	342.12
288.831	322.12
289.062	355.12
289.293	322.12
289.524	327.12
289.755	331.12
289.986	335.12
290.217	336.12
290.448	328.12
290.679	328.12
290.91	344.12
291.141	334.12
291.371	336.12
291.602	342.12
291.833	325.12
292.064	350.12
292.295	339.12
292.526	329.12
292.757	312.12
292.987	334.12
293.218	324.12
293.449	343.12
293.68	326.12
293.91	355.12
294.141	338.12
294.372	333.12
294.603	323.12
294.833	332.12
295.064	327.12
295.295	323.12
295.525	339.12
295.756	332.12
295.987	356.12
296.217	364.12
296.448	348.12
296.679	357.12
296.909	347.12
297.14	348.12
297.37	339.12
297.601	355.12
297.831	350.12
298.062	358.12
298.292	354.12
298.523	360.12
298.753	374.12
298.984	366.12
299.214	358.12
299.445	371.12
299.675	363.12
299.905	343.12
300.136	362.12
300.366	351.12
300.597	372.12
300.827	347.12
301.057	378.12
301.288	370.12
301.518	359.12
301.748	384.12
301.979	369.12
302.209	398.12
302.439	384.12
302.669	374.12
302.9	373.12
303.13	376.12
303.36	379.12
303.59	368.12
303.82	401.12
304.051	390.12
304.281	381.12
304.511	370.12
304.741	356.12
304.971	364.12
305.201	378.12
305.431	375.12
305.661	378.12
305.891	366.12
306.121	378.12
306.352	380.12
306.582	389.12
306.812	384.12
307.042	372.12
307.272	380.12
307.502	371.12
307.731	388.12
307.961	377.12
308.191	367.12
308.421	383.12
308.651	385.12
308.881	402.12
309.111	381.12
309.341	380.12
309.571	400.12
309.8	391.12
310.03	415.12
310.26	407.12
310.49	417.12
310.72	438.12
310.949	424.12
311.179	414.12
311.409	402.12
311.639	410.12
311.868	415.12
312.098	420.12
312.328	418.12
312.557	425.12
312.787	447.12
313.017	438.12
313.246	438.12
313.476	443.12
313.706	411.12
313.935	412.12
314.165	437.12
314.394	444.12
314.624	419.12
314.853	422.12
315.083	430.12
315.312	445.12
315.542	411.12
315.771	420.12
316.001	401.12
316.23	401.12
316.46	415.12
316.689	441.12
316.919	439.12
317.148	429.12
317.377	449.12
317.607	418.12
317.836	425.12
318.065	408.12
318.295	410.12
318.524	424.12
318.753	414.12
318.983	393.12
319.212	419.12
319.441	430.12
319.67	434.12
319.9	405.12
320.129	408.12
320.358	414.12
320.587	426.12
320.816	413.12
321.046	435.12
321.275	440.12
321.504	426.12
321.733	426.12
321.962	436.12
322.191	442.12
322.42	459.12
322.649	461.12
322.878	459.12
323.108	459.12
323.337	477.12
323.566	512.12
323.795	533.12
324.024	576.12
324.253	627.12
324.482	878.12
324.71	1301.12
324.939	1762.12
325.168	1528.12
325.397	810.12
325.626	587.12
325.855	536.12
326.084	494.12
326.313	516.12
326.542	504.12
326.77	556.12
326.999	634.12
327.228	802.12
327.457	1154.12
327.686	1348.12
327.914	911.12
328.143	646.12
328.372	585.12
328.6	590.12
328.829	555.12
329.058	576.12
329.287	546.12
329.515	524.12
329.744	539.12
329.972	519.12
330.201	533.12
330.43	564.12
330.658	592.12
330.887	574.12
331.115	589.12
331.344	524.12
331.572	506.12
331.801	512.12
332.03	496.12
332.258	525.12
332.486	495.12
332.715	495.12
332.943	505.12
333.172	512.12
333.4	516.12
333.629	522.12
333.857	525.12
334.085	539.12
334.314	550.12
334.542	576.12
334.771	579.12
334.999	569.12
335.227	516.12
335.455	528.12
335.684	513.12
335.912	498.12
336.14	493.12
336.369	493.12
336.597	491.12
336.825	496.12
337.053	487.12
337.281	502.12
337.51	470.12
337.738	485.12
337.966	472.12
338.194	488.12
338.422	478.12
338.65	475.12
338.878	489.12
339.106	484.12
339.334	476.12
339.562	486.12
339.79	453.12
340.018	472.12
340.246	458.12
340.474	487.12
340.702	459.12
340.93	476.12
341.158	465.12
341.386	462.12
341.614	451.12
341.842	440.12
342.07	466.12
342.298	467.12
342.526	462.12
342.754	438.12
342.981	451.12
343.209	461.12
343.437	467.12
343.665	497.12
343.893	496.12
344.12	491.12
344.348	489.12
344.576	484.12
344.804	476.12
345.031	485.12
345.259	468.12
345.487	474.12
345.714	455.12
345.942	441.12
346.17	452.12
346.397	459.12
346.625	443.12
346.853	443.12
347.08	430.12
347.308	456.12
347.535	465.12
347.763	436.12
347.99	453.12
348.218	455.12
348.445	439.12
348.673	451.12
348.9	454.12
349.128	442.12
349.355	436.12
349.583	441.12
349.81	425.12
350.037	408.12
350.265	411.12
350.492	404.12
350.72	398.12
350.947	411.12
351.174	432.12
351.402	458.12
351.629	426.12
351.856	435.12
352.083	423.12
352.311	446.12
352.538	440.12
352.765	439.12
352.992	419.12
353.22	420.12
353.447	421.12
353.674	426.12
353.901	398.12
354.128	424.12
354.355	418.12
354.583	415.12
354.81	413.12
355.037	416.12
355.264	416.12
355.491	424.12
355.718	412.12
355.945	407.12
356.172	414.12
356.399	421.12
356.626	406.12
356.853	400.12
357.08	413.12
357.307	407.12
357.534	394.12
357.761	405.12
357.988	410.12
358.215	411.12
358.441	430.12
358.668	421.12
358.895	427.12
359.122	408.12
359.349	404.12
359.576	430.12
359.802	451.12
360.029	446.12
360.256	471.12
360.483	461.12
360.709	426.12
360.936	453.12
361.163	448.12
361.39	443.12
361.616	438.12
361.843	424.12
362.07	433.12
362.296	423.12
362.523	408.12
362.749	408.12
362.976	432.12
363.203	436.12
363.429	398.12
363.656	401.12
363.882	408.12
364.109	413.12
364.335	417.12
364.562	400.12
364.788	392.12
365.015	418.12
365.241	424.12
365.468	425.12
365.694	414.12
365.92	428.12
366.147	394.12
366.373	421.12
366.599	413.12
366.826	408.12
367.052	419.12
367.278	410.12
367.505	412.12
367.731	415.12
367.957	409.12
368.184	398.12
368.41	425.12
368.636	418.12
368.862	408.12
369.089	412.12
369.315	407.12
369.541	407.12
369.767	400.12
369.993	407.12
370.219	424.12
370.445	400.12
370.672	398.12
370.898	425.12
371.124	429.12
371.35	406.12
371.576	404.12
371.802	409.12
372.028	396.12
372.254	413.12
372.48	407.12
372.706	425.12
372.932	403.12
373.158	386.12
373.384	426.12
373.61	412.12
373.835	408.12
374.061	400.12
374.287	424.12
374.513	423.12
374.739	428.12
374.965	423.12
375.191	408.12
375.416	417.12
375.642	420.12
375.868	419.12
376.094	398.12
376.319	421.12
376.545	409.12
376.771	398.12
376.997	398.12
377.222	416.12
377.448	409.12
377.674	412.12
377.899	420.12
378.125	404.12
378.35	396.12
378.576	407.12
378.802	400.12
379.027	406.12
379.253	396.12
379.478	402.12
379.704	382.12
379.929	390.12
380.155	410.12
380.38	400.12
380.606	408.12
380.831	423.12
381.057	416.12
381.282	392.12
381.507	404.12
381.733	390.12
381.958	398.12
382.184	400.12
382.409	412.12
382.634	422.12
382.86	419.12
383.085	405.12
383.31	413.12
383.535	418.12
383.761	415.12
383.986	425.12
384.211	446.12
384.436	409.12
384.662	428.12
384.887	438.12
385.112	431.12
385.337	446.12
385.562	424.12
385.787	441.12
386.013	426.12
386.238	459.12
386.463	442.12
386.688	468.12
386.913	414.12
387.138	431.12
387.363	434.12
387.588	433.12
387.813	443.12
388.038	442.12
388.263	416.12
388.488	438.12
388.713	434.12
388.938	441.12
389.163	449.12
389.387	458.12
389.612	451.12
389.837	445.12
390.062	441.12
390.287	449.12
390.512	430.12
390.736	427.12
390.961	412.12
391.186	444.12
391.411	458.12
391.636	456.12
391.86	458.12
392.085	454.12
392.31	463.12
392.534	450.12
392.759	454.12
392.984	464.12
393.208	455.12
393.433	424.12
393.658	466.12
393.882	450.12
394.107	438.12
394.331	460.12
394.556	424.12
394.78	442.12
395.005	463.12
395.229	457.12
395.454	440.12
395.678	447.12
395.903	485.12
396.127	472.12
396.352	490.12
396.576	456.12
396.801	447.12
397.025	439.12
397.249	450.12
397.474	468.12
397.698	466.12
397.922	478.12
398.147	494.12
398.371	491.12
398.595	498.12
398.82	488.12
399.044	539.12
399.268	534.12
399.492	550.12
399.717	602.12
399.941	618.12
400.165	613.12
400.389	620.12
400.613	552.12
400.837	514.12
401.062	508.12
401.286	504.12
401.51	498.12
401.734	495.12
401.958	479.12
402.182	479.12
402.406	527.12
402.63	517.12
402.854	499.12
403.078	524.12
403.302	507.12
403.526	521.12
403.75	520.12
403.974	525.12
404.198	512.12
404.422	508.12
404.645	525.12
404.869	525.12
405.093	576.12
405.317	591.12
405.541	608.12
405.765	559.12
405.988	547.12
406.212	540.12
406.436	553.12
406.66	568.12
406.883	564.12
407.107	559.12
407.331	602.12
407.555	641.12
407.778	670.12
408.002	608.12
408.226	587.12
408.449	577.12
408.673	551.12
408.896	586.12
409.12	605.12
409.344	572.12
409.567	531.12
409.791	533.12
410.014	520.12
410.238	520.12
410.461	494.12
410.685	511.12
410.908	518.12
411.132	535.12
411.355	578.12
411.578	554.12
411.802	511.12
412.025	506.12
412.249	512.12
412.472	551.12
412.695	585.12
412.919	560.12
413.142	512.12
413.365	495.12
413.589	493.12
413.812	463.12
414.035	496.12
414.258	481.12
414.482	461.12
414.705	483.12
414.928	496.12
415.151	474.12
415.374	474.12
415.597	467.12
415.821	479.12
416.044	477.12
416.267	481.12
416.49	481.12
416.713	477.12
416.936	472.12
417.159	490.12
417.382	478.12
417.605	490.12
417.828	507.12
418.051	494.12
418.274	480.12
418.497	488.12
418.72	473.12
418.943	464.12
419.166	505.12
419.389	538.12
419.611	494.12
419.834	496.12
420.057	498.12
420.28	515.12
420.503	493.12
420.726	491.12
420.948	494.12
421.171	533.12
421.394	544.12
421.617	519.12
421.839	514.12
422.062	499.12
422.285	514.12
422.507	553.12
422.73	597.12
422.953	575.12
423.175	532.12
423.398	520.12
423.621	514.12
423.843	513.12
424.066	504.12
424.288	530.12
424.511	535.12
424.733	588.12
424.956	634.12
425.178	602.12
425.401	614.12
425.623	605.12
425.846	525.12
426.068	524.12
426.291	519.12
426.513	493.12
426.735	507.12
426.958	558.12
427.18	607.12
427.402	715.12
427.625	773.12
427.847	646.12
428.069	584.12
428.292	546.12
428.514	501.12
428.736	496.12
428.958	484.12
429.181	459.12
429.403	484.12
429.625	481.12
429.847	487.12
430.069	543.12
430.292	546.12
430.514	490.12
430.736	473.12
430.958	450.12
431.18	446.12
431.402	447.12
431.624	445.12
431.846	442.12
432.068	456.12
432.29	469.12
432.512	435.12
432.734	451.12
432.956	442.12
433.178	470.12
433.4	469.12
433.622	442.12
433.844	458.12
434.066	455.12
434.287	454.12
434.509	454.12
434.731	475.12
434.953	477.12
435.175	487.12
435.397	504.12
435.618	507.12
435.84	544.12
436.062	628.12
436.284	647.12
436.505	557.12
436.727	507.12
436.949	486.12
437.17	463.12
437.392	485.12
437.614	474.12
437.835	509.12
438.057	595.12
438.278	637.12
438.5	643.12
438.721	703.12
438.943	676.12
439.165	572.12
439.386	511.12
439.608	523.12
439.829	477.12
440.05	518.12
440.272	560.12
440.493	524.12
440.715	494.12
440.936	463.12
441.158	471.12
441.379	498.12
441.6	484.12
441.822	490.12
442.043	532.12
442.264	612.12
442.486	639.12
442.707	550.12
442.928	496.12
443.149	514.12
443.371	552.12
443.592	574.12
443.813	619.12
444.034	676.12
444.255	591.12
444.476	529.12
444.698	522.12
444.919	520.12
445.14	607.12
445.361	573.12
445.582	546.12
445.803	596.12
446.024	648.12
446.245	687.12
446.466	610.12
446.687	542.12
446.908	518.12
447.129	492.12
447.35	464.12
447.571	453.12
447.792	439.12
448.013	463.12
448.234	454.12
448.455	514.12
448.675	593.12
448.896	680.12
449.117	590.12
449.338	549.12
449.559	635.12
449.779	724.12
450	572.12
450.221	492.12
450.442	444.12
450.662	459.12
450.883	468.12
451.104	456.12
451.324	434.12
451.545	419.12
451.766	436.12
451.986	420.12
452.207	408.12
452.428	410.12
452.648	426.12
452.869	424.12
453.089	434.12
453.31	404.12
453.53	429.12
453.751	405.12
453.971	430.12
454.192	427.12
454.412	418.12
454.633	420.12
454.853	428.12
455.073	407.12
455.294	427.12
455.514	493.12
455.734	461.12
455.955	405.12
456.175	394.12
456.395	384.12
456.616	398.12
456.836	401.12
457.056	392.12
457.276	383.12
457.497	380.12
457.717	392.12
457.937	398.12
458.157	388.12
458.377	397.12
458.598	420.12
458.818	482.12
459.038	500.12
459.258	510.12
459.478	448.12
459.698	423.12
459.918	432.12
460.138	436.12
460.358	480.12
460.578	458.12
460.798	474.12
461.018	455.12
461.238	476.12
461.458	480.12
461.678	466.12
461.898	498.12
462.118	488.12
462.338	487.12
462.558	490.12
462.777	484.12
462.997	502.12
463.217	495.12
463.437	502.12
463.657	512.12
463.876	498.12
464.096	491.12
464.316	488.12
464.536	533.12
464.755	505.12
464.975	518.12
465.195	526.12
465.414	528.12
465.634	501.12
465.854	437.12
466.073	446.12
466.293	450.12
466.512	453.12
466.732	444.12
466.951	422.12
467.171	418.12
467.391	416.12
467.61	442.12
467.829	426.12
468.049	432.12
468.268	440.12
468.488	427.12
468.707	430.12
468.927	424.12
469.146	425.12
469.365	424.12
469.585	413.12
469.804	407.12
470.023	440.12
470.243	427.12
470.462	454.12
470.681	458.12
470.901	447.12
471.12	427.12
471.339	439.12
471.558	442.12
471.777	438.12
471.997	425.12
472.216	419.12
472.435	443.12
472.654	438.12
472.873	429.12
473.092	417.12
473.311	427.12
473.53	417.12
473.749	454.12
473.968	470.12
474.187	542.12
474.406	542.12
474.625	451.12
474.844	447.12
475.063	440.12
475.282	447.12
475.501	438.12
475.72	440.12
475.939	440.12
476.158	425.12
476.377	445.12
476.596	452.12
476.814	452.12
477.033	438.12
477.252	443.12
477.471	438.12
477.69	459.12
477.908	478.12
478.127	474.12
478.346	499.12
478.564	457.12
478.783	498.12
479.002	473.12
479.22	488.12
479.439	485.12
479.658	510.12
479.876	521.12
480.095	517.12
480.313	543.12
480.532	552.12
480.751	523.12
480.969	520.12
481.188	574.12
481.406	584.12
481.624	551.12
481.843	504.12
482.061	504.12
482.28	495.12
482.498	507.12
482.717	470.12
482.935	483.12
483.153	515.12
483.372	479.12
483.59	502.12
483.808	504.12
484.027	483.12
484.245	504.12
484.463	476.12
484.681	504.12
484.9	509.12
485.118	510.12
485.336	509.12
485.554	505.12
485.772	536.12
485.99	507.12
486.209	509.12
486.427	511.12
486.645	534.12
486.863	539.12
487.081	528.12
487.299	513.12
487.517	523.12
487.735	508.12
487.953	518.12
488.171	516.12
488.389	539.12
488.607	502.12
488.825	546.12
489.043	508.12
489.261	536.12
489.479	529.12
489.696	512.12
489.914	543.12
490.132	523.12
490.35	552.12
490.568	546.12
490.786	555.12
491.003	556.12
491.221	567.12
491.439	582.12
491.657	575.12
491.874	564.12
492.092	573.12
492.31	582.12
492.527	597.12
492.745	590.12
492.963	584.12
493.18	599.12
493.398	601.12
493.615	622.12
493.833	591.12
494.05	599.12
494.268	610.12
494.485	622.12
494.703	606.12
494.92	603.12
495.138	617.12
495.355	628.12
495.573	621.12
495.79	602.12
496.008	622.12
496.225	614.12
496.442	599.12
496.66	623.12
496.877	628.12
497.094	626.12
497.312	616.12
497.529	627.12
497.746	646.12
497.963	654.12
498.181	697.12
498.398	686.12
498.615	681.12
498.832	712.12
499.049	748.12
499.267	735.12
499.484	771.12
499.701	802.12
499.918	830.12
500.135	916.12
500.352	948.12
500.569	977.12
500.786	926.12
501.003	934.12
501.22	885.12
501.437	880.12
501.654	834.12
501.871	788.12
502.088	761.12
