Data from 1964.PennyLincolnUp.Lamp.En5.5.200Scan.071719.P1._HRD10591_14-03-54-909.txt Node
Date: Thu Jul 18 14:03:54 EDT 2019
User: cochatt
Spectrometer: HR+D1059
Trigger mode: 1
Integration Time (sec): 1.000000E-1
Scans to average: 1
Electric dark correction enabled: true
Nonlinearity correction enabled: false
Boxcar width: 0
XAxis mode: Wavelengths
Number of Pixels in Spectrum: 2048
>>>>>Begin Spectral Data<<<<<
223.165	-2.06
223.4	-2.06
223.635	-2.06
223.869	-13.06
224.104	-12.06
224.338	-27.06
224.573	-10.06
224.808	-11.06
225.042	-6.06
225.277	-5.06
225.511	-10.06
225.746	5.94
225.98	0.94
226.215	14.94
226.449	13.94
226.683	15.94
226.918	18.94
227.152	25.94
227.387	31.94
227.621	46.94
227.856	45.94
228.09	44.94
228.324	56.94
228.559	69.94
228.793	68.94
229.027	94.94
229.262	99.94
229.496	90.94
229.73	114.94
229.964	128.94
230.199	108.94
230.433	117.94
230.667	112.94
230.901	107.94
231.136	103.94
231.37	107.94
231.604	101.94
231.838	115.94
232.072	109.94
232.306	109.94
232.541	108.94
232.775	101.94
233.009	121.94
233.243	103.94
233.477	117.94
233.711	113.94
233.945	119.94
234.179	119.94
234.413	111.94
234.647	115.94
234.881	113.94
235.115	131.94
235.349	119.94
235.583	111.94
235.817	109.94
236.051	116.94
236.285	123.94
236.519	129.94
236.753	119.94
236.987	134.94
237.221	150.94
237.455	184.94
237.689	146.94
237.922	124.94
238.156	124.94
238.39	133.94
238.624	129.94
238.858	125.94
239.091	132.94
239.325	124.94
239.559	126.94
239.793	115.94
240.027	127.94
240.26	141.94
240.494	151.94
240.728	145.94
240.961	141.94
241.195	140.94
241.429	134.94
241.662	127.94
241.896	143.94
242.13	146.94
242.363	133.94
242.597	138.94
242.83	115.94
243.064	136.94
243.298	145.94
243.531	141.94
243.765	148.94
243.998	128.94
244.232	139.94
244.465	144.94
244.699	156.94
244.932	143.94
245.166	135.94
245.399	145.94
245.633	134.94
245.866	136.94
246.099	142.94
246.333	166.94
246.566	150.94
246.8	165.94
247.033	156.94
247.266	151.94
247.5	173.94
247.733	172.94
247.966	170.94
248.2	170.94
248.433	160.94
248.666	167.94
248.899	170.94
249.133	185.94
249.366	189.94
249.599	172.94
249.832	173.94
250.066	192.94
250.299	182.94
250.532	190.94
250.765	180.94
250.998	196.94
251.231	207.94
251.465	205.94
251.698	197.94
251.931	207.94
252.164	184.94
252.397	181.94
252.63	189.94
252.863	208.94
253.096	210.94
253.329	215.94
253.562	206.94
253.795	209.94
254.028	208.94
254.261	206.94
254.494	222.94
254.727	239.94
254.96	237.94
255.193	246.94
255.426	235.94
255.659	226.94
255.892	222.94
256.124	217.94
256.357	234.94
256.59	227.94
256.823	217.94
257.056	216.94
257.289	201.94
257.521	213.94
257.754	189.94
257.987	193.94
258.22	212.94
258.452	201.94
258.685	205.94
258.918	230.94
259.151	216.94
259.383	216.94
259.616	204.94
259.849	220.94
260.081	222.94
260.314	229.94
260.547	240.94
260.779	221.94
261.012	220.94
261.244	235.94
261.477	203.94
261.71	214.94
261.942	200.94
262.175	208.94
262.407	215.94
262.64	216.94
262.872	222.94
263.105	208.94
263.337	209.94
263.57	200.94
263.802	214.94
264.035	225.94
264.267	215.94
264.499	223.94
264.732	213.94
264.964	239.94
265.197	231.94
265.429	234.94
265.661	212.94
265.894	209.94
266.126	230.94
266.358	200.94
266.591	221.94
266.823	217.94
267.055	232.94
267.287	220.94
267.52	225.94
267.752	233.94
267.984	238.94
268.216	220.94
268.448	225.94
268.681	246.94
268.913	238.94
269.145	270.94
269.377	280.94
269.609	249.94
269.841	259.94
270.073	268.94
270.306	283.94
270.538	284.94
270.77	287.94
271.002	280.94
271.234	274.94
271.466	295.94
271.698	292.94
271.93	300.94
272.162	311.94
272.394	307.94
272.626	300.94
272.858	271.94
273.09	255.94
273.322	283.94
273.553	273.94
273.785	276.94
274.017	263.94
274.249	271.94
274.481	282.94
274.713	256.94
274.945	279.94
275.176	273.94
275.408	266.94
275.64	267.94
275.872	269.94
276.104	268.94
276.335	267.94
276.567	284.94
276.799	309.94
277.031	295.94
277.262	313.94
277.494	297.94
277.726	291.94
277.957	278.94
278.189	279.94
278.421	284.94
278.652	265.94
278.884	283.94
279.115	261.94
279.347	285.94
279.579	288.94
279.81	291.94
280.042	294.94
280.273	284.94
280.505	272.94
280.736	275.94
280.968	261.94
281.199	284.94
281.431	287.94
281.662	276.94
281.894	284.94
282.125	297.94
282.356	297.94
282.588	304.94
282.819	296.94
283.051	276.94
283.282	293.94
283.513	302.94
283.745	283.94
283.976	274.94
284.207	292.94
284.439	300.94
284.67	283.94
284.901	292.94
285.132	291.94
285.364	307.94
285.595	309.94
285.826	304.94
286.057	296.94
286.288	301.94
286.52	296.94
286.751	295.94
286.982	297.94
287.213	304.94
287.444	311.94
287.675	319.94
287.906	304.94
288.138	312.94
288.369	312.94
288.6	304.94
288.831	306.94
289.062	316.94
289.293	313.94
289.524	308.94
289.755	307.94
289.986	307.94
290.217	312.94
290.448	310.94
290.679	319.94
290.91	321.94
291.141	303.94
291.371	301.94
291.602	289.94
291.833	317.94
292.064	311.94
292.295	321.94
292.526	324.94
292.757	311.94
292.987	317.94
293.218	291.94
293.449	325.94
293.68	314.94
293.91	320.94
294.141	309.94
294.372	316.94
294.603	326.94
294.833	309.94
295.064	309.94
295.295	314.94
295.525	326.94
295.756	322.94
295.987	321.94
296.217	340.94
296.448	343.94
296.679	330.94
296.909	303.94
297.14	329.94
297.37	313.94
297.601	328.94
297.831	305.94
298.062	327.94
298.292	331.94
298.523	347.94
298.753	341.94
298.984	334.94
299.214	332.94
299.445	319.94
299.675	336.94
299.905	321.94
300.136	333.94
300.366	327.94
300.597	333.94
300.827	330.94
301.057	340.94
301.288	343.94
301.518	329.94
301.748	336.94
301.979	330.94
302.209	340.94
302.439	353.94
302.669	352.94
302.9	351.94
303.13	346.94
303.36	377.94
303.59	357.94
303.82	368.94
304.051	335.94
304.281	366.94
304.511	345.94
304.741	356.94
304.971	361.94
305.201	353.94
305.431	356.94
305.661	352.94
305.891	331.94
306.121	357.94
306.352	371.94
306.582	360.94
306.812	339.94
307.042	352.94
307.272	355.94
307.502	368.94
307.731	348.94
307.961	356.94
308.191	355.94
308.421	353.94
308.651	365.94
308.881	360.94
309.111	365.94
309.341	356.94
309.571	351.94
309.8	379.94
310.03	366.94
310.26	371.94
310.49	383.94
310.72	367.94
310.949	393.94
311.179	370.94
311.409	373.94
311.639	369.94
311.868	363.94
312.098	375.94
312.328	389.94
312.557	410.94
312.787	399.94
313.017	391.94
313.246	392.94
313.476	380.94
313.706	385.94
313.935	398.94
314.165	396.94
314.394	387.94
314.624	394.94
314.853	389.94
315.083	390.94
315.312	371.94
315.542	382.94
315.771	376.94
316.001	391.94
316.23	395.94
316.46	385.94
316.689	392.94
316.919	387.94
317.148	392.94
317.377	384.94
317.607	399.94
317.836	412.94
318.065	374.94
318.295	384.94
318.524	389.94
318.753	387.94
318.983	379.94
319.212	385.94
319.441	400.94
319.67	377.94
319.9	380.94
320.129	372.94
320.358	396.94
320.587	386.94
320.816	395.94
321.046	405.94
321.275	391.94
321.504	387.94
321.733	386.94
321.962	404.94
322.191	414.94
322.42	397.94
322.649	409.94
322.878	433.94
323.108	440.94
323.337	458.94
323.566	467.94
323.795	463.94
324.024	500.94
324.253	543.94
324.482	710.94
324.71	1042.94
324.939	1444.94
325.168	1173.94
325.397	651.94
325.626	517.94
325.855	472.94
326.084	455.94
326.313	430.94
326.542	446.94
326.77	475.94
326.999	543.94
327.228	672.94
327.457	908.94
327.686	1061.94
327.914	725.94
328.143	543.94
328.372	509.94
328.6	488.94
328.829	494.94
329.058	480.94
329.287	472.94
329.515	490.94
329.744	456.94
329.972	451.94
330.201	476.94
330.43	510.94
330.658	502.94
330.887	504.94
331.115	500.94
331.344	476.94
331.572	454.94
331.801	465.94
332.03	445.94
332.258	458.94
332.486	461.94
332.715	429.94
332.943	458.94
333.172	486.94
333.4	449.94
333.629	457.94
333.857	478.94
334.085	496.94
334.314	488.94
334.542	524.94
334.771	520.94
334.999	483.94
335.227	475.94
335.455	475.94
335.684	472.94
335.912	465.94
336.14	451.94
336.369	459.94
336.597	443.94
336.825	458.94
337.053	455.94
337.281	452.94
337.51	435.94
337.738	439.94
337.966	420.94
338.194	446.94
338.422	442.94
338.65	443.94
338.878	446.94
339.106	448.94
339.334	447.94
339.562	431.94
339.79	430.94
340.018	448.94
340.246	428.94
340.474	441.94
340.702	415.94
340.93	418.94
341.158	422.94
341.386	400.94
341.614	414.94
341.842	439.94
342.07	434.94
342.298	429.94
342.526	429.94
342.754	395.94
342.981	426.94
343.209	419.94
343.437	445.94
343.665	450.94
343.893	455.94
344.12	463.94
344.348	431.94
344.576	448.94
344.804	445.94
345.031	423.94
345.259	431.94
345.487	421.94
345.714	424.94
345.942	433.94
346.17	421.94
346.397	398.94
346.625	411.94
346.853	410.94
347.08	418.94
347.308	390.94
347.535	422.94
347.763	412.94
347.99	390.94
348.218	413.94
348.445	419.94
348.673	421.94
348.9	417.94
349.128	405.94
349.355	398.94
349.583	396.94
349.81	412.94
350.037	396.94
350.265	400.94
350.492	391.94
350.72	407.94
350.947	390.94
351.174	419.94
351.402	380.94
351.629	396.94
351.856	395.94
352.083	412.94
352.311	432.94
352.538	416.94
352.765	399.94
352.992	383.94
353.22	387.94
353.447	387.94
353.674	392.94
353.901	401.94
354.128	384.94
354.355	391.94
354.583	379.94
354.81	385.94
355.037	378.94
355.264	391.94
355.491	379.94
355.718	376.94
355.945	392.94
356.172	396.94
356.399	396.94
356.626	376.94
356.853	392.94
357.08	384.94
357.307	388.94
357.534	395.94
357.761	384.94
357.988	385.94
358.215	391.94
358.441	394.94
358.668	382.94
358.895	399.94
359.122	375.94
359.349	383.94
359.576	391.94
359.802	397.94
360.029	410.94
360.256	423.94
360.483	411.94
360.709	384.94
360.936	398.94
361.163	382.94
361.39	407.94
361.616	370.94
361.843	390.94
362.07	377.94
362.296	385.94
362.523	400.94
362.749	404.94
362.976	373.94
363.203	382.94
363.429	405.94
363.656	384.94
363.882	391.94
364.109	391.94
364.335	379.94
364.562	384.94
364.788	387.94
365.015	392.94
365.241	377.94
365.468	391.94
365.694	369.94
365.92	385.94
366.147	377.94
366.373	387.94
366.599	369.94
366.826	395.94
367.052	363.94
367.278	376.94
367.505	381.94
367.731	385.94
367.957	369.94
368.184	383.94
368.41	392.94
368.636	381.94
368.862	413.94
369.089	381.94
369.315	375.94
369.541	377.94
369.767	375.94
369.993	382.94
370.219	387.94
370.445	366.94
370.672	375.94
370.898	382.94
371.124	398.94
371.35	383.94
371.576	392.94
371.802	384.94
372.028	382.94
372.254	391.94
372.48	388.94
372.706	404.94
372.932	406.94
373.158	385.94
373.384	400.94
373.61	391.94
373.835	371.94
374.061	382.94
374.287	380.94
374.513	393.94
374.739	407.94
374.965	383.94
375.191	393.94
375.416	409.94
375.642	393.94
375.868	387.94
376.094	378.94
376.319	384.94
376.545	399.94
376.771	396.94
376.997	400.94
377.222	392.94
377.448	375.94
377.674	369.94
377.899	365.94
378.125	392.94
378.35	391.94
378.576	368.94
378.802	377.94
379.027	366.94
379.253	362.94
379.478	376.94
379.704	397.94
379.929	374.94
380.155	380.94
380.38	380.94
380.606	371.94
380.831	369.94
381.057	378.94
381.282	379.94
381.507	369.94
381.733	373.94
381.958	370.94
382.184	375.94
382.409	383.94
382.634	388.94
382.86	393.94
383.085	396.94
383.31	401.94
383.535	391.94
383.761	396.94
383.986	385.94
384.211	395.94
384.436	385.94
384.662	418.94
384.887	422.94
385.112	401.94
385.337	414.94
385.562	417.94
385.787	419.94
386.013	425.94
386.238	419.94
386.463	424.94
386.688	416.94
386.913	407.94
387.138	410.94
387.363	411.94
387.588	407.94
387.813	407.94
388.038	390.94
388.263	416.94
388.488	415.94
388.713	420.94
388.938	439.94
389.163	407.94
389.387	417.94
389.612	417.94
389.837	402.94
390.062	411.94
390.287	422.94
390.512	417.94
390.736	404.94
390.961	418.94
391.186	411.94
391.411	419.94
391.636	439.94
391.86	427.94
392.085	438.94
392.31	429.94
392.534	427.94
392.759	409.94
392.984	428.94
393.208	412.94
393.433	426.94
393.658	435.94
393.882	409.94
394.107	407.94
394.331	414.94
394.556	421.94
394.78	419.94
395.005	412.94
395.229	425.94
395.454	430.94
395.678	449.94
395.903	435.94
396.127	439.94
396.352	462.94
396.576	443.94
396.801	433.94
397.025	425.94
397.249	439.94
397.474	441.94
397.698	455.94
397.922	443.94
398.147	456.94
398.371	469.94
398.595	455.94
398.82	444.94
399.044	507.94
399.268	498.94
399.492	531.94
399.717	557.94
399.941	572.94
400.165	551.94
400.389	547.94
400.613	530.94
400.837	510.94
401.062	488.94
401.286	487.94
401.51	474.94
401.734	461.94
401.958	476.94
402.182	472.94
402.406	457.94
402.63	488.94
402.854	484.94
403.078	470.94
403.302	476.94
403.526	473.94
403.75	492.94
403.974	487.94
404.198	496.94
404.422	482.94
404.645	485.94
404.869	501.94
405.093	519.94
405.317	542.94
405.541	558.94
405.765	520.94
405.988	475.94
406.212	509.94
406.436	494.94
406.66	529.94
406.883	511.94
407.107	535.94
407.331	558.94
407.555	632.94
407.778	591.94
408.002	557.94
408.226	529.94
408.449	526.94
408.673	533.94
408.896	539.94
409.12	550.94
409.344	547.94
409.567	480.94
409.791	491.94
410.014	472.94
410.238	462.94
410.461	497.94
410.685	493.94
410.908	479.94
411.132	501.94
411.355	520.94
411.578	489.94
411.802	477.94
412.025	463.94
412.249	479.94
412.472	497.94
412.695	509.94
412.919	517.94
413.142	476.94
413.365	456.94
413.589	444.94
413.812	455.94
414.035	460.94
414.258	456.94
414.482	442.94
414.705	429.94
414.928	440.94
415.151	460.94
415.374	460.94
415.597	441.94
415.821	456.94
416.044	446.94
416.267	469.94
416.49	437.94
416.713	427.94
416.936	443.94
417.159	445.94
417.382	446.94
417.605	433.94
417.828	459.94
418.051	469.94
418.274	454.94
418.497	448.94
418.72	448.94
418.943	453.94
419.166	461.94
419.389	469.94
419.611	493.94
419.834	464.94
420.057	456.94
420.28	467.94
420.503	477.94
420.726	474.94
420.948	469.94
421.171	487.94
421.394	496.94
421.617	494.94
421.839	452.94
422.062	460.94
422.285	472.94
422.507	519.94
422.73	571.94
422.953	515.94
423.175	491.94
423.398	454.94
423.621	447.94
423.843	465.94
424.066	460.94
424.288	465.94
424.511	472.94
424.733	533.94
424.956	588.94
425.178	570.94
425.401	532.94
425.623	549.94
425.846	505.94
426.068	467.94
426.291	451.94
426.513	457.94
426.735	478.94
426.958	475.94
427.18	557.94
427.402	657.94
427.625	668.94
427.847	584.94
428.069	542.94
428.292	504.94
428.514	449.94
428.736	435.94
428.958	464.94
429.181	429.94
429.403	441.94
429.625	451.94
429.847	460.94
430.069	492.94
430.292	496.94
430.514	454.94
430.736	427.94
430.958	448.94
431.18	439.94
431.402	422.94
431.624	424.94
431.846	410.94
432.068	421.94
432.29	422.94
432.512	401.94
432.734	434.94
432.956	415.94
433.178	421.94
433.4	437.94
433.622	417.94
433.844	421.94
434.066	435.94
434.287	437.94
434.509	399.94
434.731	421.94
434.953	433.94
435.175	442.94
435.397	475.94
435.618	484.94
435.84	495.94
436.062	529.94
436.284	599.94
436.505	522.94
436.727	476.94
436.949	443.94
437.17	445.94
437.392	438.94
437.614	449.94
437.835	458.94
438.057	517.94
438.278	583.94
438.5	590.94
438.721	629.94
438.943	588.94
439.165	480.94
439.386	456.94
439.608	461.94
439.829	444.94
440.05	473.94
440.272	492.94
440.493	482.94
440.715	449.94
440.936	446.94
441.158	453.94
441.379	450.94
441.6	457.94
441.822	465.94
442.043	497.94
442.264	551.94
442.486	593.94
442.707	513.94
442.928	478.94
443.149	469.94
443.371	469.94
443.592	530.94
443.813	588.94
444.034	621.94
444.255	530.94
444.476	487.94
444.698	482.94
444.919	480.94
445.14	582.94
445.361	532.94
445.582	514.94
445.803	538.94
446.024	603.94
446.245	604.94
446.466	550.94
446.687	491.94
446.908	441.94
447.129	412.94
447.35	430.94
447.571	403.94
447.792	405.94
448.013	447.94
448.234	407.94
448.455	457.94
448.675	560.94
448.896	639.94
449.117	524.94
449.338	509.94
449.559	592.94
449.779	643.94
450	534.94
450.221	474.94
450.442	405.94
450.662	417.94
450.883	412.94
451.104	407.94
451.324	400.94
451.545	394.94
451.766	373.94
451.986	387.94
452.207	393.94
452.428	385.94
452.648	379.94
452.869	383.94
453.089	400.94
453.31	413.94
453.53	393.94
453.751	375.94
453.971	384.94
454.192	377.94
454.412	374.94
454.633	355.94
454.853	383.94
455.073	395.94
455.294	425.94
455.514	420.94
455.734	439.94
455.955	382.94
456.175	366.94
456.395	379.94
456.616	373.94
456.836	371.94
457.056	382.94
457.276	358.94
457.497	366.94
457.717	356.94
457.937	375.94
458.157	365.94
458.377	363.94
458.598	396.94
458.818	420.94
459.038	461.94
459.258	473.94
459.478	442.94
459.698	409.94
459.918	425.94
460.138	426.94
460.358	425.94
460.578	443.94
460.798	447.94
461.018	439.94
461.238	433.94
461.458	452.94
461.678	403.94
461.898	438.94
462.118	438.94
462.338	417.94
462.558	451.94
462.777	453.94
462.997	459.94
463.217	483.94
463.437	475.94
463.657	477.94
463.876	465.94
464.096	463.94
464.316	449.94
464.536	456.94
464.755	480.94
464.975	465.94
465.195	470.94
465.414	488.94
465.634	450.94
465.854	427.94
466.073	404.94
466.293	405.94
466.512	393.94
466.732	366.94
466.951	387.94
467.171	400.94
467.391	401.94
467.61	404.94
467.829	414.94
468.049	407.94
468.268	398.94
468.488	385.94
468.707	368.94
468.927	401.94
469.146	381.94
469.365	388.94
469.585	393.94
469.804	402.94
470.023	413.94
470.243	420.94
470.462	407.94
470.681	396.94
470.901	396.94
471.12	384.94
471.339	398.94
471.558	410.94
471.777	403.94
471.997	389.94
472.216	430.94
472.435	422.94
472.654	409.94
472.873	385.94
473.092	405.94
473.311	397.94
473.53	388.94
473.749	401.94
473.968	428.94
474.187	484.94
474.406	515.94
474.625	425.94
474.844	406.94
475.063	392.94
475.282	402.94
475.501	411.94
475.72	401.94
475.939	406.94
476.158	405.94
476.377	395.94
476.596	398.94
476.814	421.94
477.033	419.94
477.252	414.94
477.471	420.94
477.69	414.94
477.908	433.94
478.127	448.94
478.346	424.94
478.564	455.94
478.783	429.94
479.002	467.94
479.22	490.94
479.439	468.94
479.658	475.94
479.876	474.94
480.095	468.94
480.313	511.94
480.532	503.94
480.751	484.94
480.969	501.94
481.188	509.94
481.406	517.94
481.624	512.94
481.843	480.94
482.061	461.94
482.28	487.94
482.498	467.94
482.717	455.94
482.935	454.94
483.153	457.94
483.372	456.94
483.59	464.94
483.808	451.94
484.027	445.94
484.245	474.94
484.463	455.94
484.681	481.94
484.9	469.94
485.118	461.94
485.336	451.94
485.554	479.94
485.772	492.94
485.99	474.94
486.209	494.94
486.427	460.94
486.645	488.94
486.863	469.94
487.081	495.94
487.299	515.94
487.517	500.94
487.735	477.94
487.953	488.94
488.171	484.94
488.389	489.94
488.607	477.94
488.825	468.94
489.043	502.94
489.261	508.94
489.479	525.94
489.696	491.94
489.914	495.94
490.132	499.94
490.35	505.94
490.568	511.94
490.786	530.94
491.003	519.94
491.221	518.94
491.439	535.94
491.657	525.94
491.874	515.94
492.092	520.94
492.31	552.94
492.527	526.94
492.745	557.94
492.963	551.94
493.18	557.94
493.398	557.94
493.615	558.94
493.833	544.94
494.05	555.94
494.268	549.94
494.485	545.94
494.703	557.94
494.92	563.94
495.138	551.94
495.355	557.94
495.573	579.94
495.79	564.94
496.008	582.94
496.225	551.94
496.442	572.94
496.66	565.94
496.877	576.94
497.094	560.94
497.312	560.94
497.529	579.94
497.746	596.94
497.963	593.94
498.181	638.94
498.398	632.94
498.615	670.94
498.832	660.94
499.049	667.94
499.267	689.94
499.484	713.94
499.701	760.94
499.918	781.94
500.135	825.94
500.352	867.94
500.569	880.94
500.786	896.94
501.003	863.94
501.22	847.94
501.437	816.94
501.654	751.94
501.871	740.94
502.088	719.94
