Data from 1964.PennyLincolnUp.Lamp.En5.5.200Scan.071719.P1._HRD10591_14-05-05-908.txt Node
Date: Thu Jul 18 14:05:05 EDT 2019
User: cochatt
Spectrometer: HR+D1059
Trigger mode: 1
Integration Time (sec): 1.000000E-1
Scans to average: 1
Electric dark correction enabled: true
Nonlinearity correction enabled: false
Boxcar width: 0
XAxis mode: Wavelengths
Number of Pixels in Spectrum: 2048
>>>>>Begin Spectral Data<<<<<
223.165	-3.69
223.4	-3.69
223.635	-3.69
223.869	-21.69
224.104	-25.69
224.338	-9.69
224.573	-11.69
224.808	-4.69
225.042	-5.69
225.277	-7.69
225.511	-3.69
225.746	1.31
225.98	18.31
226.215	5.31
226.449	6.31
226.683	14.31
226.918	23.31
227.152	25.31
227.387	37.31
227.621	42.31
227.856	31.31
228.09	44.31
228.324	58.31
228.559	46.31
228.793	77.31
229.027	92.31
229.262	114.31
229.496	95.31
229.73	109.31
229.964	128.31
230.199	116.31
230.433	101.31
230.667	110.31
230.901	116.31
231.136	117.31
231.37	104.31
231.604	100.31
231.838	109.31
232.072	114.31
232.306	103.31
232.541	114.31
232.775	92.31
233.009	102.31
233.243	105.31
233.477	117.31
233.711	103.31
233.945	109.31
234.179	104.31
234.413	112.31
234.647	103.31
234.881	110.31
235.115	110.31
235.349	119.31
235.583	121.31
235.817	117.31
236.051	130.31
236.285	125.31
236.519	121.31
236.753	122.31
236.987	139.31
237.221	167.31
237.455	187.31
237.689	150.31
237.922	143.31
238.156	138.31
238.39	127.31
238.624	122.31
238.858	122.31
239.091	132.31
239.325	130.31
239.559	116.31
239.793	127.31
240.027	141.31
240.26	138.31
240.494	149.31
240.728	146.31
240.961	142.31
241.195	132.31
241.429	124.31
241.662	130.31
241.896	134.31
242.13	136.31
242.363	137.31
242.597	139.31
242.83	136.31
243.064	134.31
243.298	156.31
243.531	151.31
243.765	151.31
243.998	135.31
244.232	138.31
244.465	150.31
244.699	143.31
244.932	134.31
245.166	161.31
245.399	142.31
245.633	146.31
245.866	150.31
246.099	132.31
246.333	150.31
246.566	150.31
246.8	152.31
247.033	157.31
247.266	167.31
247.5	162.31
247.733	164.31
247.966	171.31
248.2	172.31
248.433	173.31
248.666	178.31
248.899	175.31
249.133	190.31
249.366	198.31
249.599	178.31
249.832	189.31
250.066	194.31
250.299	186.31
250.532	192.31
250.765	191.31
250.998	211.31
251.231	231.31
251.465	209.31
251.698	199.31
251.931	207.31
252.164	199.31
252.397	207.31
252.63	209.31
252.863	207.31
253.096	202.31
253.329	214.31
253.562	203.31
253.795	224.31
254.028	216.31
254.261	235.31
254.494	227.31
254.727	251.31
254.96	258.31
255.193	246.31
255.426	226.31
255.659	223.31
255.892	222.31
256.124	236.31
256.357	236.31
256.59	203.31
256.823	215.31
257.056	217.31
257.289	229.31
257.521	215.31
257.754	220.31
257.987	208.31
258.22	213.31
258.452	231.31
258.685	217.31
258.918	217.31
259.151	216.31
259.383	228.31
259.616	214.31
259.849	224.31
260.081	247.31
260.314	258.31
260.547	244.31
260.779	246.31
261.012	245.31
261.244	235.31
261.477	219.31
261.71	227.31
261.942	236.31
262.175	224.31
262.407	220.31
262.64	220.31
262.872	232.31
263.105	229.31
263.337	225.31
263.57	216.31
263.802	238.31
264.035	229.31
264.267	230.31
264.499	228.31
264.732	228.31
264.964	224.31
265.197	220.31
265.429	222.31
265.661	227.31
265.894	217.31
266.126	235.31
266.358	221.31
266.591	238.31
266.823	245.31
267.055	229.31
267.287	248.31
267.52	237.31
267.752	240.31
267.984	239.31
268.216	240.31
268.448	264.31
268.681	281.31
268.913	260.31
269.145	274.31
269.377	286.31
269.609	289.31
269.841	276.31
270.073	279.31
270.306	287.31
270.538	326.31
270.77	298.31
271.002	311.31
271.234	302.31
271.466	302.31
271.698	326.31
271.93	325.31
272.162	312.31
272.394	312.31
272.626	313.31
272.858	304.31
273.09	265.31
273.322	280.31
273.553	285.31
273.785	271.31
274.017	270.31
274.249	287.31
274.481	277.31
274.713	283.31
274.945	270.31
275.176	275.31
275.408	272.31
275.64	274.31
275.872	280.31
276.104	281.31
276.335	284.31
276.567	294.31
276.799	297.31
277.031	298.31
277.262	342.31
277.494	322.31
277.726	328.31
277.957	332.31
278.189	303.31
278.421	296.31
278.652	281.31
278.884	286.31
279.115	292.31
279.347	278.31
279.579	283.31
279.81	301.31
280.042	287.31
280.273	284.31
280.505	296.31
280.736	284.31
280.968	274.31
281.199	277.31
281.431	304.31
281.662	300.31
281.894	296.31
282.125	258.31
282.356	302.31
282.588	328.31
282.819	310.31
283.051	313.31
283.282	292.31
283.513	308.31
283.745	313.31
283.976	308.31
284.207	318.31
284.439	324.31
284.67	326.31
284.901	311.31
285.132	300.31
285.364	309.31
285.595	322.31
285.826	293.31
286.057	306.31
286.288	293.31
286.52	292.31
286.751	329.31
286.982	296.31
287.213	320.31
287.444	327.31
287.675	324.31
287.906	325.31
288.138	338.31
288.369	318.31
288.6	362.31
288.831	318.31
289.062	336.31
289.293	331.31
289.524	323.31
289.755	332.31
289.986	312.31
290.217	320.31
290.448	326.31
290.679	334.31
290.91	314.31
291.141	315.31
291.371	319.31
291.602	323.31
291.833	331.31
292.064	327.31
292.295	316.31
292.526	354.31
292.757	315.31
292.987	304.31
293.218	326.31
293.449	336.31
293.68	331.31
293.91	313.31
294.141	326.31
294.372	324.31
294.603	323.31
294.833	339.31
295.064	324.31
295.295	327.31
295.525	323.31
295.756	325.31
295.987	337.31
296.217	349.31
296.448	348.31
296.679	338.31
296.909	322.31
297.14	325.31
297.37	339.31
297.601	323.31
297.831	333.31
298.062	336.31
298.292	343.31
298.523	332.31
298.753	351.31
298.984	336.31
299.214	342.31
299.445	351.31
299.675	324.31
299.905	361.31
300.136	339.31
300.366	356.31
300.597	355.31
300.827	334.31
301.057	351.31
301.288	350.31
301.518	377.31
301.748	359.31
301.979	384.31
302.209	356.31
302.439	360.31
302.669	376.31
302.9	363.31
303.13	366.31
303.36	368.31
303.59	348.31
303.82	374.31
304.051	368.31
304.281	376.31
304.511	362.31
304.741	355.31
304.971	371.31
305.201	358.31
305.431	370.31
305.661	374.31
305.891	363.31
306.121	351.31
306.352	350.31
306.582	359.31
306.812	381.31
307.042	382.31
307.272	378.31
307.502	345.31
307.731	382.31
307.961	379.31
308.191	359.31
308.421	379.31
308.651	368.31
308.881	380.31
309.111	354.31
309.341	388.31
309.571	375.31
309.8	390.31
310.03	407.31
310.26	405.31
310.49	397.31
310.72	406.31
310.949	411.31
311.179	426.31
311.409	400.31
311.639	392.31
311.868	404.31
312.098	406.31
312.328	392.31
312.557	412.31
312.787	428.31
313.017	416.31
313.246	414.31
313.476	403.31
313.706	418.31
313.935	411.31
314.165	419.31
314.394	424.31
314.624	417.31
314.853	392.31
315.083	406.31
315.312	416.31
315.542	422.31
315.771	406.31
316.001	406.31
316.23	430.31
316.46	391.31
316.689	398.31
316.919	405.31
317.148	418.31
317.377	422.31
317.607	426.31
317.836	435.31
318.065	404.31
318.295	412.31
318.524	406.31
318.753	407.31
318.983	407.31
319.212	395.31
319.441	391.31
319.67	407.31
319.9	397.31
320.129	425.31
320.358	400.31
320.587	408.31
320.816	421.31
321.046	414.31
321.275	417.31
321.504	410.31
321.733	430.31
321.962	400.31
322.191	431.31
322.42	448.31
322.649	439.31
322.878	440.31
323.108	452.31
323.337	468.31
323.566	476.31
323.795	500.31
324.024	515.31
324.253	616.31
324.482	784.31
324.71	1161.31
324.939	1599.31
325.168	1350.31
325.397	731.31
325.626	536.31
325.855	498.31
326.084	497.31
326.313	483.31
326.542	467.31
326.77	531.31
326.999	588.31
327.228	754.31
327.457	1050.31
327.686	1178.31
327.914	815.31
328.143	619.31
328.372	539.31
328.6	518.31
328.829	529.31
329.058	536.31
329.287	539.31
329.515	487.31
329.744	500.31
329.972	487.31
330.201	525.31
330.43	524.31
330.658	557.31
330.887	556.31
331.115	531.31
331.344	519.31
331.572	491.31
331.801	470.31
332.03	489.31
332.258	498.31
332.486	469.31
332.715	480.31
332.943	492.31
333.172	494.31
333.4	487.31
333.629	509.31
333.857	512.31
334.085	530.31
334.314	542.31
334.542	563.31
334.771	596.31
334.999	530.31
335.227	513.31
335.455	483.31
335.684	454.31
335.912	464.31
336.14	470.31
336.369	495.31
336.597	487.31
336.825	471.31
337.053	482.31
337.281	466.31
337.51	487.31
337.738	486.31
337.966	484.31
338.194	480.31
338.422	456.31
338.65	454.31
338.878	462.31
339.106	457.31
339.334	459.31
339.562	452.31
339.79	445.31
340.018	452.31
340.246	436.31
340.474	483.31
340.702	455.31
340.93	465.31
341.158	451.31
341.386	436.31
341.614	438.31
341.842	447.31
342.07	426.31
342.298	444.31
342.526	439.31
342.754	445.31
342.981	438.31
343.209	444.31
343.437	461.31
343.665	456.31
343.893	476.31
344.12	456.31
344.348	460.31
344.576	452.31
344.804	448.31
345.031	445.31
345.259	449.31
345.487	445.31
345.714	437.31
345.942	438.31
346.17	451.31
346.397	425.31
346.625	449.31
346.853	425.31
347.08	419.31
347.308	425.31
347.535	446.31
347.763	442.31
347.99	412.31
348.218	429.31
348.445	434.31
348.673	431.31
348.9	430.31
349.128	410.31
349.355	399.31
349.583	418.31
349.81	406.31
350.037	418.31
350.265	427.31
350.492	423.31
350.72	414.31
350.947	407.31
351.174	422.31
351.402	413.31
351.629	423.31
351.856	425.31
352.083	400.31
352.311	417.31
352.538	429.31
352.765	423.31
352.992	403.31
353.22	415.31
353.447	408.31
353.674	417.31
353.901	394.31
354.128	401.31
354.355	394.31
354.583	410.31
354.81	401.31
355.037	416.31
355.264	402.31
355.491	388.31
355.718	378.31
355.945	405.31
356.172	399.31
356.399	408.31
356.626	399.31
356.853	399.31
357.08	411.31
357.307	416.31
357.534	388.31
357.761	371.31
357.988	415.31
358.215	403.31
358.441	421.31
358.668	398.31
358.895	388.31
359.122	398.31
359.349	419.31
359.576	423.31
359.802	429.31
360.029	435.31
360.256	445.31
360.483	423.31
360.709	407.31
360.936	438.31
361.163	396.31
361.39	404.31
361.616	428.31
361.843	413.31
362.07	415.31
362.296	416.31
362.523	403.31
362.749	423.31
362.976	391.31
363.203	394.31
363.429	396.31
363.656	425.31
363.882	416.31
364.109	406.31
364.335	396.31
364.562	392.31
364.788	396.31
365.015	391.31
365.241	407.31
365.468	406.31
365.694	397.31
365.92	405.31
366.147	391.31
366.373	409.31
366.599	402.31
366.826	400.31
367.052	386.31
367.278	394.31
367.505	412.31
367.731	416.31
367.957	377.31
368.184	399.31
368.41	398.31
368.636	401.31
368.862	423.31
369.089	409.31
369.315	417.31
369.541	388.31
369.767	395.31
369.993	422.31
370.219	408.31
370.445	381.31
370.672	402.31
370.898	406.31
371.124	392.31
371.35	389.31
371.576	392.31
371.802	403.31
372.028	399.31
372.254	398.31
372.48	413.31
372.706	408.31
372.932	393.31
373.158	396.31
373.384	386.31
373.61	404.31
373.835	417.31
374.061	380.31
374.287	400.31
374.513	423.31
374.739	426.31
374.965	433.31
375.191	399.31
375.416	426.31
375.642	402.31
375.868	403.31
376.094	414.31
376.319	400.31
376.545	397.31
376.771	398.31
376.997	388.31
377.222	402.31
377.448	396.31
377.674	386.31
377.899	380.31
378.125	382.31
378.35	387.31
378.576	399.31
378.802	385.31
379.027	381.31
379.253	389.31
379.478	410.31
379.704	377.31
379.929	409.31
380.155	417.31
380.38	398.31
380.606	411.31
380.831	386.31
381.057	392.31
381.282	387.31
381.507	383.31
381.733	401.31
381.958	392.31
382.184	417.31
382.409	390.31
382.634	408.31
382.86	412.31
383.085	405.31
383.31	388.31
383.535	420.31
383.761	415.31
383.986	421.31
384.211	427.31
384.436	420.31
384.662	413.31
384.887	415.31
385.112	420.31
385.337	440.31
385.562	440.31
385.787	436.31
386.013	447.31
386.238	459.31
386.463	453.31
386.688	435.31
386.913	424.31
387.138	418.31
387.363	437.31
387.588	443.31
387.813	455.31
388.038	450.31
388.263	426.31
388.488	442.31
388.713	438.31
388.938	452.31
389.163	453.31
389.387	446.31
389.612	437.31
389.837	434.31
390.062	418.31
390.287	426.31
390.512	421.31
390.736	424.31
390.961	422.31
391.186	424.31
391.411	439.31
391.636	425.31
391.86	450.31
392.085	448.31
392.31	432.31
392.534	436.31
392.759	455.31
392.984	453.31
393.208	435.31
393.433	419.31
393.658	431.31
393.882	443.31
394.107	406.31
394.331	444.31
394.556	448.31
394.78	432.31
395.005	416.31
395.229	448.31
395.454	440.31
395.678	452.31
395.903	472.31
396.127	460.31
396.352	485.31
396.576	453.31
396.801	447.31
397.025	454.31
397.249	452.31
397.474	454.31
397.698	457.31
397.922	492.31
398.147	480.31
398.371	494.31
398.595	485.31
398.82	485.31
399.044	505.31
399.268	529.31
399.492	570.31
399.717	595.31
399.941	592.31
400.165	617.31
400.389	580.31
400.613	556.31
400.837	524.31
401.062	518.31
401.286	478.31
401.51	482.31
401.734	486.31
401.958	478.31
402.182	479.31
402.406	502.31
402.63	517.31
402.854	479.31
403.078	474.31
403.302	510.31
403.526	518.31
403.75	516.31
403.974	518.31
404.198	486.31
404.422	502.31
404.645	509.31
404.869	518.31
405.093	541.31
405.317	564.31
405.541	584.31
405.765	570.31
405.988	541.31
406.212	538.31
406.436	543.31
406.66	546.31
406.883	549.31
407.107	555.31
407.331	575.31
407.555	632.31
407.778	620.31
408.002	591.31
408.226	548.31
408.449	569.31
408.673	539.31
408.896	585.31
409.12	594.31
409.344	565.31
409.567	528.31
409.791	529.31
410.014	515.31
410.238	502.31
410.461	501.31
410.685	499.31
410.908	519.31
411.132	528.31
411.355	570.31
411.578	548.31
411.802	487.31
412.025	515.31
412.249	526.31
412.472	522.31
412.695	541.31
412.919	528.31
413.142	489.31
413.365	469.31
413.589	476.31
413.812	472.31
414.035	483.31
414.258	464.31
414.482	470.31
414.705	470.31
414.928	464.31
415.151	482.31
415.374	473.31
415.597	477.31
415.821	461.31
416.044	454.31
416.267	474.31
416.49	460.31
416.713	482.31
416.936	460.31
417.159	440.31
417.382	456.31
417.605	471.31
417.828	484.31
418.051	476.31
418.274	484.31
418.497	471.31
418.72	472.31
418.943	453.31
419.166	465.31
419.389	508.31
419.611	497.31
419.834	479.31
420.057	494.31
420.28	470.31
420.503	496.31
420.726	483.31
420.948	489.31
421.171	513.31
421.394	557.31
421.617	494.31
421.839	468.31
422.062	473.31
422.285	490.31
422.507	553.31
422.73	591.31
422.953	558.31
423.175	506.31
423.398	500.31
423.621	484.31
423.843	500.31
424.066	490.31
424.288	489.31
424.511	534.31
424.733	549.31
424.956	598.31
425.178	589.31
425.401	589.31
425.623	597.31
425.846	509.31
426.068	504.31
426.291	525.31
426.513	486.31
426.735	517.31
426.958	525.31
427.18	597.31
427.402	685.31
427.625	736.31
427.847	617.31
428.069	562.31
428.292	530.31
428.514	494.31
428.736	476.31
428.958	473.31
429.181	474.31
429.403	441.31
429.625	468.31
429.847	490.31
430.069	519.31
430.292	532.31
430.514	457.31
430.736	456.31
430.958	460.31
431.18	446.31
431.402	444.31
431.624	439.31
431.846	442.31
432.068	430.31
432.29	440.31
432.512	448.31
432.734	451.31
432.956	445.31
433.178	454.31
433.4	453.31
433.622	438.31
433.844	429.31
434.066	452.31
434.287	455.31
434.509	435.31
434.731	446.31
434.953	455.31
435.175	468.31
435.397	511.31
435.618	496.31
435.84	501.31
436.062	567.31
436.284	628.31
436.505	518.31
436.727	484.31
436.949	464.31
437.17	475.31
437.392	477.31
437.614	470.31
437.835	476.31
438.057	543.31
438.278	601.31
438.5	621.31
438.721	654.31
438.943	635.31
439.165	537.31
439.386	488.31
439.608	468.31
439.829	486.31
440.05	491.31
440.272	536.31
440.493	508.31
440.715	482.31
440.936	462.31
441.158	451.31
441.379	464.31
441.6	463.31
441.822	483.31
442.043	519.31
442.264	599.31
442.486	589.31
442.707	541.31
442.928	502.31
443.149	496.31
443.371	526.31
443.592	568.31
443.813	608.31
444.034	657.31
444.255	550.31
444.476	528.31
444.698	522.31
444.919	491.31
445.14	605.31
445.361	572.31
445.582	502.31
445.803	564.31
446.024	631.31
446.245	631.31
446.466	595.31
446.687	497.31
446.908	472.31
447.129	461.31
447.35	446.31
447.571	444.31
447.792	466.31
448.013	448.31
448.234	470.31
448.455	495.31
448.675	574.31
448.896	642.31
449.117	557.31
449.338	538.31
449.559	611.31
449.779	676.31
450	549.31
450.221	518.31
450.442	438.31
450.662	441.31
450.883	443.31
451.104	446.31
451.324	416.31
451.545	387.31
451.766	414.31
451.986	390.31
452.207	409.31
452.428	388.31
452.648	388.31
452.869	403.31
453.089	402.31
453.31	412.31
453.53	410.31
453.751	403.31
453.971	389.31
454.192	391.31
454.412	410.31
454.633	394.31
454.853	413.31
455.073	386.31
455.294	414.31
455.514	455.31
455.734	442.31
455.955	396.31
456.175	396.31
456.395	390.31
456.616	374.31
456.836	394.31
457.056	400.31
457.276	374.31
457.497	365.31
457.717	382.31
457.937	389.31
458.157	382.31
458.377	399.31
458.598	396.31
458.818	435.31
459.038	493.31
459.258	530.31
459.478	464.31
459.698	428.31
459.918	437.31
460.138	432.31
460.358	440.31
460.578	462.31
460.798	455.31
461.018	460.31
461.238	455.31
461.458	461.31
461.678	450.31
461.898	454.31
462.118	461.31
462.338	467.31
462.558	482.31
462.777	510.31
462.997	507.31
463.217	520.31
463.437	506.31
463.657	488.31
463.876	503.31
464.096	497.31
464.316	460.31
464.536	492.31
464.755	482.31
464.975	488.31
465.195	502.31
465.414	516.31
465.634	470.31
465.854	436.31
466.073	438.31
466.293	419.31
466.512	419.31
466.732	421.31
466.951	407.31
467.171	380.31
467.391	404.31
467.61	442.31
467.829	407.31
468.049	424.31
468.268	415.31
468.488	393.31
468.707	400.31
468.927	396.31
469.146	403.31
469.365	432.31
469.585	423.31
469.804	408.31
470.023	413.31
470.243	409.31
470.462	445.31
470.681	434.31
470.901	430.31
471.12	415.31
471.339	408.31
471.558	424.31
471.777	431.31
471.997	417.31
472.216	420.31
472.435	426.31
472.654	422.31
472.873	414.31
473.092	425.31
473.311	406.31
473.53	404.31
473.749	418.31
473.968	450.31
474.187	517.31
474.406	538.31
474.625	466.31
474.844	429.31
475.063	403.31
475.282	419.31
475.501	414.31
475.72	430.31
475.939	436.31
476.158	429.31
476.377	427.31
476.596	423.31
476.814	424.31
477.033	438.31
477.252	443.31
477.471	439.31
477.69	462.31
477.908	441.31
478.127	456.31
478.346	471.31
478.564	478.31
478.783	476.31
479.002	482.31
479.22	482.31
479.439	481.31
479.658	498.31
479.876	508.31
480.095	508.31
480.313	527.31
480.532	547.31
480.751	542.31
480.969	520.31
481.188	551.31
481.406	551.31
481.624	533.31
481.843	504.31
482.061	501.31
482.28	494.31
482.498	470.31
482.717	466.31
482.935	491.31
483.153	479.31
483.372	482.31
483.59	478.31
483.808	474.31
484.027	464.31
484.245	497.31
484.463	489.31
484.681	482.31
484.9	493.31
485.118	479.31
485.336	502.31
485.554	473.31
485.772	499.31
485.99	494.31
486.209	503.31
486.427	498.31
486.645	483.31
486.863	502.31
487.081	516.31
487.299	525.31
487.517	500.31
487.735	499.31
487.953	496.31
488.171	511.31
488.389	507.31
488.607	530.31
488.825	511.31
489.043	505.31
489.261	527.31
489.479	502.31
489.696	495.31
489.914	503.31
490.132	508.31
490.35	536.31
490.568	538.31
490.786	536.31
491.003	539.31
491.221	574.31
491.439	545.31
491.657	567.31
491.874	582.31
492.092	578.31
492.31	580.31
492.527	566.31
492.745	587.31
492.963	585.31
493.18	582.31
493.398	576.31
493.615	582.31
493.833	590.31
494.05	612.31
494.268	602.31
494.485	607.31
494.703	582.31
494.92	600.31
495.138	587.31
495.355	584.31
495.573	581.31
495.79	592.31
496.008	588.31
496.225	619.31
496.442	602.31
496.66	590.31
496.877	597.31
497.094	617.31
497.312	597.31
497.529	615.31
497.746	619.31
497.963	630.31
498.181	661.31
498.398	657.31
498.615	661.31
498.832	710.31
499.049	727.31
499.267	738.31
499.484	742.31
499.701	791.31
499.918	823.31
500.135	855.31
500.352	918.31
500.569	942.31
500.786	957.31
501.003	927.31
501.22	894.31
501.437	855.31
501.654	822.31
501.871	775.31
502.088	757.31
