Data from 1964.PennyLincolnUp.Lamp.En5.5.200Scan.071719.P1._HRD10591_14-03-43-908.txt Node
Date: Thu Jul 18 14:03:43 EDT 2019
User: cochatt
Spectrometer: HR+D1059
Trigger mode: 1
Integration Time (sec): 1.000000E-1
Scans to average: 1
Electric dark correction enabled: true
Nonlinearity correction enabled: false
Boxcar width: 0
XAxis mode: Wavelengths
Number of Pixels in Spectrum: 2048
>>>>>Begin Spectral Data<<<<<
223.165	-12.12
223.4	-12.12
223.635	-12.12
223.869	-5.12
224.104	-6.12
224.338	-22.12
224.573	-26.12
224.808	-11.12
225.042	0.88
225.277	-2.12
225.511	-4.12
225.746	8.88
225.98	2.88
226.215	11.88
226.449	9.88
226.683	15.88
226.918	24.88
227.152	13.88
227.387	21.88
227.621	51.88
227.856	55.88
228.09	43.88
228.324	43.88
228.559	50.88
228.793	54.88
229.027	71.88
229.262	78.88
229.496	87.88
229.73	102.88
229.964	114.88
230.199	100.88
230.433	101.88
230.667	108.88
230.901	94.88
231.136	113.88
231.37	101.88
231.604	109.88
231.838	107.88
232.072	103.88
232.306	103.88
232.541	118.88
232.775	111.88
233.009	114.88
233.243	92.88
233.477	113.88
233.711	95.88
233.945	99.88
234.179	102.88
234.413	121.88
234.647	108.88
234.881	118.88
235.115	119.88
235.349	104.88
235.583	97.88
235.817	117.88
236.051	113.88
236.285	112.88
236.519	103.88
236.753	123.88
236.987	109.88
237.221	136.88
237.455	177.88
237.689	145.88
237.922	117.88
238.156	107.88
238.39	134.88
238.624	114.88
238.858	119.88
239.091	116.88
239.325	101.88
239.559	117.88
239.793	103.88
240.027	121.88
240.26	110.88
240.494	138.88
240.728	153.88
240.961	143.88
241.195	120.88
241.429	139.88
241.662	130.88
241.896	119.88
242.13	131.88
242.363	116.88
242.597	120.88
242.83	141.88
243.064	136.88
243.298	128.88
243.531	120.88
243.765	133.88
243.998	137.88
244.232	122.88
244.465	133.88
244.699	147.88
244.932	130.88
245.166	140.88
245.399	148.88
245.633	134.88
245.866	140.88
246.099	146.88
246.333	136.88
246.566	151.88
246.8	133.88
247.033	136.88
247.266	142.88
247.5	143.88
247.733	168.88
247.966	167.88
248.2	151.88
248.433	162.88
248.666	167.88
248.899	149.88
249.133	156.88
249.366	184.88
249.599	177.88
249.832	184.88
250.066	179.88
250.299	163.88
250.532	179.88
250.765	176.88
250.998	195.88
251.231	197.88
251.465	208.88
251.698	187.88
251.931	185.88
252.164	183.88
252.397	187.88
252.63	181.88
252.863	203.88
253.096	187.88
253.329	190.88
253.562	187.88
253.795	201.88
254.028	204.88
254.261	206.88
254.494	211.88
254.727	220.88
254.96	241.88
255.193	224.88
255.426	223.88
255.659	205.88
255.892	203.88
256.124	205.88
256.357	225.88
256.59	209.88
256.823	185.88
257.056	197.88
257.289	190.88
257.521	195.88
257.754	180.88
257.987	204.88
258.22	182.88
258.452	182.88
258.685	207.88
258.918	196.88
259.151	199.88
259.383	191.88
259.616	200.88
259.849	199.88
260.081	210.88
260.314	231.88
260.547	224.88
260.779	211.88
261.012	211.88
261.244	215.88
261.477	219.88
261.71	210.88
261.942	220.88
262.175	195.88
262.407	203.88
262.64	209.88
262.872	214.88
263.105	193.88
263.337	207.88
263.57	213.88
263.802	197.88
264.035	210.88
264.267	204.88
264.499	217.88
264.732	185.88
264.964	225.88
265.197	214.88
265.429	205.88
265.661	211.88
265.894	210.88
266.126	213.88
266.358	208.88
266.591	210.88
266.823	228.88
267.055	215.88
267.287	211.88
267.52	212.88
267.752	226.88
267.984	216.88
268.216	236.88
268.448	234.88
268.681	224.88
268.913	231.88
269.145	245.88
269.377	256.88
269.609	255.88
269.841	257.88
270.073	258.88
270.306	276.88
270.538	283.88
270.77	271.88
271.002	289.88
271.234	282.88
271.466	281.88
271.698	290.88
271.93	293.88
272.162	275.88
272.394	273.88
272.626	296.88
272.858	275.88
273.09	245.88
273.322	276.88
273.553	251.88
273.785	258.88
274.017	255.88
274.249	246.88
274.481	247.88
274.713	265.88
274.945	273.88
275.176	264.88
275.408	260.88
275.64	259.88
275.872	253.88
276.104	270.88
276.335	259.88
276.567	266.88
276.799	264.88
277.031	275.88
277.262	294.88
277.494	299.88
277.726	289.88
277.957	275.88
278.189	271.88
278.421	280.88
278.652	268.88
278.884	282.88
279.115	266.88
279.347	259.88
279.579	262.88
279.81	263.88
280.042	260.88
280.273	290.88
280.505	285.88
280.736	261.88
280.968	282.88
281.199	265.88
281.431	267.88
281.662	278.88
281.894	277.88
282.125	279.88
282.356	284.88
282.588	295.88
282.819	292.88
283.051	269.88
283.282	286.88
283.513	298.88
283.745	295.88
283.976	266.88
284.207	278.88
284.439	280.88
284.67	288.88
284.901	297.88
285.132	296.88
285.364	291.88
285.595	270.88
285.826	275.88
286.057	288.88
286.288	282.88
286.52	294.88
286.751	280.88
286.982	285.88
287.213	284.88
287.444	289.88
287.675	291.88
287.906	291.88
288.138	314.88
288.369	305.88
288.6	296.88
288.831	277.88
289.062	321.88
289.293	310.88
289.524	289.88
289.755	292.88
289.986	298.88
290.217	273.88
290.448	276.88
290.679	305.88
290.91	305.88
291.141	307.88
291.371	304.88
291.602	303.88
291.833	292.88
292.064	307.88
292.295	285.88
292.526	299.88
292.757	288.88
292.987	300.88
293.218	276.88
293.449	296.88
293.68	283.88
293.91	287.88
294.141	297.88
294.372	281.88
294.603	295.88
294.833	288.88
295.064	305.88
295.295	311.88
295.525	301.88
295.756	311.88
295.987	308.88
296.217	321.88
296.448	327.88
296.679	328.88
296.909	311.88
297.14	332.88
297.37	309.88
297.601	316.88
297.831	330.88
298.062	328.88
298.292	322.88
298.523	333.88
298.753	331.88
298.984	310.88
299.214	325.88
299.445	351.88
299.675	306.88
299.905	324.88
300.136	336.88
300.366	336.88
300.597	325.88
300.827	341.88
301.057	346.88
301.288	331.88
301.518	338.88
301.748	345.88
301.979	319.88
302.209	324.88
302.439	334.88
302.669	327.88
302.9	333.88
303.13	340.88
303.36	345.88
303.59	342.88
303.82	359.88
304.051	337.88
304.281	350.88
304.511	330.88
304.741	349.88
304.971	327.88
305.201	345.88
305.431	349.88
305.661	351.88
305.891	339.88
306.121	337.88
306.352	349.88
306.582	332.88
306.812	330.88
307.042	332.88
307.272	344.88
307.502	331.88
307.731	333.88
307.961	334.88
308.191	337.88
308.421	319.88
308.651	316.88
308.881	362.88
309.111	345.88
309.341	346.88
309.571	359.88
309.8	363.88
310.03	356.88
310.26	356.88
310.49	375.88
310.72	371.88
310.949	367.88
311.179	370.88
311.409	357.88
311.639	375.88
311.868	361.88
312.098	365.88
312.328	371.88
312.557	369.88
312.787	383.88
313.017	388.88
313.246	384.88
313.476	370.88
313.706	367.88
313.935	371.88
314.165	384.88
314.394	377.88
314.624	387.88
314.853	387.88
315.083	384.88
315.312	385.88
315.542	374.88
315.771	360.88
316.001	402.88
316.23	367.88
316.46	370.88
316.689	373.88
316.919	376.88
317.148	401.88
317.377	385.88
317.607	379.88
317.836	370.88
318.065	378.88
318.295	374.88
318.524	375.88
318.753	394.88
318.983	381.88
319.212	390.88
319.441	379.88
319.67	363.88
319.9	377.88
320.129	411.88
320.358	397.88
320.587	375.88
320.816	389.88
321.046	399.88
321.275	387.88
321.504	380.88
321.733	387.88
321.962	399.88
322.191	374.88
322.42	394.88
322.649	396.88
322.878	419.88
323.108	413.88
323.337	435.88
323.566	429.88
323.795	448.88
324.024	456.88
324.253	537.88
324.482	687.88
324.71	959.88
324.939	1347.88
325.168	1133.88
325.397	619.88
325.626	517.88
325.855	417.88
326.084	434.88
326.313	433.88
326.542	427.88
326.77	446.88
326.999	523.88
327.228	664.88
327.457	901.88
327.686	1022.88
327.914	694.88
328.143	519.88
328.372	464.88
328.6	466.88
328.829	487.88
329.058	472.88
329.287	471.88
329.515	476.88
329.744	452.88
329.972	452.88
330.201	460.88
330.43	504.88
330.658	500.88
330.887	487.88
331.115	453.88
331.344	455.88
331.572	434.88
331.801	451.88
332.03	436.88
332.258	437.88
332.486	436.88
332.715	431.88
332.943	446.88
333.172	443.88
333.4	452.88
333.629	460.88
333.857	474.88
334.085	451.88
334.314	484.88
334.542	503.88
334.771	511.88
334.999	486.88
335.227	480.88
335.455	452.88
335.684	445.88
335.912	448.88
336.14	421.88
336.369	436.88
336.597	456.88
336.825	447.88
337.053	443.88
337.281	433.88
337.51	427.88
337.738	448.88
337.966	447.88
338.194	449.88
338.422	423.88
338.65	431.88
338.878	439.88
339.106	435.88
339.334	433.88
339.562	416.88
339.79	410.88
340.018	419.88
340.246	412.88
340.474	420.88
340.702	402.88
340.93	424.88
341.158	423.88
341.386	417.88
341.614	401.88
341.842	431.88
342.07	416.88
342.298	401.88
342.526	401.88
342.754	393.88
342.981	429.88
343.209	393.88
343.437	410.88
343.665	416.88
343.893	436.88
344.12	454.88
344.348	427.88
344.576	442.88
344.804	443.88
345.031	415.88
345.259	424.88
345.487	408.88
345.714	420.88
345.942	407.88
346.17	390.88
346.397	407.88
346.625	415.88
346.853	395.88
347.08	411.88
347.308	396.88
347.535	396.88
347.763	395.88
347.99	390.88
348.218	425.88
348.445	389.88
348.673	392.88
348.9	404.88
349.128	392.88
349.355	377.88
349.583	381.88
349.81	404.88
350.037	379.88
350.265	379.88
350.492	390.88
350.72	373.88
350.947	387.88
351.174	391.88
351.402	386.88
351.629	386.88
351.856	377.88
352.083	395.88
352.311	386.88
352.538	394.88
352.765	410.88
352.992	382.88
353.22	376.88
353.447	380.88
353.674	372.88
353.901	373.88
354.128	384.88
354.355	353.88
354.583	369.88
354.81	346.88
355.037	383.88
355.264	371.88
355.491	358.88
355.718	367.88
355.945	361.88
356.172	379.88
356.399	350.88
356.626	370.88
356.853	383.88
357.08	383.88
357.307	365.88
357.534	364.88
357.761	386.88
357.988	375.88
358.215	367.88
358.441	378.88
358.668	372.88
358.895	372.88
359.122	397.88
359.349	384.88
359.576	367.88
359.802	392.88
360.029	388.88
360.256	391.88
360.483	389.88
360.709	380.88
360.936	379.88
361.163	379.88
361.39	386.88
361.616	382.88
361.843	405.88
362.07	388.88
362.296	388.88
362.523	387.88
362.749	373.88
362.976	377.88
363.203	376.88
363.429	374.88
363.656	370.88
363.882	352.88
364.109	383.88
364.335	369.88
364.562	363.88
364.788	377.88
365.015	365.88
365.241	356.88
365.468	378.88
365.694	348.88
365.92	372.88
366.147	368.88
366.373	372.88
366.599	379.88
366.826	367.88
367.052	362.88
367.278	353.88
367.505	376.88
367.731	369.88
367.957	368.88
368.184	377.88
368.41	380.88
368.636	376.88
368.862	387.88
369.089	361.88
369.315	380.88
369.541	364.88
369.767	399.88
369.993	369.88
370.219	390.88
370.445	369.88
370.672	364.88
370.898	367.88
371.124	375.88
371.35	377.88
371.576	380.88
371.802	366.88
372.028	357.88
372.254	375.88
372.48	362.88
372.706	365.88
372.932	381.88
373.158	389.88
373.384	393.88
373.61	366.88
373.835	379.88
374.061	377.88
374.287	373.88
374.513	371.88
374.739	393.88
374.965	370.88
375.191	390.88
375.416	389.88
375.642	354.88
375.868	390.88
376.094	369.88
376.319	379.88
376.545	389.88
376.771	391.88
376.997	384.88
377.222	366.88
377.448	353.88
377.674	354.88
377.899	375.88
378.125	367.88
378.35	387.88
378.576	362.88
378.802	369.88
379.027	383.88
379.253	372.88
379.478	372.88
379.704	372.88
379.929	371.88
380.155	358.88
380.38	373.88
380.606	373.88
380.831	368.88
381.057	367.88
381.282	374.88
381.507	368.88
381.733	374.88
381.958	371.88
382.184	367.88
382.409	370.88
382.634	354.88
382.86	387.88
383.085	391.88
383.31	378.88
383.535	407.88
383.761	405.88
383.986	382.88
384.211	370.88
384.436	373.88
384.662	388.88
384.887	397.88
385.112	385.88
385.337	409.88
385.562	407.88
385.787	405.88
386.013	411.88
386.238	400.88
386.463	390.88
386.688	393.88
386.913	402.88
387.138	408.88
387.363	423.88
387.588	413.88
387.813	417.88
388.038	403.88
388.263	391.88
388.488	399.88
388.713	398.88
388.938	413.88
389.163	394.88
389.387	394.88
389.612	405.88
389.837	407.88
390.062	405.88
390.287	403.88
390.512	407.88
390.736	389.88
390.961	411.88
391.186	404.88
391.411	405.88
391.636	401.88
391.86	426.88
392.085	407.88
392.31	405.88
392.534	424.88
392.759	413.88
392.984	425.88
393.208	394.88
393.433	407.88
393.658	417.88
393.882	406.88
394.107	394.88
394.331	415.88
394.556	407.88
394.78	420.88
395.005	398.88
395.229	398.88
395.454	426.88
395.678	420.88
395.903	436.88
396.127	431.88
396.352	433.88
396.576	400.88
396.801	411.88
397.025	423.88
397.249	423.88
397.474	445.88
397.698	418.88
397.922	450.88
398.147	443.88
398.371	442.88
398.595	445.88
398.82	437.88
399.044	486.88
399.268	482.88
399.492	508.88
399.717	541.88
399.941	547.88
400.165	577.88
400.389	565.88
400.613	519.88
400.837	523.88
401.062	478.88
401.286	470.88
401.51	463.88
401.734	452.88
401.958	452.88
402.182	457.88
402.406	448.88
402.63	474.88
402.854	458.88
403.078	458.88
403.302	488.88
403.526	474.88
403.75	473.88
403.974	474.88
404.198	467.88
404.422	488.88
404.645	477.88
404.869	492.88
405.093	509.88
405.317	522.88
405.541	554.88
405.765	500.88
405.988	495.88
406.212	495.88
406.436	503.88
406.66	489.88
406.883	498.88
407.107	531.88
407.331	559.88
407.555	595.88
407.778	604.88
408.002	544.88
408.226	523.88
408.449	516.88
408.673	511.88
408.896	522.88
409.12	538.88
409.344	516.88
409.567	495.88
409.791	466.88
410.014	459.88
410.238	472.88
410.461	474.88
410.685	469.88
410.908	472.88
411.132	529.88
411.355	512.88
411.578	510.88
411.802	483.88
412.025	455.88
412.249	460.88
412.472	491.88
412.695	502.88
412.919	500.88
413.142	477.88
413.365	447.88
413.589	450.88
413.812	443.88
414.035	456.88
414.258	443.88
414.482	418.88
414.705	423.88
414.928	435.88
415.151	431.88
415.374	425.88
415.597	435.88
415.821	428.88
416.044	447.88
416.267	421.88
416.49	432.88
416.713	444.88
416.936	455.88
417.159	412.88
417.382	419.88
417.605	429.88
417.828	454.88
418.051	461.88
418.274	459.88
418.497	434.88
418.72	426.88
418.943	417.88
419.166	466.88
419.389	467.88
419.611	453.88
419.834	435.88
420.057	445.88
420.28	448.88
420.503	445.88
420.726	437.88
420.948	446.88
421.171	471.88
421.394	492.88
421.617	453.88
421.839	443.88
422.062	469.88
422.285	467.88
422.507	491.88
422.73	550.88
422.953	513.88
423.175	453.88
423.398	443.88
423.621	447.88
423.843	472.88
424.066	480.88
424.288	472.88
424.511	481.88
424.733	510.88
424.956	560.88
425.178	524.88
425.401	543.88
425.623	543.88
425.846	489.88
426.068	456.88
426.291	448.88
426.513	440.88
426.735	446.88
426.958	482.88
427.18	536.88
427.402	620.88
427.625	650.88
427.847	592.88
428.069	520.88
428.292	486.88
428.514	460.88
428.736	448.88
428.958	425.88
429.181	421.88
429.403	402.88
429.625	428.88
429.847	451.88
430.069	476.88
430.292	490.88
430.514	438.88
430.736	425.88
430.958	408.88
431.18	396.88
431.402	393.88
431.624	398.88
431.846	421.88
432.068	395.88
432.29	419.88
432.512	419.88
432.734	403.88
432.956	420.88
433.178	408.88
433.4	417.88
433.622	390.88
433.844	398.88
434.066	404.88
434.287	413.88
434.509	417.88
434.731	423.88
434.953	424.88
435.175	425.88
435.397	434.88
435.618	448.88
435.84	460.88
436.062	530.88
436.284	587.88
436.505	501.88
436.727	444.88
436.949	427.88
437.17	426.88
437.392	427.88
437.614	417.88
437.835	413.88
438.057	495.88
438.278	572.88
438.5	555.88
438.721	620.88
438.943	573.88
439.165	479.88
439.386	432.88
439.608	456.88
439.829	433.88
440.05	445.88
440.272	456.88
440.493	447.88
440.715	447.88
440.936	425.88
441.158	436.88
441.379	415.88
441.6	441.88
441.822	445.88
442.043	475.88
442.264	527.88
442.486	539.88
442.707	479.88
442.928	460.88
443.149	456.88
443.371	469.88
443.592	481.88
443.813	556.88
444.034	588.88
444.255	542.88
444.476	471.88
444.698	453.88
444.919	450.88
445.14	566.88
445.361	515.88
445.582	496.88
445.803	514.88
446.024	574.88
446.245	571.88
446.466	504.88
446.687	459.88
446.908	454.88
447.129	416.88
447.35	398.88
447.571	421.88
447.792	407.88
448.013	404.88
448.234	409.88
448.455	446.88
448.675	533.88
448.896	589.88
449.117	518.88
449.338	498.88
449.559	555.88
449.779	630.88
450	491.88
450.221	441.88
450.442	410.88
450.662	395.88
450.883	394.88
451.104	382.88
451.324	405.88
451.545	385.88
451.766	380.88
451.986	380.88
452.207	368.88
452.428	375.88
452.648	353.88
452.869	377.88
453.089	383.88
453.31	382.88
453.53	376.88
453.751	378.88
453.971	364.88
454.192	375.88
454.412	354.88
454.633	369.88
454.853	367.88
455.073	353.88
455.294	385.88
455.514	409.88
455.734	414.88
455.955	376.88
456.175	371.88
456.395	352.88
456.616	371.88
456.836	357.88
457.056	352.88
457.276	346.88
457.497	355.88
457.717	380.88
457.937	355.88
458.157	369.88
458.377	365.88
458.598	383.88
458.818	407.88
459.038	438.88
459.258	478.88
459.478	431.88
459.698	403.88
459.918	400.88
460.138	408.88
460.358	389.88
460.578	397.88
460.798	426.88
461.018	447.88
461.238	421.88
461.458	424.88
461.678	428.88
461.898	420.88
462.118	423.88
462.338	441.88
462.558	428.88
462.777	467.88
462.997	476.88
463.217	458.88
463.437	472.88
463.657	447.88
463.876	452.88
464.096	445.88
464.316	450.88
464.536	460.88
464.755	458.88
464.975	444.88
465.195	459.88
465.414	464.88
465.634	442.88
465.854	396.88
466.073	405.88
466.293	393.88
466.512	363.88
466.732	391.88
466.951	395.88
467.171	412.88
467.391	396.88
467.61	384.88
467.829	393.88
468.049	402.88
468.268	391.88
468.488	383.88
468.707	390.88
468.927	368.88
469.146	380.88
469.365	382.88
469.585	379.88
469.804	381.88
470.023	390.88
470.243	389.88
470.462	394.88
470.681	375.88
470.901	378.88
471.12	384.88
471.339	384.88
471.558	400.88
471.777	402.88
471.997	389.88
472.216	370.88
472.435	411.88
472.654	384.88
472.873	375.88
473.092	386.88
473.311	397.88
473.53	373.88
473.749	393.88
473.968	431.88
474.187	468.88
474.406	480.88
474.625	419.88
474.844	386.88
475.063	375.88
475.282	378.88
475.501	381.88
475.72	368.88
475.939	384.88
476.158	376.88
476.377	403.88
476.596	406.88
476.814	412.88
477.033	399.88
477.252	422.88
477.471	416.88
477.69	418.88
477.908	424.88
478.127	410.88
478.346	418.88
478.564	453.88
478.783	421.88
479.002	436.88
479.22	441.88
479.439	450.88
479.658	453.88
479.876	452.88
480.095	444.88
480.313	456.88
480.532	496.88
480.751	459.88
480.969	459.88
481.188	519.88
481.406	525.88
481.624	485.88
481.843	456.88
482.061	459.88
482.28	437.88
482.498	454.88
482.717	425.88
482.935	445.88
483.153	446.88
483.372	447.88
483.59	459.88
483.808	442.88
484.027	442.88
484.245	433.88
484.463	448.88
484.681	451.88
484.9	463.88
485.118	440.88
485.336	458.88
485.554	469.88
485.772	451.88
485.99	452.88
486.209	471.88
486.427	469.88
486.645	461.88
486.863	468.88
487.081	466.88
487.299	466.88
487.517	466.88
487.735	469.88
487.953	476.88
488.171	461.88
488.389	473.88
488.607	487.88
488.825	464.88
489.043	455.88
489.261	457.88
489.479	475.88
489.696	474.88
489.914	486.88
490.132	458.88
490.35	485.88
490.568	499.88
490.786	503.88
491.003	501.88
491.221	484.88
491.439	514.88
491.657	535.88
491.874	514.88
492.092	535.88
492.31	500.88
492.527	531.88
492.745	543.88
492.963	536.88
493.18	554.88
493.398	539.88
493.615	545.88
493.833	536.88
494.05	563.88
494.268	533.88
494.485	531.88
494.703	536.88
494.92	539.88
495.138	561.88
495.355	533.88
495.573	534.88
495.79	542.88
496.008	551.88
496.225	528.88
496.442	531.88
496.66	563.88
496.877	531.88
497.094	556.88
497.312	576.88
497.529	547.88
497.746	586.88
497.963	573.88
498.181	615.88
498.398	602.88
498.615	619.88
498.832	633.88
499.049	668.88
499.267	680.88
499.484	714.88
499.701	735.88
499.918	777.88
500.135	829.88
500.352	857.88
500.569	861.88
500.786	844.88
501.003	835.88
501.22	805.88
501.437	775.88
501.654	749.88
501.871	721.88
502.088	693.88
