Data from 1964.PennyLincolnUp.Lamp.En5.5.200Scan.071719.P1._HRD10591_14-05-41-910.txt Node
Date: Thu Jul 18 14:05:41 EDT 2019
User: cochatt
Spectrometer: HR+D1059
Trigger mode: 1
Integration Time (sec): 1.000000E-1
Scans to average: 1
Electric dark correction enabled: true
Nonlinearity correction enabled: false
Boxcar width: 0
XAxis mode: Wavelengths
Number of Pixels in Spectrum: 2048
>>>>>Begin Spectral Data<<<<<
223.165	-11.19
223.4	-11.19
223.635	-11.19
223.869	-28.19
224.104	-27.19
224.338	-3.19
224.573	-12.19
224.808	-23.19
225.042	-8.19
225.277	-4.19
225.511	12.81
225.746	8.81
225.98	-4.19
226.215	17.81
226.449	10.81
226.683	19.81
226.918	27.81
227.152	23.81
227.387	39.81
227.621	30.81
227.856	33.81
228.09	43.81
228.324	54.81
228.559	55.81
228.793	71.81
229.027	103.81
229.262	104.81
229.496	101.81
229.73	122.81
229.964	143.81
230.199	116.81
230.433	114.81
230.667	90.81
230.901	101.81
231.136	117.81
231.37	103.81
231.604	115.81
231.838	103.81
232.072	115.81
232.306	128.81
232.541	124.81
232.775	100.81
233.009	117.81
233.243	123.81
233.477	115.81
233.711	119.81
233.945	121.81
234.179	107.81
234.413	120.81
234.647	123.81
234.881	121.81
235.115	121.81
235.349	128.81
235.583	126.81
235.817	112.81
236.051	126.81
236.285	132.81
236.519	124.81
236.753	121.81
236.987	147.81
237.221	167.81
237.455	198.81
237.689	167.81
237.922	140.81
238.156	137.81
238.39	123.81
238.624	121.81
238.858	134.81
239.091	136.81
239.325	130.81
239.559	133.81
239.793	123.81
240.027	134.81
240.26	145.81
240.494	153.81
240.728	137.81
240.961	149.81
241.195	145.81
241.429	142.81
241.662	135.81
241.896	142.81
242.13	140.81
242.363	131.81
242.597	137.81
242.83	156.81
243.064	142.81
243.298	143.81
243.531	135.81
243.765	137.81
243.998	152.81
244.232	138.81
244.465	149.81
244.699	145.81
244.932	157.81
245.166	151.81
245.399	145.81
245.633	145.81
245.866	151.81
246.099	165.81
246.333	163.81
246.566	147.81
246.8	161.81
247.033	144.81
247.266	147.81
247.5	165.81
247.733	176.81
247.966	183.81
248.2	177.81
248.433	164.81
248.666	183.81
248.899	175.81
249.133	204.81
249.366	204.81
249.599	196.81
249.832	189.81
250.066	183.81
250.299	186.81
250.532	187.81
250.765	212.81
250.998	214.81
251.231	217.81
251.465	200.81
251.698	201.81
251.931	212.81
252.164	198.81
252.397	221.81
252.63	214.81
252.863	214.81
253.096	218.81
253.329	211.81
253.562	209.81
253.795	230.81
254.028	208.81
254.261	229.81
254.494	221.81
254.727	244.81
254.96	275.81
255.193	288.81
255.426	248.81
255.659	237.81
255.892	248.81
256.124	237.81
256.357	253.81
256.59	240.81
256.823	244.81
257.056	222.81
257.289	232.81
257.521	223.81
257.754	237.81
257.987	206.81
258.22	219.81
258.452	215.81
258.685	215.81
258.918	214.81
259.151	214.81
259.383	241.81
259.616	219.81
259.849	231.81
260.081	240.81
260.314	259.81
260.547	287.81
260.779	252.81
261.012	243.81
261.244	236.81
261.477	237.81
261.71	257.81
261.942	231.81
262.175	228.81
262.407	230.81
262.64	215.81
262.872	222.81
263.105	233.81
263.337	218.81
263.57	222.81
263.802	235.81
264.035	245.81
264.267	227.81
264.499	236.81
264.732	236.81
264.964	234.81
265.197	233.81
265.429	226.81
265.661	236.81
265.894	232.81
266.126	231.81
266.358	233.81
266.591	226.81
266.823	249.81
267.055	253.81
267.287	248.81
267.52	238.81
267.752	247.81
267.984	231.81
268.216	249.81
268.448	237.81
268.681	249.81
268.913	240.81
269.145	277.81
269.377	291.81
269.609	292.81
269.841	283.81
270.073	283.81
270.306	315.81
270.538	296.81
270.77	317.81
271.002	302.81
271.234	311.81
271.466	318.81
271.698	322.81
271.93	325.81
272.162	326.81
272.394	342.81
272.626	302.81
272.858	295.81
273.09	302.81
273.322	289.81
273.553	283.81
273.785	291.81
274.017	283.81
274.249	298.81
274.481	289.81
274.713	281.81
274.945	298.81
275.176	288.81
275.408	289.81
275.64	300.81
275.872	296.81
276.104	294.81
276.335	298.81
276.567	315.81
276.799	316.81
277.031	330.81
277.262	354.81
277.494	337.81
277.726	340.81
277.957	313.81
278.189	298.81
278.421	315.81
278.652	295.81
278.884	304.81
279.115	315.81
279.347	307.81
279.579	298.81
279.81	295.81
280.042	280.81
280.273	301.81
280.505	322.81
280.736	311.81
280.968	292.81
281.199	311.81
281.431	295.81
281.662	309.81
281.894	283.81
282.125	333.81
282.356	328.81
282.588	326.81
282.819	320.81
283.051	288.81
283.282	299.81
283.513	309.81
283.745	301.81
283.976	303.81
284.207	310.81
284.439	315.81
284.67	317.81
284.901	323.81
285.132	316.81
285.364	308.81
285.595	322.81
285.826	316.81
286.057	320.81
286.288	315.81
286.52	317.81
286.751	313.81
286.982	330.81
287.213	325.81
287.444	319.81
287.675	322.81
287.906	323.81
288.138	348.81
288.369	339.81
288.6	345.81
288.831	343.81
289.062	326.81
289.293	342.81
289.524	345.81
289.755	348.81
289.986	329.81
290.217	335.81
290.448	323.81
290.679	335.81
290.91	342.81
291.141	321.81
291.371	326.81
291.602	337.81
291.833	323.81
292.064	323.81
292.295	334.81
292.526	342.81
292.757	339.81
292.987	326.81
293.218	327.81
293.449	331.81
293.68	319.81
293.91	310.81
294.141	352.81
294.372	324.81
294.603	343.81
294.833	329.81
295.064	344.81
295.295	332.81
295.525	332.81
295.756	341.81
295.987	347.81
296.217	374.81
296.448	365.81
296.679	341.81
296.909	327.81
297.14	359.81
297.37	351.81
297.601	338.81
297.831	345.81
298.062	365.81
298.292	331.81
298.523	340.81
298.753	336.81
298.984	360.81
299.214	367.81
299.445	349.81
299.675	360.81
299.905	342.81
300.136	365.81
300.366	379.81
300.597	356.81
300.827	353.81
301.057	375.81
301.288	368.81
301.518	366.81
301.748	382.81
301.979	368.81
302.209	374.81
302.439	357.81
302.669	365.81
302.9	374.81
303.13	373.81
303.36	385.81
303.59	370.81
303.82	373.81
304.051	382.81
304.281	368.81
304.511	364.81
304.741	388.81
304.971	381.81
305.201	380.81
305.431	371.81
305.661	374.81
305.891	375.81
306.121	378.81
306.352	387.81
306.582	367.81
306.812	374.81
307.042	366.81
307.272	368.81
307.502	381.81
307.731	383.81
307.961	409.81
308.191	364.81
308.421	381.81
308.651	365.81
308.881	369.81
309.111	381.81
309.341	390.81
309.571	385.81
309.8	402.81
310.03	410.81
310.26	412.81
310.49	398.81
310.72	399.81
310.949	421.81
311.179	424.81
311.409	391.81
311.639	413.81
311.868	430.81
312.098	423.81
312.328	400.81
312.557	428.81
312.787	407.81
313.017	415.81
313.246	415.81
313.476	400.81
313.706	409.81
313.935	424.81
314.165	424.81
314.394	442.81
314.624	441.81
314.853	436.81
315.083	419.81
315.312	406.81
315.542	418.81
315.771	408.81
316.001	395.81
316.23	427.81
316.46	421.81
316.689	404.81
316.919	407.81
317.148	427.81
317.377	413.81
317.607	417.81
317.836	415.81
318.065	422.81
318.295	415.81
318.524	417.81
318.753	429.81
318.983	411.81
319.212	423.81
319.441	416.81
319.67	435.81
319.9	415.81
320.129	405.81
320.358	435.81
320.587	429.81
320.816	432.81
321.046	414.81
321.275	430.81
321.504	425.81
321.733	432.81
321.962	441.81
322.191	444.81
322.42	469.81
322.649	463.81
322.878	457.81
323.108	479.81
323.337	477.81
323.566	490.81
323.795	514.81
324.024	541.81
324.253	652.81
324.482	865.81
324.71	1223.81
324.939	1701.81
325.168	1463.81
325.397	779.81
325.626	569.81
325.855	531.81
326.084	509.81
326.313	511.81
326.542	524.81
326.77	564.81
326.999	631.81
327.228	788.81
327.457	1130.81
327.686	1273.81
327.914	855.81
328.143	639.81
328.372	567.81
328.6	555.81
328.829	531.81
329.058	557.81
329.287	573.81
329.515	558.81
329.744	500.81
329.972	527.81
330.201	545.81
330.43	547.81
330.658	565.81
330.887	580.81
331.115	564.81
331.344	538.81
331.572	522.81
331.801	508.81
332.03	511.81
332.258	522.81
332.486	507.81
332.715	496.81
332.943	502.81
333.172	515.81
333.4	528.81
333.629	494.81
333.857	529.81
334.085	539.81
334.314	576.81
334.542	585.81
334.771	561.81
334.999	555.81
335.227	517.81
335.455	530.81
335.684	523.81
335.912	484.81
336.14	482.81
336.369	503.81
336.597	493.81
336.825	482.81
337.053	507.81
337.281	473.81
337.51	468.81
337.738	469.81
337.966	472.81
338.194	482.81
338.422	474.81
338.65	470.81
338.878	468.81
339.106	485.81
339.334	462.81
339.562	459.81
339.79	455.81
340.018	475.81
340.246	447.81
340.474	462.81
340.702	451.81
340.93	475.81
341.158	471.81
341.386	470.81
341.614	437.81
341.842	469.81
342.07	475.81
342.298	456.81
342.526	457.81
342.754	440.81
342.981	453.81
343.209	445.81
343.437	456.81
343.665	460.81
343.893	492.81
344.12	491.81
344.348	475.81
344.576	469.81
344.804	490.81
345.031	465.81
345.259	471.81
345.487	455.81
345.714	476.81
345.942	427.81
346.17	443.81
346.397	449.81
346.625	453.81
346.853	437.81
347.08	422.81
347.308	423.81
347.535	447.81
347.763	443.81
347.99	439.81
348.218	439.81
348.445	448.81
348.673	444.81
348.9	448.81
349.128	440.81
349.355	403.81
349.583	467.81
349.81	416.81
350.037	417.81
350.265	428.81
350.492	420.81
350.72	453.81
350.947	411.81
351.174	427.81
351.402	433.81
351.629	463.81
351.856	435.81
352.083	444.81
352.311	444.81
352.538	438.81
352.765	450.81
352.992	418.81
353.22	433.81
353.447	395.81
353.674	397.81
353.901	422.81
354.128	403.81
354.355	424.81
354.583	413.81
354.81	400.81
355.037	402.81
355.264	435.81
355.491	409.81
355.718	407.81
355.945	405.81
356.172	411.81
356.399	406.81
356.626	398.81
356.853	393.81
357.08	393.81
357.307	409.81
357.534	420.81
357.761	409.81
357.988	411.81
358.215	399.81
358.441	413.81
358.668	407.81
358.895	413.81
359.122	407.81
359.349	414.81
359.576	424.81
359.802	423.81
360.029	454.81
360.256	456.81
360.483	438.81
360.709	424.81
360.936	428.81
361.163	439.81
361.39	419.81
361.616	430.81
361.843	424.81
362.07	420.81
362.296	424.81
362.523	432.81
362.749	415.81
362.976	404.81
363.203	431.81
363.429	414.81
363.656	415.81
363.882	414.81
364.109	412.81
364.335	404.81
364.562	412.81
364.788	426.81
365.015	420.81
365.241	407.81
365.468	397.81
365.694	415.81
365.92	438.81
366.147	426.81
366.373	406.81
366.599	422.81
366.826	393.81
367.052	402.81
367.278	405.81
367.505	388.81
367.731	407.81
367.957	411.81
368.184	407.81
368.41	407.81
368.636	422.81
368.862	430.81
369.089	422.81
369.315	408.81
369.541	385.81
369.767	406.81
369.993	422.81
370.219	420.81
370.445	414.81
370.672	400.81
370.898	414.81
371.124	407.81
371.35	419.81
371.576	414.81
371.802	392.81
372.028	409.81
372.254	399.81
372.48	436.81
372.706	428.81
372.932	415.81
373.158	432.81
373.384	419.81
373.61	409.81
373.835	420.81
374.061	406.81
374.287	423.81
374.513	428.81
374.739	418.81
374.965	421.81
375.191	403.81
375.416	406.81
375.642	405.81
375.868	409.81
376.094	416.81
376.319	393.81
376.545	389.81
376.771	409.81
376.997	407.81
377.222	421.81
377.448	393.81
377.674	399.81
377.899	401.81
378.125	392.81
378.35	422.81
378.576	407.81
378.802	416.81
379.027	414.81
379.253	400.81
379.478	411.81
379.704	417.81
379.929	408.81
380.155	413.81
380.38	415.81
380.606	400.81
380.831	394.81
381.057	404.81
381.282	378.81
381.507	401.81
381.733	400.81
381.958	421.81
382.184	405.81
382.409	411.81
382.634	419.81
382.86	424.81
383.085	419.81
383.31	419.81
383.535	433.81
383.761	426.81
383.986	412.81
384.211	425.81
384.436	415.81
384.662	414.81
384.887	437.81
385.112	431.81
385.337	423.81
385.562	449.81
385.787	452.81
386.013	451.81
386.238	442.81
386.463	451.81
386.688	468.81
386.913	428.81
387.138	442.81
387.363	422.81
387.588	445.81
387.813	438.81
388.038	445.81
388.263	432.81
388.488	429.81
388.713	460.81
388.938	442.81
389.163	449.81
389.387	426.81
389.612	447.81
389.837	435.81
390.062	435.81
390.287	443.81
390.512	441.81
390.736	448.81
390.961	445.81
391.186	435.81
391.411	447.81
391.636	463.81
391.86	448.81
392.085	434.81
392.31	464.81
392.534	463.81
392.759	473.81
392.984	452.81
393.208	462.81
393.433	452.81
393.658	452.81
393.882	432.81
394.107	459.81
394.331	435.81
394.556	439.81
394.78	455.81
395.005	458.81
395.229	461.81
395.454	448.81
395.678	468.81
395.903	480.81
396.127	483.81
396.352	476.81
396.576	457.81
396.801	468.81
397.025	482.81
397.249	469.81
397.474	452.81
397.698	481.81
397.922	501.81
398.147	491.81
398.371	500.81
398.595	469.81
398.82	504.81
399.044	514.81
399.268	550.81
399.492	565.81
399.717	603.81
399.941	612.81
400.165	618.81
400.389	634.81
400.613	565.81
400.837	536.81
401.062	532.81
401.286	514.81
401.51	498.81
401.734	515.81
401.958	496.81
402.182	511.81
402.406	508.81
402.63	510.81
402.854	510.81
403.078	501.81
403.302	509.81
403.526	527.81
403.75	528.81
403.974	510.81
404.198	528.81
404.422	547.81
404.645	536.81
404.869	532.81
405.093	556.81
405.317	597.81
405.541	596.81
405.765	580.81
405.988	534.81
406.212	531.81
406.436	545.81
406.66	550.81
406.883	550.81
407.107	574.81
407.331	612.81
407.555	640.81
407.778	659.81
408.002	623.81
408.226	575.81
408.449	548.81
408.673	551.81
408.896	585.81
409.12	612.81
409.344	604.81
409.567	529.81
409.791	536.81
410.014	507.81
410.238	522.81
410.461	508.81
410.685	519.81
410.908	527.81
411.132	542.81
411.355	576.81
411.578	547.81
411.802	515.81
412.025	495.81
412.249	530.81
412.472	530.81
412.695	571.81
412.919	540.81
413.142	550.81
413.365	504.81
413.589	533.81
413.812	484.81
414.035	483.81
414.258	488.81
414.482	477.81
414.705	483.81
414.928	486.81
415.151	475.81
415.374	479.81
415.597	488.81
415.821	483.81
416.044	468.81
416.267	473.81
416.49	482.81
416.713	482.81
416.936	474.81
417.159	478.81
417.382	485.81
417.605	487.81
417.828	511.81
418.051	522.81
418.274	489.81
418.497	457.81
418.72	460.81
418.943	463.81
419.166	500.81
419.389	540.81
419.611	507.81
419.834	503.81
420.057	496.81
420.28	488.81
420.503	502.81
420.726	496.81
420.948	512.81
421.171	536.81
421.394	560.81
421.617	495.81
421.839	476.81
422.062	497.81
422.285	490.81
422.507	545.81
422.73	593.81
422.953	575.81
423.175	525.81
423.398	515.81
423.621	506.81
423.843	524.81
424.066	534.81
424.288	507.81
424.511	532.81
424.733	588.81
424.956	633.81
425.178	598.81
425.401	609.81
425.623	611.81
425.846	561.81
426.068	532.81
426.291	508.81
426.513	489.81
426.735	525.81
426.958	547.81
427.18	606.81
427.402	686.81
427.625	760.81
427.847	649.81
428.069	575.81
428.292	538.81
428.514	510.81
428.736	494.81
428.958	487.81
429.181	473.81
429.403	465.81
429.625	458.81
429.847	486.81
430.069	540.81
430.292	545.81
430.514	474.81
430.736	484.81
430.958	457.81
431.18	462.81
431.402	479.81
431.624	456.81
431.846	433.81
432.068	417.81
432.29	457.81
432.512	465.81
432.734	471.81
432.956	472.81
433.178	456.81
433.4	456.81
433.622	447.81
433.844	464.81
434.066	470.81
434.287	454.81
434.509	471.81
434.731	472.81
434.953	451.81
435.175	474.81
435.397	507.81
435.618	512.81
435.84	541.81
436.062	613.81
436.284	635.81
436.505	552.81
436.727	489.81
436.949	479.81
437.17	484.81
437.392	486.81
437.614	472.81
437.835	515.81
438.057	576.81
438.278	631.81
438.5	639.81
438.721	689.81
438.943	655.81
439.165	555.81
439.386	499.81
439.608	501.81
439.829	520.81
440.05	536.81
440.272	548.81
440.493	526.81
440.715	491.81
440.936	488.81
441.158	480.81
441.379	465.81
441.6	491.81
441.822	492.81
442.043	558.81
442.264	587.81
442.486	617.81
442.707	537.81
442.928	519.81
443.149	525.81
443.371	538.81
443.592	571.81
443.813	629.81
444.034	698.81
444.255	580.81
444.476	521.81
444.698	510.81
444.919	503.81
445.14	595.81
445.361	557.81
445.582	553.81
445.803	574.81
446.024	669.81
446.245	672.81
446.466	596.81
446.687	531.81
446.908	517.81
447.129	470.81
447.35	457.81
447.571	462.81
447.792	453.81
448.013	457.81
448.234	500.81
448.455	518.81
448.675	590.81
448.896	696.81
449.117	583.81
449.338	573.81
449.559	641.81
449.779	727.81
450	547.81
450.221	491.81
450.442	462.81
450.662	446.81
450.883	434.81
451.104	439.81
451.324	441.81
451.545	431.81
451.766	428.81
451.986	415.81
452.207	422.81
452.428	411.81
452.648	424.81
452.869	406.81
453.089	431.81
453.31	426.81
453.53	412.81
453.751	412.81
453.971	415.81
454.192	429.81
454.412	409.81
454.633	401.81
454.853	405.81
455.073	413.81
455.294	445.81
455.514	475.81
455.734	468.81
455.955	409.81
456.175	407.81
456.395	400.81
456.616	391.81
456.836	385.81
457.056	387.81
457.276	385.81
457.497	388.81
457.717	395.81
457.937	391.81
458.157	392.81
458.377	402.81
458.598	432.81
458.818	453.81
459.038	539.81
459.258	555.81
459.478	474.81
459.698	436.81
459.918	465.81
460.138	449.81
460.358	438.81
460.578	459.81
460.798	463.81
461.018	467.81
461.238	469.81
461.458	472.81
461.678	446.81
461.898	461.81
462.118	461.81
462.338	497.81
462.558	462.81
462.777	479.81
462.997	516.81
463.217	517.81
463.437	521.81
463.657	492.81
463.876	496.81
464.096	500.81
464.316	485.81
464.536	491.81
464.755	492.81
464.975	486.81
465.195	476.81
465.414	529.81
465.634	477.81
465.854	451.81
466.073	452.81
466.293	451.81
466.512	425.81
466.732	429.81
466.951	431.81
467.171	438.81
467.391	433.81
467.61	427.81
467.829	442.81
468.049	437.81
468.268	424.81
468.488	417.81
468.707	412.81
468.927	416.81
469.146	414.81
469.365	401.81
469.585	414.81
469.804	440.81
470.023	424.81
470.243	423.81
470.462	432.81
470.681	437.81
470.901	453.81
471.12	423.81
471.339	428.81
471.558	437.81
471.777	415.81
471.997	425.81
472.216	442.81
472.435	430.81
472.654	443.81
472.873	428.81
473.092	427.81
473.311	436.81
473.53	436.81
473.749	437.81
473.968	476.81
474.187	534.81
474.406	559.81
474.625	465.81
474.844	424.81
475.063	428.81
475.282	448.81
475.501	432.81
475.72	437.81
475.939	432.81
476.158	439.81
476.377	445.81
476.596	445.81
476.814	457.81
477.033	469.81
477.252	442.81
477.471	454.81
477.69	447.81
477.908	483.81
478.127	469.81
478.346	489.81
478.564	472.81
478.783	469.81
479.002	487.81
479.22	503.81
479.439	487.81
479.658	515.81
479.876	499.81
480.095	521.81
480.313	527.81
480.532	545.81
480.751	521.81
480.969	548.81
481.188	534.81
481.406	556.81
481.624	531.81
481.843	493.81
482.061	505.81
482.28	493.81
482.498	506.81
482.717	485.81
482.935	493.81
483.153	483.81
483.372	490.81
483.59	470.81
483.808	487.81
484.027	518.81
484.245	483.81
484.463	486.81
484.681	508.81
484.9	512.81
485.118	499.81
485.336	491.81
485.554	521.81
485.772	522.81
485.99	509.81
486.209	530.81
486.427	515.81
486.645	529.81
486.863	540.81
487.081	537.81
487.299	533.81
487.517	526.81
487.735	525.81
487.953	530.81
488.171	547.81
488.389	507.81
488.607	519.81
488.825	529.81
489.043	526.81
489.261	516.81
489.479	523.81
489.696	547.81
489.914	536.81
490.132	535.81
490.35	566.81
490.568	553.81
490.786	565.81
491.003	567.81
491.221	559.81
491.439	581.81
491.657	583.81
491.874	576.81
492.092	601.81
492.31	580.81
492.527	580.81
492.745	586.81
492.963	593.81
493.18	592.81
493.398	597.81
493.615	631.81
493.833	612.81
494.05	597.81
494.268	583.81
494.485	600.81
494.703	592.81
494.92	615.81
495.138	616.81
495.355	603.81
495.573	616.81
495.79	620.81
496.008	605.81
496.225	619.81
496.442	608.81
496.66	608.81
496.877	625.81
497.094	620.81
497.312	609.81
497.529	639.81
497.746	643.81
497.963	650.81
498.181	680.81
498.398	679.81
498.615	671.81
498.832	747.81
499.049	747.81
499.267	759.81
499.484	785.81
499.701	805.81
499.918	849.81
500.135	896.81
500.352	941.81
500.569	950.81
500.786	939.81
501.003	931.81
501.22	886.81
501.437	854.81
501.654	845.81
501.871	805.81
