Data from 1964.PennyLincolnUp.Lamp.En5.5.200Scan.071719.P1._HRD10591_14-04-04-910.txt Node
Date: Thu Jul 18 14:04:04 EDT 2019
User: cochatt
Spectrometer: HR+D1059
Trigger mode: 1
Integration Time (sec): 1.000000E-1
Scans to average: 1
Electric dark correction enabled: true
Nonlinearity correction enabled: false
Boxcar width: 0
XAxis mode: Wavelengths
Number of Pixels in Spectrum: 2048
>>>>>Begin Spectral Data<<<<<
223.165	-11.25
223.4	-11.25
223.635	-11.25
223.869	-18.25
224.104	-29.25
224.338	-8.25
224.573	-13.25
224.808	-11.25
225.042	-19.25
225.277	-10.25
225.511	6.75
225.746	6.75
225.98	1.75
226.215	13.75
226.449	12.75
226.683	18.75
226.918	20.75
227.152	39.75
227.387	26.75
227.621	37.75
227.856	41.75
228.09	43.75
228.324	55.75
228.559	61.75
228.793	65.75
229.027	85.75
229.262	97.75
229.496	98.75
229.73	108.75
229.964	133.75
230.199	93.75
230.433	111.75
230.667	118.75
230.901	102.75
231.136	92.75
231.37	116.75
231.604	105.75
231.838	113.75
232.072	112.75
232.306	122.75
232.541	100.75
232.775	102.75
233.009	104.75
233.243	113.75
233.477	113.75
233.711	114.75
233.945	113.75
234.179	102.75
234.413	122.75
234.647	121.75
234.881	106.75
235.115	114.75
235.349	126.75
235.583	116.75
235.817	99.75
236.051	123.75
236.285	120.75
236.519	124.75
236.753	124.75
236.987	129.75
237.221	141.75
237.455	178.75
237.689	156.75
237.922	124.75
238.156	112.75
238.39	113.75
238.624	106.75
238.858	122.75
239.091	138.75
239.325	120.75
239.559	118.75
239.793	136.75
240.027	134.75
240.26	130.75
240.494	123.75
240.728	138.75
240.961	135.75
241.195	127.75
241.429	122.75
241.662	125.75
241.896	120.75
242.13	140.75
242.363	138.75
242.597	121.75
242.83	132.75
243.064	130.75
243.298	123.75
243.531	124.75
243.765	143.75
243.998	130.75
244.232	125.75
244.465	132.75
244.699	140.75
244.932	140.75
245.166	133.75
245.399	135.75
245.633	150.75
245.866	138.75
246.099	154.75
246.333	142.75
246.566	153.75
246.8	139.75
247.033	171.75
247.266	161.75
247.5	160.75
247.733	166.75
247.966	159.75
248.2	158.75
248.433	174.75
248.666	171.75
248.899	173.75
249.133	187.75
249.366	189.75
249.599	185.75
249.832	183.75
250.066	178.75
250.299	172.75
250.532	194.75
250.765	192.75
250.998	209.75
251.231	205.75
251.465	210.75
251.698	181.75
251.931	186.75
252.164	180.75
252.397	196.75
252.63	186.75
252.863	193.75
253.096	196.75
253.329	202.75
253.562	218.75
253.795	202.75
254.028	208.75
254.261	199.75
254.494	196.75
254.727	232.75
254.96	240.75
255.193	236.75
255.426	226.75
255.659	221.75
255.892	204.75
256.124	213.75
256.357	220.75
256.59	220.75
256.823	204.75
257.056	202.75
257.289	223.75
257.521	214.75
257.754	203.75
257.987	202.75
258.22	207.75
258.452	205.75
258.685	184.75
258.918	198.75
259.151	211.75
259.383	226.75
259.616	204.75
259.849	219.75
260.081	230.75
260.314	248.75
260.547	250.75
260.779	222.75
261.012	234.75
261.244	213.75
261.477	230.75
261.71	220.75
261.942	219.75
262.175	213.75
262.407	229.75
262.64	218.75
262.872	215.75
263.105	202.75
263.337	201.75
263.57	217.75
263.802	202.75
264.035	212.75
264.267	211.75
264.499	219.75
264.732	228.75
264.964	215.75
265.197	210.75
265.429	242.75
265.661	216.75
265.894	220.75
266.126	207.75
266.358	210.75
266.591	226.75
266.823	234.75
267.055	233.75
267.287	224.75
267.52	225.75
267.752	228.75
267.984	222.75
268.216	243.75
268.448	226.75
268.681	236.75
268.913	248.75
269.145	266.75
269.377	266.75
269.609	260.75
269.841	264.75
270.073	269.75
270.306	266.75
270.538	279.75
270.77	281.75
271.002	280.75
271.234	275.75
271.466	288.75
271.698	281.75
271.93	299.75
272.162	290.75
272.394	308.75
272.626	302.75
272.858	285.75
273.09	270.75
273.322	266.75
273.553	252.75
273.785	264.75
274.017	251.75
274.249	282.75
274.481	260.75
274.713	255.75
274.945	266.75
275.176	274.75
275.408	262.75
275.64	293.75
275.872	255.75
276.104	265.75
276.335	273.75
276.567	270.75
276.799	283.75
277.031	295.75
277.262	315.75
277.494	301.75
277.726	290.75
277.957	298.75
278.189	281.75
278.421	266.75
278.652	264.75
278.884	287.75
279.115	275.75
279.347	273.75
279.579	265.75
279.81	283.75
280.042	271.75
280.273	276.75
280.505	271.75
280.736	249.75
280.968	269.75
281.199	267.75
281.431	276.75
281.662	277.75
281.894	272.75
282.125	286.75
282.356	298.75
282.588	317.75
282.819	305.75
283.051	297.75
283.282	297.75
283.513	276.75
283.745	282.75
283.976	316.75
284.207	297.75
284.439	296.75
284.67	312.75
284.901	308.75
285.132	285.75
285.364	290.75
285.595	306.75
285.826	303.75
286.057	301.75
286.288	296.75
286.52	299.75
286.751	313.75
286.982	312.75
287.213	304.75
287.444	289.75
287.675	312.75
287.906	311.75
288.138	323.75
288.369	335.75
288.6	315.75
288.831	313.75
289.062	300.75
289.293	313.75
289.524	301.75
289.755	325.75
289.986	321.75
290.217	305.75
290.448	281.75
290.679	311.75
290.91	304.75
291.141	300.75
291.371	312.75
291.602	304.75
291.833	318.75
292.064	310.75
292.295	297.75
292.526	318.75
292.757	323.75
292.987	321.75
293.218	310.75
293.449	309.75
293.68	305.75
293.91	316.75
294.141	314.75
294.372	300.75
294.603	290.75
294.833	313.75
295.064	314.75
295.295	318.75
295.525	327.75
295.756	290.75
295.987	300.75
296.217	332.75
296.448	333.75
296.679	330.75
296.909	316.75
297.14	324.75
297.37	335.75
297.601	326.75
297.831	322.75
298.062	318.75
298.292	318.75
298.523	341.75
298.753	334.75
298.984	327.75
299.214	339.75
299.445	344.75
299.675	326.75
299.905	318.75
300.136	342.75
300.366	346.75
300.597	343.75
300.827	338.75
301.057	332.75
301.288	353.75
301.518	364.75
301.748	338.75
301.979	331.75
302.209	345.75
302.439	340.75
302.669	356.75
302.9	361.75
303.13	339.75
303.36	340.75
303.59	350.75
303.82	346.75
304.051	384.75
304.281	359.75
304.511	354.75
304.741	341.75
304.971	340.75
305.201	359.75
305.431	349.75
305.661	364.75
305.891	346.75
306.121	349.75
306.352	354.75
306.582	330.75
306.812	358.75
307.042	353.75
307.272	337.75
307.502	349.75
307.731	359.75
307.961	350.75
308.191	329.75
308.421	346.75
308.651	342.75
308.881	362.75
309.111	385.75
309.341	370.75
309.571	355.75
309.8	370.75
310.03	388.75
310.26	351.75
310.49	370.75
310.72	368.75
310.949	396.75
311.179	374.75
311.409	355.75
311.639	378.75
311.868	376.75
312.098	386.75
312.328	395.75
312.557	400.75
312.787	392.75
313.017	369.75
313.246	396.75
313.476	355.75
313.706	382.75
313.935	388.75
314.165	392.75
314.394	382.75
314.624	390.75
314.853	392.75
315.083	398.75
315.312	399.75
315.542	386.75
315.771	382.75
316.001	376.75
316.23	386.75
316.46	377.75
316.689	390.75
316.919	402.75
317.148	411.75
317.377	392.75
317.607	392.75
317.836	394.75
318.065	403.75
318.295	378.75
318.524	395.75
318.753	384.75
318.983	395.75
319.212	377.75
319.441	384.75
319.67	386.75
319.9	375.75
320.129	403.75
320.358	390.75
320.587	381.75
320.816	384.75
321.046	405.75
321.275	403.75
321.504	391.75
321.733	396.75
321.962	395.75
322.191	406.75
322.42	422.75
322.649	415.75
322.878	422.75
323.108	438.75
323.337	429.75
323.566	432.75
323.795	441.75
324.024	498.75
324.253	551.75
324.482	756.75
324.71	1076.75
324.939	1425.75
325.168	1224.75
325.397	690.75
325.626	516.75
325.855	458.75
326.084	460.75
326.313	457.75
326.542	455.75
326.77	482.75
326.999	536.75
327.228	690.75
327.457	940.75
327.686	1090.75
327.914	745.75
328.143	541.75
328.372	529.75
328.6	504.75
328.829	470.75
329.058	496.75
329.287	475.75
329.515	474.75
329.744	476.75
329.972	462.75
330.201	462.75
330.43	520.75
330.658	530.75
330.887	493.75
331.115	491.75
331.344	471.75
331.572	461.75
331.801	446.75
332.03	454.75
332.258	443.75
332.486	426.75
332.715	451.75
332.943	454.75
333.172	469.75
333.4	460.75
333.629	464.75
333.857	470.75
334.085	489.75
334.314	508.75
334.542	527.75
334.771	539.75
334.999	477.75
335.227	482.75
335.455	483.75
335.684	444.75
335.912	474.75
336.14	464.75
336.369	448.75
336.597	446.75
336.825	467.75
337.053	439.75
337.281	459.75
337.51	446.75
337.738	463.75
337.966	456.75
338.194	455.75
338.422	454.75
338.65	434.75
338.878	424.75
339.106	438.75
339.334	432.75
339.562	427.75
339.79	454.75
340.018	429.75
340.246	452.75
340.474	432.75
340.702	439.75
340.93	429.75
341.158	413.75
341.386	434.75
341.614	435.75
341.842	426.75
342.07	420.75
342.298	417.75
342.526	433.75
342.754	433.75
342.981	423.75
343.209	427.75
343.437	432.75
343.665	459.75
343.893	428.75
344.12	454.75
344.348	461.75
344.576	441.75
344.804	446.75
345.031	440.75
345.259	438.75
345.487	418.75
345.714	416.75
345.942	425.75
346.17	423.75
346.397	383.75
346.625	400.75
346.853	401.75
347.08	395.75
347.308	389.75
347.535	391.75
347.763	408.75
347.99	395.75
348.218	410.75
348.445	414.75
348.673	415.75
348.9	397.75
349.128	388.75
349.355	398.75
349.583	383.75
349.81	402.75
350.037	394.75
350.265	398.75
350.492	398.75
350.72	403.75
350.947	400.75
351.174	420.75
351.402	392.75
351.629	394.75
351.856	405.75
352.083	411.75
352.311	398.75
352.538	392.75
352.765	409.75
352.992	402.75
353.22	398.75
353.447	396.75
353.674	382.75
353.901	379.75
354.128	388.75
354.355	383.75
354.583	410.75
354.81	378.75
355.037	377.75
355.264	388.75
355.491	390.75
355.718	385.75
355.945	382.75
356.172	399.75
356.399	364.75
356.626	365.75
356.853	391.75
357.08	380.75
357.307	374.75
357.534	361.75
357.761	387.75
357.988	388.75
358.215	376.75
358.441	388.75
358.668	388.75
358.895	387.75
359.122	388.75
359.349	373.75
359.576	386.75
359.802	394.75
360.029	413.75
360.256	404.75
360.483	387.75
360.709	392.75
360.936	388.75
361.163	377.75
361.39	394.75
361.616	401.75
361.843	380.75
362.07	375.75
362.296	390.75
362.523	384.75
362.749	413.75
362.976	385.75
363.203	392.75
363.429	379.75
363.656	385.75
363.882	368.75
364.109	377.75
364.335	378.75
364.562	368.75
364.788	399.75
365.015	377.75
365.241	410.75
365.468	374.75
365.694	384.75
365.92	362.75
366.147	382.75
366.373	379.75
366.599	374.75
366.826	378.75
367.052	368.75
367.278	364.75
367.505	380.75
367.731	374.75
367.957	369.75
368.184	366.75
368.41	392.75
368.636	366.75
368.862	390.75
369.089	395.75
369.315	374.75
369.541	397.75
369.767	379.75
369.993	377.75
370.219	386.75
370.445	363.75
370.672	374.75
370.898	397.75
371.124	386.75
371.35	395.75
371.576	386.75
371.802	379.75
372.028	377.75
372.254	376.75
372.48	394.75
372.706	398.75
372.932	388.75
373.158	409.75
373.384	406.75
373.61	396.75
373.835	393.75
374.061	371.75
374.287	378.75
374.513	376.75
374.739	384.75
374.965	381.75
375.191	410.75
375.416	381.75
375.642	380.75
375.868	387.75
376.094	378.75
376.319	402.75
376.545	386.75
376.771	390.75
376.997	374.75
377.222	404.75
377.448	371.75
377.674	368.75
377.899	354.75
378.125	363.75
378.35	378.75
378.576	361.75
378.802	366.75
379.027	388.75
379.253	375.75
379.478	372.75
379.704	365.75
379.929	386.75
380.155	377.75
380.38	370.75
380.606	362.75
380.831	373.75
381.057	388.75
381.282	393.75
381.507	399.75
381.733	389.75
381.958	376.75
382.184	384.75
382.409	379.75
382.634	384.75
382.86	370.75
383.085	394.75
383.31	375.75
383.535	396.75
383.761	410.75
383.986	394.75
384.211	383.75
384.436	399.75
384.662	383.75
384.887	403.75
385.112	417.75
385.337	403.75
385.562	403.75
385.787	409.75
386.013	407.75
386.238	427.75
386.463	425.75
386.688	408.75
386.913	423.75
387.138	406.75
387.363	390.75
387.588	424.75
387.813	408.75
388.038	417.75
388.263	404.75
388.488	421.75
388.713	416.75
388.938	418.75
389.163	428.75
389.387	400.75
389.612	427.75
389.837	413.75
390.062	413.75
390.287	424.75
390.512	414.75
390.736	421.75
390.961	392.75
391.186	413.75
391.411	412.75
391.636	419.75
391.86	418.75
392.085	437.75
392.31	439.75
392.534	416.75
392.759	426.75
392.984	438.75
393.208	430.75
393.433	437.75
393.658	400.75
393.882	402.75
394.107	413.75
394.331	405.75
394.556	437.75
394.78	428.75
395.005	410.75
395.229	427.75
395.454	425.75
395.678	407.75
395.903	442.75
396.127	449.75
396.352	456.75
396.576	418.75
396.801	430.75
397.025	432.75
397.249	450.75
397.474	444.75
397.698	412.75
397.922	453.75
398.147	449.75
398.371	476.75
398.595	458.75
398.82	453.75
399.044	474.75
399.268	509.75
399.492	524.75
399.717	577.75
399.941	590.75
400.165	582.75
400.389	562.75
400.613	516.75
400.837	500.75
401.062	498.75
401.286	466.75
401.51	462.75
401.734	484.75
401.958	462.75
402.182	485.75
402.406	488.75
402.63	466.75
402.854	493.75
403.078	493.75
403.302	499.75
403.526	472.75
403.75	499.75
403.974	494.75
404.198	469.75
404.422	492.75
404.645	489.75
404.869	477.75
405.093	530.75
405.317	556.75
405.541	599.75
405.765	517.75
405.988	502.75
406.212	493.75
406.436	530.75
406.66	543.75
406.883	499.75
407.107	533.75
407.331	573.75
407.555	614.75
407.778	612.75
408.002	561.75
408.226	529.75
408.449	516.75
408.673	532.75
408.896	525.75
409.12	539.75
409.344	531.75
409.567	492.75
409.791	496.75
410.014	476.75
410.238	457.75
410.461	459.75
410.685	472.75
410.908	493.75
411.132	529.75
411.355	537.75
411.578	496.75
411.802	481.75
412.025	483.75
412.249	477.75
412.472	499.75
412.695	516.75
412.919	524.75
413.142	482.75
413.365	464.75
413.589	467.75
413.812	454.75
414.035	468.75
414.258	461.75
414.482	440.75
414.705	412.75
414.928	446.75
415.151	466.75
415.374	456.75
415.597	434.75
415.821	427.75
416.044	456.75
416.267	442.75
416.49	447.75
416.713	433.75
416.936	426.75
417.159	434.75
417.382	446.75
417.605	444.75
417.828	457.75
418.051	457.75
418.274	466.75
418.497	460.75
418.72	436.75
418.943	463.75
419.166	437.75
419.389	479.75
419.611	471.75
419.834	473.75
420.057	477.75
420.28	470.75
420.503	474.75
420.726	481.75
420.948	461.75
421.171	471.75
421.394	496.75
421.617	474.75
421.839	455.75
422.062	445.75
422.285	464.75
422.507	526.75
422.73	547.75
422.953	532.75
423.175	493.75
423.398	443.75
423.621	472.75
423.843	507.75
424.066	494.75
424.288	493.75
424.511	499.75
424.733	523.75
424.956	600.75
425.178	565.75
425.401	547.75
425.623	567.75
425.846	487.75
426.068	469.75
426.291	466.75
426.513	462.75
426.735	470.75
426.958	497.75
427.18	551.75
427.402	658.75
427.625	697.75
427.847	601.75
428.069	516.75
428.292	481.75
428.514	464.75
428.736	462.75
428.958	449.75
429.181	421.75
429.403	422.75
429.625	452.75
429.847	461.75
430.069	527.75
430.292	506.75
430.514	454.75
430.736	452.75
430.958	422.75
431.18	416.75
431.402	418.75
431.624	416.75
431.846	408.75
432.068	420.75
432.29	420.75
432.512	422.75
432.734	397.75
432.956	422.75
433.178	419.75
433.4	429.75
433.622	426.75
433.844	418.75
434.066	404.75
434.287	414.75
434.509	426.75
434.731	444.75
434.953	434.75
435.175	440.75
435.397	455.75
435.618	466.75
435.84	469.75
436.062	542.75
436.284	605.75
436.505	489.75
436.727	471.75
436.949	460.75
437.17	452.75
437.392	421.75
437.614	441.75
437.835	452.75
438.057	511.75
438.278	601.75
438.5	587.75
438.721	647.75
438.943	617.75
439.165	489.75
439.386	464.75
439.608	444.75
439.829	452.75
440.05	470.75
440.272	504.75
440.493	497.75
440.715	446.75
440.936	440.75
441.158	446.75
441.379	429.75
441.6	444.75
441.822	454.75
442.043	498.75
442.264	533.75
442.486	598.75
442.707	492.75
442.928	488.75
443.149	476.75
443.371	481.75
443.592	511.75
443.813	590.75
444.034	631.75
444.255	530.75
444.476	476.75
444.698	486.75
444.919	503.75
445.14	596.75
445.361	539.75
445.582	492.75
445.803	540.75
446.024	592.75
446.245	568.75
446.466	543.75
446.687	479.75
446.908	463.75
447.129	429.75
447.35	442.75
447.571	418.75
447.792	428.75
448.013	418.75
448.234	421.75
448.455	466.75
448.675	536.75
448.896	634.75
449.117	535.75
449.338	526.75
449.559	606.75
449.779	652.75
450	513.75
450.221	454.75
450.442	441.75
450.662	404.75
450.883	415.75
451.104	402.75
451.324	398.75
451.545	411.75
451.766	406.75
451.986	381.75
452.207	360.75
452.428	365.75
452.648	373.75
452.869	381.75
453.089	390.75
453.31	410.75
453.53	377.75
453.751	389.75
453.971	377.75
454.192	392.75
454.412	378.75
454.633	372.75
454.853	358.75
455.073	378.75
455.294	378.75
455.514	443.75
455.734	437.75
455.955	397.75
456.175	394.75
456.395	378.75
456.616	369.75
456.836	361.75
457.056	353.75
457.276	351.75
457.497	365.75
457.717	357.75
457.937	373.75
458.157	384.75
458.377	408.75
458.598	403.75
458.818	403.75
459.038	453.75
459.258	466.75
459.478	416.75
459.698	422.75
459.918	408.75
460.138	429.75
460.358	415.75
460.578	451.75
460.798	428.75
461.018	430.75
461.238	451.75
461.458	444.75
461.678	415.75
461.898	435.75
462.118	448.75
462.338	460.75
462.558	446.75
462.777	461.75
462.997	471.75
463.217	492.75
463.437	469.75
463.657	466.75
463.876	492.75
464.096	482.75
464.316	464.75
464.536	454.75
464.755	472.75
464.975	470.75
465.195	468.75
465.414	476.75
465.634	445.75
465.854	417.75
466.073	410.75
466.293	410.75
466.512	408.75
466.732	384.75
466.951	384.75
467.171	425.75
467.391	400.75
467.61	378.75
467.829	388.75
468.049	381.75
468.268	386.75
468.488	395.75
468.707	372.75
468.927	384.75
469.146	381.75
469.365	398.75
469.585	379.75
469.804	402.75
470.023	400.75
470.243	387.75
470.462	397.75
470.681	421.75
470.901	403.75
471.12	399.75
471.339	415.75
471.558	409.75
471.777	404.75
471.997	388.75
472.216	422.75
472.435	408.75
472.654	396.75
472.873	396.75
473.092	391.75
473.311	414.75
473.53	405.75
473.749	411.75
473.968	421.75
474.187	515.75
474.406	519.75
474.625	444.75
474.844	408.75
475.063	397.75
475.282	396.75
475.501	401.75
475.72	400.75
475.939	396.75
476.158	404.75
476.377	402.75
476.596	397.75
476.814	428.75
477.033	408.75
477.252	405.75
477.471	432.75
477.69	449.75
477.908	448.75
478.127	444.75
478.346	422.75
478.564	458.75
478.783	450.75
479.002	465.75
479.22	455.75
479.439	472.75
479.658	472.75
479.876	481.75
480.095	464.75
480.313	486.75
480.532	482.75
480.751	492.75
480.969	498.75
481.188	513.75
481.406	532.75
481.624	510.75
481.843	476.75
482.061	464.75
482.28	462.75
482.498	452.75
482.717	473.75
482.935	466.75
483.153	444.75
483.372	456.75
483.59	455.75
483.808	472.75
484.027	461.75
484.245	466.75
484.463	442.75
484.681	453.75
484.9	498.75
485.118	476.75
485.336	477.75
485.554	474.75
485.772	471.75
485.99	470.75
486.209	452.75
486.427	482.75
486.645	488.75
486.863	486.75
487.081	468.75
487.299	488.75
487.517	484.75
487.735	478.75
487.953	480.75
488.171	493.75
488.389	471.75
488.607	474.75
488.825	472.75
489.043	488.75
489.261	481.75
489.479	489.75
489.696	490.75
489.914	498.75
490.132	489.75
490.35	498.75
490.568	506.75
490.786	513.75
491.003	518.75
491.221	525.75
491.439	541.75
491.657	524.75
491.874	565.75
492.092	544.75
492.31	550.75
492.527	554.75
492.745	518.75
492.963	550.75
493.18	566.75
493.398	576.75
493.615	534.75
493.833	557.75
494.05	564.75
494.268	542.75
494.485	548.75
494.703	557.75
494.92	556.75
495.138	570.75
495.355	579.75
495.573	572.75
495.79	553.75
496.008	574.75
496.225	573.75
496.442	581.75
496.66	560.75
496.877	556.75
497.094	582.75
497.312	583.75
497.529	589.75
497.746	590.75
497.963	608.75
498.181	610.75
498.398	648.75
498.615	668.75
498.832	658.75
499.049	689.75
499.267	696.75
499.484	715.75
499.701	756.75
499.918	784.75
500.135	832.75
500.352	872.75
500.569	884.75
500.786	891.75
501.003	900.75
501.22	816.75
501.437	832.75
501.654	749.75
501.871	742.75
502.088	718.75
