Data from 1964.PennyLincolnUp.Lamp.En5.5.200Scan.071719.P1._HRD10591_14-06-21-910.txt Node
Date: Thu Jul 18 14:06:21 EDT 2019
User: cochatt
Spectrometer: HR+D1059
Trigger mode: 1
Integration Time (sec): 1.000000E-1
Scans to average: 1
Electric dark correction enabled: true
Nonlinearity correction enabled: false
Boxcar width: 0
XAxis mode: Wavelengths
Number of Pixels in Spectrum: 2048
>>>>>Begin Spectral Data<<<<<
223.165	-12.5
223.4	-12.5
223.635	-12.5
223.869	-23.5
224.104	-12.5
224.338	-15.5
224.573	-28.5
224.808	-11.5
225.042	-7.5
225.277	-2.5
225.511	-3.5
225.746	2.5
225.98	8.5
226.215	5.5
226.449	26.5
226.683	13.5
226.918	29.5
227.152	31.5
227.387	34.5
227.621	29.5
227.856	49.5
228.09	44.5
228.324	49.5
228.559	53.5
228.793	52.5
229.027	83.5
229.262	91.5
229.496	113.5
229.73	124.5
229.964	133.5
230.199	110.5
230.433	98.5
230.667	99.5
230.901	89.5
231.136	103.5
231.37	103.5
231.604	118.5
231.838	99.5
232.072	115.5
232.306	97.5
232.541	117.5
232.775	110.5
233.009	114.5
233.243	114.5
233.477	96.5
233.711	120.5
233.945	119.5
234.179	128.5
234.413	122.5
234.647	122.5
234.881	121.5
235.115	119.5
235.349	98.5
235.583	116.5
235.817	130.5
236.051	116.5
236.285	119.5
236.519	114.5
236.753	131.5
236.987	140.5
237.221	171.5
237.455	209.5
237.689	166.5
237.922	141.5
238.156	140.5
238.39	117.5
238.624	121.5
238.858	113.5
239.091	118.5
239.325	130.5
239.559	127.5
239.793	113.5
240.027	141.5
240.26	150.5
240.494	148.5
240.728	156.5
240.961	146.5
241.195	121.5
241.429	129.5
241.662	132.5
241.896	121.5
242.13	144.5
242.363	137.5
242.597	126.5
242.83	134.5
243.064	132.5
243.298	144.5
243.531	149.5
243.765	135.5
243.998	147.5
244.232	152.5
244.465	154.5
244.699	125.5
244.932	133.5
245.166	142.5
245.399	146.5
245.633	150.5
245.866	142.5
246.099	149.5
246.333	151.5
246.566	144.5
246.8	134.5
247.033	155.5
247.266	160.5
247.5	166.5
247.733	152.5
247.966	156.5
248.2	157.5
248.433	170.5
248.666	160.5
248.899	174.5
249.133	198.5
249.366	199.5
249.599	188.5
249.832	173.5
250.066	170.5
250.299	206.5
250.532	197.5
250.765	203.5
250.998	211.5
251.231	198.5
251.465	209.5
251.698	198.5
251.931	213.5
252.164	187.5
252.397	177.5
252.63	188.5
252.863	207.5
253.096	207.5
253.329	224.5
253.562	216.5
253.795	221.5
254.028	206.5
254.261	220.5
254.494	225.5
254.727	240.5
254.96	255.5
255.193	244.5
255.426	248.5
255.659	235.5
255.892	241.5
256.124	226.5
256.357	233.5
256.59	232.5
256.823	226.5
257.056	214.5
257.289	204.5
257.521	206.5
257.754	206.5
257.987	222.5
258.22	222.5
258.452	199.5
258.685	201.5
258.918	218.5
259.151	201.5
259.383	211.5
259.616	226.5
259.849	212.5
260.081	246.5
260.314	240.5
260.547	275.5
260.779	257.5
261.012	229.5
261.244	243.5
261.477	219.5
261.71	219.5
261.942	232.5
262.175	232.5
262.407	233.5
262.64	236.5
262.872	217.5
263.105	231.5
263.337	225.5
263.57	217.5
263.802	210.5
264.035	205.5
264.267	230.5
264.499	216.5
264.732	244.5
264.964	231.5
265.197	214.5
265.429	215.5
265.661	240.5
265.894	222.5
266.126	240.5
266.358	235.5
266.591	228.5
266.823	244.5
267.055	233.5
267.287	250.5
267.52	224.5
267.752	227.5
267.984	233.5
268.216	246.5
268.448	258.5
268.681	240.5
268.913	251.5
269.145	276.5
269.377	296.5
269.609	284.5
269.841	291.5
270.073	290.5
270.306	294.5
270.538	303.5
270.77	308.5
271.002	300.5
271.234	293.5
271.466	319.5
271.698	309.5
271.93	320.5
272.162	318.5
272.394	329.5
272.626	300.5
272.858	297.5
273.09	285.5
273.322	316.5
273.553	288.5
273.785	280.5
274.017	286.5
274.249	289.5
274.481	285.5
274.713	286.5
274.945	289.5
275.176	280.5
275.408	266.5
275.64	276.5
275.872	274.5
276.104	292.5
276.335	292.5
276.567	294.5
276.799	284.5
277.031	313.5
277.262	329.5
277.494	304.5
277.726	300.5
277.957	298.5
278.189	319.5
278.421	309.5
278.652	275.5
278.884	299.5
279.115	306.5
279.347	288.5
279.579	279.5
279.81	285.5
280.042	277.5
280.273	290.5
280.505	309.5
280.736	299.5
280.968	283.5
281.199	294.5
281.431	293.5
281.662	308.5
281.894	296.5
282.125	300.5
282.356	320.5
282.588	317.5
282.819	308.5
283.051	294.5
283.282	301.5
283.513	308.5
283.745	294.5
283.976	308.5
284.207	312.5
284.439	320.5
284.67	313.5
284.901	312.5
285.132	308.5
285.364	308.5
285.595	317.5
285.826	305.5
286.057	312.5
286.288	308.5
286.52	306.5
286.751	295.5
286.982	313.5
287.213	317.5
287.444	301.5
287.675	304.5
287.906	324.5
288.138	335.5
288.369	324.5
288.6	312.5
288.831	323.5
289.062	326.5
289.293	311.5
289.524	317.5
289.755	314.5
289.986	321.5
290.217	308.5
290.448	315.5
290.679	316.5
290.91	340.5
291.141	325.5
291.371	320.5
291.602	313.5
291.833	332.5
292.064	320.5
292.295	315.5
292.526	329.5
292.757	329.5
292.987	310.5
293.218	334.5
293.449	317.5
293.68	332.5
293.91	332.5
294.141	334.5
294.372	330.5
294.603	338.5
294.833	334.5
295.064	334.5
295.295	313.5
295.525	321.5
295.756	326.5
295.987	323.5
296.217	340.5
296.448	346.5
296.679	337.5
296.909	334.5
297.14	338.5
297.37	336.5
297.601	340.5
297.831	332.5
298.062	322.5
298.292	343.5
298.523	346.5
298.753	348.5
298.984	359.5
299.214	344.5
299.445	333.5
299.675	329.5
299.905	351.5
300.136	338.5
300.366	320.5
300.597	344.5
300.827	354.5
301.057	354.5
301.288	363.5
301.518	362.5
301.748	362.5
301.979	358.5
302.209	357.5
302.439	362.5
302.669	372.5
302.9	361.5
303.13	355.5
303.36	362.5
303.59	353.5
303.82	376.5
304.051	368.5
304.281	366.5
304.511	359.5
304.741	356.5
304.971	377.5
305.201	352.5
305.431	356.5
305.661	390.5
305.891	357.5
306.121	365.5
306.352	359.5
306.582	373.5
306.812	361.5
307.042	366.5
307.272	361.5
307.502	371.5
307.731	358.5
307.961	341.5
308.191	389.5
308.421	376.5
308.651	374.5
308.881	365.5
309.111	366.5
309.341	350.5
309.571	397.5
309.8	384.5
310.03	374.5
310.26	370.5
310.49	376.5
310.72	402.5
310.949	403.5
311.179	407.5
311.409	413.5
311.639	413.5
311.868	389.5
312.098	406.5
312.328	414.5
312.557	398.5
312.787	414.5
313.017	411.5
313.246	394.5
313.476	423.5
313.706	423.5
313.935	404.5
314.165	428.5
314.394	424.5
314.624	398.5
314.853	411.5
315.083	413.5
315.312	395.5
315.542	409.5
315.771	398.5
316.001	398.5
316.23	398.5
316.46	413.5
316.689	420.5
316.919	420.5
317.148	443.5
317.377	417.5
317.607	393.5
317.836	408.5
318.065	401.5
318.295	404.5
318.524	408.5
318.753	414.5
318.983	403.5
319.212	412.5
319.441	409.5
319.67	404.5
319.9	399.5
320.129	420.5
320.358	401.5
320.587	412.5
320.816	436.5
321.046	414.5
321.275	422.5
321.504	428.5
321.733	426.5
321.962	433.5
322.191	417.5
322.42	441.5
322.649	438.5
322.878	434.5
323.108	470.5
323.337	477.5
323.566	492.5
323.795	499.5
324.024	520.5
324.253	629.5
324.482	825.5
324.71	1262.5
324.939	1716.5
325.168	1432.5
325.397	797.5
325.626	556.5
325.855	530.5
326.084	496.5
326.313	472.5
326.542	472.5
326.77	525.5
326.999	608.5
327.228	778.5
327.457	1123.5
327.686	1295.5
327.914	890.5
328.143	617.5
328.372	560.5
328.6	526.5
328.829	526.5
329.058	541.5
329.287	529.5
329.515	532.5
329.744	504.5
329.972	523.5
330.201	520.5
330.43	568.5
330.658	577.5
330.887	579.5
331.115	553.5
331.344	536.5
331.572	502.5
331.801	477.5
332.03	485.5
332.258	482.5
332.486	473.5
332.715	475.5
332.943	488.5
333.172	478.5
333.4	503.5
333.629	510.5
333.857	522.5
334.085	552.5
334.314	522.5
334.542	538.5
334.771	555.5
334.999	524.5
335.227	524.5
335.455	511.5
335.684	492.5
335.912	498.5
336.14	462.5
336.369	478.5
336.597	478.5
336.825	470.5
337.053	489.5
337.281	463.5
337.51	473.5
337.738	488.5
337.966	468.5
338.194	465.5
338.422	461.5
338.65	460.5
338.878	469.5
339.106	467.5
339.334	456.5
339.562	436.5
339.79	446.5
340.018	428.5
340.246	444.5
340.474	467.5
340.702	440.5
340.93	452.5
341.158	453.5
341.386	450.5
341.614	439.5
341.842	454.5
342.07	426.5
342.298	436.5
342.526	420.5
342.754	443.5
342.981	448.5
343.209	434.5
343.437	426.5
343.665	453.5
343.893	469.5
344.12	479.5
344.348	477.5
344.576	474.5
344.804	453.5
345.031	461.5
345.259	449.5
345.487	434.5
345.714	456.5
345.942	433.5
346.17	427.5
346.397	421.5
346.625	434.5
346.853	417.5
347.08	409.5
347.308	434.5
347.535	425.5
347.763	428.5
347.99	432.5
348.218	422.5
348.445	424.5
348.673	421.5
348.9	425.5
349.128	423.5
349.355	413.5
349.583	397.5
349.81	404.5
350.037	404.5
350.265	405.5
350.492	399.5
350.72	419.5
350.947	404.5
351.174	440.5
351.402	436.5
351.629	423.5
351.856	425.5
352.083	430.5
352.311	428.5
352.538	412.5
352.765	421.5
352.992	425.5
353.22	435.5
353.447	428.5
353.674	398.5
353.901	386.5
354.128	418.5
354.355	395.5
354.583	406.5
354.81	400.5
355.037	403.5
355.264	393.5
355.491	407.5
355.718	388.5
355.945	408.5
356.172	403.5
356.399	389.5
356.626	406.5
356.853	413.5
357.08	405.5
357.307	418.5
357.534	393.5
357.761	404.5
357.988	401.5
358.215	398.5
358.441	399.5
358.668	402.5
358.895	399.5
359.122	386.5
359.349	404.5
359.576	419.5
359.802	421.5
360.029	434.5
360.256	422.5
360.483	428.5
360.709	414.5
360.936	415.5
361.163	401.5
361.39	406.5
361.616	418.5
361.843	416.5
362.07	420.5
362.296	392.5
362.523	404.5
362.749	408.5
362.976	422.5
363.203	423.5
363.429	392.5
363.656	390.5
363.882	381.5
364.109	388.5
364.335	391.5
364.562	398.5
364.788	391.5
365.015	394.5
365.241	398.5
365.468	394.5
365.694	386.5
365.92	392.5
366.147	410.5
366.373	412.5
366.599	412.5
366.826	393.5
367.052	388.5
367.278	403.5
367.505	387.5
367.731	394.5
367.957	374.5
368.184	376.5
368.41	384.5
368.636	390.5
368.862	405.5
369.089	396.5
369.315	398.5
369.541	381.5
369.767	403.5
369.993	388.5
370.219	391.5
370.445	397.5
370.672	398.5
370.898	389.5
371.124	393.5
371.35	383.5
371.576	398.5
371.802	390.5
372.028	380.5
372.254	399.5
372.48	391.5
372.706	387.5
372.932	411.5
373.158	421.5
373.384	420.5
373.61	394.5
373.835	413.5
374.061	388.5
374.287	392.5
374.513	421.5
374.739	412.5
374.965	403.5
375.191	423.5
375.416	400.5
375.642	409.5
375.868	406.5
376.094	407.5
376.319	390.5
376.545	394.5
376.771	402.5
376.997	384.5
377.222	388.5
377.448	393.5
377.674	370.5
377.899	382.5
378.125	381.5
378.35	384.5
378.576	392.5
378.802	370.5
379.027	391.5
379.253	382.5
379.478	389.5
379.704	380.5
379.929	404.5
380.155	394.5
380.38	388.5
380.606	380.5
380.831	388.5
381.057	401.5
381.282	408.5
381.507	384.5
381.733	384.5
381.958	403.5
382.184	390.5
382.409	408.5
382.634	398.5
382.86	394.5
383.085	388.5
383.31	403.5
383.535	421.5
383.761	399.5
383.986	405.5
384.211	415.5
384.436	422.5
384.662	420.5
384.887	408.5
385.112	412.5
385.337	431.5
385.562	432.5
385.787	417.5
386.013	438.5
386.238	411.5
386.463	428.5
386.688	440.5
386.913	438.5
387.138	424.5
387.363	466.5
387.588	437.5
387.813	434.5
388.038	421.5
388.263	405.5
388.488	407.5
388.713	421.5
388.938	434.5
389.163	436.5
389.387	419.5
389.612	422.5
389.837	418.5
390.062	387.5
390.287	422.5
390.512	415.5
390.736	440.5
390.961	420.5
391.186	436.5
391.411	433.5
391.636	427.5
391.86	416.5
392.085	438.5
392.31	417.5
392.534	444.5
392.759	410.5
392.984	426.5
393.208	418.5
393.433	440.5
393.658	445.5
393.882	410.5
394.107	410.5
394.331	444.5
394.556	414.5
394.78	421.5
395.005	430.5
395.229	437.5
395.454	444.5
395.678	452.5
395.903	455.5
396.127	460.5
396.352	488.5
396.576	448.5
396.801	440.5
397.025	446.5
397.249	457.5
397.474	450.5
397.698	452.5
397.922	475.5
398.147	468.5
398.371	469.5
398.595	481.5
398.82	474.5
399.044	498.5
399.268	512.5
399.492	554.5
399.717	585.5
399.941	600.5
400.165	590.5
400.389	588.5
400.613	542.5
400.837	502.5
401.062	502.5
401.286	499.5
401.51	485.5
401.734	453.5
401.958	461.5
402.182	474.5
402.406	499.5
402.63	491.5
402.854	463.5
403.078	512.5
403.302	488.5
403.526	500.5
403.75	479.5
403.974	514.5
404.198	497.5
404.422	516.5
404.645	518.5
404.869	513.5
405.093	545.5
405.317	555.5
405.541	586.5
405.765	532.5
405.988	525.5
406.212	532.5
406.436	518.5
406.66	533.5
406.883	520.5
407.107	562.5
407.331	578.5
407.555	619.5
407.778	632.5
408.002	576.5
408.226	549.5
408.449	546.5
408.673	539.5
408.896	569.5
409.12	602.5
409.344	577.5
409.567	532.5
409.791	518.5
410.014	496.5
410.238	491.5
410.461	498.5
410.685	502.5
410.908	509.5
411.132	544.5
411.355	557.5
411.578	538.5
411.802	486.5
412.025	494.5
412.249	482.5
412.472	496.5
412.695	564.5
412.919	542.5
413.142	487.5
413.365	477.5
413.589	483.5
413.812	470.5
414.035	471.5
414.258	484.5
414.482	446.5
414.705	450.5
414.928	478.5
415.151	464.5
415.374	461.5
415.597	458.5
415.821	466.5
416.044	471.5
416.267	462.5
416.49	475.5
416.713	466.5
416.936	459.5
417.159	436.5
417.382	456.5
417.605	475.5
417.828	462.5
418.051	479.5
418.274	482.5
418.497	462.5
418.72	444.5
418.943	459.5
419.166	483.5
419.389	517.5
419.611	501.5
419.834	501.5
420.057	500.5
420.28	495.5
420.503	475.5
420.726	484.5
420.948	487.5
421.171	509.5
421.394	539.5
421.617	472.5
421.839	505.5
422.062	480.5
422.285	512.5
422.507	524.5
422.73	586.5
422.953	566.5
423.175	510.5
423.398	498.5
423.621	502.5
423.843	514.5
424.066	505.5
424.288	496.5
424.511	514.5
424.733	553.5
424.956	625.5
425.178	574.5
425.401	569.5
425.623	632.5
425.846	530.5
426.068	512.5
426.291	496.5
426.513	486.5
426.735	500.5
426.958	509.5
427.18	605.5
427.402	683.5
427.625	737.5
427.847	636.5
428.069	572.5
428.292	523.5
428.514	488.5
428.736	475.5
428.958	480.5
429.181	457.5
429.403	471.5
429.625	452.5
429.847	482.5
430.069	530.5
430.292	536.5
430.514	471.5
430.736	466.5
430.958	445.5
431.18	427.5
431.402	445.5
431.624	435.5
431.846	429.5
432.068	439.5
432.29	424.5
432.512	424.5
432.734	459.5
432.956	434.5
433.178	452.5
433.4	444.5
433.622	438.5
433.844	436.5
434.066	433.5
434.287	441.5
434.509	461.5
434.731	447.5
434.953	444.5
435.175	456.5
435.397	488.5
435.618	472.5
435.84	523.5
436.062	585.5
436.284	618.5
436.505	524.5
436.727	497.5
436.949	467.5
437.17	474.5
437.392	452.5
437.614	472.5
437.835	488.5
438.057	549.5
438.278	622.5
438.5	633.5
438.721	692.5
438.943	668.5
439.165	543.5
439.386	484.5
439.608	479.5
439.829	499.5
440.05	504.5
440.272	520.5
440.493	506.5
440.715	480.5
440.936	470.5
441.158	469.5
441.379	452.5
441.6	458.5
441.822	473.5
442.043	517.5
442.264	591.5
442.486	613.5
442.707	530.5
442.928	497.5
443.149	500.5
443.371	513.5
443.592	546.5
443.813	637.5
444.034	678.5
444.255	561.5
444.476	520.5
444.698	504.5
444.919	509.5
445.14	608.5
445.361	556.5
445.582	546.5
445.803	577.5
446.024	638.5
446.245	652.5
446.466	595.5
446.687	501.5
446.908	481.5
447.129	466.5
447.35	453.5
447.571	453.5
447.792	428.5
448.013	453.5
448.234	440.5
448.455	485.5
448.675	578.5
448.896	685.5
449.117	580.5
449.338	551.5
449.559	635.5
449.779	685.5
450	562.5
450.221	478.5
450.442	457.5
450.662	429.5
450.883	416.5
451.104	439.5
451.324	412.5
451.545	432.5
451.766	408.5
451.986	411.5
452.207	417.5
452.428	406.5
452.648	416.5
452.869	416.5
453.089	417.5
453.31	412.5
453.53	398.5
453.751	411.5
453.971	392.5
454.192	408.5
454.412	377.5
454.633	381.5
454.853	377.5
455.073	399.5
455.294	407.5
455.514	478.5
455.734	464.5
455.955	402.5
456.175	396.5
456.395	395.5
456.616	383.5
456.836	388.5
457.056	390.5
457.276	377.5
457.497	408.5
457.717	359.5
457.937	367.5
458.157	396.5
458.377	390.5
458.598	412.5
458.818	457.5
459.038	500.5
459.258	523.5
459.478	443.5
459.698	449.5
459.918	441.5
460.138	458.5
460.358	441.5
460.578	432.5
460.798	437.5
461.018	445.5
461.238	455.5
461.458	444.5
461.678	457.5
461.898	452.5
462.118	437.5
462.338	476.5
462.558	485.5
462.777	477.5
462.997	482.5
463.217	485.5
463.437	494.5
463.657	487.5
463.876	462.5
464.096	488.5
464.316	460.5
464.536	475.5
464.755	493.5
464.975	465.5
465.195	484.5
465.414	516.5
465.634	468.5
465.854	459.5
466.073	438.5
466.293	428.5
466.512	416.5
466.732	418.5
466.951	413.5
467.171	387.5
467.391	419.5
467.61	422.5
467.829	426.5
468.049	405.5
468.268	399.5
468.488	406.5
468.707	395.5
468.927	405.5
469.146	404.5
469.365	405.5
469.585	398.5
469.804	412.5
470.023	416.5
470.243	399.5
470.462	427.5
470.681	422.5
470.901	436.5
471.12	425.5
471.339	425.5
471.558	437.5
471.777	408.5
471.997	411.5
472.216	418.5
472.435	448.5
472.654	436.5
472.873	426.5
473.092	402.5
473.311	398.5
473.53	398.5
473.749	417.5
473.968	480.5
474.187	548.5
474.406	535.5
474.625	448.5
474.844	416.5
475.063	412.5
475.282	399.5
475.501	396.5
475.72	429.5
475.939	409.5
476.158	428.5
476.377	410.5
476.596	428.5
476.814	430.5
477.033	437.5
477.252	442.5
477.471	446.5
477.69	441.5
477.908	441.5
478.127	449.5
478.346	439.5
478.564	459.5
478.783	466.5
479.002	483.5
479.22	492.5
479.439	479.5
479.658	509.5
479.876	500.5
480.095	501.5
480.313	528.5
480.532	502.5
480.751	498.5
480.969	536.5
481.188	525.5
481.406	557.5
481.624	529.5
481.843	510.5
482.061	491.5
482.28	478.5
482.498	484.5
482.717	489.5
482.935	492.5
483.153	472.5
483.372	462.5
483.59	478.5
483.808	477.5
484.027	487.5
484.245	499.5
484.463	489.5
484.681	498.5
484.9	487.5
485.118	504.5
485.336	518.5
485.554	500.5
485.772	493.5
485.99	490.5
486.209	497.5
486.427	497.5
486.645	509.5
486.863	488.5
487.081	533.5
487.299	514.5
487.517	518.5
487.735	512.5
487.953	513.5
488.171	522.5
488.389	505.5
488.607	494.5
488.825	506.5
489.043	504.5
489.261	500.5
489.479	540.5
489.696	533.5
489.914	519.5
490.132	516.5
490.35	507.5
490.568	535.5
490.786	546.5
491.003	565.5
491.221	552.5
491.439	571.5
491.657	570.5
491.874	570.5
492.092	572.5
492.31	583.5
492.527	572.5
492.745	574.5
492.963	585.5
493.18	576.5
493.398	573.5
493.615	589.5
493.833	594.5
494.05	576.5
494.268	567.5
494.485	588.5
494.703	563.5
494.92	577.5
495.138	578.5
495.355	582.5
495.573	580.5
495.79	577.5
496.008	579.5
496.225	606.5
496.442	592.5
496.66	612.5
496.877	613.5
497.094	594.5
497.312	612.5
497.529	605.5
497.746	614.5
497.963	640.5
498.181	631.5
498.398	664.5
498.615	679.5
498.832	693.5
499.049	727.5
499.267	738.5
499.484	746.5
499.701	793.5
499.918	808.5
500.135	887.5
500.352	902.5
500.569	927.5
500.786	937.5
501.003	913.5
501.22	857.5
501.437	816.5
501.654	801.5
501.871	788.5
502.088	745.5
502.305	708.5
502.522	704.5
502.739	706.5
502.956	655.5
503.172	640.5
503.389	626.5
503.606	642.5
503.823	605.5
504.04	591.5
504.256	603.5
504.473	597.5
504.69	591.5
504.907	587.5
505.123	617.5
505.34	577.5
505.557	564.5
505.773	569.5
505.99	556.5
506.207	580.5
506.423	575.5
506.64	588.5
506.856	561.5
507.073	543.5
507.289	554.5
507.506	565.5
507.722	564.5
507.939	564.5
508.155	530.5
508.372	546.5
508.588	520.5
508.805	526.5
509.021	526.5
509.238	538.5
509.454	539.5
509.67	520.5
509.887	519.5
510.103	516.5
510.319	516.5
510.536	570.5
510.752	786.5
510.968	650.5
511.184	550.5
511.401	524.5
511.617	496.5
511.833	489.5
512.049	493.5
512.265	490.5
512.481	481.5
512.698	504.5
512.914	490.5
513.13	500.5
513.346	483.5
513.562	476.5
513.778	489.5
513.994	476.5
514.21	512.5
514.426	517.5
514.642	526.5
514.858	548.5
515.074	590.5
515.29	618.5
515.506	802.5
515.721	700.5
515.937	568.5
516.153	547.5
516.369	495.5
516.585	500.5
516.801	517.5
517.016	510.5
517.232	541.5
517.448	548.5
517.664	552.5
517.879	527.5
518.095	508.5
518.311	516.5
518.527	521.5
518.742	525.5
518.958	534.5
519.173	496.5
519.389	488.5
519.605	512.5
519.82	497.5
520.036	512.5
