Data from 1964.PennyLincolnUp.Lamp.En5.5.200Scan.071719.P1._HRD10591_14-03-28-914.txt Node
Date: Thu Jul 18 14:03:28 EDT 2019
User: cochatt
Spectrometer: HR+D1059
Trigger mode: 1
Integration Time (sec): 1.000000E-1
Scans to average: 1
Electric dark correction enabled: true
Nonlinearity correction enabled: false
Boxcar width: 0
XAxis mode: Wavelengths
Number of Pixels in Spectrum: 2048
>>>>>Begin Spectral Data<<<<<
223.165	-15.19
223.4	-15.19
223.635	-15.19
223.869	-17.19
224.104	-23.19
224.338	-8.19
224.573	-8.19
224.808	-16.19
225.042	-6.19
225.277	-6.19
225.511	-8.19
225.746	6.81
225.98	-2.19
226.215	29.81
226.449	12.81
226.683	11.81
226.918	19.81
227.152	29.81
227.387	47.81
227.621	41.81
227.856	49.81
228.09	43.81
228.324	65.81
228.559	45.81
228.793	59.81
229.027	71.81
229.262	104.81
229.496	97.81
229.73	95.81
229.964	133.81
230.199	120.81
230.433	96.81
230.667	110.81
230.901	102.81
231.136	104.81
231.37	107.81
231.604	104.81
231.838	101.81
232.072	130.81
232.306	105.81
232.541	121.81
232.775	112.81
233.009	103.81
233.243	114.81
233.477	110.81
233.711	96.81
233.945	112.81
234.179	120.81
234.413	101.81
234.647	117.81
234.881	120.81
235.115	107.81
235.349	122.81
235.583	117.81
235.817	112.81
236.051	131.81
236.285	121.81
236.519	102.81
236.753	125.81
236.987	129.81
237.221	154.81
237.455	159.81
237.689	135.81
237.922	129.81
238.156	128.81
238.39	119.81
238.624	112.81
238.858	113.81
239.091	126.81
239.325	121.81
239.559	123.81
239.793	114.81
240.027	128.81
240.26	131.81
240.494	146.81
240.728	126.81
240.961	139.81
241.195	139.81
241.429	129.81
241.662	113.81
241.896	124.81
242.13	128.81
242.363	126.81
242.597	122.81
242.83	136.81
243.064	128.81
243.298	131.81
243.531	125.81
243.765	121.81
243.998	141.81
244.232	136.81
244.465	133.81
244.699	142.81
244.932	141.81
245.166	133.81
245.399	138.81
245.633	127.81
245.866	138.81
246.099	138.81
246.333	145.81
246.566	145.81
246.8	152.81
247.033	158.81
247.266	151.81
247.5	148.81
247.733	152.81
247.966	154.81
248.2	149.81
248.433	152.81
248.666	164.81
248.899	158.81
249.133	181.81
249.366	178.81
249.599	169.81
249.832	175.81
250.066	156.81
250.299	178.81
250.532	179.81
250.765	175.81
250.998	201.81
251.231	203.81
251.465	197.81
251.698	163.81
251.931	185.81
252.164	191.81
252.397	171.81
252.63	171.81
252.863	169.81
253.096	185.81
253.329	197.81
253.562	191.81
253.795	183.81
254.028	191.81
254.261	186.81
254.494	205.81
254.727	200.81
254.96	217.81
255.193	227.81
255.426	205.81
255.659	205.81
255.892	187.81
256.124	209.81
256.357	204.81
256.59	215.81
256.823	200.81
257.056	210.81
257.289	189.81
257.521	200.81
257.754	181.81
257.987	200.81
258.22	213.81
258.452	197.81
258.685	185.81
258.918	198.81
259.151	209.81
259.383	189.81
259.616	207.81
259.849	199.81
260.081	223.81
260.314	215.81
260.547	217.81
260.779	233.81
261.012	204.81
261.244	210.81
261.477	208.81
261.71	209.81
261.942	211.81
262.175	217.81
262.407	209.81
262.64	185.81
262.872	220.81
263.105	190.81
263.337	197.81
263.57	207.81
263.802	215.81
264.035	198.81
264.267	205.81
264.499	209.81
264.732	215.81
264.964	206.81
265.197	213.81
265.429	214.81
265.661	219.81
265.894	221.81
266.126	217.81
266.358	199.81
266.591	207.81
266.823	206.81
267.055	220.81
267.287	202.81
267.52	212.81
267.752	216.81
267.984	206.81
268.216	220.81
268.448	223.81
268.681	223.81
268.913	230.81
269.145	242.81
269.377	253.81
269.609	242.81
269.841	242.81
270.073	227.81
270.306	264.81
270.538	271.81
270.77	297.81
271.002	261.81
271.234	256.81
271.466	260.81
271.698	285.81
271.93	285.81
272.162	283.81
272.394	268.81
272.626	249.81
272.858	249.81
273.09	245.81
273.322	264.81
273.553	258.81
273.785	248.81
274.017	245.81
274.249	246.81
274.481	248.81
274.713	258.81
274.945	242.81
275.176	263.81
275.408	253.81
275.64	241.81
275.872	231.81
276.104	239.81
276.335	251.81
276.567	256.81
276.799	275.81
277.031	275.81
277.262	282.81
277.494	287.81
277.726	279.81
277.957	272.81
278.189	271.81
278.421	267.81
278.652	253.81
278.884	270.81
279.115	264.81
279.347	258.81
279.579	273.81
279.81	249.81
280.042	260.81
280.273	270.81
280.505	275.81
280.736	274.81
280.968	271.81
281.199	262.81
281.431	276.81
281.662	265.81
281.894	266.81
282.125	273.81
282.356	293.81
282.588	268.81
282.819	279.81
283.051	284.81
283.282	272.81
283.513	268.81
283.745	283.81
283.976	271.81
284.207	264.81
284.439	279.81
284.67	285.81
284.901	264.81
285.132	265.81
285.364	255.81
285.595	287.81
285.826	268.81
286.057	291.81
286.288	289.81
286.52	304.81
286.751	281.81
286.982	258.81
287.213	281.81
287.444	286.81
287.675	272.81
287.906	294.81
288.138	300.81
288.369	291.81
288.6	296.81
288.831	289.81
289.062	284.81
289.293	287.81
289.524	311.81
289.755	292.81
289.986	306.81
290.217	304.81
290.448	277.81
290.679	275.81
290.91	289.81
291.141	290.81
291.371	296.81
291.602	291.81
291.833	291.81
292.064	294.81
292.295	298.81
292.526	288.81
292.757	304.81
292.987	297.81
293.218	285.81
293.449	296.81
293.68	294.81
293.91	275.81
294.141	297.81
294.372	276.81
294.603	297.81
294.833	310.81
295.064	296.81
295.295	295.81
295.525	288.81
295.756	306.81
295.987	325.81
296.217	315.81
296.448	313.81
296.679	314.81
296.909	285.81
297.14	305.81
297.37	302.81
297.601	299.81
297.831	279.81
298.062	300.81
298.292	296.81
298.523	285.81
298.753	323.81
298.984	322.81
299.214	315.81
299.445	298.81
299.675	294.81
299.905	322.81
300.136	314.81
300.366	314.81
300.597	304.81
300.827	320.81
301.057	316.81
301.288	310.81
301.518	327.81
301.748	334.81
301.979	327.81
302.209	319.81
302.439	328.81
302.669	321.81
302.9	326.81
303.13	316.81
303.36	340.81
303.59	329.81
303.82	321.81
304.051	325.81
304.281	335.81
304.511	321.81
304.741	325.81
304.971	331.81
305.201	339.81
305.431	343.81
305.661	324.81
305.891	319.81
306.121	333.81
306.352	335.81
306.582	334.81
306.812	333.81
307.042	343.81
307.272	330.81
307.502	328.81
307.731	321.81
307.961	344.81
308.191	328.81
308.421	344.81
308.651	348.81
308.881	313.81
309.111	322.81
309.341	337.81
309.571	353.81
309.8	337.81
310.03	337.81
310.26	341.81
310.49	343.81
310.72	334.81
310.949	339.81
311.179	351.81
311.409	346.81
311.639	334.81
311.868	347.81
312.098	369.81
312.328	363.81
312.557	371.81
312.787	359.81
313.017	354.81
313.246	347.81
313.476	369.81
313.706	350.81
313.935	358.81
314.165	352.81
314.394	385.81
314.624	377.81
314.853	369.81
315.083	376.81
315.312	370.81
315.542	355.81
315.771	373.81
316.001	345.81
316.23	342.81
316.46	332.81
316.689	369.81
316.919	351.81
317.148	360.81
317.377	375.81
317.607	352.81
317.836	369.81
318.065	367.81
318.295	375.81
318.524	355.81
318.753	337.81
318.983	362.81
319.212	362.81
319.441	369.81
319.67	366.81
319.9	349.81
320.129	366.81
320.358	336.81
320.587	362.81
320.816	351.81
321.046	366.81
321.275	361.81
321.504	382.81
321.733	379.81
321.962	369.81
322.191	368.81
322.42	393.81
322.649	382.81
322.878	377.81
323.108	384.81
323.337	409.81
323.566	424.81
323.795	426.81
324.024	447.81
324.253	483.81
324.482	617.81
324.71	867.81
324.939	1223.81
325.168	988.81
325.397	581.81
325.626	447.81
325.855	409.81
326.084	420.81
326.313	424.81
326.542	422.81
326.77	445.81
326.999	485.81
327.228	592.81
327.457	812.81
327.686	928.81
327.914	645.81
328.143	491.81
328.372	446.81
328.6	453.81
328.829	432.81
329.058	417.81
329.287	446.81
329.515	436.81
329.744	429.81
329.972	418.81
330.201	418.81
330.43	457.81
330.658	453.81
330.887	457.81
331.115	439.81
331.344	439.81
331.572	418.81
331.801	440.81
332.03	424.81
332.258	433.81
332.486	425.81
332.715	422.81
332.943	417.81
333.172	423.81
333.4	435.81
333.629	432.81
333.857	443.81
334.085	455.81
334.314	474.81
334.542	469.81
334.771	476.81
334.999	461.81
335.227	427.81
335.455	439.81
335.684	436.81
335.912	446.81
336.14	420.81
336.369	423.81
336.597	423.81
336.825	421.81
337.053	422.81
337.281	402.81
337.51	411.81
337.738	431.81
337.966	433.81
338.194	425.81
338.422	402.81
338.65	421.81
338.878	403.81
339.106	401.81
339.334	427.81
339.562	406.81
339.79	413.81
340.018	388.81
340.246	406.81
340.474	397.81
340.702	389.81
340.93	384.81
341.158	400.81
341.386	395.81
341.614	399.81
341.842	397.81
342.07	382.81
342.298	386.81
342.526	391.81
342.754	384.81
342.981	389.81
343.209	408.81
343.437	398.81
343.665	411.81
343.893	420.81
344.12	439.81
344.348	430.81
344.576	419.81
344.804	417.81
345.031	412.81
345.259	409.81
345.487	405.81
345.714	394.81
345.942	411.81
346.17	384.81
346.397	350.81
346.625	377.81
346.853	381.81
347.08	362.81
347.308	387.81
347.535	387.81
347.763	360.81
347.99	384.81
348.218	387.81
348.445	380.81
348.673	367.81
348.9	385.81
349.128	382.81
349.355	364.81
349.583	369.81
349.81	368.81
350.037	371.81
350.265	373.81
350.492	358.81
350.72	363.81
350.947	373.81
351.174	367.81
351.402	366.81
351.629	392.81
351.856	374.81
352.083	382.81
352.311	384.81
352.538	397.81
352.765	388.81
352.992	379.81
353.22	369.81
353.447	368.81
353.674	385.81
353.901	356.81
354.128	360.81
354.355	361.81
354.583	366.81
354.81	381.81
355.037	380.81
355.264	368.81
355.491	355.81
355.718	360.81
355.945	359.81
356.172	345.81
356.399	354.81
356.626	357.81
356.853	349.81
357.08	368.81
357.307	351.81
357.534	352.81
357.761	345.81
357.988	354.81
358.215	373.81
358.441	364.81
358.668	365.81
358.895	362.81
359.122	357.81
359.349	355.81
359.576	366.81
359.802	370.81
360.029	386.81
360.256	366.81
360.483	371.81
360.709	370.81
360.936	366.81
361.163	362.81
361.39	363.81
361.616	359.81
361.843	351.81
362.07	365.81
362.296	361.81
362.523	360.81
362.749	370.81
362.976	335.81
363.203	357.81
363.429	365.81
363.656	331.81
363.882	355.81
364.109	348.81
364.335	356.81
364.562	356.81
364.788	348.81
365.015	362.81
365.241	349.81
365.468	354.81
365.694	359.81
365.92	367.81
366.147	331.81
366.373	350.81
366.599	352.81
366.826	359.81
367.052	357.81
367.278	343.81
367.505	361.81
367.731	353.81
367.957	351.81
368.184	370.81
368.41	366.81
368.636	343.81
368.862	395.81
369.089	359.81
369.315	381.81
369.541	359.81
369.767	354.81
369.993	359.81
370.219	349.81
370.445	366.81
370.672	348.81
370.898	377.81
371.124	347.81
371.35	358.81
371.576	375.81
371.802	370.81
372.028	347.81
372.254	372.81
372.48	357.81
372.706	365.81
372.932	341.81
373.158	366.81
373.384	361.81
373.61	362.81
373.835	367.81
374.061	366.81
374.287	352.81
374.513	352.81
374.739	383.81
374.965	375.81
375.191	380.81
375.416	375.81
375.642	350.81
375.868	350.81
376.094	374.81
376.319	369.81
376.545	362.81
376.771	354.81
376.997	368.81
377.222	365.81
377.448	365.81
377.674	339.81
377.899	356.81
378.125	353.81
378.35	375.81
378.576	354.81
378.802	345.81
379.027	334.81
379.253	362.81
379.478	357.81
379.704	363.81
379.929	365.81
380.155	349.81
380.38	356.81
380.606	375.81
380.831	351.81
381.057	361.81
381.282	369.81
381.507	353.81
381.733	362.81
381.958	349.81
382.184	355.81
382.409	365.81
382.634	375.81
382.86	379.81
383.085	380.81
383.31	383.81
383.535	377.81
383.761	389.81
383.986	371.81
384.211	371.81
384.436	366.81
384.662	372.81
384.887	399.81
385.112	391.81
385.337	395.81
385.562	411.81
385.787	393.81
386.013	422.81
386.238	416.81
386.463	402.81
386.688	395.81
386.913	406.81
387.138	398.81
387.363	401.81
387.588	388.81
387.813	391.81
388.038	404.81
388.263	396.81
388.488	401.81
388.713	396.81
388.938	396.81
389.163	385.81
389.387	385.81
389.612	376.81
389.837	399.81
390.062	382.81
390.287	390.81
390.512	382.81
390.736	379.81
390.961	407.81
391.186	393.81
391.411	385.81
391.636	398.81
391.86	403.81
392.085	400.81
392.31	387.81
392.534	386.81
392.759	422.81
392.984	389.81
393.208	404.81
393.433	385.81
393.658	420.81
393.882	384.81
394.107	381.81
394.331	360.81
394.556	401.81
394.78	405.81
395.005	391.81
395.229	398.81
395.454	397.81
395.678	406.81
395.903	405.81
396.127	410.81
396.352	427.81
396.576	402.81
396.801	404.81
397.025	419.81
397.249	423.81
397.474	395.81
397.698	418.81
397.922	413.81
398.147	400.81
398.371	437.81
398.595	421.81
398.82	435.81
399.044	460.81
399.268	458.81
399.492	487.81
399.717	512.81
399.941	523.81
400.165	531.81
400.389	527.81
400.613	485.81
400.837	487.81
401.062	446.81
401.286	445.81
401.51	422.81
401.734	432.81
401.958	439.81
402.182	443.81
402.406	461.81
402.63	453.81
402.854	441.81
403.078	450.81
403.302	453.81
403.526	415.81
403.75	452.81
403.974	461.81
404.198	457.81
404.422	455.81
404.645	445.81
404.869	447.81
405.093	484.81
405.317	485.81
405.541	512.81
405.765	468.81
405.988	460.81
406.212	478.81
406.436	472.81
406.66	499.81
406.883	480.81
407.107	515.81
407.331	525.81
407.555	580.81
407.778	543.81
408.002	528.81
408.226	505.81
408.449	479.81
408.673	497.81
408.896	482.81
409.12	521.81
409.344	468.81
409.567	477.81
409.791	464.81
410.014	450.81
410.238	454.81
410.461	439.81
410.685	456.81
410.908	453.81
411.132	483.81
411.355	494.81
411.578	466.81
411.802	435.81
412.025	439.81
412.249	447.81
412.472	451.81
412.695	482.81
412.919	466.81
413.142	458.81
413.365	430.81
413.589	445.81
413.812	397.81
414.035	432.81
414.258	429.81
414.482	422.81
414.705	409.81
414.928	427.81
415.151	427.81
415.374	426.81
415.597	417.81
415.821	412.81
416.044	415.81
416.267	407.81
416.49	412.81
416.713	412.81
416.936	426.81
417.159	403.81
417.382	423.81
417.605	397.81
417.828	421.81
418.051	454.81
418.274	423.81
418.497	439.81
418.72	411.81
418.943	427.81
419.166	422.81
419.389	449.81
419.611	460.81
419.834	457.81
420.057	443.81
420.28	429.81
420.503	423.81
420.726	415.81
420.948	425.81
421.171	445.81
421.394	465.81
421.617	438.81
421.839	456.81
422.062	417.81
422.285	436.81
422.507	485.81
422.73	487.81
422.953	485.81
423.175	460.81
423.398	445.81
423.621	414.81
423.843	431.81
424.066	460.81
424.288	452.81
424.511	447.81
424.733	465.81
424.956	537.81
425.178	491.81
425.401	503.81
425.623	507.81
425.846	446.81
426.068	450.81
426.291	443.81
426.513	441.81
426.735	441.81
426.958	461.81
427.18	507.81
427.402	585.81
427.625	640.81
427.847	547.81
428.069	473.81
428.292	435.81
428.514	414.81
428.736	428.81
428.958	414.81
429.181	391.81
429.403	399.81
429.625	394.81
429.847	436.81
430.069	461.81
430.292	453.81
430.514	403.81
430.736	398.81
430.958	389.81
431.18	409.81
431.402	375.81
431.624	378.81
431.846	399.81
432.068	395.81
432.29	391.81
432.512	381.81
432.734	416.81
432.956	385.81
433.178	400.81
433.4	390.81
433.622	406.81
433.844	404.81
434.066	397.81
434.287	400.81
434.509	386.81
434.731	398.81
434.953	411.81
435.175	423.81
435.397	429.81
435.618	432.81
435.84	440.81
436.062	500.81
436.284	537.81
436.505	465.81
436.727	439.81
436.949	422.81
437.17	415.81
437.392	410.81
437.614	404.81
437.835	419.81
438.057	472.81
438.278	529.81
438.5	512.81
438.721	576.81
438.943	547.81
439.165	437.81
439.386	417.81
439.608	429.81
439.829	409.81
440.05	411.81
440.272	442.81
440.493	430.81
440.715	407.81
440.936	409.81
441.158	411.81
441.379	411.81
441.6	429.81
441.822	439.81
442.043	457.81
442.264	495.81
442.486	523.81
442.707	451.81
442.928	437.81
443.149	428.81
443.371	453.81
443.592	452.81
443.813	534.81
444.034	586.81
444.255	487.81
444.476	425.81
444.698	440.81
444.919	427.81
445.14	566.81
445.361	485.81
445.582	440.81
445.803	471.81
446.024	540.81
446.245	529.81
446.466	496.81
446.687	448.81
446.908	404.81
447.129	401.81
447.35	401.81
447.571	396.81
447.792	370.81
448.013	409.81
448.234	407.81
448.455	449.81
448.675	491.81
448.896	577.81
449.117	493.81
449.338	495.81
449.559	542.81
449.779	583.81
450	471.81
450.221	405.81
450.442	392.81
450.662	402.81
450.883	383.81
451.104	379.81
451.324	376.81
451.545	364.81
451.766	356.81
451.986	354.81
452.207	347.81
452.428	355.81
452.648	341.81
452.869	329.81
453.089	361.81
453.31	346.81
453.53	351.81
453.751	345.81
453.971	365.81
454.192	357.81
454.412	362.81
454.633	354.81
454.853	343.81
455.073	354.81
455.294	360.81
455.514	396.81
455.734	395.81
455.955	357.81
456.175	344.81
456.395	362.81
456.616	354.81
456.836	347.81
457.056	344.81
457.276	345.81
457.497	350.81
457.717	341.81
457.937	335.81
458.157	345.81
458.377	353.81
458.598	378.81
458.818	374.81
459.038	416.81
459.258	424.81
459.478	421.81
459.698	386.81
459.918	387.81
460.138	375.81
460.358	385.81
460.578	382.81
460.798	408.81
461.018	406.81
461.238	398.81
461.458	409.81
461.678	410.81
461.898	421.81
462.118	399.81
462.338	420.81
462.558	433.81
462.777	434.81
462.997	440.81
463.217	455.81
463.437	468.81
463.657	436.81
463.876	428.81
464.096	451.81
464.316	424.81
464.536	426.81
464.755	442.81
464.975	413.81
465.195	413.81
465.414	470.81
465.634	407.81
465.854	392.81
466.073	381.81
466.293	371.81
466.512	346.81
466.732	368.81
466.951	357.81
467.171	346.81
467.391	372.81
467.61	377.81
467.829	377.81
468.049	385.81
468.268	370.81
468.488	358.81
468.707	355.81
468.927	374.81
469.146	362.81
469.365	359.81
469.585	377.81
469.804	383.81
470.023	380.81
470.243	375.81
470.462	389.81
470.681	375.81
470.901	379.81
471.12	377.81
471.339	372.81
471.558	363.81
471.777	371.81
471.997	367.81
472.216	370.81
472.435	368.81
472.654	383.81
472.873	364.81
473.092	371.81
473.311	376.81
473.53	365.81
473.749	384.81
473.968	405.81
474.187	443.81
474.406	454.81
474.625	395.81
474.844	375.81
475.063	397.81
475.282	364.81
475.501	357.81
475.72	391.81
475.939	369.81
476.158	376.81
476.377	389.81
476.596	378.81
476.814	387.81
477.033	399.81
477.252	400.81
477.471	419.81
477.69	403.81
477.908	405.81
478.127	417.81
478.346	400.81
478.564	416.81
478.783	401.81
479.002	422.81
479.22	440.81
479.439	451.81
479.658	432.81
479.876	468.81
480.095	446.81
480.313	459.81
480.532	433.81
480.751	438.81
480.969	443.81
481.188	457.81
481.406	480.81
481.624	448.81
481.843	426.81
482.061	437.81
482.28	427.81
482.498	461.81
482.717	422.81
482.935	393.81
483.153	446.81
483.372	427.81
483.59	422.81
483.808	436.81
484.027	415.81
484.245	427.81
484.463	424.81
484.681	444.81
484.9	431.81
485.118	432.81
485.336	443.81
485.554	425.81
485.772	457.81
485.99	444.81
486.209	447.81
486.427	445.81
486.645	456.81
486.863	464.81
487.081	455.81
487.299	466.81
487.517	448.81
487.735	433.81
487.953	449.81
488.171	449.81
488.389	442.81
488.607	464.81
488.825	452.81
489.043	450.81
489.261	462.81
489.479	461.81
489.696	451.81
489.914	458.81
490.132	473.81
490.35	462.81
490.568	477.81
490.786	470.81
491.003	483.81
491.221	492.81
491.439	503.81
491.657	463.81
491.874	483.81
492.092	498.81
492.31	486.81
492.527	485.81
492.745	497.81
492.963	487.81
493.18	489.81
493.398	506.81
493.615	482.81
493.833	510.81
494.05	500.81
494.268	503.81
494.485	499.81
494.703	521.81
494.92	498.81
495.138	497.81
495.355	504.81
495.573	520.81
495.79	505.81
496.008	528.81
496.225	507.81
496.442	513.81
496.66	526.81
496.877	505.81
497.094	539.81
497.312	545.81
497.529	530.81
497.746	535.81
497.963	527.81
498.181	581.81
498.398	564.81
498.615	569.81
498.832	624.81
499.049	619.81
499.267	643.81
499.484	664.81
499.701	692.81
499.918	767.81
500.135	798.81
500.352	812.81
500.569	839.81
500.786	858.81
501.003	779.81
501.22	779.81
501.437	738.81
501.654	683.81
501.871	675.81
502.088	658.81
