Data from 1964.PennyLincolnUp.Lamp.En5.5.200Scan.071719.P1._HRD10591_14-06-09-910.txt Node
Date: Thu Jul 18 14:06:09 EDT 2019
User: cochatt
Spectrometer: HR+D1059
Trigger mode: 1
Integration Time (sec): 1.000000E-1
Scans to average: 1
Electric dark correction enabled: true
Nonlinearity correction enabled: false
Boxcar width: 0
XAxis mode: Wavelengths
Number of Pixels in Spectrum: 2048
>>>>>Begin Spectral Data<<<<<
223.165	-9.38
223.4	-9.38
223.635	-9.38
223.869	-21.38
224.104	-15.38
224.338	-20.38
224.573	-10.38
224.808	-20.38
225.042	6.62
225.277	-5.38
225.511	-5.38
225.746	5.62
225.98	7.62
226.215	9.62
226.449	18.62
226.683	6.62
226.918	19.62
227.152	33.62
227.387	16.62
227.621	37.62
227.856	38.62
228.09	37.62
228.324	39.62
228.559	48.62
228.793	71.62
229.027	93.62
229.262	90.62
229.496	100.62
229.73	135.62
229.964	129.62
230.199	115.62
230.433	116.62
230.667	104.62
230.901	100.62
231.136	102.62
231.37	111.62
231.604	101.62
231.838	106.62
232.072	101.62
232.306	102.62
232.541	111.62
232.775	121.62
233.009	104.62
233.243	109.62
233.477	117.62
233.711	111.62
233.945	117.62
234.179	122.62
234.413	111.62
234.647	115.62
234.881	118.62
235.115	119.62
235.349	113.62
235.583	123.62
235.817	120.62
236.051	127.62
236.285	121.62
236.519	133.62
236.753	124.62
236.987	132.62
237.221	165.62
237.455	199.62
237.689	175.62
237.922	133.62
238.156	136.62
238.39	138.62
238.624	109.62
238.858	129.62
239.091	112.62
239.325	118.62
239.559	122.62
239.793	124.62
240.027	131.62
240.26	144.62
240.494	164.62
240.728	136.62
240.961	151.62
241.195	136.62
241.429	137.62
241.662	130.62
241.896	139.62
242.13	128.62
242.363	137.62
242.597	148.62
242.83	143.62
243.064	125.62
243.298	145.62
243.531	144.62
243.765	145.62
243.998	125.62
244.232	143.62
244.465	152.62
244.699	128.62
244.932	152.62
245.166	150.62
245.399	149.62
245.633	156.62
245.866	149.62
246.099	139.62
246.333	152.62
246.566	171.62
246.8	139.62
247.033	149.62
247.266	160.62
247.5	169.62
247.733	173.62
247.966	160.62
248.2	178.62
248.433	161.62
248.666	161.62
248.899	172.62
249.133	198.62
249.366	220.62
249.599	203.62
249.832	184.62
250.066	187.62
250.299	187.62
250.532	207.62
250.765	192.62
250.998	202.62
251.231	214.62
251.465	194.62
251.698	201.62
251.931	208.62
252.164	186.62
252.397	194.62
252.63	218.62
252.863	209.62
253.096	220.62
253.329	214.62
253.562	244.62
253.795	206.62
254.028	201.62
254.261	227.62
254.494	223.62
254.727	248.62
254.96	276.62
255.193	280.62
255.426	236.62
255.659	231.62
255.892	248.62
256.124	236.62
256.357	235.62
256.59	225.62
256.823	232.62
257.056	215.62
257.289	220.62
257.521	196.62
257.754	216.62
257.987	229.62
258.22	221.62
258.452	225.62
258.685	195.62
258.918	220.62
259.151	225.62
259.383	219.62
259.616	220.62
259.849	227.62
260.081	222.62
260.314	265.62
260.547	256.62
260.779	236.62
261.012	247.62
261.244	249.62
261.477	233.62
261.71	227.62
261.942	235.62
262.175	221.62
262.407	232.62
262.64	228.62
262.872	231.62
263.105	226.62
263.337	223.62
263.57	212.62
263.802	228.62
264.035	220.62
264.267	223.62
264.499	232.62
264.732	233.62
264.964	227.62
265.197	220.62
265.429	219.62
265.661	226.62
265.894	224.62
266.126	234.62
266.358	232.62
266.591	229.62
266.823	229.62
267.055	218.62
267.287	240.62
267.52	244.62
267.752	249.62
267.984	247.62
268.216	241.62
268.448	231.62
268.681	257.62
268.913	268.62
269.145	275.62
269.377	295.62
269.609	281.62
269.841	275.62
270.073	287.62
270.306	315.62
270.538	323.62
270.77	307.62
271.002	303.62
271.234	313.62
271.466	299.62
271.698	327.62
271.93	327.62
272.162	313.62
272.394	315.62
272.626	312.62
272.858	308.62
273.09	281.62
273.322	292.62
273.553	276.62
273.785	272.62
274.017	303.62
274.249	286.62
274.481	277.62
274.713	289.62
274.945	289.62
275.176	289.62
275.408	282.62
275.64	293.62
275.872	298.62
276.104	283.62
276.335	291.62
276.567	289.62
276.799	315.62
277.031	321.62
277.262	337.62
277.494	328.62
277.726	326.62
277.957	312.62
278.189	299.62
278.421	309.62
278.652	296.62
278.884	275.62
279.115	291.62
279.347	294.62
279.579	285.62
279.81	298.62
280.042	289.62
280.273	285.62
280.505	299.62
280.736	288.62
280.968	293.62
281.199	311.62
281.431	295.62
281.662	306.62
281.894	305.62
282.125	300.62
282.356	302.62
282.588	325.62
282.819	309.62
283.051	318.62
283.282	303.62
283.513	287.62
283.745	305.62
283.976	326.62
284.207	320.62
284.439	320.62
284.67	308.62
284.901	309.62
285.132	315.62
285.364	286.62
285.595	299.62
285.826	311.62
286.057	315.62
286.288	326.62
286.52	307.62
286.751	304.62
286.982	299.62
287.213	337.62
287.444	321.62
287.675	301.62
287.906	311.62
288.138	319.62
288.369	331.62
288.6	329.62
288.831	321.62
289.062	325.62
289.293	319.62
289.524	316.62
289.755	316.62
289.986	341.62
290.217	333.62
290.448	331.62
290.679	335.62
290.91	315.62
291.141	331.62
291.371	336.62
291.602	323.62
291.833	331.62
292.064	312.62
292.295	327.62
292.526	335.62
292.757	311.62
292.987	324.62
293.218	325.62
293.449	324.62
293.68	340.62
293.91	327.62
294.141	330.62
294.372	311.62
294.603	329.62
294.833	330.62
295.064	323.62
295.295	324.62
295.525	319.62
295.756	333.62
295.987	349.62
296.217	344.62
296.448	364.62
296.679	339.62
296.909	336.62
297.14	333.62
297.37	353.62
297.601	323.62
297.831	333.62
298.062	329.62
298.292	342.62
298.523	357.62
298.753	338.62
298.984	340.62
299.214	341.62
299.445	352.62
299.675	342.62
299.905	345.62
300.136	349.62
300.366	352.62
300.597	350.62
300.827	353.62
301.057	383.62
301.288	395.62
301.518	357.62
301.748	381.62
301.979	374.62
302.209	391.62
302.439	373.62
302.669	373.62
302.9	371.62
303.13	359.62
303.36	377.62
303.59	367.62
303.82	391.62
304.051	372.62
304.281	375.62
304.511	375.62
304.741	369.62
304.971	357.62
305.201	374.62
305.431	369.62
305.661	357.62
305.891	383.62
306.121	379.62
306.352	371.62
306.582	377.62
306.812	375.62
307.042	366.62
307.272	379.62
307.502	383.62
307.731	401.62
307.961	393.62
308.191	373.62
308.421	389.62
308.651	379.62
308.881	384.62
309.111	387.62
309.341	386.62
309.571	387.62
309.8	409.62
310.03	416.62
310.26	381.62
310.49	395.62
310.72	396.62
310.949	425.62
311.179	415.62
311.409	420.62
311.639	420.62
311.868	425.62
312.098	410.62
312.328	404.62
312.557	417.62
312.787	416.62
313.017	417.62
313.246	417.62
313.476	409.62
313.706	420.62
313.935	425.62
314.165	438.62
314.394	432.62
314.624	428.62
314.853	409.62
315.083	416.62
315.312	409.62
315.542	404.62
315.771	393.62
316.001	415.62
316.23	429.62
316.46	439.62
316.689	417.62
316.919	441.62
317.148	396.62
317.377	419.62
317.607	417.62
317.836	416.62
318.065	420.62
318.295	414.62
318.524	404.62
318.753	426.62
318.983	413.62
319.212	435.62
319.441	433.62
319.67	418.62
319.9	419.62
320.129	411.62
320.358	413.62
320.587	422.62
320.816	432.62
321.046	435.62
321.275	428.62
321.504	422.62
321.733	419.62
321.962	438.62
322.191	450.62
322.42	443.62
322.649	459.62
322.878	450.62
323.108	474.62
323.337	503.62
323.566	513.62
323.795	506.62
324.024	531.62
324.253	641.62
324.482	875.62
324.71	1276.62
324.939	1761.62
325.168	1475.62
325.397	782.62
325.626	589.62
325.855	515.62
326.084	520.62
326.313	492.62
326.542	496.62
326.77	541.62
326.999	610.62
327.228	793.62
327.457	1156.62
327.686	1347.62
327.914	877.62
328.143	632.62
328.372	591.62
328.6	541.62
328.829	543.62
329.058	563.62
329.287	556.62
329.515	520.62
329.744	521.62
329.972	523.62
330.201	532.62
330.43	577.62
330.658	575.62
330.887	572.62
331.115	549.62
331.344	517.62
331.572	493.62
331.801	508.62
332.03	517.62
332.258	483.62
332.486	466.62
332.715	474.62
332.943	484.62
333.172	482.62
333.4	499.62
333.629	501.62
333.857	531.62
334.085	529.62
334.314	559.62
334.542	569.62
334.771	580.62
334.999	544.62
335.227	528.62
335.455	507.62
335.684	500.62
335.912	497.62
336.14	484.62
336.369	469.62
336.597	500.62
336.825	489.62
337.053	472.62
337.281	475.62
337.51	481.62
337.738	490.62
337.966	464.62
338.194	473.62
338.422	483.62
338.65	459.62
338.878	451.62
339.106	451.62
339.334	457.62
339.562	444.62
339.79	465.62
340.018	439.62
340.246	465.62
340.474	456.62
340.702	455.62
340.93	458.62
341.158	460.62
341.386	475.62
341.614	469.62
341.842	465.62
342.07	466.62
342.298	446.62
342.526	456.62
342.754	459.62
342.981	450.62
343.209	442.62
343.437	455.62
343.665	468.62
343.893	477.62
344.12	476.62
344.348	488.62
344.576	476.62
344.804	478.62
345.031	468.62
345.259	476.62
345.487	477.62
345.714	461.62
345.942	461.62
346.17	445.62
346.397	425.62
346.625	426.62
346.853	435.62
347.08	449.62
347.308	424.62
347.535	443.62
347.763	461.62
347.99	459.62
348.218	445.62
348.445	456.62
348.673	443.62
348.9	418.62
349.128	445.62
349.355	419.62
349.583	419.62
349.81	424.62
350.037	412.62
350.265	411.62
350.492	417.62
350.72	425.62
350.947	425.62
351.174	437.62
351.402	419.62
351.629	428.62
351.856	423.62
352.083	435.62
352.311	433.62
352.538	435.62
352.765	431.62
352.992	426.62
353.22	420.62
353.447	432.62
353.674	419.62
353.901	412.62
354.128	408.62
354.355	401.62
354.583	401.62
354.81	400.62
355.037	408.62
355.264	407.62
355.491	410.62
355.718	412.62
355.945	407.62
356.172	407.62
356.399	412.62
356.626	411.62
356.853	377.62
357.08	402.62
357.307	386.62
357.534	409.62
357.761	398.62
357.988	398.62
358.215	413.62
358.441	399.62
358.668	403.62
358.895	416.62
359.122	403.62
359.349	416.62
359.576	417.62
359.802	432.62
360.029	443.62
360.256	436.62
360.483	434.62
360.709	437.62
360.936	413.62
361.163	442.62
361.39	417.62
361.616	436.62
361.843	414.62
362.07	429.62
362.296	415.62
362.523	438.62
362.749	424.62
362.976	410.62
363.203	419.62
363.429	426.62
363.656	386.62
363.882	423.62
364.109	419.62
364.335	393.62
364.562	403.62
364.788	411.62
365.015	408.62
365.241	400.62
365.468	409.62
365.694	403.62
365.92	411.62
366.147	408.62
366.373	405.62
366.599	406.62
366.826	391.62
367.052	396.62
367.278	403.62
367.505	415.62
367.731	395.62
367.957	392.62
368.184	371.62
368.41	409.62
368.636	391.62
368.862	429.62
369.089	406.62
369.315	405.62
369.541	402.62
369.767	389.62
369.993	415.62
370.219	388.62
370.445	396.62
370.672	406.62
370.898	397.62
371.124	407.62
371.35	393.62
371.576	382.62
371.802	401.62
372.028	421.62
372.254	404.62
372.48	410.62
372.706	415.62
372.932	419.62
373.158	426.62
373.384	416.62
373.61	417.62
373.835	414.62
374.061	391.62
374.287	418.62
374.513	405.62
374.739	417.62
374.965	404.62
375.191	420.62
375.416	411.62
375.642	427.62
375.868	402.62
376.094	411.62
376.319	404.62
376.545	397.62
376.771	418.62
376.997	396.62
377.222	400.62
377.448	415.62
377.674	402.62
377.899	402.62
378.125	398.62
378.35	403.62
378.576	398.62
378.802	397.62
379.027	403.62
379.253	403.62
379.478	388.62
379.704	393.62
379.929	386.62
380.155	385.62
380.38	390.62
380.606	397.62
380.831	408.62
381.057	397.62
381.282	396.62
381.507	404.62
381.733	408.62
381.958	391.62
382.184	411.62
382.409	400.62
382.634	392.62
382.86	415.62
383.085	392.62
383.31	404.62
383.535	433.62
383.761	401.62
383.986	427.62
384.211	427.62
384.436	428.62
384.662	421.62
384.887	440.62
385.112	427.62
385.337	435.62
385.562	420.62
385.787	428.62
386.013	432.62
386.238	433.62
386.463	424.62
386.688	441.62
386.913	435.62
387.138	424.62
387.363	416.62
387.588	437.62
387.813	439.62
388.038	411.62
388.263	453.62
388.488	442.62
388.713	453.62
388.938	421.62
389.163	441.62
389.387	428.62
389.612	441.62
389.837	447.62
390.062	423.62
390.287	453.62
390.512	431.62
390.736	437.62
390.961	443.62
391.186	452.62
391.411	457.62
391.636	433.62
391.86	457.62
392.085	456.62
392.31	440.62
392.534	442.62
392.759	434.62
392.984	433.62
393.208	439.62
393.433	432.62
393.658	434.62
393.882	418.62
394.107	430.62
394.331	452.62
394.556	428.62
394.78	443.62
395.005	423.62
395.229	439.62
395.454	464.62
395.678	460.62
395.903	454.62
396.127	476.62
396.352	455.62
396.576	473.62
396.801	437.62
397.025	463.62
397.249	465.62
397.474	485.62
397.698	475.62
397.922	459.62
398.147	478.62
398.371	490.62
398.595	496.62
398.82	483.62
399.044	517.62
399.268	497.62
399.492	564.62
399.717	600.62
399.941	606.62
400.165	617.62
400.389	608.62
400.613	554.62
400.837	498.62
401.062	509.62
401.286	515.62
401.51	500.62
401.734	484.62
401.958	484.62
402.182	476.62
402.406	475.62
402.63	507.62
402.854	509.62
403.078	522.62
403.302	504.62
403.526	525.62
403.75	530.62
403.974	526.62
404.198	502.62
404.422	526.62
404.645	540.62
404.869	524.62
405.093	540.62
405.317	595.62
405.541	611.62
405.765	559.62
405.988	539.62
406.212	526.62
406.436	561.62
406.66	555.62
406.883	533.62
407.107	569.62
407.331	607.62
407.555	660.62
407.778	645.62
408.002	603.62
408.226	587.62
408.449	565.62
408.673	554.62
408.896	565.62
409.12	594.62
409.344	572.62
409.567	524.62
409.791	525.62
410.014	515.62
410.238	519.62
410.461	507.62
410.685	525.62
410.908	531.62
411.132	535.62
411.355	580.62
411.578	533.62
411.802	523.62
412.025	501.62
412.249	508.62
412.472	522.62
412.695	583.62
412.919	554.62
413.142	492.62
413.365	476.62
413.589	508.62
413.812	485.62
414.035	455.62
414.258	481.62
414.482	487.62
414.705	467.62
414.928	487.62
415.151	477.62
415.374	476.62
415.597	469.62
415.821	477.62
416.044	470.62
416.267	467.62
416.49	465.62
416.713	495.62
416.936	467.62
417.159	468.62
417.382	486.62
417.605	499.62
417.828	474.62
418.051	465.62
418.274	472.62
418.497	461.62
418.72	476.62
418.943	429.62
419.166	493.62
419.389	508.62
419.611	517.62
419.834	479.62
420.057	483.62
420.28	492.62
420.503	495.62
420.726	507.62
420.948	498.62
421.171	530.62
421.394	556.62
421.617	509.62
421.839	492.62
422.062	468.62
422.285	475.62
422.507	527.62
422.73	587.62
422.953	581.62
423.175	533.62
423.398	523.62
423.621	514.62
423.843	505.62
424.066	503.62
424.288	498.62
424.511	538.62
424.733	569.62
424.956	620.62
425.178	623.62
425.401	635.62
425.623	618.62
425.846	556.62
426.068	515.62
426.291	512.62
426.513	506.62
426.735	508.62
426.958	541.62
427.18	612.62
427.402	695.62
427.625	753.62
427.847	654.62
428.069	581.62
428.292	521.62
428.514	509.62
428.736	493.62
428.958	459.62
429.181	470.62
429.403	475.62
429.625	484.62
429.847	515.62
430.069	548.62
430.292	549.62
430.514	458.62
430.736	468.62
430.958	475.62
431.18	441.62
431.402	422.62
431.624	431.62
431.846	433.62
432.068	449.62
432.29	446.62
432.512	441.62
432.734	461.62
432.956	467.62
433.178	453.62
433.4	480.62
433.622	451.62
433.844	472.62
434.066	445.62
434.287	452.62
434.509	468.62
434.731	458.62
434.953	491.62
435.175	507.62
435.397	490.62
435.618	496.62
435.84	517.62
436.062	591.62
436.284	687.62
436.505	543.62
436.727	489.62
436.949	495.62
437.17	454.62
437.392	481.62
437.614	478.62
437.835	483.62
438.057	572.62
438.278	657.62
438.5	645.62
438.721	715.62
438.943	673.62
439.165	561.62
439.386	505.62
439.608	518.62
439.829	497.62
440.05	524.62
440.272	542.62
440.493	500.62
440.715	481.62
440.936	479.62
441.158	453.62
441.379	469.62
441.6	485.62
441.822	485.62
442.043	519.62
442.264	601.62
442.486	612.62
442.707	542.62
442.928	524.62
443.149	490.62
443.371	522.62
443.592	597.62
443.813	643.62
444.034	679.62
444.255	563.62
444.476	522.62
444.698	538.62
444.919	522.62
445.14	641.62
445.361	599.62
445.582	542.62
445.803	580.62
446.024	649.62
446.245	663.62
446.466	595.62
446.687	512.62
446.908	473.62
447.129	477.62
447.35	452.62
447.571	453.62
447.792	467.62
448.013	456.62
448.234	471.62
448.455	506.62
448.675	571.62
448.896	693.62
449.117	571.62
449.338	568.62
449.559	661.62
449.779	735.62
450	578.62
450.221	476.62
450.442	442.62
450.662	442.62
450.883	445.62
451.104	449.62
451.324	450.62
451.545	449.62
451.766	420.62
451.986	404.62
452.207	412.62
452.428	408.62
452.648	423.62
452.869	408.62
453.089	386.62
453.31	440.62
453.53	412.62
453.751	401.62
453.971	395.62
454.192	415.62
454.412	407.62
454.633	398.62
454.853	400.62
455.073	391.62
455.294	440.62
455.514	471.62
455.734	461.62
455.955	411.62
456.175	403.62
456.395	394.62
456.616	402.62
456.836	393.62
457.056	398.62
457.276	381.62
457.497	375.62
457.717	402.62
457.937	401.62
458.157	411.62
458.377	407.62
458.598	416.62
458.818	477.62
459.038	509.62
459.258	507.62
459.478	481.62
459.698	453.62
459.918	439.62
460.138	440.62
460.358	443.62
460.578	452.62
460.798	470.62
461.018	466.62
461.238	451.62
461.458	472.62
461.678	459.62
461.898	472.62
462.118	460.62
462.338	465.62
462.558	488.62
462.777	487.62
462.997	498.62
463.217	488.62
463.437	498.62
463.657	509.62
463.876	481.62
464.096	490.62
464.316	479.62
464.536	497.62
464.755	479.62
464.975	478.62
465.195	520.62
465.414	537.62
465.634	483.62
465.854	457.62
466.073	463.62
466.293	436.62
466.512	439.62
466.732	431.62
466.951	426.62
467.171	421.62
467.391	425.62
467.61	424.62
467.829	438.62
468.049	415.62
468.268	407.62
468.488	407.62
468.707	398.62
468.927	411.62
469.146	395.62
469.365	401.62
469.585	419.62
469.804	424.62
470.023	435.62
470.243	426.62
470.462	436.62
470.681	440.62
470.901	433.62
471.12	410.62
471.339	415.62
471.558	425.62
471.777	413.62
471.997	396.62
472.216	417.62
472.435	445.62
472.654	429.62
472.873	425.62
473.092	420.62
473.311	421.62
473.53	451.62
473.749	418.62
473.968	459.62
474.187	548.62
474.406	544.62
474.625	475.62
474.844	445.62
475.063	420.62
475.282	431.62
475.501	427.62
475.72	449.62
475.939	431.62
476.158	428.62
476.377	428.62
476.596	411.62
476.814	433.62
477.033	463.62
477.252	441.62
477.471	451.62
477.69	470.62
477.908	469.62
478.127	474.62
478.346	493.62
478.564	484.62
478.783	459.62
479.002	487.62
479.22	482.62
479.439	472.62
479.658	511.62
479.876	501.62
480.095	511.62
480.313	522.62
480.532	512.62
480.751	531.62
480.969	531.62
481.188	552.62
481.406	571.62
481.624	523.62
481.843	503.62
482.061	508.62
482.28	500.62
482.498	499.62
482.717	502.62
482.935	488.62
483.153	513.62
483.372	497.62
483.59	499.62
483.808	467.62
484.027	501.62
484.245	504.62
484.463	512.62
484.681	513.62
484.9	487.62
485.118	515.62
485.336	504.62
485.554	521.62
485.772	479.62
485.99	500.62
486.209	514.62
486.427	505.62
486.645	516.62
486.863	507.62
487.081	525.62
487.299	514.62
487.517	498.62
487.735	525.62
487.953	514.62
488.171	511.62
488.389	516.62
488.607	516.62
488.825	535.62
489.043	514.62
489.261	503.62
489.479	503.62
489.696	532.62
489.914	529.62
490.132	534.62
490.35	516.62
490.568	541.62
490.786	541.62
491.003	554.62
491.221	576.62
491.439	584.62
491.657	575.62
491.874	577.62
492.092	585.62
492.31	578.62
492.527	591.62
492.745	591.62
492.963	583.62
493.18	605.62
493.398	589.62
493.615	575.62
493.833	587.62
494.05	592.62
494.268	604.62
494.485	599.62
494.703	602.62
494.92	599.62
495.138	610.62
495.355	614.62
495.573	596.62
495.79	589.62
496.008	599.62
496.225	593.62
496.442	601.62
496.66	625.62
496.877	611.62
497.094	609.62
497.312	633.62
497.529	652.62
497.746	649.62
497.963	644.62
498.181	663.62
498.398	668.62
498.615	694.62
498.832	712.62
499.049	724.62
499.267	744.62
499.484	773.62
499.701	787.62
499.918	841.62
500.135	861.62
500.352	933.62
500.569	955.62
500.786	921.62
501.003	916.62
501.22	891.62
501.437	827.62
501.654	804.62
501.871	795.62
502.088	760.62
