Data from 1964.PennyLincolnUp.Lamp.En5.5.200Scan.071719.P1._HRD10591_14-06-00-910.txt Node
Date: Thu Jul 18 14:06:00 EDT 2019
User: cochatt
Spectrometer: HR+D1059
Trigger mode: 1
Integration Time (sec): 1.000000E-1
Scans to average: 1
Electric dark correction enabled: true
Nonlinearity correction enabled: false
Boxcar width: 0
XAxis mode: Wavelengths
Number of Pixels in Spectrum: 2048
>>>>>Begin Spectral Data<<<<<
223.165	-9.44
223.4	-9.44
223.635	-9.44
223.869	-12.44
224.104	-16.44
224.338	-23.44
224.573	-19.44
224.808	-5.44
225.042	-12.44
225.277	4.56
225.511	-3.44
225.746	3.56
225.98	8.56
226.215	-0.44
226.449	13.56
226.683	13.56
226.918	22.56
227.152	36.56
227.387	31.56
227.621	33.56
227.856	38.56
228.09	52.56
228.324	43.56
228.559	44.56
228.793	58.56
229.027	95.56
229.262	96.56
229.496	115.56
229.73	110.56
229.964	124.56
230.199	115.56
230.433	117.56
230.667	101.56
230.901	104.56
231.136	101.56
231.37	108.56
231.604	121.56
231.838	113.56
232.072	124.56
232.306	115.56
232.541	108.56
232.775	122.56
233.009	105.56
233.243	105.56
233.477	117.56
233.711	123.56
233.945	108.56
234.179	112.56
234.413	114.56
234.647	122.56
234.881	115.56
235.115	106.56
235.349	121.56
235.583	108.56
235.817	103.56
236.051	135.56
236.285	124.56
236.519	113.56
236.753	120.56
236.987	127.56
237.221	167.56
237.455	190.56
237.689	184.56
237.922	133.56
238.156	127.56
238.39	128.56
238.624	132.56
238.858	123.56
239.091	125.56
239.325	128.56
239.559	128.56
239.793	123.56
240.027	120.56
240.26	133.56
240.494	142.56
240.728	140.56
240.961	141.56
241.195	152.56
241.429	126.56
241.662	127.56
241.896	117.56
242.13	143.56
242.363	133.56
242.597	145.56
242.83	153.56
243.064	137.56
243.298	149.56
243.531	142.56
243.765	151.56
243.998	113.56
244.232	154.56
244.465	132.56
244.699	153.56
244.932	136.56
245.166	131.56
245.399	158.56
245.633	150.56
245.866	147.56
246.099	154.56
246.333	148.56
246.566	147.56
246.8	155.56
247.033	150.56
247.266	152.56
247.5	178.56
247.733	148.56
247.966	171.56
248.2	160.56
248.433	166.56
248.666	164.56
248.899	181.56
249.133	192.56
249.366	203.56
249.599	188.56
249.832	189.56
250.066	188.56
250.299	166.56
250.532	200.56
250.765	197.56
250.998	232.56
251.231	207.56
251.465	220.56
251.698	203.56
251.931	187.56
252.164	212.56
252.397	212.56
252.63	199.56
252.863	200.56
253.096	216.56
253.329	231.56
253.562	214.56
253.795	218.56
254.028	216.56
254.261	212.56
254.494	220.56
254.727	264.56
254.96	291.56
255.193	268.56
255.426	235.56
255.659	252.56
255.892	235.56
256.124	227.56
256.357	231.56
256.59	234.56
256.823	227.56
257.056	208.56
257.289	218.56
257.521	218.56
257.754	218.56
257.987	213.56
258.22	218.56
258.452	208.56
258.685	207.56
258.918	220.56
259.151	213.56
259.383	222.56
259.616	227.56
259.849	239.56
260.081	237.56
260.314	243.56
260.547	262.56
260.779	236.56
261.012	251.56
261.244	243.56
261.477	233.56
261.71	228.56
261.942	245.56
262.175	232.56
262.407	234.56
262.64	215.56
262.872	224.56
263.105	232.56
263.337	213.56
263.57	212.56
263.802	221.56
264.035	226.56
264.267	218.56
264.499	231.56
264.732	226.56
264.964	219.56
265.197	223.56
265.429	239.56
265.661	214.56
265.894	225.56
266.126	210.56
266.358	249.56
266.591	233.56
266.823	236.56
267.055	222.56
267.287	228.56
267.52	255.56
267.752	241.56
267.984	242.56
268.216	235.56
268.448	239.56
268.681	243.56
268.913	264.56
269.145	254.56
269.377	300.56
269.609	268.56
269.841	284.56
270.073	269.56
270.306	280.56
270.538	318.56
270.77	323.56
271.002	301.56
271.234	300.56
271.466	290.56
271.698	303.56
271.93	321.56
272.162	329.56
272.394	323.56
272.626	297.56
272.858	295.56
273.09	282.56
273.322	287.56
273.553	277.56
273.785	289.56
274.017	290.56
274.249	292.56
274.481	276.56
274.713	287.56
274.945	269.56
275.176	274.56
275.408	281.56
275.64	254.56
275.872	275.56
276.104	288.56
276.335	284.56
276.567	282.56
276.799	279.56
277.031	336.56
277.262	335.56
277.494	321.56
277.726	318.56
277.957	310.56
278.189	296.56
278.421	290.56
278.652	298.56
278.884	303.56
279.115	292.56
279.347	292.56
279.579	292.56
279.81	289.56
280.042	292.56
280.273	289.56
280.505	292.56
280.736	312.56
280.968	310.56
281.199	292.56
281.431	283.56
281.662	305.56
281.894	283.56
282.125	292.56
282.356	313.56
282.588	311.56
282.819	329.56
283.051	303.56
283.282	319.56
283.513	310.56
283.745	321.56
283.976	306.56
284.207	313.56
284.439	296.56
284.67	320.56
284.901	304.56
285.132	305.56
285.364	307.56
285.595	310.56
285.826	305.56
286.057	299.56
286.288	312.56
286.52	311.56
286.751	306.56
286.982	321.56
287.213	311.56
287.444	324.56
287.675	334.56
287.906	330.56
288.138	346.56
288.369	341.56
288.6	311.56
288.831	325.56
289.062	325.56
289.293	332.56
289.524	323.56
289.755	312.56
289.986	324.56
290.217	301.56
290.448	313.56
290.679	323.56
290.91	320.56
291.141	309.56
291.371	315.56
291.602	328.56
291.833	327.56
292.064	312.56
292.295	334.56
292.526	325.56
292.757	345.56
292.987	333.56
293.218	349.56
293.449	329.56
293.68	312.56
293.91	334.56
294.141	339.56
294.372	340.56
294.603	331.56
294.833	325.56
295.064	304.56
295.295	329.56
295.525	335.56
295.756	339.56
295.987	336.56
296.217	342.56
296.448	348.56
296.679	329.56
296.909	317.56
297.14	335.56
297.37	334.56
297.601	347.56
297.831	344.56
298.062	339.56
298.292	348.56
298.523	345.56
298.753	357.56
298.984	345.56
299.214	344.56
299.445	365.56
299.675	358.56
299.905	357.56
300.136	348.56
300.366	318.56
300.597	343.56
300.827	359.56
301.057	358.56
301.288	358.56
301.518	364.56
301.748	352.56
301.979	362.56
302.209	369.56
302.439	371.56
302.669	351.56
302.9	351.56
303.13	368.56
303.36	372.56
303.59	361.56
303.82	371.56
304.051	364.56
304.281	385.56
304.511	364.56
304.741	371.56
304.971	379.56
305.201	356.56
305.431	358.56
305.661	369.56
305.891	388.56
306.121	372.56
306.352	381.56
306.582	381.56
306.812	369.56
307.042	356.56
307.272	360.56
307.502	379.56
307.731	379.56
307.961	367.56
308.191	362.56
308.421	373.56
308.651	377.56
308.881	375.56
309.111	380.56
309.341	384.56
309.571	407.56
309.8	399.56
310.03	394.56
310.26	400.56
310.49	402.56
310.72	412.56
310.949	410.56
311.179	412.56
311.409	426.56
311.639	424.56
311.868	388.56
312.098	413.56
312.328	415.56
312.557	408.56
312.787	412.56
313.017	436.56
313.246	416.56
313.476	426.56
313.706	400.56
313.935	419.56
314.165	419.56
314.394	417.56
314.624	419.56
314.853	427.56
315.083	410.56
315.312	417.56
315.542	427.56
315.771	426.56
316.001	409.56
316.23	387.56
316.46	401.56
316.689	417.56
316.919	428.56
317.148	413.56
317.377	405.56
317.607	425.56
317.836	409.56
318.065	401.56
318.295	406.56
318.524	402.56
318.753	405.56
318.983	415.56
319.212	396.56
319.441	399.56
319.67	411.56
319.9	419.56
320.129	421.56
320.358	396.56
320.587	405.56
320.816	426.56
321.046	432.56
321.275	433.56
321.504	428.56
321.733	428.56
321.962	429.56
322.191	451.56
322.42	463.56
322.649	468.56
322.878	454.56
323.108	455.56
323.337	464.56
323.566	476.56
323.795	505.56
324.024	521.56
324.253	633.56
324.482	852.56
324.71	1279.56
324.939	1733.56
325.168	1473.56
325.397	795.56
325.626	569.56
325.855	522.56
326.084	488.56
326.313	487.56
326.542	498.56
326.77	525.56
326.999	597.56
327.228	799.56
327.457	1111.56
327.686	1267.56
327.914	896.56
328.143	633.56
328.372	555.56
328.6	557.56
328.829	531.56
329.058	561.56
329.287	585.56
329.515	555.56
329.744	519.56
329.972	491.56
330.201	522.56
330.43	554.56
330.658	567.56
330.887	571.56
331.115	573.56
331.344	517.56
331.572	514.56
331.801	491.56
332.03	502.56
332.258	495.56
332.486	462.56
332.715	482.56
332.943	512.56
333.172	496.56
333.4	520.56
333.629	513.56
333.857	516.56
334.085	522.56
334.314	550.56
334.542	575.56
334.771	562.56
334.999	527.56
335.227	529.56
335.455	501.56
335.684	492.56
335.912	491.56
336.14	481.56
336.369	468.56
336.597	469.56
336.825	465.56
337.053	465.56
337.281	474.56
337.51	459.56
337.738	474.56
337.966	469.56
338.194	461.56
338.422	467.56
338.65	477.56
338.878	451.56
339.106	453.56
339.334	474.56
339.562	467.56
339.79	454.56
340.018	472.56
340.246	469.56
340.474	457.56
340.702	463.56
340.93	438.56
341.158	467.56
341.386	459.56
341.614	464.56
341.842	426.56
342.07	468.56
342.298	435.56
342.526	439.56
342.754	435.56
342.981	448.56
343.209	443.56
343.437	472.56
343.665	457.56
343.893	472.56
344.12	482.56
344.348	483.56
344.576	478.56
344.804	477.56
345.031	487.56
345.259	465.56
345.487	453.56
345.714	454.56
345.942	439.56
346.17	436.56
346.397	425.56
346.625	428.56
346.853	420.56
347.08	440.56
347.308	434.56
347.535	402.56
347.763	446.56
347.99	435.56
348.218	447.56
348.445	434.56
348.673	443.56
348.9	436.56
349.128	413.56
349.355	422.56
349.583	409.56
349.81	416.56
350.037	421.56
350.265	413.56
350.492	400.56
350.72	424.56
350.947	416.56
351.174	425.56
351.402	436.56
351.629	428.56
351.856	424.56
352.083	440.56
352.311	447.56
352.538	443.56
352.765	421.56
352.992	420.56
353.22	422.56
353.447	415.56
353.674	403.56
353.901	418.56
354.128	412.56
354.355	406.56
354.583	418.56
354.81	401.56
355.037	414.56
355.264	401.56
355.491	411.56
355.718	399.56
355.945	402.56
356.172	404.56
356.399	413.56
356.626	393.56
356.853	380.56
357.08	404.56
357.307	410.56
357.534	398.56
357.761	389.56
357.988	411.56
358.215	377.56
358.441	394.56
358.668	406.56
358.895	382.56
359.122	397.56
359.349	418.56
359.576	421.56
359.802	442.56
360.029	435.56
360.256	450.56
360.483	443.56
360.709	413.56
360.936	416.56
361.163	426.56
361.39	419.56
361.616	433.56
361.843	428.56
362.07	397.56
362.296	396.56
362.523	400.56
362.749	414.56
362.976	404.56
363.203	427.56
363.429	401.56
363.656	406.56
363.882	391.56
364.109	421.56
364.335	397.56
364.562	400.56
364.788	394.56
365.015	405.56
365.241	398.56
365.468	394.56
365.694	396.56
365.92	388.56
366.147	403.56
366.373	383.56
366.599	394.56
366.826	415.56
367.052	395.56
367.278	390.56
367.505	407.56
367.731	396.56
367.957	385.56
368.184	380.56
368.41	377.56
368.636	395.56
368.862	408.56
369.089	407.56
369.315	392.56
369.541	388.56
369.767	393.56
369.993	406.56
370.219	410.56
370.445	383.56
370.672	390.56
370.898	395.56
371.124	378.56
371.35	397.56
371.576	432.56
371.802	405.56
372.028	403.56
372.254	395.56
372.48	377.56
372.706	437.56
372.932	402.56
373.158	379.56
373.384	413.56
373.61	404.56
373.835	426.56
374.061	401.56
374.287	391.56
374.513	378.56
374.739	395.56
374.965	404.56
375.191	403.56
375.416	404.56
375.642	399.56
375.868	408.56
376.094	412.56
376.319	403.56
376.545	397.56
376.771	390.56
376.997	393.56
377.222	378.56
377.448	395.56
377.674	392.56
377.899	377.56
378.125	379.56
378.35	403.56
378.576	380.56
378.802	380.56
379.027	367.56
379.253	391.56
379.478	379.56
379.704	388.56
379.929	393.56
380.155	386.56
380.38	384.56
380.606	405.56
380.831	387.56
381.057	375.56
381.282	373.56
381.507	403.56
381.733	396.56
381.958	391.56
382.184	390.56
382.409	388.56
382.634	409.56
382.86	383.56
383.085	392.56
383.31	425.56
383.535	420.56
383.761	411.56
383.986	399.56
384.211	403.56
384.436	411.56
384.662	438.56
384.887	426.56
385.112	437.56
385.337	415.56
385.562	409.56
385.787	432.56
386.013	456.56
386.238	434.56
386.463	441.56
386.688	423.56
386.913	423.56
387.138	412.56
387.363	427.56
387.588	441.56
387.813	437.56
388.038	420.56
388.263	424.56
388.488	423.56
388.713	441.56
388.938	422.56
389.163	447.56
389.387	436.56
389.612	435.56
389.837	413.56
390.062	436.56
390.287	415.56
390.512	412.56
390.736	437.56
390.961	435.56
391.186	447.56
391.411	445.56
391.636	442.56
391.86	441.56
392.085	442.56
392.31	440.56
392.534	427.56
392.759	438.56
392.984	426.56
393.208	437.56
393.433	436.56
393.658	434.56
393.882	435.56
394.107	420.56
394.331	424.56
394.556	442.56
394.78	445.56
395.005	446.56
395.229	438.56
395.454	439.56
395.678	440.56
395.903	468.56
396.127	458.56
396.352	466.56
396.576	428.56
396.801	434.56
397.025	450.56
397.249	439.56
397.474	442.56
397.698	449.56
397.922	481.56
398.147	484.56
398.371	489.56
398.595	484.56
398.82	483.56
399.044	476.56
399.268	507.56
399.492	572.56
399.717	578.56
399.941	601.56
400.165	630.56
400.389	604.56
400.613	546.56
400.837	533.56
401.062	509.56
401.286	505.56
401.51	507.56
401.734	500.56
401.958	477.56
402.182	475.56
402.406	502.56
402.63	480.56
402.854	492.56
403.078	508.56
403.302	496.56
403.526	505.56
403.75	509.56
403.974	518.56
404.198	499.56
404.422	502.56
404.645	531.56
404.869	524.56
405.093	539.56
405.317	577.56
405.541	586.56
405.765	533.56
405.988	539.56
406.212	513.56
406.436	541.56
406.66	543.56
406.883	529.56
407.107	577.56
407.331	580.56
407.555	657.56
407.778	628.56
408.002	602.56
408.226	561.56
408.449	537.56
408.673	548.56
408.896	581.56
409.12	567.56
409.344	547.56
409.567	518.56
409.791	515.56
410.014	496.56
410.238	511.56
410.461	506.56
410.685	502.56
410.908	517.56
411.132	547.56
411.355	543.56
411.578	540.56
411.802	497.56
412.025	482.56
412.249	487.56
412.472	532.56
412.695	542.56
412.919	541.56
413.142	509.56
413.365	496.56
413.589	491.56
413.812	486.56
414.035	464.56
414.258	463.56
414.482	459.56
414.705	477.56
414.928	475.56
415.151	460.56
415.374	466.56
415.597	471.56
415.821	475.56
416.044	457.56
416.267	452.56
416.49	462.56
416.713	454.56
416.936	459.56
417.159	466.56
417.382	457.56
417.605	466.56
417.828	468.56
418.051	469.56
418.274	479.56
418.497	449.56
418.72	478.56
418.943	456.56
419.166	481.56
419.389	511.56
419.611	505.56
419.834	490.56
420.057	498.56
420.28	496.56
420.503	489.56
420.726	499.56
420.948	499.56
421.171	534.56
421.394	530.56
421.617	491.56
421.839	493.56
422.062	490.56
422.285	489.56
422.507	527.56
422.73	598.56
422.953	585.56
423.175	496.56
423.398	486.56
423.621	509.56
423.843	519.56
424.066	520.56
424.288	499.56
424.511	531.56
424.733	594.56
424.956	624.56
425.178	592.56
425.401	593.56
425.623	605.56
425.846	524.56
426.068	485.56
426.291	495.56
426.513	504.56
426.735	499.56
426.958	511.56
427.18	598.56
427.402	676.56
427.625	743.56
427.847	661.56
428.069	583.56
428.292	527.56
428.514	483.56
428.736	463.56
428.958	472.56
429.181	472.56
429.403	458.56
429.625	451.56
429.847	473.56
430.069	539.56
430.292	545.56
430.514	467.56
430.736	459.56
430.958	437.56
431.18	431.56
431.402	428.56
431.624	436.56
431.846	447.56
432.068	443.56
432.29	443.56
432.512	433.56
432.734	439.56
432.956	450.56
433.178	452.56
433.4	461.56
433.622	452.56
433.844	431.56
434.066	453.56
434.287	443.56
434.509	433.56
434.731	463.56
434.953	444.56
435.175	459.56
435.397	499.56
435.618	483.56
435.84	523.56
436.062	584.56
436.284	641.56
436.505	561.56
436.727	497.56
436.949	470.56
437.17	445.56
437.392	477.56
437.614	484.56
437.835	474.56
438.057	548.56
438.278	633.56
438.5	650.56
438.721	719.56
438.943	639.56
439.165	526.56
439.386	504.56
439.608	487.56
439.829	489.56
440.05	505.56
440.272	535.56
440.493	500.56
440.715	464.56
440.936	476.56
441.158	455.56
441.379	448.56
441.6	480.56
441.822	505.56
442.043	512.56
442.264	611.56
442.486	636.56
442.707	524.56
442.928	501.56
443.149	525.56
443.371	523.56
443.592	565.56
443.813	614.56
444.034	702.56
444.255	559.56
444.476	504.56
444.698	495.56
444.919	523.56
445.14	638.56
445.361	563.56
445.582	537.56
445.803	568.56
446.024	623.56
446.245	655.56
446.466	576.56
446.687	510.56
446.908	487.56
447.129	451.56
447.35	457.56
447.571	447.56
447.792	467.56
448.013	458.56
448.234	467.56
448.455	480.56
448.675	591.56
448.896	674.56
449.117	589.56
449.338	533.56
449.559	628.56
449.779	727.56
450	574.56
450.221	471.56
450.442	437.56
450.662	411.56
450.883	448.56
451.104	461.56
451.324	450.56
451.545	414.56
451.766	401.56
451.986	402.56
452.207	405.56
452.428	406.56
452.648	408.56
452.869	407.56
453.089	390.56
453.31	407.56
453.53	411.56
453.751	412.56
453.971	393.56
454.192	411.56
454.412	405.56
454.633	393.56
454.853	393.56
455.073	395.56
455.294	419.56
455.514	458.56
455.734	431.56
455.955	407.56
456.175	379.56
456.395	402.56
456.616	381.56
456.836	397.56
457.056	394.56
457.276	357.56
457.497	379.56
457.717	383.56
457.937	397.56
458.157	394.56
458.377	404.56
458.598	407.56
458.818	453.56
459.038	487.56
459.258	522.56
459.478	451.56
459.698	428.56
459.918	437.56
460.138	444.56
460.358	454.56
460.578	447.56
460.798	437.56
461.018	476.56
461.238	459.56
461.458	440.56
461.678	426.56
461.898	450.56
462.118	457.56
462.338	452.56
462.558	461.56
462.777	484.56
462.997	484.56
463.217	493.56
463.437	477.56
463.657	476.56
463.876	507.56
464.096	502.56
464.316	479.56
464.536	492.56
464.755	495.56
464.975	465.56
465.195	507.56
465.414	520.56
465.634	447.56
465.854	447.56
466.073	436.56
466.293	427.56
466.512	404.56
466.732	408.56
466.951	421.56
467.171	411.56
467.391	414.56
467.61	417.56
467.829	422.56
468.049	424.56
468.268	412.56
468.488	418.56
468.707	394.56
468.927	420.56
469.146	394.56
469.365	403.56
469.585	398.56
469.804	421.56
470.023	399.56
470.243	425.56
470.462	445.56
470.681	439.56
470.901	436.56
471.12	401.56
471.339	407.56
471.558	396.56
471.777	424.56
471.997	407.56
472.216	449.56
472.435	466.56
472.654	447.56
472.873	428.56
473.092	417.56
473.311	404.56
473.53	426.56
473.749	417.56
473.968	458.56
474.187	541.56
474.406	533.56
474.625	476.56
474.844	443.56
475.063	425.56
475.282	412.56
475.501	427.56
475.72	419.56
475.939	425.56
476.158	424.56
476.377	422.56
476.596	448.56
476.814	452.56
477.033	440.56
477.252	434.56
477.471	427.56
477.69	467.56
477.908	485.56
478.127	461.56
478.346	461.56
478.564	485.56
478.783	481.56
479.002	483.56
479.22	501.56
479.439	477.56
479.658	485.56
479.876	491.56
480.095	501.56
480.313	514.56
480.532	528.56
480.751	501.56
480.969	507.56
481.188	557.56
481.406	578.56
481.624	552.56
481.843	510.56
482.061	499.56
482.28	487.56
482.498	478.56
482.717	495.56
482.935	480.56
483.153	482.56
483.372	475.56
483.59	465.56
483.808	459.56
484.027	487.56
484.245	476.56
484.463	478.56
484.681	485.56
484.9	485.56
485.118	514.56
485.336	483.56
485.554	500.56
485.772	483.56
485.99	516.56
486.209	484.56
486.427	497.56
486.645	498.56
486.863	500.56
487.081	515.56
487.299	474.56
487.517	484.56
487.735	505.56
487.953	512.56
488.171	504.56
488.389	514.56
488.607	513.56
488.825	498.56
489.043	525.56
489.261	520.56
489.479	509.56
489.696	512.56
489.914	529.56
490.132	511.56
490.35	523.56
490.568	533.56
490.786	544.56
491.003	539.56
491.221	558.56
491.439	573.56
491.657	538.56
491.874	541.56
492.092	571.56
492.31	565.56
492.527	581.56
492.745	566.56
492.963	578.56
493.18	602.56
493.398	595.56
493.615	604.56
493.833	609.56
494.05	593.56
494.268	591.56
494.485	587.56
494.703	577.56
494.92	598.56
495.138	605.56
495.355	580.56
495.573	621.56
495.79	594.56
496.008	581.56
496.225	585.56
496.442	594.56
496.66	583.56
496.877	595.56
497.094	604.56
497.312	616.56
497.529	615.56
497.746	632.56
497.963	642.56
498.181	684.56
498.398	671.56
498.615	671.56
498.832	696.56
499.049	725.56
499.267	745.56
499.484	768.56
499.701	780.56
499.918	808.56
500.135	859.56
500.352	920.56
500.569	907.56
500.786	940.56
501.003	899.56
501.22	881.56
501.437	862.56
501.654	809.56
501.871	769.56
502.088	752.56
