Data from 1964.PennyLincolnUp.Lamp.En5.5.200Scan.071719.P1._HRD10591_14-05-52-909.txt Node
Date: Thu Jul 18 14:05:52 EDT 2019
User: cochatt
Spectrometer: HR+D1059
Trigger mode: 1
Integration Time (sec): 1.000000E-1
Scans to average: 1
Electric dark correction enabled: true
Nonlinearity correction enabled: false
Boxcar width: 0
XAxis mode: Wavelengths
Number of Pixels in Spectrum: 2048
>>>>>Begin Spectral Data<<<<<
223.165	-10.88
223.4	-10.88
223.635	-10.88
223.869	0.12
224.104	-28.88
224.338	-24.88
224.573	-4.88
224.808	-21.88
225.042	13.12
225.277	-14.88
225.511	-7.88
225.746	3.12
225.98	4.12
226.215	13.12
226.449	4.12
226.683	23.12
226.918	25.12
227.152	28.12
227.387	30.12
227.621	30.12
227.856	37.12
228.09	48.12
228.324	39.12
228.559	47.12
228.793	62.12
229.027	83.12
229.262	98.12
229.496	114.12
229.73	122.12
229.964	132.12
230.199	124.12
230.433	120.12
230.667	120.12
230.901	114.12
231.136	90.12
231.37	104.12
231.604	114.12
231.838	101.12
232.072	100.12
232.306	107.12
232.541	122.12
232.775	116.12
233.009	130.12
233.243	111.12
233.477	111.12
233.711	111.12
233.945	114.12
234.179	120.12
234.413	121.12
234.647	121.12
234.881	127.12
235.115	127.12
235.349	127.12
235.583	123.12
235.817	126.12
236.051	114.12
236.285	136.12
236.519	105.12
236.753	123.12
236.987	136.12
237.221	174.12
237.455	203.12
237.689	158.12
237.922	143.12
238.156	123.12
238.39	142.12
238.624	125.12
238.858	123.12
239.091	121.12
239.325	146.12
239.559	136.12
239.793	137.12
240.027	135.12
240.26	124.12
240.494	139.12
240.728	156.12
240.961	151.12
241.195	144.12
241.429	142.12
241.662	146.12
241.896	118.12
242.13	140.12
242.363	132.12
242.597	140.12
242.83	132.12
243.064	145.12
243.298	144.12
243.531	143.12
243.765	160.12
243.998	148.12
244.232	143.12
244.465	152.12
244.699	152.12
244.932	143.12
245.166	145.12
245.399	136.12
245.633	154.12
245.866	137.12
246.099	140.12
246.333	158.12
246.566	167.12
246.8	146.12
247.033	153.12
247.266	144.12
247.5	149.12
247.733	162.12
247.966	176.12
248.2	160.12
248.433	173.12
248.666	192.12
248.899	164.12
249.133	208.12
249.366	197.12
249.599	190.12
249.832	178.12
250.066	186.12
250.299	189.12
250.532	196.12
250.765	206.12
250.998	208.12
251.231	212.12
251.465	213.12
251.698	219.12
251.931	191.12
252.164	191.12
252.397	203.12
252.63	212.12
252.863	225.12
253.096	200.12
253.329	228.12
253.562	215.12
253.795	209.12
254.028	219.12
254.261	217.12
254.494	237.12
254.727	248.12
254.96	282.12
255.193	274.12
255.426	235.12
255.659	246.12
255.892	220.12
256.124	233.12
256.357	251.12
256.59	221.12
256.823	226.12
257.056	217.12
257.289	229.12
257.521	212.12
257.754	220.12
257.987	206.12
258.22	192.12
258.452	216.12
258.685	212.12
258.918	189.12
259.151	218.12
259.383	232.12
259.616	235.12
259.849	235.12
260.081	240.12
260.314	265.12
260.547	268.12
260.779	254.12
261.012	234.12
261.244	223.12
261.477	241.12
261.71	223.12
261.942	222.12
262.175	228.12
262.407	229.12
262.64	224.12
262.872	227.12
263.105	227.12
263.337	225.12
263.57	215.12
263.802	231.12
264.035	216.12
264.267	227.12
264.499	233.12
264.732	224.12
264.964	232.12
265.197	236.12
265.429	221.12
265.661	222.12
265.894	237.12
266.126	220.12
266.358	230.12
266.591	233.12
266.823	254.12
267.055	220.12
267.287	245.12
267.52	239.12
267.752	257.12
267.984	240.12
268.216	228.12
268.448	240.12
268.681	252.12
268.913	259.12
269.145	286.12
269.377	288.12
269.609	271.12
269.841	272.12
270.073	291.12
270.306	288.12
270.538	313.12
270.77	311.12
271.002	318.12
271.234	298.12
271.466	301.12
271.698	337.12
271.93	330.12
272.162	313.12
272.394	336.12
272.626	321.12
272.858	329.12
273.09	297.12
273.322	287.12
273.553	274.12
273.785	283.12
274.017	293.12
274.249	294.12
274.481	287.12
274.713	293.12
274.945	295.12
275.176	281.12
275.408	300.12
275.64	278.12
275.872	270.12
276.104	273.12
276.335	285.12
276.567	293.12
276.799	304.12
277.031	314.12
277.262	331.12
277.494	324.12
277.726	325.12
277.957	317.12
278.189	311.12
278.421	305.12
278.652	301.12
278.884	283.12
279.115	304.12
279.347	295.12
279.579	304.12
279.81	274.12
280.042	286.12
280.273	302.12
280.505	289.12
280.736	286.12
280.968	310.12
281.199	276.12
281.431	273.12
281.662	297.12
281.894	302.12
282.125	292.12
282.356	302.12
282.588	324.12
282.819	326.12
283.051	312.12
283.282	300.12
283.513	308.12
283.745	314.12
283.976	310.12
284.207	319.12
284.439	297.12
284.67	309.12
284.901	318.12
285.132	299.12
285.364	305.12
285.595	306.12
285.826	308.12
286.057	318.12
286.288	311.12
286.52	325.12
286.751	284.12
286.982	302.12
287.213	311.12
287.444	301.12
287.675	305.12
287.906	326.12
288.138	322.12
288.369	340.12
288.6	317.12
288.831	327.12
289.062	324.12
289.293	313.12
289.524	324.12
289.755	319.12
289.986	335.12
290.217	330.12
290.448	331.12
290.679	330.12
290.91	326.12
291.141	325.12
291.371	331.12
291.602	338.12
291.833	322.12
292.064	322.12
292.295	304.12
292.526	338.12
292.757	334.12
292.987	336.12
293.218	328.12
293.449	319.12
293.68	334.12
293.91	330.12
294.141	326.12
294.372	313.12
294.603	339.12
294.833	335.12
295.064	330.12
295.295	323.12
295.525	336.12
295.756	327.12
295.987	326.12
296.217	345.12
296.448	346.12
296.679	360.12
296.909	337.12
297.14	322.12
297.37	343.12
297.601	346.12
297.831	333.12
298.062	330.12
298.292	334.12
298.523	335.12
298.753	357.12
298.984	336.12
299.214	366.12
299.445	344.12
299.675	360.12
299.905	353.12
300.136	342.12
300.366	336.12
300.597	347.12
300.827	330.12
301.057	374.12
301.288	352.12
301.518	351.12
301.748	386.12
301.979	368.12
302.209	366.12
302.439	359.12
302.669	364.12
302.9	358.12
303.13	370.12
303.36	377.12
303.59	371.12
303.82	365.12
304.051	355.12
304.281	356.12
304.511	367.12
304.741	379.12
304.971	364.12
305.201	377.12
305.431	361.12
305.661	365.12
305.891	367.12
306.121	367.12
306.352	361.12
306.582	356.12
306.812	380.12
307.042	394.12
307.272	381.12
307.502	370.12
307.731	382.12
307.961	357.12
308.191	365.12
308.421	365.12
308.651	380.12
308.881	378.12
309.111	379.12
309.341	369.12
309.571	396.12
309.8	388.12
310.03	394.12
310.26	397.12
310.49	380.12
310.72	388.12
310.949	394.12
311.179	394.12
311.409	402.12
311.639	425.12
311.868	390.12
312.098	407.12
312.328	394.12
312.557	440.12
312.787	430.12
313.017	432.12
313.246	421.12
313.476	397.12
313.706	406.12
313.935	412.12
314.165	415.12
314.394	415.12
314.624	420.12
314.853	421.12
315.083	440.12
315.312	398.12
315.542	426.12
315.771	412.12
316.001	413.12
316.23	408.12
316.46	413.12
316.689	419.12
316.919	416.12
317.148	415.12
317.377	420.12
317.607	414.12
317.836	417.12
318.065	393.12
318.295	413.12
318.524	416.12
318.753	413.12
318.983	405.12
319.212	404.12
319.441	436.12
319.67	413.12
319.9	420.12
320.129	392.12
320.358	418.12
320.587	411.12
320.816	415.12
321.046	450.12
321.275	432.12
321.504	422.12
321.733	426.12
321.962	440.12
322.191	462.12
322.42	444.12
322.649	462.12
322.878	430.12
323.108	487.12
323.337	466.12
323.566	470.12
323.795	500.12
324.024	535.12
324.253	630.12
324.482	826.12
324.71	1266.12
324.939	1721.12
325.168	1432.12
325.397	781.12
325.626	592.12
325.855	506.12
326.084	495.12
326.313	504.12
326.542	520.12
326.77	525.12
326.999	586.12
327.228	756.12
327.457	1110.12
327.686	1249.12
327.914	876.12
328.143	641.12
328.372	553.12
328.6	569.12
328.829	523.12
329.058	527.12
329.287	534.12
329.515	520.12
329.744	485.12
329.972	508.12
330.201	514.12
330.43	574.12
330.658	556.12
330.887	582.12
331.115	543.12
331.344	524.12
331.572	509.12
331.801	504.12
332.03	489.12
332.258	506.12
332.486	483.12
332.715	489.12
332.943	496.12
333.172	496.12
333.4	484.12
333.629	501.12
333.857	504.12
334.085	520.12
334.314	525.12
334.542	559.12
334.771	559.12
334.999	531.12
335.227	516.12
335.455	492.12
335.684	480.12
335.912	484.12
336.14	490.12
336.369	479.12
336.597	496.12
336.825	479.12
337.053	500.12
337.281	485.12
337.51	468.12
337.738	473.12
337.966	488.12
338.194	486.12
338.422	452.12
338.65	458.12
338.878	473.12
339.106	451.12
339.334	465.12
339.562	472.12
339.79	441.12
340.018	461.12
340.246	460.12
340.474	452.12
340.702	447.12
340.93	441.12
341.158	463.12
341.386	478.12
341.614	453.12
341.842	460.12
342.07	448.12
342.298	443.12
342.526	450.12
342.754	424.12
342.981	436.12
343.209	451.12
343.437	448.12
343.665	470.12
343.893	477.12
344.12	489.12
344.348	483.12
344.576	471.12
344.804	469.12
345.031	446.12
345.259	478.12
345.487	446.12
345.714	441.12
345.942	441.12
346.17	439.12
346.397	444.12
346.625	434.12
346.853	439.12
347.08	424.12
347.308	444.12
347.535	431.12
347.763	448.12
347.99	424.12
348.218	440.12
348.445	436.12
348.673	430.12
348.9	425.12
349.128	438.12
349.355	430.12
349.583	432.12
349.81	431.12
350.037	413.12
350.265	421.12
350.492	425.12
350.72	421.12
350.947	429.12
351.174	445.12
351.402	426.12
351.629	437.12
351.856	450.12
352.083	410.12
352.311	449.12
352.538	436.12
352.765	422.12
352.992	421.12
353.22	411.12
353.447	427.12
353.674	418.12
353.901	417.12
354.128	429.12
354.355	414.12
354.583	401.12
354.81	396.12
355.037	393.12
355.264	382.12
355.491	395.12
355.718	410.12
355.945	402.12
356.172	404.12
356.399	403.12
356.626	397.12
356.853	409.12
357.08	394.12
357.307	403.12
357.534	407.12
357.761	402.12
357.988	379.12
358.215	401.12
358.441	399.12
358.668	409.12
358.895	410.12
359.122	409.12
359.349	418.12
359.576	422.12
359.802	441.12
360.029	424.12
360.256	447.12
360.483	411.12
360.709	405.12
360.936	400.12
361.163	418.12
361.39	413.12
361.616	424.12
361.843	416.12
362.07	385.12
362.296	412.12
362.523	417.12
362.749	400.12
362.976	400.12
363.203	405.12
363.429	414.12
363.656	412.12
363.882	410.12
364.109	398.12
364.335	401.12
364.562	394.12
364.788	412.12
365.015	390.12
365.241	405.12
365.468	408.12
365.694	395.12
365.92	416.12
366.147	386.12
366.373	405.12
366.599	394.12
366.826	402.12
367.052	378.12
367.278	409.12
367.505	408.12
367.731	388.12
367.957	392.12
368.184	410.12
368.41	394.12
368.636	429.12
368.862	414.12
369.089	394.12
369.315	388.12
369.541	390.12
369.767	417.12
369.993	402.12
370.219	395.12
370.445	402.12
370.672	412.12
370.898	413.12
371.124	411.12
371.35	378.12
371.576	386.12
371.802	383.12
372.028	397.12
372.254	386.12
372.48	427.12
372.706	408.12
372.932	420.12
373.158	408.12
373.384	406.12
373.61	415.12
373.835	398.12
374.061	412.12
374.287	423.12
374.513	391.12
374.739	392.12
374.965	428.12
375.191	400.12
375.416	414.12
375.642	413.12
375.868	411.12
376.094	386.12
376.319	407.12
376.545	390.12
376.771	404.12
376.997	397.12
377.222	394.12
377.448	402.12
377.674	385.12
377.899	373.12
378.125	387.12
378.35	383.12
378.576	409.12
378.802	400.12
379.027	383.12
379.253	394.12
379.478	383.12
379.704	391.12
379.929	409.12
380.155	404.12
380.38	417.12
380.606	407.12
380.831	406.12
381.057	406.12
381.282	383.12
381.507	389.12
381.733	395.12
381.958	400.12
382.184	395.12
382.409	395.12
382.634	400.12
382.86	423.12
383.085	416.12
383.31	425.12
383.535	390.12
383.761	400.12
383.986	399.12
384.211	421.12
384.436	422.12
384.662	418.12
384.887	424.12
385.112	429.12
385.337	446.12
385.562	437.12
385.787	436.12
386.013	444.12
386.238	428.12
386.463	427.12
386.688	453.12
386.913	442.12
387.138	436.12
387.363	423.12
387.588	440.12
387.813	412.12
388.038	444.12
388.263	426.12
388.488	458.12
388.713	433.12
388.938	448.12
389.163	429.12
389.387	456.12
389.612	410.12
389.837	447.12
390.062	443.12
390.287	403.12
390.512	420.12
390.736	433.12
390.961	413.12
391.186	427.12
391.411	434.12
391.636	421.12
391.86	438.12
392.085	457.12
392.31	443.12
392.534	436.12
392.759	421.12
392.984	446.12
393.208	432.12
393.433	447.12
393.658	448.12
393.882	437.12
394.107	432.12
394.331	434.12
394.556	438.12
394.78	431.12
395.005	441.12
395.229	430.12
395.454	441.12
395.678	442.12
395.903	469.12
396.127	466.12
396.352	474.12
396.576	442.12
396.801	439.12
397.025	456.12
397.249	440.12
397.474	462.12
397.698	476.12
397.922	473.12
398.147	478.12
398.371	479.12
398.595	463.12
398.82	477.12
399.044	511.12
399.268	505.12
399.492	540.12
399.717	566.12
399.941	611.12
400.165	625.12
400.389	622.12
400.613	546.12
400.837	510.12
401.062	524.12
401.286	508.12
401.51	497.12
401.734	488.12
401.958	493.12
402.182	479.12
402.406	491.12
402.63	508.12
402.854	484.12
403.078	497.12
403.302	495.12
403.526	492.12
403.75	514.12
403.974	510.12
404.198	513.12
404.422	502.12
404.645	516.12
404.869	520.12
405.093	535.12
405.317	559.12
405.541	610.12
405.765	581.12
405.988	550.12
406.212	534.12
406.436	530.12
406.66	544.12
406.883	538.12
407.107	565.12
407.331	587.12
407.555	664.12
407.778	632.12
408.002	598.12
408.226	540.12
408.449	548.12
408.673	549.12
408.896	574.12
409.12	609.12
409.344	561.12
409.567	512.12
409.791	518.12
410.014	510.12
410.238	515.12
410.461	500.12
410.685	484.12
410.908	518.12
411.132	553.12
411.355	552.12
411.578	556.12
411.802	524.12
412.025	500.12
412.249	509.12
412.472	526.12
412.695	556.12
412.919	543.12
413.142	504.12
413.365	491.12
413.589	487.12
413.812	472.12
414.035	485.12
414.258	479.12
414.482	465.12
414.705	487.12
414.928	457.12
415.151	463.12
415.374	456.12
415.597	488.12
415.821	445.12
416.044	477.12
416.267	466.12
416.49	452.12
416.713	454.12
416.936	474.12
417.159	474.12
417.382	481.12
417.605	495.12
417.828	475.12
418.051	465.12
418.274	503.12
418.497	481.12
418.72	478.12
418.943	482.12
419.166	494.12
419.389	491.12
419.611	520.12
419.834	502.12
420.057	506.12
420.28	501.12
420.503	480.12
420.726	494.12
420.948	484.12
421.171	514.12
421.394	533.12
421.617	480.12
421.839	476.12
422.062	469.12
422.285	477.12
422.507	542.12
422.73	600.12
422.953	568.12
423.175	493.12
423.398	487.12
423.621	516.12
423.843	516.12
424.066	522.12
424.288	501.12
424.511	533.12
424.733	564.12
424.956	635.12
425.178	606.12
425.401	594.12
425.623	589.12
425.846	557.12
426.068	512.12
426.291	501.12
426.513	508.12
426.735	500.12
426.958	533.12
427.18	605.12
427.402	696.12
427.625	767.12
427.847	652.12
428.069	604.12
428.292	516.12
428.514	489.12
428.736	469.12
428.958	490.12
429.181	462.12
429.403	456.12
429.625	475.12
429.847	496.12
430.069	545.12
430.292	547.12
430.514	459.12
430.736	481.12
430.958	455.12
431.18	433.12
431.402	469.12
431.624	441.12
431.846	414.12
432.068	426.12
432.29	449.12
432.512	467.12
432.734	434.12
432.956	454.12
433.178	439.12
433.4	451.12
433.622	440.12
433.844	442.12
434.066	438.12
434.287	452.12
434.509	444.12
434.731	456.12
434.953	474.12
435.175	488.12
435.397	481.12
435.618	504.12
435.84	524.12
436.062	607.12
436.284	640.12
436.505	543.12
436.727	517.12
436.949	461.12
437.17	450.12
437.392	445.12
437.614	460.12
437.835	467.12
438.057	585.12
438.278	627.12
438.5	630.12
438.721	689.12
438.943	648.12
439.165	514.12
439.386	513.12
439.608	514.12
439.829	489.12
440.05	522.12
440.272	551.12
440.493	531.12
440.715	491.12
440.936	472.12
441.158	465.12
441.379	459.12
441.6	477.12
441.822	494.12
442.043	519.12
442.264	593.12
442.486	607.12
442.707	530.12
442.928	491.12
443.149	521.12
443.371	529.12
443.592	585.12
443.813	623.12
444.034	664.12
444.255	579.12
444.476	545.12
444.698	502.12
444.919	511.12
445.14	666.12
445.361	547.12
445.582	541.12
445.803	579.12
446.024	636.12
446.245	650.12
446.466	593.12
446.687	518.12
446.908	480.12
447.129	463.12
447.35	453.12
447.571	461.12
447.792	443.12
448.013	442.12
448.234	450.12
448.455	521.12
448.675	596.12
448.896	670.12
449.117	601.12
449.338	553.12
449.559	641.12
449.779	672.12
450	549.12
450.221	494.12
450.442	448.12
450.662	430.12
450.883	447.12
451.104	436.12
451.324	444.12
451.545	406.12
451.766	425.12
451.986	414.12
452.207	404.12
452.428	412.12
452.648	405.12
452.869	413.12
453.089	416.12
453.31	396.12
453.53	403.12
453.751	410.12
453.971	418.12
454.192	400.12
454.412	400.12
454.633	402.12
454.853	390.12
455.073	382.12
455.294	413.12
455.514	466.12
455.734	462.12
455.955	415.12
456.175	380.12
456.395	373.12
456.616	375.12
456.836	393.12
457.056	375.12
457.276	391.12
457.497	385.12
457.717	393.12
457.937	378.12
458.157	393.12
458.377	415.12
458.598	403.12
458.818	426.12
459.038	513.12
459.258	520.12
459.478	463.12
459.698	436.12
459.918	436.12
460.138	444.12
460.358	430.12
460.578	426.12
460.798	448.12
461.018	452.12
461.238	424.12
461.458	445.12
461.678	466.12
461.898	470.12
462.118	453.12
462.338	479.12
462.558	481.12
462.777	475.12
462.997	471.12
463.217	514.12
463.437	496.12
463.657	491.12
463.876	453.12
464.096	486.12
464.316	463.12
464.536	500.12
464.755	464.12
464.975	482.12
465.195	515.12
465.414	510.12
465.634	462.12
465.854	447.12
466.073	443.12
466.293	424.12
466.512	436.12
466.732	448.12
466.951	400.12
467.171	405.12
467.391	421.12
467.61	415.12
467.829	429.12
468.049	420.12
468.268	398.12
468.488	407.12
468.707	410.12
468.927	412.12
469.146	412.12
469.365	394.12
469.585	413.12
469.804	428.12
470.023	417.12
470.243	426.12
470.462	436.12
470.681	421.12
470.901	421.12
471.12	444.12
471.339	431.12
471.558	417.12
471.777	423.12
471.997	397.12
472.216	419.12
472.435	446.12
472.654	446.12
472.873	414.12
473.092	412.12
473.311	409.12
473.53	418.12
473.749	436.12
473.968	448.12
474.187	549.12
474.406	544.12
474.625	454.12
474.844	427.12
475.063	421.12
475.282	427.12
475.501	414.12
475.72	438.12
475.939	432.12
476.158	426.12
476.377	454.12
476.596	427.12
476.814	422.12
477.033	432.12
477.252	436.12
477.471	448.12
477.69	453.12
477.908	432.12
478.127	464.12
478.346	434.12
478.564	465.12
478.783	461.12
479.002	505.12
479.22	484.12
479.439	494.12
479.658	475.12
479.876	490.12
480.095	507.12
480.313	521.12
480.532	525.12
480.751	533.12
480.969	519.12
481.188	558.12
481.406	577.12
481.624	516.12
481.843	487.12
482.061	500.12
482.28	490.12
482.498	480.12
482.717	476.12
482.935	473.12
483.153	475.12
483.372	481.12
483.59	484.12
483.808	490.12
484.027	489.12
484.245	486.12
484.463	481.12
484.681	485.12
484.9	496.12
485.118	478.12
485.336	480.12
485.554	505.12
485.772	493.12
485.99	501.12
486.209	496.12
486.427	491.12
486.645	500.12
486.863	536.12
487.081	521.12
487.299	516.12
487.517	524.12
487.735	507.12
487.953	502.12
488.171	518.12
488.389	519.12
488.607	501.12
488.825	534.12
489.043	498.12
489.261	506.12
489.479	523.12
489.696	521.12
489.914	546.12
490.132	540.12
490.35	537.12
490.568	511.12
490.786	543.12
491.003	555.12
491.221	550.12
491.439	566.12
491.657	563.12
491.874	581.12
492.092	575.12
492.31	574.12
492.527	583.12
492.745	584.12
492.963	584.12
493.18	573.12
493.398	587.12
493.615	587.12
493.833	593.12
494.05	594.12
494.268	603.12
494.485	595.12
494.703	597.12
494.92	595.12
495.138	591.12
495.355	588.12
495.573	586.12
495.79	588.12
496.008	616.12
496.225	603.12
496.442	597.12
496.66	613.12
496.877	606.12
497.094	629.12
497.312	593.12
497.529	641.12
497.746	626.12
497.963	654.12
498.181	656.12
498.398	670.12
498.615	694.12
498.832	709.12
499.049	713.12
499.267	731.12
499.484	752.12
499.701	803.12
499.918	810.12
500.135	866.12
500.352	908.12
500.569	904.12
500.786	918.12
501.003	906.12
501.22	887.12
501.437	853.12
501.654	825.12
501.871	794.12
502.088	767.12
