Data from 1964.PennyLincolnUp.Lamp.En5.5.200Scan.071719.P1._HRD10591_14-06-18-911.txt Node
Date: Thu Jul 18 14:06:18 EDT 2019
User: cochatt
Spectrometer: HR+D1059
Trigger mode: 1
Integration Time (sec): 1.000000E-1
Scans to average: 1
Electric dark correction enabled: true
Nonlinearity correction enabled: false
Boxcar width: 0
XAxis mode: Wavelengths
Number of Pixels in Spectrum: 2048
>>>>>Begin Spectral Data<<<<<
223.165	-9.81
223.4	-9.81
223.635	-9.81
223.869	-18.81
224.104	-11.81
224.338	-13.81
224.573	-20.81
224.808	-11.81
225.042	-1.81
225.277	-1.81
225.511	-2.81
225.746	6.19
225.98	-6.81
226.215	16.19
226.449	4.19
226.683	17.19
226.918	25.19
227.152	31.19
227.387	34.19
227.621	21.19
227.856	37.19
228.09	40.19
228.324	56.19
228.559	60.19
228.793	71.19
229.027	89.19
229.262	118.19
229.496	102.19
229.73	119.19
229.964	136.19
230.199	115.19
230.433	120.19
230.667	101.19
230.901	112.19
231.136	109.19
231.37	116.19
231.604	110.19
231.838	108.19
232.072	118.19
232.306	116.19
232.541	124.19
232.775	105.19
233.009	104.19
233.243	123.19
233.477	124.19
233.711	118.19
233.945	132.19
234.179	122.19
234.413	112.19
234.647	130.19
234.881	124.19
235.115	130.19
235.349	120.19
235.583	124.19
235.817	114.19
236.051	122.19
236.285	127.19
236.519	126.19
236.753	134.19
236.987	151.19
237.221	161.19
237.455	203.19
237.689	160.19
237.922	131.19
238.156	134.19
238.39	125.19
238.624	130.19
238.858	140.19
239.091	136.19
239.325	141.19
239.559	133.19
239.793	144.19
240.027	140.19
240.26	145.19
240.494	144.19
240.728	156.19
240.961	152.19
241.195	141.19
241.429	155.19
241.662	122.19
241.896	141.19
242.13	132.19
242.363	137.19
242.597	140.19
242.83	153.19
243.064	136.19
243.298	138.19
243.531	142.19
243.765	147.19
243.998	136.19
244.232	149.19
244.465	142.19
244.699	148.19
244.932	141.19
245.166	145.19
245.399	157.19
245.633	147.19
245.866	154.19
246.099	151.19
246.333	150.19
246.566	150.19
246.8	156.19
247.033	155.19
247.266	165.19
247.5	162.19
247.733	172.19
247.966	163.19
248.2	175.19
248.433	176.19
248.666	175.19
248.899	199.19
249.133	227.19
249.366	211.19
249.599	187.19
249.832	184.19
250.066	193.19
250.299	203.19
250.532	186.19
250.765	206.19
250.998	238.19
251.231	230.19
251.465	221.19
251.698	209.19
251.931	201.19
252.164	199.19
252.397	202.19
252.63	200.19
252.863	223.19
253.096	220.19
253.329	223.19
253.562	231.19
253.795	212.19
254.028	244.19
254.261	237.19
254.494	218.19
254.727	248.19
254.96	267.19
255.193	266.19
255.426	255.19
255.659	250.19
255.892	249.19
256.124	230.19
256.357	252.19
256.59	239.19
256.823	226.19
257.056	207.19
257.289	231.19
257.521	237.19
257.754	212.19
257.987	217.19
258.22	234.19
258.452	225.19
258.685	218.19
258.918	224.19
259.151	226.19
259.383	220.19
259.616	230.19
259.849	234.19
260.081	231.19
260.314	266.19
260.547	260.19
260.779	264.19
261.012	238.19
261.244	236.19
261.477	245.19
261.71	234.19
261.942	233.19
262.175	235.19
262.407	235.19
262.64	228.19
262.872	208.19
263.105	234.19
263.337	218.19
263.57	235.19
263.802	236.19
264.035	247.19
264.267	229.19
264.499	219.19
264.732	234.19
264.964	223.19
265.197	244.19
265.429	238.19
265.661	258.19
265.894	235.19
266.126	238.19
266.358	237.19
266.591	231.19
266.823	258.19
267.055	260.19
267.287	241.19
267.52	235.19
267.752	246.19
267.984	265.19
268.216	243.19
268.448	267.19
268.681	275.19
268.913	279.19
269.145	304.19
269.377	292.19
269.609	290.19
269.841	292.19
270.073	290.19
270.306	304.19
270.538	323.19
270.77	328.19
271.002	313.19
271.234	313.19
271.466	322.19
271.698	333.19
271.93	336.19
272.162	349.19
272.394	329.19
272.626	312.19
272.858	289.19
273.09	278.19
273.322	299.19
273.553	293.19
273.785	282.19
274.017	283.19
274.249	301.19
274.481	291.19
274.713	289.19
274.945	299.19
275.176	296.19
275.408	288.19
275.64	295.19
275.872	288.19
276.104	285.19
276.335	297.19
276.567	297.19
276.799	312.19
277.031	319.19
277.262	339.19
277.494	351.19
277.726	319.19
277.957	315.19
278.189	296.19
278.421	285.19
278.652	298.19
278.884	306.19
279.115	294.19
279.347	318.19
279.579	307.19
279.81	289.19
280.042	299.19
280.273	305.19
280.505	326.19
280.736	306.19
280.968	296.19
281.199	302.19
281.431	299.19
281.662	322.19
281.894	299.19
282.125	310.19
282.356	321.19
282.588	333.19
282.819	328.19
283.051	314.19
283.282	319.19
283.513	309.19
283.745	302.19
283.976	308.19
284.207	319.19
284.439	354.19
284.67	327.19
284.901	316.19
285.132	333.19
285.364	300.19
285.595	327.19
285.826	319.19
286.057	318.19
286.288	323.19
286.52	308.19
286.751	331.19
286.982	319.19
287.213	314.19
287.444	340.19
287.675	335.19
287.906	333.19
288.138	341.19
288.369	355.19
288.6	341.19
288.831	315.19
289.062	340.19
289.293	323.19
289.524	341.19
289.755	327.19
289.986	340.19
290.217	334.19
290.448	328.19
290.679	355.19
290.91	324.19
291.141	339.19
291.371	346.19
291.602	331.19
291.833	323.19
292.064	357.19
292.295	330.19
292.526	362.19
292.757	326.19
292.987	330.19
293.218	340.19
293.449	335.19
293.68	330.19
293.91	349.19
294.141	330.19
294.372	333.19
294.603	333.19
294.833	355.19
295.064	333.19
295.295	314.19
295.525	332.19
295.756	349.19
295.987	351.19
296.217	372.19
296.448	356.19
296.679	341.19
296.909	338.19
297.14	340.19
297.37	348.19
297.601	365.19
297.831	360.19
298.062	362.19
298.292	357.19
298.523	363.19
298.753	358.19
298.984	361.19
299.214	367.19
299.445	349.19
299.675	364.19
299.905	378.19
300.136	379.19
300.366	364.19
300.597	366.19
300.827	372.19
301.057	361.19
301.288	376.19
301.518	374.19
301.748	350.19
301.979	375.19
302.209	381.19
302.439	381.19
302.669	364.19
302.9	382.19
303.13	364.19
303.36	394.19
303.59	384.19
303.82	385.19
304.051	376.19
304.281	379.19
304.511	351.19
304.741	366.19
304.971	366.19
305.201	363.19
305.431	356.19
305.661	392.19
305.891	362.19
306.121	377.19
306.352	376.19
306.582	395.19
306.812	395.19
307.042	403.19
307.272	376.19
307.502	381.19
307.731	370.19
307.961	381.19
308.191	387.19
308.421	381.19
308.651	395.19
308.881	382.19
309.111	390.19
309.341	387.19
309.571	396.19
309.8	401.19
310.03	404.19
310.26	422.19
310.49	408.19
310.72	426.19
310.949	427.19
311.179	414.19
311.409	414.19
311.639	413.19
311.868	419.19
312.098	414.19
312.328	442.19
312.557	450.19
312.787	440.19
313.017	454.19
313.246	423.19
313.476	390.19
313.706	415.19
313.935	426.19
314.165	430.19
314.394	409.19
314.624	427.19
314.853	404.19
315.083	439.19
315.312	435.19
315.542	423.19
315.771	407.19
316.001	427.19
316.23	438.19
316.46	424.19
316.689	408.19
316.919	437.19
317.148	435.19
317.377	450.19
317.607	427.19
317.836	413.19
318.065	409.19
318.295	430.19
318.524	440.19
318.753	425.19
318.983	443.19
319.212	436.19
319.441	414.19
319.67	428.19
319.9	439.19
320.129	423.19
320.358	418.19
320.587	431.19
320.816	428.19
321.046	454.19
321.275	420.19
321.504	444.19
321.733	444.19
321.962	446.19
322.191	460.19
322.42	461.19
322.649	480.19
322.878	458.19
323.108	468.19
323.337	493.19
323.566	499.19
323.795	520.19
324.024	569.19
324.253	651.19
324.482	867.19
324.71	1314.19
324.939	1782.19
325.168	1522.19
325.397	796.19
325.626	605.19
325.855	525.19
326.084	517.19
326.313	520.19
326.542	530.19
326.77	558.19
326.999	642.19
327.228	820.19
327.457	1152.19
327.686	1363.19
327.914	920.19
328.143	655.19
328.372	579.19
328.6	536.19
328.829	552.19
329.058	551.19
329.287	573.19
329.515	536.19
329.744	511.19
329.972	538.19
330.201	518.19
330.43	550.19
330.658	580.19
330.887	582.19
331.115	583.19
331.344	511.19
331.572	511.19
331.801	543.19
332.03	503.19
332.258	504.19
332.486	513.19
332.715	507.19
332.943	516.19
333.172	518.19
333.4	527.19
333.629	498.19
333.857	528.19
334.085	544.19
334.314	564.19
334.542	580.19
334.771	577.19
334.999	539.19
335.227	546.19
335.455	515.19
335.684	517.19
335.912	499.19
336.14	479.19
336.369	510.19
336.597	492.19
336.825	486.19
337.053	503.19
337.281	500.19
337.51	482.19
337.738	485.19
337.966	488.19
338.194	495.19
338.422	479.19
338.65	493.19
338.878	472.19
339.106	470.19
339.334	469.19
339.562	490.19
339.79	485.19
340.018	479.19
340.246	461.19
340.474	492.19
340.702	463.19
340.93	463.19
341.158	460.19
341.386	476.19
341.614	460.19
341.842	447.19
342.07	469.19
342.298	486.19
342.526	454.19
342.754	478.19
342.981	463.19
343.209	470.19
343.437	464.19
343.665	482.19
343.893	495.19
344.12	472.19
344.348	490.19
344.576	485.19
344.804	475.19
345.031	500.19
345.259	472.19
345.487	468.19
345.714	453.19
345.942	452.19
346.17	487.19
346.397	454.19
346.625	454.19
346.853	457.19
347.08	450.19
347.308	448.19
347.535	455.19
347.763	455.19
347.99	444.19
348.218	445.19
348.445	459.19
348.673	435.19
348.9	450.19
349.128	451.19
349.355	443.19
349.583	428.19
349.81	414.19
350.037	402.19
350.265	417.19
350.492	437.19
350.72	436.19
350.947	418.19
351.174	424.19
351.402	450.19
351.629	442.19
351.856	438.19
352.083	438.19
352.311	438.19
352.538	451.19
352.765	440.19
352.992	422.19
353.22	431.19
353.447	420.19
353.674	428.19
353.901	423.19
354.128	427.19
354.355	416.19
354.583	422.19
354.81	409.19
355.037	422.19
355.264	400.19
355.491	413.19
355.718	415.19
355.945	419.19
356.172	406.19
356.399	414.19
356.626	405.19
356.853	407.19
357.08	397.19
357.307	412.19
357.534	429.19
357.761	402.19
357.988	447.19
358.215	402.19
358.441	414.19
358.668	393.19
358.895	437.19
359.122	422.19
359.349	416.19
359.576	426.19
359.802	440.19
360.029	446.19
360.256	430.19
360.483	457.19
360.709	422.19
360.936	439.19
361.163	450.19
361.39	420.19
361.616	429.19
361.843	435.19
362.07	408.19
362.296	438.19
362.523	430.19
362.749	404.19
362.976	425.19
363.203	424.19
363.429	418.19
363.656	418.19
363.882	426.19
364.109	410.19
364.335	400.19
364.562	396.19
364.788	404.19
365.015	407.19
365.241	422.19
365.468	406.19
365.694	408.19
365.92	419.19
366.147	412.19
366.373	423.19
366.599	412.19
366.826	400.19
367.052	393.19
367.278	408.19
367.505	399.19
367.731	415.19
367.957	395.19
368.184	413.19
368.41	413.19
368.636	420.19
368.862	434.19
369.089	431.19
369.315	408.19
369.541	395.19
369.767	424.19
369.993	424.19
370.219	432.19
370.445	421.19
370.672	409.19
370.898	397.19
371.124	409.19
371.35	410.19
371.576	408.19
371.802	390.19
372.028	410.19
372.254	430.19
372.48	406.19
372.706	407.19
372.932	412.19
373.158	431.19
373.384	418.19
373.61	423.19
373.835	421.19
374.061	410.19
374.287	420.19
374.513	426.19
374.739	438.19
374.965	435.19
375.191	432.19
375.416	418.19
375.642	423.19
375.868	424.19
376.094	418.19
376.319	417.19
376.545	413.19
376.771	409.19
376.997	403.19
377.222	418.19
377.448	397.19
377.674	409.19
377.899	405.19
378.125	416.19
378.35	396.19
378.576	408.19
378.802	398.19
379.027	385.19
379.253	407.19
379.478	405.19
379.704	412.19
379.929	412.19
380.155	413.19
380.38	408.19
380.606	407.19
380.831	406.19
381.057	416.19
381.282	396.19
381.507	415.19
381.733	418.19
381.958	412.19
382.184	415.19
382.409	404.19
382.634	421.19
382.86	410.19
383.085	409.19
383.31	397.19
383.535	432.19
383.761	425.19
383.986	428.19
384.211	438.19
384.436	428.19
384.662	419.19
384.887	436.19
385.112	426.19
385.337	440.19
385.562	444.19
385.787	448.19
386.013	439.19
386.238	434.19
386.463	447.19
386.688	434.19
386.913	464.19
387.138	452.19
387.363	453.19
387.588	437.19
387.813	464.19
388.038	453.19
388.263	431.19
388.488	435.19
388.713	428.19
388.938	450.19
389.163	438.19
389.387	430.19
389.612	438.19
389.837	437.19
390.062	440.19
390.287	431.19
390.512	452.19
390.736	453.19
390.961	447.19
391.186	438.19
391.411	444.19
391.636	455.19
391.86	455.19
392.085	452.19
392.31	444.19
392.534	456.19
392.759	462.19
392.984	444.19
393.208	457.19
393.433	426.19
393.658	454.19
393.882	404.19
394.107	417.19
394.331	459.19
394.556	450.19
394.78	434.19
395.005	447.19
395.229	460.19
395.454	438.19
395.678	463.19
395.903	479.19
396.127	482.19
396.352	471.19
396.576	460.19
396.801	462.19
397.025	477.19
397.249	463.19
397.474	470.19
397.698	472.19
397.922	474.19
398.147	498.19
398.371	510.19
398.595	493.19
398.82	498.19
399.044	532.19
399.268	543.19
399.492	563.19
399.717	627.19
399.941	618.19
400.165	604.19
400.389	628.19
400.613	578.19
400.837	531.19
401.062	537.19
401.286	515.19
401.51	519.19
401.734	489.19
401.958	502.19
402.182	492.19
402.406	522.19
402.63	510.19
402.854	507.19
403.078	506.19
403.302	513.19
403.526	530.19
403.75	529.19
403.974	515.19
404.198	528.19
404.422	527.19
404.645	540.19
404.869	547.19
405.093	572.19
405.317	597.19
405.541	604.19
405.765	546.19
405.988	532.19
406.212	541.19
406.436	548.19
406.66	544.19
406.883	548.19
407.107	570.19
407.331	623.19
407.555	664.19
407.778	664.19
408.002	611.19
408.226	558.19
408.449	572.19
408.673	557.19
408.896	582.19
409.12	612.19
409.344	587.19
409.567	537.19
409.791	536.19
410.014	521.19
410.238	492.19
410.461	506.19
410.685	499.19
410.908	519.19
411.132	568.19
411.355	582.19
411.578	540.19
411.802	524.19
412.025	507.19
412.249	526.19
412.472	522.19
412.695	570.19
412.919	569.19
413.142	528.19
413.365	525.19
413.589	503.19
413.812	492.19
414.035	490.19
414.258	492.19
414.482	467.19
414.705	486.19
414.928	483.19
415.151	467.19
415.374	465.19
415.597	488.19
415.821	491.19
416.044	464.19
416.267	491.19
416.49	479.19
416.713	487.19
416.936	478.19
417.159	477.19
417.382	491.19
417.605	477.19
417.828	473.19
418.051	489.19
418.274	465.19
418.497	478.19
418.72	469.19
418.943	461.19
419.166	499.19
419.389	511.19
419.611	520.19
419.834	512.19
420.057	519.19
420.28	489.19
420.503	511.19
420.726	498.19
420.948	514.19
421.171	541.19
421.394	543.19
421.617	505.19
421.839	498.19
422.062	522.19
422.285	494.19
422.507	554.19
422.73	599.19
422.953	582.19
423.175	500.19
423.398	523.19
423.621	521.19
423.843	538.19
424.066	529.19
424.288	536.19
424.511	542.19
424.733	568.19
424.956	631.19
425.178	612.19
425.401	590.19
425.623	620.19
425.846	543.19
426.068	538.19
426.291	523.19
426.513	532.19
426.735	529.19
426.958	553.19
427.18	601.19
427.402	727.19
427.625	810.19
427.847	670.19
428.069	590.19
428.292	540.19
428.514	503.19
428.736	479.19
428.958	502.19
429.181	461.19
429.403	458.19
429.625	482.19
429.847	489.19
430.069	545.19
430.292	559.19
430.514	482.19
430.736	506.19
430.958	469.19
431.18	457.19
431.402	439.19
431.624	458.19
431.846	443.19
432.068	456.19
432.29	445.19
432.512	453.19
432.734	454.19
432.956	463.19
433.178	468.19
433.4	456.19
433.622	471.19
433.844	455.19
434.066	442.19
434.287	436.19
434.509	461.19
434.731	473.19
434.953	470.19
435.175	482.19
435.397	499.19
435.618	519.19
435.84	541.19
436.062	609.19
436.284	685.19
436.505	552.19
436.727	530.19
436.949	493.19
437.17	476.19
437.392	472.19
437.614	472.19
437.835	510.19
438.057	574.19
438.278	664.19
438.5	656.19
438.721	702.19
438.943	671.19
439.165	549.19
439.386	516.19
439.608	515.19
439.829	507.19
440.05	524.19
440.272	537.19
440.493	526.19
440.715	481.19
440.936	490.19
441.158	479.19
441.379	483.19
441.6	494.19
441.822	491.19
442.043	538.19
442.264	606.19
442.486	638.19
442.707	551.19
442.928	523.19
443.149	528.19
443.371	557.19
443.592	594.19
443.813	634.19
444.034	668.19
444.255	580.19
444.476	532.19
444.698	542.19
444.919	512.19
445.14	620.19
445.361	580.19
445.582	566.19
445.803	587.19
446.024	658.19
446.245	654.19
446.466	614.19
446.687	537.19
446.908	502.19
447.129	482.19
447.35	466.19
447.571	483.19
447.792	434.19
448.013	465.19
448.234	474.19
448.455	523.19
448.675	610.19
448.896	707.19
449.117	609.19
449.338	570.19
449.559	669.19
449.779	730.19
450	564.19
450.221	487.19
450.442	467.19
450.662	419.19
450.883	463.19
451.104	470.19
451.324	439.19
451.545	432.19
451.766	444.19
451.986	423.19
452.207	413.19
452.428	411.19
452.648	400.19
452.869	410.19
453.089	444.19
453.31	443.19
453.53	403.19
453.751	398.19
453.971	410.19
454.192	422.19
454.412	403.19
454.633	382.19
454.853	410.19
455.073	403.19
455.294	437.19
455.514	472.19
455.734	468.19
455.955	422.19
456.175	397.19
456.395	400.19
456.616	396.19
456.836	389.19
457.056	404.19
457.276	402.19
457.497	396.19
457.717	386.19
457.937	403.19
458.157	409.19
458.377	402.19
458.598	439.19
458.818	450.19
459.038	518.19
459.258	553.19
459.478	477.19
459.698	464.19
459.918	441.19
460.138	456.19
460.358	476.19
460.578	477.19
460.798	464.19
461.018	471.19
461.238	472.19
461.458	457.19
461.678	460.19
461.898	451.19
462.118	462.19
462.338	468.19
462.558	487.19
462.777	476.19
462.997	502.19
463.217	520.19
463.437	539.19
463.657	537.19
463.876	495.19
464.096	490.19
464.316	499.19
464.536	517.19
464.755	492.19
464.975	508.19
465.195	505.19
465.414	538.19
465.634	491.19
465.854	480.19
466.073	442.19
466.293	434.19
466.512	425.19
466.732	424.19
466.951	432.19
467.171	437.19
467.391	413.19
467.61	442.19
467.829	456.19
468.049	420.19
468.268	425.19
468.488	418.19
468.707	416.19
468.927	425.19
469.146	413.19
469.365	404.19
469.585	416.19
469.804	423.19
470.023	446.19
470.243	437.19
470.462	448.19
470.681	439.19
470.901	435.19
471.12	431.19
471.339	421.19
471.558	434.19
471.777	436.19
471.997	415.19
472.216	433.19
472.435	478.19
472.654	451.19
472.873	413.19
473.092	440.19
473.311	428.19
473.53	428.19
473.749	432.19
473.968	470.19
474.187	540.19
474.406	567.19
474.625	472.19
474.844	448.19
475.063	427.19
475.282	438.19
475.501	431.19
475.72	465.19
475.939	429.19
476.158	435.19
476.377	434.19
476.596	433.19
476.814	426.19
477.033	454.19
477.252	450.19
477.471	471.19
477.69	448.19
477.908	473.19
478.127	484.19
478.346	460.19
478.564	486.19
478.783	486.19
479.002	493.19
479.22	502.19
479.439	497.19
479.658	527.19
479.876	520.19
480.095	528.19
480.313	550.19
480.532	522.19
480.751	554.19
480.969	539.19
481.188	574.19
481.406	597.19
481.624	532.19
481.843	525.19
482.061	525.19
482.28	509.19
482.498	484.19
482.717	482.19
482.935	494.19
483.153	499.19
483.372	494.19
483.59	480.19
483.808	492.19
484.027	518.19
484.245	489.19
484.463	480.19
484.681	506.19
484.9	505.19
485.118	527.19
485.336	479.19
485.554	530.19
485.772	525.19
485.99	510.19
486.209	515.19
486.427	528.19
486.645	515.19
486.863	528.19
487.081	525.19
487.299	524.19
487.517	523.19
487.735	533.19
487.953	538.19
488.171	531.19
488.389	516.19
488.607	523.19
488.825	518.19
489.043	521.19
489.261	516.19
489.479	527.19
489.696	533.19
489.914	541.19
490.132	550.19
490.35	556.19
490.568	525.19
490.786	564.19
491.003	587.19
491.221	566.19
491.439	583.19
491.657	588.19
491.874	596.19
492.092	598.19
492.31	581.19
492.527	596.19
492.745	583.19
492.963	606.19
493.18	614.19
493.398	610.19
493.615	661.19
493.833	618.19
494.05	612.19
494.268	598.19
494.485	608.19
494.703	610.19
494.92	611.19
495.138	610.19
495.355	607.19
495.573	599.19
495.79	630.19
496.008	622.19
496.225	631.19
496.442	614.19
496.66	624.19
496.877	633.19
497.094	614.19
497.312	626.19
497.529	642.19
497.746	659.19
497.963	684.19
498.181	675.19
498.398	706.19
498.615	701.19
498.832	711.19
499.049	738.19
499.267	745.19
499.484	785.19
499.701	802.19
499.918	830.19
500.135	874.19
500.352	934.19
500.569	952.19
500.786	958.19
501.003	956.19
501.22	902.19
501.437	856.19
501.654	834.19
501.871	809.19
