Data from 1964.PennyLincolnUp.Lamp.En5.5.200Scan.071719.P1._HRD10591_14-03-42-908.txt Node
Date: Thu Jul 18 14:03:42 EDT 2019
User: cochatt
Spectrometer: HR+D1059
Trigger mode: 1
Integration Time (sec): 1.000000E-1
Scans to average: 1
Electric dark correction enabled: true
Nonlinearity correction enabled: false
Boxcar width: 0
XAxis mode: Wavelengths
Number of Pixels in Spectrum: 2048
>>>>>Begin Spectral Data<<<<<
223.165	-10.38
223.4	-10.38
223.635	-10.38
223.869	-24.38
224.104	-36.38
224.338	-22.38
224.573	-17.38
224.808	-16.38
225.042	-0.38
225.277	-11.38
225.511	3.62
225.746	12.62
225.98	6.62
226.215	18.62
226.449	18.62
226.683	33.62
226.918	19.62
227.152	25.62
227.387	39.62
227.621	33.62
227.856	36.62
228.09	25.62
228.324	33.62
228.559	45.62
228.793	35.62
229.027	78.62
229.262	101.62
229.496	109.62
229.73	105.62
229.964	117.62
230.199	108.62
230.433	105.62
230.667	95.62
230.901	103.62
231.136	97.62
231.37	99.62
231.604	107.62
231.838	103.62
232.072	96.62
232.306	108.62
232.541	100.62
232.775	96.62
233.009	116.62
233.243	114.62
233.477	108.62
233.711	105.62
233.945	118.62
234.179	113.62
234.413	108.62
234.647	112.62
234.881	97.62
235.115	124.62
235.349	104.62
235.583	102.62
235.817	117.62
236.051	128.62
236.285	99.62
236.519	119.62
236.753	109.62
236.987	135.62
237.221	134.62
237.455	179.62
237.689	157.62
237.922	130.62
238.156	114.62
238.39	109.62
238.624	109.62
238.858	119.62
239.091	117.62
239.325	117.62
239.559	124.62
239.793	122.62
240.027	127.62
240.26	131.62
240.494	137.62
240.728	130.62
240.961	120.62
241.195	139.62
241.429	130.62
241.662	121.62
241.896	127.62
242.13	121.62
242.363	129.62
242.597	122.62
242.83	113.62
243.064	114.62
243.298	129.62
243.531	138.62
243.765	126.62
243.998	121.62
244.232	134.62
244.465	125.62
244.699	138.62
244.932	131.62
245.166	138.62
245.399	147.62
245.633	134.62
245.866	141.62
246.099	135.62
246.333	150.62
246.566	148.62
246.8	135.62
247.033	146.62
247.266	138.62
247.5	150.62
247.733	156.62
247.966	176.62
248.2	148.62
248.433	155.62
248.666	157.62
248.899	179.62
249.133	174.62
249.366	180.62
249.599	160.62
249.832	178.62
250.066	168.62
250.299	164.62
250.532	187.62
250.765	195.62
250.998	208.62
251.231	195.62
251.465	202.62
251.698	174.62
251.931	188.62
252.164	192.62
252.397	169.62
252.63	178.62
252.863	198.62
253.096	206.62
253.329	184.62
253.562	193.62
253.795	203.62
254.028	200.62
254.261	200.62
254.494	226.62
254.727	221.62
254.96	221.62
255.193	228.62
255.426	225.62
255.659	190.62
255.892	195.62
256.124	189.62
256.357	212.62
256.59	222.62
256.823	200.62
257.056	191.62
257.289	188.62
257.521	205.62
257.754	187.62
257.987	193.62
258.22	205.62
258.452	200.62
258.685	199.62
258.918	182.62
259.151	220.62
259.383	217.62
259.616	194.62
259.849	210.62
260.081	242.62
260.314	220.62
260.547	217.62
260.779	213.62
261.012	213.62
261.244	214.62
261.477	204.62
261.71	210.62
261.942	213.62
262.175	225.62
262.407	218.62
262.64	213.62
262.872	205.62
263.105	203.62
263.337	210.62
263.57	195.62
263.802	238.62
264.035	215.62
264.267	214.62
264.499	221.62
264.732	229.62
264.964	211.62
265.197	202.62
265.429	221.62
265.661	186.62
265.894	194.62
266.126	221.62
266.358	211.62
266.591	202.62
266.823	226.62
267.055	220.62
267.287	229.62
267.52	218.62
267.752	220.62
267.984	219.62
268.216	224.62
268.448	218.62
268.681	230.62
268.913	218.62
269.145	246.62
269.377	247.62
269.609	255.62
269.841	257.62
270.073	276.62
270.306	263.62
270.538	278.62
270.77	274.62
271.002	274.62
271.234	259.62
271.466	279.62
271.698	277.62
271.93	276.62
272.162	280.62
272.394	288.62
272.626	283.62
272.858	266.62
273.09	260.62
273.322	279.62
273.553	240.62
273.785	264.62
274.017	249.62
274.249	250.62
274.481	258.62
274.713	255.62
274.945	241.62
275.176	249.62
275.408	263.62
275.64	258.62
275.872	280.62
276.104	267.62
276.335	270.62
276.567	292.62
276.799	275.62
277.031	283.62
277.262	287.62
277.494	276.62
277.726	296.62
277.957	267.62
278.189	260.62
278.421	274.62
278.652	278.62
278.884	270.62
279.115	263.62
279.347	263.62
279.579	268.62
279.81	256.62
280.042	261.62
280.273	269.62
280.505	264.62
280.736	281.62
280.968	274.62
281.199	280.62
281.431	274.62
281.662	256.62
281.894	264.62
282.125	278.62
282.356	282.62
282.588	298.62
282.819	289.62
283.051	258.62
283.282	274.62
283.513	289.62
283.745	292.62
283.976	269.62
284.207	271.62
284.439	286.62
284.67	280.62
284.901	300.62
285.132	285.62
285.364	277.62
285.595	284.62
285.826	270.62
286.057	293.62
286.288	274.62
286.52	284.62
286.751	289.62
286.982	288.62
287.213	286.62
287.444	293.62
287.675	298.62
287.906	293.62
288.138	308.62
288.369	293.62
288.6	306.62
288.831	285.62
289.062	301.62
289.293	307.62
289.524	295.62
289.755	288.62
289.986	318.62
290.217	290.62
290.448	297.62
290.679	317.62
290.91	299.62
291.141	278.62
291.371	307.62
291.602	294.62
291.833	294.62
292.064	283.62
292.295	287.62
292.526	309.62
292.757	291.62
292.987	302.62
293.218	301.62
293.449	290.62
293.68	289.62
293.91	284.62
294.141	302.62
294.372	303.62
294.603	299.62
294.833	306.62
295.064	307.62
295.295	301.62
295.525	318.62
295.756	297.62
295.987	314.62
296.217	327.62
296.448	324.62
296.679	306.62
296.909	317.62
297.14	334.62
297.37	308.62
297.601	317.62
297.831	305.62
298.062	310.62
298.292	317.62
298.523	331.62
298.753	312.62
298.984	313.62
299.214	329.62
299.445	300.62
299.675	338.62
299.905	327.62
300.136	318.62
300.366	332.62
300.597	335.62
300.827	316.62
301.057	348.62
301.288	325.62
301.518	333.62
301.748	326.62
301.979	346.62
302.209	339.62
302.439	331.62
302.669	315.62
302.9	332.62
303.13	324.62
303.36	341.62
303.59	334.62
303.82	352.62
304.051	323.62
304.281	347.62
304.511	356.62
304.741	347.62
304.971	339.62
305.201	314.62
305.431	356.62
305.661	346.62
305.891	348.62
306.121	332.62
306.352	338.62
306.582	340.62
306.812	328.62
307.042	331.62
307.272	343.62
307.502	353.62
307.731	337.62
307.961	322.62
308.191	318.62
308.421	343.62
308.651	331.62
308.881	328.62
309.111	324.62
309.341	334.62
309.571	346.62
309.8	351.62
310.03	360.62
310.26	361.62
310.49	360.62
310.72	355.62
310.949	361.62
311.179	356.62
311.409	351.62
311.639	368.62
311.868	372.62
312.098	373.62
312.328	375.62
312.557	393.62
312.787	372.62
313.017	370.62
313.246	386.62
313.476	379.62
313.706	369.62
313.935	366.62
314.165	400.62
314.394	378.62
314.624	399.62
314.853	373.62
315.083	370.62
315.312	377.62
315.542	370.62
315.771	381.62
316.001	375.62
316.23	373.62
316.46	374.62
316.689	372.62
316.919	394.62
317.148	378.62
317.377	375.62
317.607	375.62
317.836	381.62
318.065	388.62
318.295	388.62
318.524	385.62
318.753	370.62
318.983	352.62
319.212	384.62
319.441	392.62
319.67	374.62
319.9	372.62
320.129	368.62
320.358	374.62
320.587	369.62
320.816	377.62
321.046	391.62
321.275	379.62
321.504	376.62
321.733	386.62
321.962	390.62
322.191	398.62
322.42	398.62
322.649	405.62
322.878	401.62
323.108	417.62
323.337	404.62
323.566	413.62
323.795	446.62
324.024	465.62
324.253	526.62
324.482	690.62
324.71	984.62
324.939	1323.62
325.168	1116.62
325.397	637.62
325.626	469.62
325.855	436.62
326.084	435.62
326.313	438.62
326.542	441.62
326.77	460.62
326.999	490.62
327.228	637.62
327.457	882.62
327.686	993.62
327.914	700.62
328.143	525.62
328.372	478.62
328.6	464.62
328.829	458.62
329.058	448.62
329.287	461.62
329.515	465.62
329.744	422.62
329.972	450.62
330.201	461.62
330.43	482.62
330.658	481.62
330.887	477.62
331.115	480.62
331.344	455.62
331.572	439.62
331.801	465.62
332.03	457.62
332.258	442.62
332.486	459.62
332.715	439.62
332.943	440.62
333.172	443.62
333.4	441.62
333.629	463.62
333.857	477.62
334.085	474.62
334.314	477.62
334.542	484.62
334.771	489.62
334.999	481.62
335.227	475.62
335.455	462.62
335.684	436.62
335.912	454.62
336.14	442.62
336.369	432.62
336.597	442.62
336.825	439.62
337.053	443.62
337.281	433.62
337.51	423.62
337.738	435.62
337.966	429.62
338.194	438.62
338.422	430.62
338.65	413.62
338.878	421.62
339.106	416.62
339.334	404.62
339.562	412.62
339.79	414.62
340.018	412.62
340.246	400.62
340.474	408.62
340.702	413.62
340.93	406.62
341.158	432.62
341.386	409.62
341.614	416.62
341.842	424.62
342.07	404.62
342.298	404.62
342.526	409.62
342.754	408.62
342.981	411.62
343.209	406.62
343.437	404.62
343.665	434.62
343.893	436.62
344.12	452.62
344.348	429.62
344.576	429.62
344.804	437.62
345.031	413.62
345.259	426.62
345.487	408.62
345.714	413.62
345.942	401.62
346.17	403.62
346.397	397.62
346.625	403.62
346.853	418.62
347.08	401.62
347.308	388.62
347.535	393.62
347.763	385.62
347.99	375.62
348.218	397.62
348.445	390.62
348.673	381.62
348.9	380.62
349.128	397.62
349.355	394.62
349.583	381.62
349.81	384.62
350.037	374.62
350.265	384.62
350.492	376.62
350.72	389.62
350.947	386.62
351.174	377.62
351.402	382.62
351.629	394.62
351.856	384.62
352.083	389.62
352.311	409.62
352.538	383.62
352.765	386.62
352.992	377.62
353.22	376.62
353.447	374.62
353.674	383.62
353.901	382.62
354.128	376.62
354.355	354.62
354.583	356.62
354.81	356.62
355.037	370.62
355.264	378.62
355.491	377.62
355.718	367.62
355.945	356.62
356.172	361.62
356.399	358.62
356.626	360.62
356.853	380.62
357.08	352.62
357.307	376.62
357.534	392.62
357.761	374.62
357.988	368.62
358.215	382.62
358.441	363.62
358.668	362.62
358.895	366.62
359.122	383.62
359.349	356.62
359.576	385.62
359.802	382.62
360.029	385.62
360.256	401.62
360.483	392.62
360.709	381.62
360.936	372.62
361.163	385.62
361.39	385.62
361.616	382.62
361.843	386.62
362.07	369.62
362.296	364.62
362.523	381.62
362.749	370.62
362.976	376.62
363.203	373.62
363.429	363.62
363.656	365.62
363.882	355.62
364.109	382.62
364.335	372.62
364.562	366.62
364.788	380.62
365.015	370.62
365.241	370.62
365.468	379.62
365.694	363.62
365.92	375.62
366.147	370.62
366.373	373.62
366.599	366.62
366.826	361.62
367.052	353.62
367.278	345.62
367.505	384.62
367.731	384.62
367.957	371.62
368.184	378.62
368.41	373.62
368.636	358.62
368.862	380.62
369.089	386.62
369.315	364.62
369.541	365.62
369.767	360.62
369.993	366.62
370.219	359.62
370.445	360.62
370.672	380.62
370.898	369.62
371.124	381.62
371.35	356.62
371.576	365.62
371.802	374.62
372.028	380.62
372.254	348.62
372.48	354.62
372.706	377.62
372.932	374.62
373.158	368.62
373.384	370.62
373.61	365.62
373.835	368.62
374.061	380.62
374.287	378.62
374.513	363.62
374.739	398.62
374.965	375.62
375.191	376.62
375.416	381.62
375.642	375.62
375.868	394.62
376.094	354.62
376.319	388.62
376.545	365.62
376.771	366.62
376.997	368.62
377.222	370.62
377.448	364.62
377.674	368.62
377.899	361.62
378.125	365.62
378.35	347.62
378.576	352.62
378.802	354.62
379.027	350.62
379.253	356.62
379.478	362.62
379.704	366.62
379.929	355.62
380.155	367.62
380.38	379.62
380.606	381.62
380.831	351.62
381.057	365.62
381.282	357.62
381.507	366.62
381.733	365.62
381.958	377.62
382.184	364.62
382.409	384.62
382.634	396.62
382.86	374.62
383.085	366.62
383.31	394.62
383.535	374.62
383.761	389.62
383.986	378.62
384.211	358.62
384.436	395.62
384.662	397.62
384.887	396.62
385.112	404.62
385.337	390.62
385.562	384.62
385.787	408.62
386.013	389.62
386.238	420.62
386.463	380.62
386.688	405.62
386.913	399.62
387.138	406.62
387.363	402.62
387.588	388.62
387.813	408.62
388.038	395.62
388.263	390.62
388.488	421.62
388.713	414.62
388.938	405.62
389.163	398.62
389.387	404.62
389.612	395.62
389.837	386.62
390.062	393.62
390.287	398.62
390.512	392.62
390.736	393.62
390.961	399.62
391.186	406.62
391.411	407.62
391.636	401.62
391.86	414.62
392.085	398.62
392.31	434.62
392.534	395.62
392.759	407.62
392.984	406.62
393.208	402.62
393.433	428.62
393.658	394.62
393.882	415.62
394.107	410.62
394.331	402.62
394.556	379.62
394.78	404.62
395.005	414.62
395.229	409.62
395.454	418.62
395.678	404.62
395.903	431.62
396.127	410.62
396.352	422.62
396.576	402.62
396.801	408.62
397.025	406.62
397.249	411.62
397.474	424.62
397.698	425.62
397.922	417.62
398.147	422.62
398.371	442.62
398.595	456.62
398.82	463.62
399.044	457.62
399.268	474.62
399.492	513.62
399.717	527.62
399.941	549.62
400.165	556.62
400.389	547.62
400.613	507.62
400.837	488.62
401.062	452.62
401.286	445.62
401.51	455.62
401.734	450.62
401.958	445.62
402.182	452.62
402.406	448.62
402.63	451.62
402.854	450.62
403.078	463.62
403.302	442.62
403.526	461.62
403.75	469.62
403.974	455.62
404.198	466.62
404.422	469.62
404.645	488.62
404.869	470.62
405.093	493.62
405.317	534.62
405.541	532.62
405.765	501.62
405.988	476.62
406.212	484.62
406.436	477.62
406.66	502.62
406.883	510.62
407.107	511.62
407.331	556.62
407.555	591.62
407.778	553.62
408.002	516.62
408.226	490.62
408.449	502.62
408.673	493.62
408.896	512.62
409.12	516.62
409.344	501.62
409.567	478.62
409.791	465.62
410.014	460.62
410.238	456.62
410.461	463.62
410.685	460.62
410.908	481.62
411.132	480.62
411.355	502.62
411.578	483.62
411.802	466.62
412.025	462.62
412.249	465.62
412.472	461.62
412.695	501.62
412.919	507.62
413.142	462.62
413.365	449.62
413.589	443.62
413.812	450.62
414.035	462.62
414.258	436.62
414.482	446.62
414.705	459.62
414.928	439.62
415.151	433.62
415.374	436.62
415.597	451.62
415.821	419.62
416.044	437.62
416.267	413.62
416.49	428.62
416.713	411.62
416.936	425.62
417.159	418.62
417.382	413.62
417.605	421.62
417.828	415.62
418.051	449.62
418.274	455.62
418.497	443.62
418.72	435.62
418.943	436.62
419.166	444.62
419.389	497.62
419.611	444.62
419.834	451.62
420.057	452.62
420.28	440.62
420.503	459.62
420.726	464.62
420.948	448.62
421.171	471.62
421.394	454.62
421.617	450.62
421.839	426.62
422.062	430.62
422.285	457.62
422.507	486.62
422.73	538.62
422.953	491.62
423.175	442.62
423.398	465.62
423.621	430.62
423.843	496.62
424.066	468.62
424.288	465.62
424.511	473.62
424.733	512.62
424.956	551.62
425.178	526.62
425.401	542.62
425.623	537.62
425.846	485.62
426.068	458.62
426.291	446.62
426.513	450.62
426.735	450.62
426.958	484.62
427.18	522.62
427.402	632.62
427.625	655.62
427.847	564.62
428.069	502.62
428.292	467.62
428.514	438.62
428.736	410.62
428.958	427.62
429.181	422.62
429.403	394.62
429.625	419.62
429.847	440.62
430.069	487.62
430.292	466.62
430.514	400.62
430.736	427.62
430.958	412.62
431.18	389.62
431.402	396.62
431.624	412.62
431.846	397.62
432.068	388.62
432.29	408.62
432.512	397.62
432.734	410.62
432.956	404.62
433.178	395.62
433.4	408.62
433.622	402.62
433.844	407.62
434.066	400.62
434.287	395.62
434.509	407.62
434.731	422.62
434.953	413.62
435.175	437.62
435.397	452.62
435.618	442.62
435.84	472.62
436.062	528.62
436.284	562.62
436.505	489.62
436.727	429.62
436.949	417.62
437.17	432.62
437.392	420.62
437.614	415.62
437.835	420.62
438.057	481.62
438.278	566.62
438.5	558.62
438.721	613.62
438.943	588.62
439.165	468.62
439.386	439.62
439.608	434.62
439.829	450.62
440.05	438.62
440.272	483.62
440.493	447.62
440.715	419.62
440.936	414.62
441.158	392.62
441.379	422.62
441.6	445.62
441.822	461.62
442.043	456.62
442.264	535.62
442.486	560.62
442.707	478.62
442.928	444.62
443.149	435.62
443.371	480.62
443.592	499.62
443.813	553.62
444.034	593.62
444.255	515.62
444.476	473.62
444.698	475.62
444.919	473.62
445.14	591.62
445.361	492.62
445.582	482.62
445.803	517.62
446.024	591.62
446.245	577.62
446.466	538.62
446.687	445.62
446.908	427.62
447.129	418.62
447.35	412.62
447.571	412.62
447.792	395.62
448.013	428.62
448.234	417.62
448.455	443.62
448.675	546.62
448.896	611.62
449.117	514.62
449.338	481.62
449.559	532.62
449.779	632.62
450	487.62
450.221	424.62
450.442	425.62
450.662	398.62
450.883	385.62
451.104	401.62
451.324	395.62
451.545	380.62
451.766	374.62
451.986	363.62
452.207	365.62
452.428	364.62
452.648	356.62
452.869	349.62
453.089	368.62
453.31	367.62
453.53	378.62
453.751	381.62
453.971	366.62
454.192	351.62
454.412	356.62
454.633	338.62
454.853	364.62
455.073	353.62
455.294	387.62
455.514	444.62
455.734	399.62
455.955	359.62
456.175	361.62
456.395	349.62
456.616	355.62
456.836	347.62
457.056	343.62
457.276	349.62
457.497	363.62
457.717	364.62
457.937	365.62
458.157	347.62
458.377	376.62
458.598	368.62
458.818	385.62
459.038	437.62
459.258	461.62
459.478	410.62
459.698	396.62
459.918	404.62
460.138	401.62
460.358	409.62
460.578	404.62
460.798	406.62
461.018	436.62
461.238	405.62
461.458	403.62
461.678	411.62
461.898	424.62
462.118	423.62
462.338	437.62
462.558	445.62
462.777	457.62
462.997	481.62
463.217	442.62
463.437	485.62
463.657	458.62
463.876	450.62
464.096	461.62
464.316	427.62
464.536	445.62
464.755	428.62
464.975	434.62
465.195	448.62
465.414	457.62
465.634	414.62
465.854	416.62
466.073	402.62
466.293	386.62
466.512	397.62
466.732	384.62
466.951	388.62
467.171	377.62
467.391	378.62
467.61	386.62
467.829	389.62
468.049	384.62
468.268	380.62
468.488	366.62
468.707	355.62
468.927	364.62
469.146	378.62
469.365	369.62
469.585	355.62
469.804	381.62
470.023	406.62
470.243	373.62
470.462	382.62
470.681	395.62
470.901	370.62
471.12	404.62
471.339	391.62
471.558	381.62
471.777	381.62
471.997	385.62
472.216	400.62
472.435	407.62
472.654	387.62
472.873	394.62
473.092	376.62
473.311	389.62
473.53	381.62
473.749	380.62
473.968	417.62
474.187	454.62
474.406	509.62
474.625	420.62
474.844	386.62
475.063	395.62
475.282	374.62
475.501	386.62
475.72	395.62
475.939	377.62
476.158	403.62
476.377	391.62
476.596	402.62
476.814	416.62
477.033	381.62
477.252	393.62
477.471	410.62
477.69	401.62
477.908	405.62
478.127	420.62
478.346	414.62
478.564	411.62
478.783	434.62
479.002	445.62
479.22	422.62
479.439	442.62
479.658	443.62
479.876	451.62
480.095	464.62
480.313	476.62
480.532	472.62
480.751	474.62
480.969	469.62
481.188	502.62
481.406	502.62
481.624	480.62
481.843	446.62
482.061	456.62
482.28	451.62
482.498	421.62
482.717	444.62
482.935	456.62
483.153	433.62
483.372	429.62
483.59	447.62
483.808	436.62
484.027	443.62
484.245	438.62
484.463	444.62
484.681	456.62
484.9	430.62
485.118	434.62
485.336	452.62
485.554	460.62
485.772	470.62
485.99	462.62
486.209	462.62
486.427	470.62
486.645	476.62
486.863	465.62
487.081	463.62
487.299	466.62
487.517	485.62
487.735	479.62
487.953	462.62
488.171	446.62
488.389	464.62
488.607	446.62
488.825	455.62
489.043	477.62
489.261	456.62
489.479	480.62
489.696	461.62
489.914	479.62
490.132	479.62
490.35	496.62
490.568	485.62
490.786	496.62
491.003	498.62
491.221	493.62
491.439	506.62
491.657	491.62
491.874	521.62
492.092	515.62
492.31	520.62
492.527	526.62
492.745	520.62
492.963	515.62
493.18	513.62
493.398	534.62
493.615	533.62
493.833	518.62
494.05	541.62
494.268	532.62
494.485	528.62
494.703	519.62
494.92	532.62
495.138	536.62
495.355	555.62
495.573	548.62
495.79	516.62
496.008	547.62
496.225	540.62
496.442	523.62
496.66	555.62
496.877	558.62
497.094	547.62
497.312	538.62
497.529	555.62
497.746	580.62
497.963	585.62
498.181	583.62
498.398	612.62
498.615	633.62
498.832	638.62
499.049	667.62
499.267	657.62
499.484	686.62
499.701	740.62
499.918	740.62
500.135	789.62
500.352	840.62
500.569	853.62
500.786	858.62
501.003	837.62
501.22	817.62
501.437	788.62
501.654	742.62
501.871	725.62
502.088	702.62
