Data from 1964.PennyLincolnUp.Lamp.En5.5.200Scan.071719.P1._HRD10591_14-04-32-908.txt Node
Date: Thu Jul 18 14:04:32 EDT 2019
User: cochatt
Spectrometer: HR+D1059
Trigger mode: 1
Integration Time (sec): 1.000000E-1
Scans to average: 1
Electric dark correction enabled: true
Nonlinearity correction enabled: false
Boxcar width: 0
XAxis mode: Wavelengths
Number of Pixels in Spectrum: 2048
>>>>>Begin Spectral Data<<<<<
223.165	-24.81
223.4	-24.81
223.635	-24.81
223.869	-11.81
224.104	-19.81
224.338	-8.81
224.573	-8.81
224.808	-16.81
225.042	-1.81
225.277	-9.81
225.511	2.19
225.746	12.19
225.98	10.19
226.215	16.19
226.449	3.19
226.683	13.19
226.918	29.19
227.152	16.19
227.387	28.19
227.621	34.19
227.856	33.19
228.09	43.19
228.324	47.19
228.559	53.19
228.793	49.19
229.027	86.19
229.262	101.19
229.496	103.19
229.73	107.19
229.964	117.19
230.199	110.19
230.433	102.19
230.667	109.19
230.901	114.19
231.136	107.19
231.37	109.19
231.604	111.19
231.838	123.19
232.072	102.19
232.306	116.19
232.541	106.19
232.775	112.19
233.009	114.19
233.243	104.19
233.477	98.19
233.711	96.19
233.945	106.19
234.179	118.19
234.413	102.19
234.647	102.19
234.881	113.19
235.115	111.19
235.349	122.19
235.583	114.19
235.817	113.19
236.051	106.19
236.285	116.19
236.519	124.19
236.753	117.19
236.987	144.19
237.221	134.19
237.455	173.19
237.689	130.19
237.922	127.19
238.156	137.19
238.39	135.19
238.624	123.19
238.858	110.19
239.091	124.19
239.325	101.19
239.559	121.19
239.793	130.19
240.027	130.19
240.26	143.19
240.494	140.19
240.728	145.19
240.961	153.19
241.195	131.19
241.429	138.19
241.662	130.19
241.896	126.19
242.13	116.19
242.363	137.19
242.597	120.19
242.83	138.19
243.064	137.19
243.298	133.19
243.531	140.19
243.765	123.19
243.998	138.19
244.232	139.19
244.465	131.19
244.699	138.19
244.932	127.19
245.166	140.19
245.399	145.19
245.633	151.19
245.866	146.19
246.099	150.19
246.333	136.19
246.566	150.19
246.8	138.19
247.033	138.19
247.266	148.19
247.5	147.19
247.733	165.19
247.966	172.19
248.2	171.19
248.433	183.19
248.666	171.19
248.899	173.19
249.133	175.19
249.366	188.19
249.599	174.19
249.832	173.19
250.066	167.19
250.299	173.19
250.532	189.19
250.765	188.19
250.998	193.19
251.231	207.19
251.465	203.19
251.698	194.19
251.931	218.19
252.164	187.19
252.397	186.19
252.63	181.19
252.863	198.19
253.096	208.19
253.329	190.19
253.562	211.19
253.795	218.19
254.028	197.19
254.261	202.19
254.494	213.19
254.727	219.19
254.96	235.19
255.193	220.19
255.426	220.19
255.659	202.19
255.892	220.19
256.124	220.19
256.357	237.19
256.59	214.19
256.823	200.19
257.056	205.19
257.289	198.19
257.521	207.19
257.754	208.19
257.987	191.19
258.22	191.19
258.452	204.19
258.685	198.19
258.918	217.19
259.151	202.19
259.383	201.19
259.616	198.19
259.849	204.19
260.081	226.19
260.314	230.19
260.547	225.19
260.779	229.19
261.012	218.19
261.244	219.19
261.477	213.19
261.71	232.19
261.942	204.19
262.175	227.19
262.407	218.19
262.64	219.19
262.872	206.19
263.105	205.19
263.337	215.19
263.57	211.19
263.802	218.19
264.035	204.19
264.267	218.19
264.499	215.19
264.732	215.19
264.964	237.19
265.197	214.19
265.429	204.19
265.661	228.19
265.894	220.19
266.126	215.19
266.358	222.19
266.591	223.19
266.823	230.19
267.055	225.19
267.287	222.19
267.52	217.19
267.752	234.19
267.984	225.19
268.216	220.19
268.448	231.19
268.681	236.19
268.913	264.19
269.145	245.19
269.377	257.19
269.609	248.19
269.841	279.19
270.073	253.19
270.306	261.19
270.538	308.19
270.77	282.19
271.002	286.19
271.234	289.19
271.466	297.19
271.698	291.19
271.93	301.19
272.162	289.19
272.394	302.19
272.626	299.19
272.858	279.19
273.09	264.19
273.322	271.19
273.553	253.19
273.785	259.19
274.017	280.19
274.249	262.19
274.481	252.19
274.713	265.19
274.945	255.19
275.176	261.19
275.408	268.19
275.64	270.19
275.872	270.19
276.104	272.19
276.335	261.19
276.567	281.19
276.799	280.19
277.031	292.19
277.262	330.19
277.494	293.19
277.726	292.19
277.957	288.19
278.189	278.19
278.421	282.19
278.652	279.19
278.884	260.19
279.115	272.19
279.347	270.19
279.579	283.19
279.81	288.19
280.042	281.19
280.273	284.19
280.505	267.19
280.736	272.19
280.968	278.19
281.199	275.19
281.431	267.19
281.662	271.19
281.894	278.19
282.125	283.19
282.356	289.19
282.588	291.19
282.819	304.19
283.051	294.19
283.282	277.19
283.513	294.19
283.745	297.19
283.976	298.19
284.207	301.19
284.439	300.19
284.67	303.19
284.901	291.19
285.132	307.19
285.364	279.19
285.595	317.19
285.826	293.19
286.057	311.19
286.288	303.19
286.52	311.19
286.751	290.19
286.982	308.19
287.213	315.19
287.444	309.19
287.675	293.19
287.906	300.19
288.138	304.19
288.369	316.19
288.6	313.19
288.831	310.19
289.062	317.19
289.293	318.19
289.524	303.19
289.755	299.19
289.986	319.19
290.217	313.19
290.448	307.19
290.679	329.19
290.91	292.19
291.141	313.19
291.371	307.19
291.602	299.19
291.833	292.19
292.064	308.19
292.295	310.19
292.526	294.19
292.757	301.19
292.987	312.19
293.218	303.19
293.449	296.19
293.68	303.19
293.91	313.19
294.141	318.19
294.372	308.19
294.603	301.19
294.833	300.19
295.064	311.19
295.295	303.19
295.525	324.19
295.756	307.19
295.987	313.19
296.217	325.19
296.448	355.19
296.679	331.19
296.909	321.19
297.14	314.19
297.37	325.19
297.601	312.19
297.831	319.19
298.062	314.19
298.292	342.19
298.523	347.19
298.753	313.19
298.984	314.19
299.214	339.19
299.445	315.19
299.675	314.19
299.905	336.19
300.136	318.19
300.366	348.19
300.597	331.19
300.827	324.19
301.057	335.19
301.288	344.19
301.518	343.19
301.748	354.19
301.979	346.19
302.209	349.19
302.439	362.19
302.669	343.19
302.9	329.19
303.13	345.19
303.36	347.19
303.59	325.19
303.82	356.19
304.051	347.19
304.281	338.19
304.511	339.19
304.741	333.19
304.971	345.19
305.201	342.19
305.431	341.19
305.661	360.19
305.891	359.19
306.121	347.19
306.352	352.19
306.582	338.19
306.812	355.19
307.042	359.19
307.272	336.19
307.502	349.19
307.731	344.19
307.961	345.19
308.191	346.19
308.421	341.19
308.651	359.19
308.881	341.19
309.111	353.19
309.341	358.19
309.571	374.19
309.8	357.19
310.03	345.19
310.26	372.19
310.49	355.19
310.72	384.19
310.949	354.19
311.179	365.19
311.409	372.19
311.639	354.19
311.868	366.19
312.098	368.19
312.328	380.19
312.557	389.19
312.787	398.19
313.017	388.19
313.246	408.19
313.476	367.19
313.706	386.19
313.935	388.19
314.165	382.19
314.394	401.19
314.624	402.19
314.853	369.19
315.083	383.19
315.312	397.19
315.542	390.19
315.771	375.19
316.001	362.19
316.23	390.19
316.46	390.19
316.689	392.19
316.919	402.19
317.148	393.19
317.377	392.19
317.607	399.19
317.836	396.19
318.065	386.19
318.295	387.19
318.524	373.19
318.753	378.19
318.983	389.19
319.212	380.19
319.441	381.19
319.67	385.19
319.9	413.19
320.129	396.19
320.358	398.19
320.587	375.19
320.816	357.19
321.046	385.19
321.275	406.19
321.504	412.19
321.733	404.19
321.962	388.19
322.191	406.19
322.42	411.19
322.649	422.19
322.878	424.19
323.108	438.19
323.337	448.19
323.566	425.19
323.795	465.19
324.024	474.19
324.253	563.19
324.482	717.19
324.71	1041.19
324.939	1370.19
325.168	1171.19
325.397	660.19
325.626	510.19
325.855	484.19
326.084	450.19
326.313	426.19
326.542	441.19
326.77	495.19
326.999	556.19
327.228	687.19
327.457	964.19
327.686	1077.19
327.914	746.19
328.143	527.19
328.372	504.19
328.6	496.19
328.829	492.19
329.058	492.19
329.287	484.19
329.515	476.19
329.744	458.19
329.972	474.19
330.201	480.19
330.43	479.19
330.658	505.19
330.887	490.19
331.115	500.19
331.344	491.19
331.572	461.19
331.801	449.19
332.03	461.19
332.258	462.19
332.486	459.19
332.715	437.19
332.943	446.19
333.172	453.19
333.4	455.19
333.629	471.19
333.857	479.19
334.085	503.19
334.314	483.19
334.542	528.19
334.771	529.19
334.999	482.19
335.227	474.19
335.455	470.19
335.684	469.19
335.912	466.19
336.14	461.19
336.369	444.19
336.597	463.19
336.825	452.19
337.053	465.19
337.281	464.19
337.51	441.19
337.738	450.19
337.966	437.19
338.194	452.19
338.422	446.19
338.65	442.19
338.878	434.19
339.106	425.19
339.334	428.19
339.562	424.19
339.79	438.19
340.018	429.19
340.246	414.19
340.474	424.19
340.702	436.19
340.93	413.19
341.158	428.19
341.386	409.19
341.614	431.19
341.842	421.19
342.07	415.19
342.298	432.19
342.526	418.19
342.754	408.19
342.981	431.19
343.209	433.19
343.437	414.19
343.665	419.19
343.893	436.19
344.12	439.19
344.348	460.19
344.576	441.19
344.804	430.19
345.031	432.19
345.259	418.19
345.487	443.19
345.714	420.19
345.942	435.19
346.17	414.19
346.397	410.19
346.625	420.19
346.853	414.19
347.08	396.19
347.308	416.19
347.535	427.19
347.763	422.19
347.99	407.19
348.218	414.19
348.445	395.19
348.673	403.19
348.9	404.19
349.128	411.19
349.355	393.19
349.583	387.19
349.81	412.19
350.037	390.19
350.265	382.19
350.492	398.19
350.72	389.19
350.947	387.19
351.174	374.19
351.402	418.19
351.629	410.19
351.856	380.19
352.083	400.19
352.311	402.19
352.538	397.19
352.765	388.19
352.992	392.19
353.22	385.19
353.447	404.19
353.674	390.19
353.901	373.19
354.128	381.19
354.355	383.19
354.583	370.19
354.81	398.19
355.037	394.19
355.264	389.19
355.491	370.19
355.718	370.19
355.945	386.19
356.172	380.19
356.399	380.19
356.626	366.19
356.853	384.19
357.08	384.19
357.307	355.19
357.534	389.19
357.761	376.19
357.988	375.19
358.215	351.19
358.441	374.19
358.668	378.19
358.895	395.19
359.122	374.19
359.349	390.19
359.576	383.19
359.802	402.19
360.029	422.19
360.256	414.19
360.483	420.19
360.709	397.19
360.936	386.19
361.163	398.19
361.39	395.19
361.616	386.19
361.843	362.19
362.07	388.19
362.296	394.19
362.523	383.19
362.749	384.19
362.976	398.19
363.203	394.19
363.429	395.19
363.656	382.19
363.882	378.19
364.109	367.19
364.335	359.19
364.562	378.19
364.788	370.19
365.015	378.19
365.241	380.19
365.468	392.19
365.694	406.19
365.92	384.19
366.147	379.19
366.373	386.19
366.599	397.19
366.826	367.19
367.052	376.19
367.278	390.19
367.505	389.19
367.731	384.19
367.957	348.19
368.184	388.19
368.41	385.19
368.636	389.19
368.862	377.19
369.089	396.19
369.315	381.19
369.541	388.19
369.767	373.19
369.993	396.19
370.219	364.19
370.445	374.19
370.672	390.19
370.898	375.19
371.124	384.19
371.35	359.19
371.576	394.19
371.802	361.19
372.028	382.19
372.254	386.19
372.48	385.19
372.706	392.19
372.932	409.19
373.158	382.19
373.384	388.19
373.61	373.19
373.835	370.19
374.061	357.19
374.287	392.19
374.513	398.19
374.739	385.19
374.965	407.19
375.191	396.19
375.416	383.19
375.642	380.19
375.868	379.19
376.094	390.19
376.319	380.19
376.545	373.19
376.771	382.19
376.997	363.19
377.222	380.19
377.448	381.19
377.674	370.19
377.899	359.19
378.125	378.19
378.35	363.19
378.576	372.19
378.802	350.19
379.027	363.19
379.253	366.19
379.478	377.19
379.704	382.19
379.929	393.19
380.155	379.19
380.38	372.19
380.606	370.19
380.831	359.19
381.057	383.19
381.282	394.19
381.507	366.19
381.733	374.19
381.958	358.19
382.184	382.19
382.409	373.19
382.634	394.19
382.86	379.19
383.085	388.19
383.31	386.19
383.535	399.19
383.761	392.19
383.986	399.19
384.211	398.19
384.436	400.19
384.662	392.19
384.887	394.19
385.112	397.19
385.337	410.19
385.562	399.19
385.787	407.19
386.013	392.19
386.238	432.19
386.463	427.19
386.688	409.19
386.913	399.19
387.138	410.19
387.363	394.19
387.588	411.19
387.813	420.19
388.038	415.19
388.263	413.19
388.488	432.19
388.713	406.19
388.938	394.19
389.163	418.19
389.387	413.19
389.612	402.19
389.837	412.19
390.062	402.19
390.287	426.19
390.512	400.19
390.736	391.19
390.961	419.19
391.186	437.19
391.411	427.19
391.636	408.19
391.86	424.19
392.085	415.19
392.31	410.19
392.534	419.19
392.759	426.19
392.984	395.19
393.208	419.19
393.433	425.19
393.658	412.19
393.882	411.19
394.107	400.19
394.331	405.19
394.556	420.19
394.78	405.19
395.005	412.19
395.229	404.19
395.454	423.19
395.678	425.19
395.903	438.19
396.127	417.19
396.352	435.19
396.576	423.19
396.801	413.19
397.025	425.19
397.249	419.19
397.474	452.19
397.698	434.19
397.922	414.19
398.147	447.19
398.371	450.19
398.595	475.19
398.82	464.19
399.044	487.19
399.268	499.19
399.492	538.19
399.717	574.19
399.941	579.19
400.165	583.19
400.389	587.19
400.613	513.19
400.837	475.19
401.062	484.19
401.286	495.19
401.51	489.19
401.734	437.19
401.958	466.19
402.182	476.19
402.406	477.19
402.63	480.19
402.854	458.19
403.078	468.19
403.302	476.19
403.526	493.19
403.75	475.19
403.974	480.19
404.198	486.19
404.422	472.19
404.645	495.19
404.869	492.19
405.093	531.19
405.317	533.19
405.541	569.19
405.765	521.19
405.988	508.19
406.212	491.19
406.436	471.19
406.66	485.19
406.883	500.19
407.107	526.19
407.331	571.19
407.555	593.19
407.778	582.19
408.002	551.19
408.226	534.19
408.449	520.19
408.673	514.19
408.896	536.19
409.12	556.19
409.344	528.19
409.567	485.19
409.791	479.19
410.014	477.19
410.238	462.19
410.461	480.19
410.685	473.19
410.908	486.19
411.132	520.19
411.355	526.19
411.578	494.19
411.802	468.19
412.025	463.19
412.249	480.19
412.472	468.19
412.695	534.19
412.919	511.19
413.142	476.19
413.365	471.19
413.589	474.19
413.812	438.19
414.035	450.19
414.258	444.19
414.482	454.19
414.705	436.19
414.928	453.19
415.151	440.19
415.374	448.19
415.597	462.19
415.821	450.19
416.044	442.19
416.267	439.19
416.49	446.19
416.713	442.19
416.936	429.19
417.159	455.19
417.382	473.19
417.605	450.19
417.828	440.19
418.051	488.19
418.274	446.19
418.497	445.19
418.72	437.19
418.943	447.19
419.166	458.19
419.389	480.19
419.611	458.19
419.834	465.19
420.057	455.19
420.28	454.19
420.503	464.19
420.726	450.19
420.948	452.19
421.171	483.19
421.394	488.19
421.617	456.19
421.839	472.19
422.062	444.19
422.285	454.19
422.507	506.19
422.73	534.19
422.953	503.19
423.175	494.19
423.398	452.19
423.621	481.19
423.843	491.19
424.066	485.19
424.288	464.19
424.511	505.19
424.733	510.19
424.956	571.19
425.178	551.19
425.401	538.19
425.623	585.19
425.846	497.19
426.068	474.19
426.291	463.19
426.513	468.19
426.735	484.19
426.958	495.19
427.18	525.19
427.402	646.19
427.625	660.19
427.847	602.19
428.069	555.19
428.292	500.19
428.514	454.19
428.736	454.19
428.958	451.19
429.181	447.19
429.403	431.19
429.625	445.19
429.847	468.19
430.069	503.19
430.292	499.19
430.514	447.19
430.736	425.19
430.958	418.19
431.18	422.19
431.402	432.19
431.624	415.19
431.846	416.19
432.068	425.19
432.29	414.19
432.512	425.19
432.734	442.19
432.956	438.19
433.178	426.19
433.4	406.19
433.622	422.19
433.844	412.19
434.066	418.19
434.287	420.19
434.509	435.19
434.731	428.19
434.953	440.19
435.175	444.19
435.397	462.19
435.618	467.19
435.84	489.19
436.062	556.19
436.284	577.19
436.505	502.19
436.727	460.19
436.949	446.19
437.17	418.19
437.392	408.19
437.614	432.19
437.835	452.19
438.057	504.19
438.278	578.19
438.5	571.19
438.721	660.19
438.943	622.19
439.165	471.19
439.386	458.19
439.608	453.19
439.829	431.19
440.05	471.19
440.272	488.19
440.493	470.19
440.715	436.19
440.936	437.19
441.158	425.19
441.379	418.19
441.6	443.19
441.822	453.19
442.043	475.19
442.264	536.19
442.486	568.19
442.707	483.19
442.928	444.19
443.149	477.19
443.371	471.19
443.592	509.19
443.813	574.19
444.034	619.19
444.255	516.19
444.476	472.19
444.698	495.19
444.919	494.19
445.14	605.19
445.361	540.19
445.582	490.19
445.803	536.19
446.024	602.19
446.245	581.19
446.466	560.19
446.687	470.19
446.908	445.19
447.129	443.19
447.35	431.19
447.571	423.19
447.792	393.19
448.013	413.19
448.234	436.19
448.455	450.19
448.675	529.19
448.896	622.19
449.117	526.19
449.338	532.19
449.559	574.19
449.779	627.19
450	528.19
450.221	442.19
450.442	434.19
450.662	412.19
450.883	400.19
451.104	420.19
451.324	414.19
451.545	404.19
451.766	407.19
451.986	389.19
452.207	394.19
452.428	379.19
452.648	379.19
452.869	393.19
453.089	373.19
453.31	398.19
453.53	398.19
453.751	378.19
453.971	372.19
454.192	377.19
454.412	373.19
454.633	371.19
454.853	374.19
455.073	363.19
455.294	388.19
455.514	434.19
455.734	420.19
455.955	390.19
456.175	360.19
456.395	358.19
456.616	352.19
456.836	387.19
457.056	374.19
457.276	353.19
457.497	376.19
457.717	367.19
457.937	376.19
458.157	359.19
458.377	390.19
458.598	394.19
458.818	440.19
459.038	457.19
459.258	482.19
459.478	418.19
459.698	390.19
459.918	404.19
460.138	414.19
460.358	439.19
460.578	421.19
460.798	412.19
461.018	441.19
461.238	435.19
461.458	418.19
461.678	419.19
461.898	428.19
462.118	420.19
462.338	441.19
462.558	447.19
462.777	467.19
462.997	470.19
463.217	472.19
463.437	464.19
463.657	482.19
463.876	456.19
464.096	460.19
464.316	456.19
464.536	484.19
464.755	455.19
464.975	461.19
465.195	485.19
465.414	464.19
465.634	420.19
465.854	440.19
466.073	411.19
466.293	393.19
466.512	389.19
466.732	397.19
466.951	400.19
467.171	393.19
467.391	399.19
467.61	403.19
467.829	428.19
468.049	411.19
468.268	402.19
468.488	395.19
468.707	373.19
468.927	380.19
469.146	380.19
469.365	389.19
469.585	395.19
469.804	392.19
470.023	403.19
470.243	405.19
470.462	394.19
470.681	421.19
470.901	396.19
471.12	397.19
471.339	388.19
471.558	398.19
471.777	409.19
471.997	384.19
472.216	397.19
472.435	399.19
472.654	421.19
472.873	380.19
473.092	396.19
473.311	398.19
473.53	398.19
473.749	411.19
473.968	430.19
474.187	480.19
474.406	473.19
474.625	437.19
474.844	398.19
475.063	384.19
475.282	391.19
475.501	401.19
475.72	398.19
475.939	406.19
476.158	418.19
476.377	423.19
476.596	400.19
476.814	422.19
477.033	402.19
477.252	419.19
477.471	427.19
477.69	436.19
477.908	438.19
478.127	434.19
478.346	439.19
478.564	446.19
478.783	436.19
479.002	438.19
479.22	443.19
479.439	443.19
479.658	462.19
479.876	483.19
480.095	472.19
480.313	502.19
480.532	486.19
480.751	492.19
480.969	491.19
481.188	517.19
481.406	516.19
481.624	485.19
481.843	470.19
482.061	475.19
482.28	454.19
482.498	466.19
482.717	445.19
482.935	451.19
483.153	441.19
483.372	441.19
483.59	454.19
483.808	466.19
484.027	468.19
484.245	462.19
484.463	461.19
484.681	446.19
484.9	455.19
485.118	461.19
485.336	471.19
485.554	463.19
485.772	457.19
485.99	469.19
486.209	462.19
486.427	469.19
486.645	473.19
486.863	493.19
487.081	482.19
487.299	462.19
487.517	485.19
487.735	468.19
487.953	477.19
488.171	474.19
488.389	483.19
488.607	485.19
488.825	468.19
489.043	468.19
489.261	492.19
489.479	502.19
489.696	523.19
489.914	500.19
490.132	503.19
490.35	510.19
490.568	498.19
490.786	515.19
491.003	514.19
491.221	535.19
491.439	510.19
491.657	510.19
491.874	538.19
492.092	501.19
492.31	556.19
492.527	535.19
492.745	540.19
492.963	551.19
493.18	567.19
493.398	550.19
493.615	546.19
493.833	573.19
494.05	556.19
494.268	556.19
494.485	540.19
494.703	534.19
494.92	552.19
495.138	553.19
495.355	555.19
495.573	568.19
495.79	572.19
496.008	551.19
496.225	553.19
496.442	558.19
496.66	556.19
496.877	574.19
497.094	564.19
497.312	575.19
497.529	610.19
497.746	559.19
497.963	598.19
498.181	631.19
498.398	618.19
498.615	630.19
498.832	637.19
499.049	664.19
499.267	730.19
499.484	723.19
499.701	749.19
499.918	781.19
500.135	825.19
500.352	871.19
500.569	859.19
500.786	867.19
501.003	847.19
501.22	851.19
501.437	808.19
501.654	779.19
501.871	747.19
502.088	719.19
