Data from 1964.PennyLincolnUp.Lamp.En5.5.200Scan.071719.P1._HRD10591_14-04-00-909.txt Node
Date: Thu Jul 18 14:04:00 EDT 2019
User: cochatt
Spectrometer: HR+D1059
Trigger mode: 1
Integration Time (sec): 1.000000E-1
Scans to average: 1
Electric dark correction enabled: true
Nonlinearity correction enabled: false
Boxcar width: 0
XAxis mode: Wavelengths
Number of Pixels in Spectrum: 2048
>>>>>Begin Spectral Data<<<<<
223.165	-4.38
223.4	-4.38
223.635	-4.38
223.869	-2.38
224.104	-16.38
224.338	-2.38
224.573	-11.38
224.808	-27.38
225.042	-6.38
225.277	-6.38
225.511	3.62
225.746	7.62
225.98	1.62
226.215	-8.38
226.449	9.62
226.683	23.62
226.918	11.62
227.152	27.62
227.387	25.62
227.621	25.62
227.856	48.62
228.09	50.62
228.324	52.62
228.559	67.62
228.793	57.62
229.027	77.62
229.262	95.62
229.496	99.62
229.73	112.62
229.964	117.62
230.199	112.62
230.433	103.62
230.667	109.62
230.901	100.62
231.136	112.62
231.37	102.62
231.604	106.62
231.838	99.62
232.072	112.62
232.306	92.62
232.541	101.62
232.775	117.62
233.009	103.62
233.243	108.62
233.477	118.62
233.711	97.62
233.945	100.62
234.179	84.62
234.413	114.62
234.647	100.62
234.881	109.62
235.115	120.62
235.349	108.62
235.583	105.62
235.817	114.62
236.051	115.62
236.285	109.62
236.519	107.62
236.753	127.62
236.987	119.62
237.221	149.62
237.455	191.62
237.689	145.62
237.922	127.62
238.156	123.62
238.39	114.62
238.624	119.62
238.858	114.62
239.091	104.62
239.325	113.62
239.559	123.62
239.793	112.62
240.027	127.62
240.26	122.62
240.494	132.62
240.728	134.62
240.961	132.62
241.195	120.62
241.429	133.62
241.662	106.62
241.896	122.62
242.13	123.62
242.363	129.62
242.597	128.62
242.83	123.62
243.064	120.62
243.298	122.62
243.531	119.62
243.765	141.62
243.998	123.62
244.232	133.62
244.465	134.62
244.699	120.62
244.932	135.62
245.166	131.62
245.399	136.62
245.633	139.62
245.866	149.62
246.099	138.62
246.333	131.62
246.566	136.62
246.8	155.62
247.033	129.62
247.266	159.62
247.5	153.62
247.733	139.62
247.966	160.62
248.2	162.62
248.433	143.62
248.666	163.62
248.899	172.62
249.133	157.62
249.366	190.62
249.599	175.62
249.832	153.62
250.066	164.62
250.299	157.62
250.532	177.62
250.765	176.62
250.998	192.62
251.231	190.62
251.465	180.62
251.698	180.62
251.931	183.62
252.164	183.62
252.397	180.62
252.63	183.62
252.863	200.62
253.096	175.62
253.329	195.62
253.562	192.62
253.795	180.62
254.028	197.62
254.261	196.62
254.494	181.62
254.727	218.62
254.96	225.62
255.193	201.62
255.426	224.62
255.659	200.62
255.892	201.62
256.124	204.62
256.357	201.62
256.59	193.62
256.823	185.62
257.056	184.62
257.289	176.62
257.521	201.62
257.754	199.62
257.987	194.62
258.22	185.62
258.452	202.62
258.685	195.62
258.918	208.62
259.151	199.62
259.383	203.62
259.616	206.62
259.849	196.62
260.081	209.62
260.314	216.62
260.547	229.62
260.779	219.62
261.012	211.62
261.244	219.62
261.477	205.62
261.71	213.62
261.942	197.62
262.175	218.62
262.407	210.62
262.64	205.62
262.872	201.62
263.105	202.62
263.337	194.62
263.57	200.62
263.802	212.62
264.035	193.62
264.267	198.62
264.499	192.62
264.732	200.62
264.964	224.62
265.197	209.62
265.429	221.62
265.661	204.62
265.894	204.62
266.126	216.62
266.358	218.62
266.591	205.62
266.823	212.62
267.055	207.62
267.287	218.62
267.52	211.62
267.752	215.62
267.984	223.62
268.216	219.62
268.448	232.62
268.681	247.62
268.913	231.62
269.145	249.62
269.377	255.62
269.609	252.62
269.841	222.62
270.073	267.62
270.306	265.62
270.538	280.62
270.77	277.62
271.002	264.62
271.234	275.62
271.466	269.62
271.698	282.62
271.93	294.62
272.162	283.62
272.394	290.62
272.626	255.62
272.858	274.62
273.09	266.62
273.322	265.62
273.553	243.62
273.785	267.62
274.017	232.62
274.249	244.62
274.481	234.62
274.713	245.62
274.945	235.62
275.176	239.62
275.408	260.62
275.64	252.62
275.872	258.62
276.104	267.62
276.335	258.62
276.567	266.62
276.799	268.62
277.031	284.62
277.262	278.62
277.494	285.62
277.726	284.62
277.957	252.62
278.189	292.62
278.421	261.62
278.652	255.62
278.884	276.62
279.115	271.62
279.347	273.62
279.579	268.62
279.81	275.62
280.042	265.62
280.273	262.62
280.505	262.62
280.736	269.62
280.968	273.62
281.199	243.62
281.431	273.62
281.662	261.62
281.894	271.62
282.125	264.62
282.356	284.62
282.588	281.62
282.819	276.62
283.051	260.62
283.282	273.62
283.513	281.62
283.745	270.62
283.976	272.62
284.207	281.62
284.439	290.62
284.67	287.62
284.901	290.62
285.132	282.62
285.364	284.62
285.595	275.62
285.826	263.62
286.057	279.62
286.288	270.62
286.52	284.62
286.751	291.62
286.982	280.62
287.213	289.62
287.444	291.62
287.675	285.62
287.906	295.62
288.138	295.62
288.369	312.62
288.6	319.62
288.831	288.62
289.062	292.62
289.293	293.62
289.524	286.62
289.755	291.62
289.986	288.62
290.217	298.62
290.448	293.62
290.679	294.62
290.91	295.62
291.141	284.62
291.371	295.62
291.602	283.62
291.833	292.62
292.064	299.62
292.295	293.62
292.526	307.62
292.757	300.62
292.987	295.62
293.218	290.62
293.449	299.62
293.68	282.62
293.91	295.62
294.141	305.62
294.372	296.62
294.603	301.62
294.833	299.62
295.064	304.62
295.295	303.62
295.525	304.62
295.756	287.62
295.987	289.62
296.217	303.62
296.448	296.62
296.679	301.62
296.909	312.62
297.14	294.62
297.37	315.62
297.601	309.62
297.831	302.62
298.062	296.62
298.292	308.62
298.523	319.62
298.753	337.62
298.984	318.62
299.214	310.62
299.445	311.62
299.675	316.62
299.905	308.62
300.136	304.62
300.366	320.62
300.597	335.62
300.827	320.62
301.057	315.62
301.288	343.62
301.518	335.62
301.748	317.62
301.979	334.62
302.209	316.62
302.439	360.62
302.669	331.62
302.9	326.62
303.13	315.62
303.36	329.62
303.59	340.62
303.82	334.62
304.051	354.62
304.281	320.62
304.511	347.62
304.741	337.62
304.971	336.62
305.201	334.62
305.431	341.62
305.661	331.62
305.891	318.62
306.121	328.62
306.352	328.62
306.582	348.62
306.812	329.62
307.042	347.62
307.272	328.62
307.502	325.62
307.731	331.62
307.961	327.62
308.191	337.62
308.421	336.62
308.651	330.62
308.881	322.62
309.111	340.62
309.341	357.62
309.571	362.62
309.8	356.62
310.03	345.62
310.26	353.62
310.49	348.62
310.72	357.62
310.949	366.62
311.179	356.62
311.409	342.62
311.639	350.62
311.868	378.62
312.098	361.62
312.328	383.62
312.557	363.62
312.787	365.62
313.017	384.62
313.246	383.62
313.476	351.62
313.706	363.62
313.935	362.62
314.165	362.62
314.394	362.62
314.624	363.62
314.853	371.62
315.083	382.62
315.312	354.62
315.542	351.62
315.771	373.62
316.001	362.62
316.23	353.62
316.46	368.62
316.689	356.62
316.919	373.62
317.148	376.62
317.377	362.62
317.607	373.62
317.836	373.62
318.065	370.62
318.295	367.62
318.524	363.62
318.753	365.62
318.983	385.62
319.212	371.62
319.441	370.62
319.67	367.62
319.9	370.62
320.129	378.62
320.358	375.62
320.587	373.62
320.816	378.62
321.046	380.62
321.275	370.62
321.504	359.62
321.733	372.62
321.962	385.62
322.191	384.62
322.42	407.62
322.649	381.62
322.878	413.62
323.108	418.62
323.337	422.62
323.566	413.62
323.795	433.62
324.024	459.62
324.253	506.62
324.482	667.62
324.71	957.62
324.939	1301.62
325.168	1111.62
325.397	615.62
325.626	484.62
325.855	437.62
326.084	412.62
326.313	427.62
326.542	427.62
326.77	450.62
326.999	509.62
327.228	651.62
327.457	877.62
327.686	989.62
327.914	666.62
328.143	536.62
328.372	457.62
328.6	464.62
328.829	450.62
329.058	444.62
329.287	472.62
329.515	442.62
329.744	455.62
329.972	445.62
330.201	459.62
330.43	468.62
330.658	467.62
330.887	472.62
331.115	474.62
331.344	441.62
331.572	435.62
331.801	427.62
332.03	426.62
332.258	435.62
332.486	402.62
332.715	430.62
332.943	434.62
333.172	460.62
333.4	435.62
333.629	435.62
333.857	457.62
334.085	475.62
334.314	470.62
334.542	482.62
334.771	495.62
334.999	453.62
335.227	444.62
335.455	444.62
335.684	450.62
335.912	450.62
336.14	441.62
336.369	417.62
336.597	437.62
336.825	413.62
337.053	422.62
337.281	418.62
337.51	424.62
337.738	434.62
337.966	417.62
338.194	433.62
338.422	440.62
338.65	406.62
338.878	412.62
339.106	413.62
339.334	405.62
339.562	415.62
339.79	412.62
340.018	410.62
340.246	419.62
340.474	412.62
340.702	415.62
340.93	401.62
341.158	403.62
341.386	409.62
341.614	427.62
341.842	413.62
342.07	384.62
342.298	429.62
342.526	403.62
342.754	383.62
342.981	404.62
343.209	391.62
343.437	433.62
343.665	428.62
343.893	419.62
344.12	462.62
344.348	427.62
344.576	424.62
344.804	427.62
345.031	410.62
345.259	417.62
345.487	394.62
345.714	415.62
345.942	387.62
346.17	412.62
346.397	388.62
346.625	387.62
346.853	395.62
347.08	390.62
347.308	383.62
347.535	389.62
347.763	372.62
347.99	380.62
348.218	383.62
348.445	371.62
348.673	392.62
348.9	362.62
349.128	394.62
349.355	376.62
349.583	364.62
349.81	375.62
350.037	352.62
350.265	383.62
350.492	391.62
350.72	393.62
350.947	374.62
351.174	379.62
351.402	390.62
351.629	384.62
351.856	376.62
352.083	383.62
352.311	379.62
352.538	374.62
352.765	395.62
352.992	377.62
353.22	362.62
353.447	352.62
353.674	389.62
353.901	369.62
354.128	376.62
354.355	379.62
354.583	365.62
354.81	353.62
355.037	343.62
355.264	347.62
355.491	336.62
355.718	356.62
355.945	356.62
356.172	371.62
356.399	354.62
356.626	364.62
356.853	363.62
357.08	371.62
357.307	370.62
357.534	369.62
357.761	365.62
357.988	357.62
358.215	376.62
358.441	374.62
358.668	350.62
358.895	370.62
359.122	353.62
359.349	370.62
359.576	344.62
359.802	387.62
360.029	391.62
360.256	405.62
360.483	393.62
360.709	367.62
360.936	364.62
361.163	350.62
361.39	375.62
361.616	380.62
361.843	374.62
362.07	364.62
362.296	353.62
362.523	365.62
362.749	368.62
362.976	355.62
363.203	371.62
363.429	371.62
363.656	356.62
363.882	363.62
364.109	356.62
364.335	362.62
364.562	373.62
364.788	368.62
365.015	369.62
365.241	368.62
365.468	379.62
365.694	369.62
365.92	355.62
366.147	348.62
366.373	351.62
366.599	359.62
366.826	360.62
367.052	348.62
367.278	341.62
367.505	359.62
367.731	360.62
367.957	372.62
368.184	352.62
368.41	369.62
368.636	367.62
368.862	362.62
369.089	358.62
369.315	354.62
369.541	368.62
369.767	356.62
369.993	367.62
370.219	369.62
370.445	361.62
370.672	369.62
370.898	367.62
371.124	376.62
371.35	365.62
371.576	358.62
371.802	354.62
372.028	377.62
372.254	368.62
372.48	374.62
372.706	376.62
372.932	369.62
373.158	376.62
373.384	366.62
373.61	377.62
373.835	360.62
374.061	354.62
374.287	363.62
374.513	374.62
374.739	369.62
374.965	383.62
375.191	377.62
375.416	388.62
375.642	351.62
375.868	368.62
376.094	364.62
376.319	373.62
376.545	345.62
376.771	349.62
376.997	346.62
377.222	380.62
377.448	364.62
377.674	375.62
377.899	339.62
378.125	355.62
378.35	364.62
378.576	357.62
378.802	370.62
379.027	356.62
379.253	375.62
379.478	346.62
379.704	357.62
379.929	346.62
380.155	352.62
380.38	356.62
380.606	370.62
380.831	351.62
381.057	383.62
381.282	371.62
381.507	358.62
381.733	347.62
381.958	345.62
382.184	353.62
382.409	361.62
382.634	361.62
382.86	355.62
383.085	370.62
383.31	364.62
383.535	367.62
383.761	397.62
383.986	385.62
384.211	387.62
384.436	361.62
384.662	386.62
384.887	389.62
385.112	388.62
385.337	383.62
385.562	397.62
385.787	393.62
386.013	402.62
386.238	399.62
386.463	375.62
386.688	399.62
386.913	396.62
387.138	403.62
387.363	388.62
387.588	396.62
387.813	398.62
388.038	385.62
388.263	400.62
388.488	399.62
388.713	382.62
388.938	410.62
389.163	395.62
389.387	384.62
389.612	377.62
389.837	383.62
390.062	387.62
390.287	387.62
390.512	384.62
390.736	399.62
390.961	396.62
391.186	382.62
391.411	391.62
391.636	390.62
391.86	405.62
392.085	397.62
392.31	412.62
392.534	426.62
392.759	390.62
392.984	405.62
393.208	387.62
393.433	406.62
393.658	401.62
393.882	388.62
394.107	403.62
394.331	395.62
394.556	377.62
394.78	416.62
395.005	395.62
395.229	402.62
395.454	405.62
395.678	399.62
395.903	405.62
396.127	416.62
396.352	432.62
396.576	435.62
396.801	421.62
397.025	411.62
397.249	419.62
397.474	412.62
397.698	401.62
397.922	424.62
398.147	428.62
398.371	445.62
398.595	443.62
398.82	440.62
399.044	447.62
399.268	481.62
399.492	511.62
399.717	520.62
399.941	535.62
400.165	549.62
400.389	555.62
400.613	498.62
400.837	484.62
401.062	476.62
401.286	455.62
401.51	435.62
401.734	454.62
401.958	433.62
402.182	434.62
402.406	419.62
402.63	435.62
402.854	465.62
403.078	448.62
403.302	467.62
403.526	468.62
403.75	447.62
403.974	449.62
404.198	448.62
404.422	464.62
404.645	466.62
404.869	454.62
405.093	484.62
405.317	534.62
405.541	559.62
405.765	485.62
405.988	465.62
406.212	462.62
406.436	475.62
406.66	483.62
406.883	489.62
407.107	509.62
407.331	541.62
407.555	566.62
407.778	547.62
408.002	531.62
408.226	495.62
408.449	492.62
408.673	474.62
408.896	486.62
409.12	522.62
409.344	517.62
409.567	468.62
409.791	453.62
410.014	439.62
410.238	446.62
410.461	443.62
410.685	447.62
410.908	454.62
411.132	479.62
411.355	523.62
411.578	475.62
411.802	438.62
412.025	445.62
412.249	460.62
412.472	470.62
412.695	504.62
412.919	495.62
413.142	450.62
413.365	435.62
413.589	441.62
413.812	428.62
414.035	429.62
414.258	446.62
414.482	433.62
414.705	429.62
414.928	418.62
415.151	421.62
415.374	413.62
415.597	434.62
415.821	428.62
416.044	421.62
416.267	421.62
416.49	424.62
416.713	427.62
416.936	416.62
417.159	411.62
417.382	421.62
417.605	417.62
417.828	429.62
418.051	431.62
418.274	440.62
418.497	436.62
418.72	398.62
418.943	427.62
419.166	448.62
419.389	447.62
419.611	450.62
419.834	441.62
420.057	441.62
420.28	436.62
420.503	433.62
420.726	450.62
420.948	461.62
421.171	475.62
421.394	467.62
421.617	424.62
421.839	424.62
422.062	443.62
422.285	417.62
422.507	486.62
422.73	523.62
422.953	498.62
423.175	457.62
423.398	443.62
423.621	431.62
423.843	432.62
424.066	463.62
424.288	459.62
424.511	450.62
424.733	480.62
424.956	562.62
425.178	516.62
425.401	532.62
425.623	524.62
425.846	483.62
426.068	444.62
426.291	447.62
426.513	448.62
426.735	464.62
426.958	480.62
427.18	508.62
427.402	623.62
427.625	657.62
427.847	559.62
428.069	508.62
428.292	462.62
428.514	433.62
428.736	425.62
428.958	409.62
429.181	414.62
429.403	435.62
429.625	431.62
429.847	440.62
430.069	480.62
430.292	470.62
430.514	421.62
430.736	432.62
430.958	428.62
431.18	403.62
431.402	397.62
431.624	392.62
431.846	387.62
432.068	408.62
432.29	415.62
432.512	393.62
432.734	395.62
432.956	395.62
433.178	438.62
433.4	412.62
433.622	411.62
433.844	392.62
434.066	401.62
434.287	423.62
434.509	383.62
434.731	405.62
434.953	424.62
435.175	445.62
435.397	423.62
435.618	461.62
435.84	463.62
436.062	515.62
436.284	573.62
436.505	472.62
436.727	446.62
436.949	436.62
437.17	405.62
437.392	407.62
437.614	389.62
437.835	425.62
438.057	492.62
438.278	536.62
438.5	545.62
438.721	605.62
438.943	592.62
439.165	472.62
439.386	447.62
439.608	443.62
439.829	436.62
440.05	443.62
440.272	454.62
440.493	441.62
440.715	405.62
440.936	410.62
441.158	402.62
441.379	393.62
441.6	435.62
441.822	435.62
442.043	448.62
442.264	513.62
442.486	531.62
442.707	469.62
442.928	449.62
443.149	454.62
443.371	443.62
443.592	480.62
443.813	546.62
444.034	603.62
444.255	511.62
444.476	457.62
444.698	444.62
444.919	450.62
445.14	588.62
445.361	528.62
445.582	457.62
445.803	522.62
446.024	549.62
446.245	561.62
446.466	501.62
446.687	447.62
446.908	439.62
447.129	424.62
447.35	391.62
447.571	403.62
447.792	386.62
448.013	396.62
448.234	413.62
448.455	452.62
448.675	519.62
448.896	575.62
449.117	466.62
449.338	482.62
449.559	573.62
449.779	623.62
450	501.62
450.221	426.62
450.442	402.62
450.662	376.62
450.883	375.62
451.104	383.62
451.324	365.62
451.545	371.62
451.766	390.62
451.986	371.62
452.207	360.62
452.428	350.62
452.648	341.62
452.869	361.62
453.089	374.62
453.31	369.62
453.53	361.62
453.751	338.62
453.971	382.62
454.192	358.62
454.412	376.62
454.633	362.62
454.853	366.62
455.073	380.62
455.294	368.62
455.514	406.62
455.734	401.62
455.955	368.62
456.175	357.62
456.395	329.62
456.616	356.62
456.836	344.62
457.056	356.62
457.276	362.62
457.497	358.62
457.717	356.62
457.937	355.62
458.157	358.62
458.377	385.62
458.598	387.62
458.818	405.62
459.038	453.62
459.258	457.62
459.478	397.62
459.698	403.62
459.918	397.62
460.138	396.62
460.358	388.62
460.578	413.62
460.798	400.62
461.018	403.62
461.238	396.62
461.458	407.62
461.678	401.62
461.898	419.62
462.118	406.62
462.338	450.62
462.558	444.62
462.777	439.62
462.997	433.62
463.217	456.62
463.437	467.62
463.657	431.62
463.876	433.62
464.096	429.62
464.316	448.62
464.536	448.62
464.755	441.62
464.975	431.62
465.195	433.62
465.414	448.62
465.634	422.62
465.854	397.62
466.073	389.62
466.293	386.62
466.512	368.62
466.732	373.62
466.951	375.62
467.171	373.62
467.391	383.62
467.61	383.62
467.829	372.62
468.049	387.62
468.268	338.62
468.488	357.62
468.707	364.62
468.927	360.62
469.146	382.62
469.365	381.62
469.585	373.62
469.804	382.62
470.023	370.62
470.243	385.62
470.462	376.62
470.681	387.62
470.901	381.62
471.12	380.62
471.339	379.62
471.558	392.62
471.777	387.62
471.997	356.62
472.216	391.62
472.435	393.62
472.654	390.62
472.873	381.62
473.092	396.62
473.311	363.62
473.53	379.62
473.749	374.62
473.968	419.62
474.187	452.62
474.406	459.62
474.625	401.62
474.844	377.62
475.063	384.62
475.282	383.62
475.501	369.62
475.72	404.62
475.939	370.62
476.158	379.62
476.377	379.62
476.596	392.62
476.814	403.62
477.033	393.62
477.252	397.62
477.471	399.62
477.69	399.62
477.908	405.62
478.127	414.62
478.346	400.62
478.564	423.62
478.783	437.62
479.002	420.62
479.22	421.62
479.439	447.62
479.658	454.62
479.876	451.62
480.095	448.62
480.313	490.62
480.532	465.62
480.751	466.62
480.969	471.62
481.188	520.62
481.406	481.62
481.624	477.62
481.843	459.62
482.061	456.62
482.28	426.62
482.498	418.62
482.717	435.62
482.935	429.62
483.153	425.62
483.372	442.62
483.59	427.62
483.808	430.62
484.027	429.62
484.245	429.62
484.463	441.62
484.681	461.62
484.9	440.62
485.118	428.62
485.336	442.62
485.554	446.62
485.772	444.62
485.99	436.62
486.209	434.62
486.427	455.62
486.645	463.62
486.863	472.62
487.081	471.62
487.299	472.62
487.517	441.62
487.735	447.62
487.953	455.62
488.171	448.62
488.389	442.62
488.607	468.62
488.825	453.62
489.043	463.62
489.261	440.62
489.479	456.62
489.696	482.62
489.914	464.62
490.132	442.62
490.35	463.62
490.568	466.62
490.786	481.62
491.003	489.62
491.221	507.62
491.439	487.62
491.657	511.62
491.874	499.62
492.092	484.62
492.31	524.62
492.527	552.62
492.745	540.62
492.963	523.62
493.18	511.62
493.398	511.62
493.615	518.62
493.833	527.62
494.05	520.62
494.268	523.62
494.485	525.62
494.703	516.62
494.92	537.62
495.138	535.62
495.355	513.62
495.573	532.62
495.79	553.62
496.008	526.62
496.225	539.62
496.442	528.62
496.66	545.62
496.877	544.62
497.094	563.62
497.312	551.62
497.529	563.62
497.746	577.62
497.963	569.62
498.181	588.62
498.398	601.62
498.615	618.62
498.832	615.62
499.049	628.62
499.267	662.62
499.484	683.62
499.701	718.62
499.918	726.62
500.135	789.62
500.352	822.62
500.569	809.62
500.786	843.62
501.003	823.62
501.22	792.62
501.437	742.62
501.654	743.62
501.871	709.62
502.088	684.62
