Data from 1964.PennyLincolnUp.Lamp.En5.5.200Scan.071719.P1._HRD10591_14-04-11-910.txt Node
Date: Thu Jul 18 14:04:11 EDT 2019
User: cochatt
Spectrometer: HR+D1059
Trigger mode: 1
Integration Time (sec): 1.000000E-1
Scans to average: 1
Electric dark correction enabled: true
Nonlinearity correction enabled: false
Boxcar width: 0
XAxis mode: Wavelengths
Number of Pixels in Spectrum: 2048
>>>>>Begin Spectral Data<<<<<
223.165	-10.25
223.4	-10.25
223.635	-10.25
223.869	-22.25
224.104	-19.25
224.338	-12.25
224.573	-21.25
224.808	-5.25
225.042	-4.25
225.277	0.75
225.511	7.75
225.746	2.75
225.98	-8.25
226.215	9.75
226.449	9.75
226.683	21.75
226.918	19.75
227.152	30.75
227.387	43.75
227.621	30.75
227.856	50.75
228.09	60.75
228.324	61.75
228.559	67.75
228.793	73.75
229.027	88.75
229.262	99.75
229.496	103.75
229.73	123.75
229.964	122.75
230.199	115.75
230.433	100.75
230.667	104.75
230.901	117.75
231.136	110.75
231.37	123.75
231.604	101.75
231.838	116.75
232.072	113.75
232.306	123.75
232.541	114.75
232.775	111.75
233.009	121.75
233.243	117.75
233.477	105.75
233.711	113.75
233.945	116.75
234.179	112.75
234.413	125.75
234.647	133.75
234.881	128.75
235.115	118.75
235.349	121.75
235.583	124.75
235.817	126.75
236.051	120.75
236.285	135.75
236.519	120.75
236.753	125.75
236.987	143.75
237.221	161.75
237.455	207.75
237.689	147.75
237.922	155.75
238.156	118.75
238.39	137.75
238.624	123.75
238.858	126.75
239.091	137.75
239.325	122.75
239.559	144.75
239.793	134.75
240.027	125.75
240.26	135.75
240.494	154.75
240.728	165.75
240.961	137.75
241.195	154.75
241.429	136.75
241.662	149.75
241.896	139.75
242.13	139.75
242.363	148.75
242.597	145.75
242.83	141.75
243.064	153.75
243.298	154.75
243.531	150.75
243.765	149.75
243.998	146.75
244.232	137.75
244.465	147.75
244.699	161.75
244.932	139.75
245.166	145.75
245.399	142.75
245.633	146.75
245.866	146.75
246.099	154.75
246.333	153.75
246.566	146.75
246.8	165.75
247.033	160.75
247.266	159.75
247.5	170.75
247.733	162.75
247.966	197.75
248.2	181.75
248.433	182.75
248.666	162.75
248.899	177.75
249.133	198.75
249.366	185.75
249.599	194.75
249.832	182.75
250.066	181.75
250.299	183.75
250.532	187.75
250.765	198.75
250.998	197.75
251.231	215.75
251.465	217.75
251.698	207.75
251.931	208.75
252.164	203.75
252.397	197.75
252.63	183.75
252.863	200.75
253.096	215.75
253.329	215.75
253.562	215.75
253.795	227.75
254.028	211.75
254.261	215.75
254.494	208.75
254.727	253.75
254.96	254.75
255.193	252.75
255.426	245.75
255.659	226.75
255.892	219.75
256.124	238.75
256.357	209.75
256.59	238.75
256.823	221.75
257.056	224.75
257.289	210.75
257.521	211.75
257.754	207.75
257.987	222.75
258.22	222.75
258.452	209.75
258.685	206.75
258.918	210.75
259.151	218.75
259.383	221.75
259.616	229.75
259.849	230.75
260.081	228.75
260.314	249.75
260.547	261.75
260.779	242.75
261.012	247.75
261.244	217.75
261.477	235.75
261.71	214.75
261.942	234.75
262.175	226.75
262.407	244.75
262.64	225.75
262.872	224.75
263.105	240.75
263.337	222.75
263.57	209.75
263.802	223.75
264.035	242.75
264.267	219.75
264.499	226.75
264.732	229.75
264.964	222.75
265.197	221.75
265.429	223.75
265.661	221.75
265.894	220.75
266.126	238.75
266.358	221.75
266.591	228.75
266.823	241.75
267.055	230.75
267.287	224.75
267.52	245.75
267.752	238.75
267.984	232.75
268.216	235.75
268.448	239.75
268.681	251.75
268.913	246.75
269.145	256.75
269.377	265.75
269.609	276.75
269.841	257.75
270.073	251.75
270.306	304.75
270.538	293.75
270.77	291.75
271.002	309.75
271.234	275.75
271.466	305.75
271.698	301.75
271.93	318.75
272.162	304.75
272.394	317.75
272.626	293.75
272.858	287.75
273.09	288.75
273.322	275.75
273.553	281.75
273.785	263.75
274.017	272.75
274.249	258.75
274.481	265.75
274.713	281.75
274.945	288.75
275.176	288.75
275.408	285.75
275.64	286.75
275.872	255.75
276.104	272.75
276.335	304.75
276.567	289.75
276.799	301.75
277.031	276.75
277.262	309.75
277.494	324.75
277.726	312.75
277.957	310.75
278.189	294.75
278.421	309.75
278.652	288.75
278.884	281.75
279.115	280.75
279.347	276.75
279.579	296.75
279.81	306.75
280.042	286.75
280.273	282.75
280.505	289.75
280.736	284.75
280.968	290.75
281.199	307.75
281.431	278.75
281.662	287.75
281.894	287.75
282.125	309.75
282.356	307.75
282.588	301.75
282.819	290.75
283.051	303.75
283.282	304.75
283.513	303.75
283.745	286.75
283.976	304.75
284.207	305.75
284.439	307.75
284.67	306.75
284.901	337.75
285.132	314.75
285.364	297.75
285.595	327.75
285.826	321.75
286.057	304.75
286.288	310.75
286.52	307.75
286.751	297.75
286.982	304.75
287.213	317.75
287.444	311.75
287.675	322.75
287.906	318.75
288.138	308.75
288.369	347.75
288.6	342.75
288.831	323.75
289.062	324.75
289.293	331.75
289.524	315.75
289.755	317.75
289.986	321.75
290.217	327.75
290.448	322.75
290.679	321.75
290.91	337.75
291.141	326.75
291.371	306.75
291.602	333.75
291.833	331.75
292.064	329.75
292.295	321.75
292.526	313.75
292.757	313.75
292.987	311.75
293.218	317.75
293.449	326.75
293.68	330.75
293.91	323.75
294.141	325.75
294.372	317.75
294.603	302.75
294.833	317.75
295.064	324.75
295.295	330.75
295.525	334.75
295.756	350.75
295.987	312.75
296.217	351.75
296.448	342.75
296.679	336.75
296.909	347.75
297.14	334.75
297.37	327.75
297.601	337.75
297.831	332.75
298.062	337.75
298.292	310.75
298.523	326.75
298.753	335.75
298.984	337.75
299.214	347.75
299.445	345.75
299.675	345.75
299.905	354.75
300.136	339.75
300.366	357.75
300.597	336.75
300.827	333.75
301.057	358.75
301.288	358.75
301.518	370.75
301.748	368.75
301.979	356.75
302.209	342.75
302.439	368.75
302.669	366.75
302.9	345.75
303.13	366.75
303.36	379.75
303.59	372.75
303.82	381.75
304.051	377.75
304.281	357.75
304.511	351.75
304.741	356.75
304.971	346.75
305.201	343.75
305.431	351.75
305.661	367.75
305.891	354.75
306.121	374.75
306.352	370.75
306.582	360.75
306.812	366.75
307.042	381.75
307.272	364.75
307.502	363.75
307.731	381.75
307.961	357.75
308.191	374.75
308.421	373.75
308.651	369.75
308.881	382.75
309.111	365.75
309.341	362.75
309.571	361.75
309.8	361.75
310.03	381.75
310.26	390.75
310.49	383.75
310.72	402.75
310.949	413.75
311.179	404.75
311.409	370.75
311.639	375.75
311.868	387.75
312.098	417.75
312.328	394.75
312.557	422.75
312.787	406.75
313.017	419.75
313.246	403.75
313.476	393.75
313.706	391.75
313.935	394.75
314.165	402.75
314.394	409.75
314.624	408.75
314.853	399.75
315.083	412.75
315.312	417.75
315.542	390.75
315.771	383.75
316.001	387.75
316.23	404.75
316.46	401.75
316.689	406.75
316.919	394.75
317.148	410.75
317.377	411.75
317.607	416.75
317.836	409.75
318.065	388.75
318.295	394.75
318.524	385.75
318.753	390.75
318.983	402.75
319.212	404.75
319.441	416.75
319.67	411.75
319.9	415.75
320.129	416.75
320.358	397.75
320.587	397.75
320.816	393.75
321.046	411.75
321.275	415.75
321.504	406.75
321.733	425.75
321.962	405.75
322.191	414.75
322.42	435.75
322.649	422.75
322.878	426.75
323.108	434.75
323.337	469.75
323.566	457.75
323.795	466.75
324.024	490.75
324.253	583.75
324.482	748.75
324.71	1081.75
324.939	1491.75
325.168	1237.75
325.397	690.75
325.626	540.75
325.855	487.75
326.084	466.75
326.313	449.75
326.542	458.75
326.77	486.75
326.999	571.75
327.228	708.75
327.457	979.75
327.686	1105.75
327.914	772.75
328.143	569.75
328.372	517.75
328.6	525.75
328.829	510.75
329.058	491.75
329.287	495.75
329.515	479.75
329.744	481.75
329.972	480.75
330.201	503.75
330.43	525.75
330.658	539.75
330.887	541.75
331.115	514.75
331.344	491.75
331.572	493.75
331.801	465.75
332.03	494.75
332.258	474.75
332.486	488.75
332.715	479.75
332.943	485.75
333.172	477.75
333.4	486.75
333.629	488.75
333.857	526.75
334.085	527.75
334.314	528.75
334.542	537.75
334.771	542.75
334.999	526.75
335.227	517.75
335.455	507.75
335.684	472.75
335.912	486.75
336.14	475.75
336.369	476.75
336.597	477.75
336.825	462.75
337.053	459.75
337.281	453.75
337.51	466.75
337.738	473.75
337.966	458.75
338.194	455.75
338.422	450.75
338.65	466.75
338.878	446.75
339.106	450.75
339.334	453.75
339.562	465.75
339.79	455.75
340.018	437.75
340.246	458.75
340.474	444.75
340.702	462.75
340.93	432.75
341.158	448.75
341.386	456.75
341.614	447.75
341.842	433.75
342.07	429.75
342.298	429.75
342.526	448.75
342.754	415.75
342.981	438.75
343.209	430.75
343.437	441.75
343.665	445.75
343.893	460.75
344.12	481.75
344.348	470.75
344.576	447.75
344.804	451.75
345.031	465.75
345.259	459.75
345.487	465.75
345.714	417.75
345.942	425.75
346.17	447.75
346.397	441.75
346.625	408.75
346.853	439.75
347.08	411.75
347.308	425.75
347.535	428.75
347.763	416.75
347.99	412.75
348.218	417.75
348.445	432.75
348.673	419.75
348.9	405.75
349.128	413.75
349.355	419.75
349.583	428.75
349.81	407.75
350.037	430.75
350.265	411.75
350.492	416.75
350.72	407.75
350.947	421.75
351.174	431.75
351.402	415.75
351.629	399.75
351.856	398.75
352.083	418.75
352.311	420.75
352.538	424.75
352.765	424.75
352.992	406.75
353.22	397.75
353.447	417.75
353.674	407.75
353.901	387.75
354.128	390.75
354.355	389.75
354.583	400.75
354.81	407.75
355.037	398.75
355.264	394.75
355.491	390.75
355.718	397.75
355.945	379.75
356.172	397.75
356.399	394.75
356.626	394.75
356.853	392.75
357.08	403.75
357.307	389.75
357.534	389.75
357.761	404.75
357.988	382.75
358.215	423.75
358.441	409.75
358.668	383.75
358.895	409.75
359.122	392.75
359.349	409.75
359.576	410.75
359.802	433.75
360.029	433.75
360.256	447.75
360.483	409.75
360.709	403.75
360.936	412.75
361.163	401.75
361.39	433.75
361.616	403.75
361.843	406.75
362.07	398.75
362.296	420.75
362.523	398.75
362.749	399.75
362.976	393.75
363.203	406.75
363.429	396.75
363.656	393.75
363.882	385.75
364.109	397.75
364.335	402.75
364.562	385.75
364.788	393.75
365.015	387.75
365.241	398.75
365.468	398.75
365.694	399.75
365.92	376.75
366.147	407.75
366.373	413.75
366.599	398.75
366.826	382.75
367.052	384.75
367.278	387.75
367.505	389.75
367.731	404.75
367.957	389.75
368.184	382.75
368.41	385.75
368.636	410.75
368.862	398.75
369.089	393.75
369.315	401.75
369.541	414.75
369.767	392.75
369.993	402.75
370.219	386.75
370.445	397.75
370.672	387.75
370.898	391.75
371.124	403.75
371.35	408.75
371.576	371.75
371.802	407.75
372.028	383.75
372.254	401.75
372.48	405.75
372.706	381.75
372.932	391.75
373.158	401.75
373.384	417.75
373.61	406.75
373.835	405.75
374.061	403.75
374.287	395.75
374.513	404.75
374.739	398.75
374.965	419.75
375.191	419.75
375.416	411.75
375.642	424.75
375.868	387.75
376.094	381.75
376.319	386.75
376.545	378.75
376.771	407.75
376.997	369.75
377.222	381.75
377.448	421.75
377.674	392.75
377.899	380.75
378.125	397.75
378.35	391.75
378.576	382.75
378.802	370.75
379.027	375.75
379.253	392.75
379.478	386.75
379.704	386.75
379.929	397.75
380.155	400.75
380.38	398.75
380.606	401.75
380.831	405.75
381.057	407.75
381.282	393.75
381.507	393.75
381.733	397.75
381.958	420.75
382.184	402.75
382.409	413.75
382.634	391.75
382.86	421.75
383.085	396.75
383.31	412.75
383.535	407.75
383.761	392.75
383.986	425.75
384.211	427.75
384.436	414.75
384.662	426.75
384.887	417.75
385.112	431.75
385.337	419.75
385.562	415.75
385.787	414.75
386.013	421.75
386.238	442.75
386.463	439.75
386.688	450.75
386.913	432.75
387.138	414.75
387.363	415.75
387.588	415.75
387.813	423.75
388.038	423.75
388.263	427.75
388.488	421.75
388.713	421.75
388.938	418.75
389.163	411.75
389.387	448.75
389.612	416.75
389.837	416.75
390.062	434.75
390.287	423.75
390.512	430.75
390.736	447.75
390.961	450.75
391.186	415.75
391.411	433.75
391.636	439.75
391.86	444.75
392.085	469.75
392.31	431.75
392.534	442.75
392.759	462.75
392.984	442.75
393.208	437.75
393.433	427.75
393.658	426.75
393.882	425.75
394.107	410.75
394.331	448.75
394.556	417.75
394.78	433.75
395.005	439.75
395.229	434.75
395.454	463.75
395.678	455.75
395.903	443.75
396.127	460.75
396.352	452.75
396.576	460.75
396.801	444.75
397.025	453.75
397.249	457.75
397.474	473.75
397.698	462.75
397.922	486.75
398.147	458.75
398.371	471.75
398.595	473.75
398.82	478.75
399.044	501.75
399.268	519.75
399.492	536.75
399.717	573.75
399.941	595.75
400.165	609.75
400.389	585.75
400.613	561.75
400.837	517.75
401.062	485.75
401.286	494.75
401.51	477.75
401.734	468.75
401.958	477.75
402.182	471.75
402.406	480.75
402.63	487.75
402.854	485.75
403.078	479.75
403.302	515.75
403.526	506.75
403.75	506.75
403.974	505.75
404.198	498.75
404.422	491.75
404.645	513.75
404.869	503.75
405.093	512.75
405.317	560.75
405.541	583.75
405.765	544.75
405.988	521.75
406.212	521.75
406.436	516.75
406.66	540.75
406.883	520.75
407.107	545.75
407.331	580.75
407.555	625.75
407.778	633.75
408.002	576.75
408.226	556.75
408.449	544.75
408.673	532.75
408.896	549.75
409.12	575.75
409.344	554.75
409.567	523.75
409.791	504.75
410.014	514.75
410.238	488.75
410.461	505.75
410.685	503.75
410.908	496.75
411.132	521.75
411.355	541.75
411.578	525.75
411.802	499.75
412.025	495.75
412.249	476.75
412.472	502.75
412.695	535.75
412.919	553.75
413.142	497.75
413.365	473.75
413.589	465.75
413.812	488.75
414.035	466.75
414.258	466.75
414.482	444.75
414.705	475.75
414.928	477.75
415.151	458.75
415.374	467.75
415.597	459.75
415.821	453.75
416.044	453.75
416.267	466.75
416.49	435.75
416.713	446.75
416.936	456.75
417.159	462.75
417.382	460.75
417.605	470.75
417.828	485.75
418.051	464.75
418.274	458.75
418.497	446.75
418.72	461.75
418.943	448.75
419.166	475.75
419.389	473.75
419.611	476.75
419.834	486.75
420.057	474.75
420.28	470.75
420.503	465.75
420.726	461.75
420.948	484.75
421.171	487.75
421.394	537.75
421.617	479.75
421.839	457.75
422.062	486.75
422.285	502.75
422.507	517.75
422.73	565.75
422.953	544.75
423.175	476.75
423.398	511.75
423.621	461.75
423.843	493.75
424.066	501.75
424.288	490.75
424.511	507.75
424.733	556.75
424.956	585.75
425.178	575.75
425.401	563.75
425.623	576.75
425.846	511.75
426.068	505.75
426.291	466.75
426.513	487.75
426.735	473.75
426.958	508.75
427.18	591.75
427.402	681.75
427.625	711.75
427.847	600.75
428.069	562.75
428.292	503.75
428.514	477.75
428.736	452.75
428.958	471.75
429.181	430.75
429.403	463.75
429.625	465.75
429.847	474.75
430.069	508.75
430.292	525.75
430.514	471.75
430.736	444.75
430.958	442.75
431.18	436.75
431.402	446.75
431.624	437.75
431.846	407.75
432.068	424.75
432.29	433.75
432.512	435.75
432.734	459.75
432.956	445.75
433.178	442.75
433.4	441.75
433.622	439.75
433.844	439.75
434.066	417.75
434.287	434.75
434.509	437.75
434.731	441.75
434.953	468.75
435.175	449.75
435.397	482.75
435.618	488.75
435.84	513.75
436.062	574.75
436.284	608.75
436.505	528.75
436.727	474.75
436.949	451.75
437.17	453.75
437.392	450.75
437.614	458.75
437.835	493.75
438.057	531.75
438.278	581.75
438.5	607.75
438.721	653.75
438.943	619.75
439.165	501.75
439.386	490.75
439.608	477.75
439.829	468.75
440.05	501.75
440.272	530.75
440.493	512.75
440.715	460.75
440.936	455.75
441.158	462.75
441.379	457.75
441.6	449.75
441.822	453.75
442.043	519.75
442.264	586.75
442.486	600.75
442.707	526.75
442.928	496.75
443.149	517.75
443.371	533.75
443.592	529.75
443.813	611.75
444.034	649.75
444.255	568.75
444.476	519.75
444.698	505.75
444.919	495.75
445.14	592.75
445.361	558.75
445.582	511.75
445.803	549.75
446.024	605.75
446.245	614.75
446.466	541.75
446.687	488.75
446.908	473.75
447.129	457.75
447.35	437.75
447.571	454.75
447.792	434.75
448.013	434.75
448.234	440.75
448.455	487.75
448.675	565.75
448.896	633.75
449.117	554.75
449.338	531.75
449.559	596.75
449.779	669.75
450	550.75
450.221	474.75
450.442	439.75
450.662	431.75
450.883	418.75
451.104	439.75
451.324	438.75
451.545	409.75
451.766	421.75
451.986	401.75
452.207	375.75
452.428	391.75
452.648	392.75
452.869	382.75
453.089	403.75
453.31	407.75
453.53	382.75
453.751	387.75
453.971	396.75
454.192	395.75
454.412	387.75
454.633	394.75
454.853	375.75
455.073	377.75
455.294	392.75
455.514	464.75
455.734	441.75
455.955	400.75
456.175	385.75
456.395	382.75
456.616	395.75
456.836	397.75
457.056	391.75
457.276	377.75
457.497	374.75
457.717	367.75
457.937	375.75
458.157	389.75
458.377	388.75
458.598	415.75
458.818	445.75
459.038	472.75
459.258	493.75
459.478	450.75
459.698	418.75
459.918	424.75
460.138	417.75
460.358	431.75
460.578	443.75
460.798	458.75
461.018	449.75
461.238	446.75
461.458	453.75
461.678	443.75
461.898	469.75
462.118	434.75
462.338	449.75
462.558	455.75
462.777	466.75
462.997	495.75
463.217	505.75
463.437	496.75
463.657	489.75
463.876	462.75
464.096	504.75
464.316	463.75
464.536	473.75
464.755	476.75
464.975	470.75
465.195	470.75
465.414	501.75
465.634	453.75
465.854	435.75
466.073	429.75
466.293	434.75
466.512	426.75
466.732	392.75
466.951	420.75
467.171	415.75
467.391	382.75
467.61	398.75
467.829	411.75
468.049	414.75
468.268	413.75
468.488	401.75
468.707	414.75
468.927	395.75
469.146	380.75
469.365	389.75
469.585	393.75
469.804	395.75
470.023	440.75
470.243	398.75
470.462	421.75
470.681	427.75
470.901	397.75
471.12	409.75
471.339	427.75
471.558	411.75
471.777	411.75
471.997	406.75
472.216	412.75
472.435	423.75
472.654	402.75
472.873	417.75
473.092	415.75
473.311	403.75
473.53	414.75
473.749	411.75
473.968	450.75
474.187	522.75
474.406	530.75
474.625	439.75
474.844	427.75
475.063	408.75
475.282	416.75
475.501	403.75
475.72	448.75
475.939	425.75
476.158	411.75
476.377	412.75
476.596	433.75
476.814	409.75
477.033	422.75
477.252	459.75
477.471	441.75
477.69	452.75
477.908	462.75
478.127	456.75
478.346	448.75
478.564	465.75
478.783	471.75
479.002	486.75
479.22	473.75
479.439	467.75
479.658	508.75
479.876	488.75
480.095	499.75
480.313	514.75
480.532	512.75
480.751	517.75
480.969	507.75
481.188	530.75
481.406	526.75
481.624	511.75
481.843	480.75
482.061	494.75
482.28	490.75
482.498	466.75
482.717	467.75
482.935	473.75
483.153	460.75
483.372	462.75
483.59	477.75
483.808	487.75
484.027	492.75
484.245	468.75
484.463	498.75
484.681	490.75
484.9	468.75
485.118	486.75
485.336	489.75
485.554	464.75
485.772	490.75
485.99	487.75
486.209	481.75
486.427	485.75
486.645	529.75
486.863	497.75
487.081	490.75
487.299	507.75
487.517	489.75
487.735	482.75
487.953	498.75
488.171	495.75
488.389	514.75
488.607	515.75
488.825	512.75
489.043	498.75
489.261	497.75
489.479	502.75
489.696	501.75
489.914	517.75
490.132	518.75
490.35	527.75
490.568	539.75
490.786	503.75
491.003	513.75
491.221	561.75
491.439	564.75
491.657	538.75
491.874	553.75
492.092	556.75
492.31	585.75
492.527	551.75
492.745	570.75
492.963	571.75
493.18	567.75
493.398	567.75
493.615	609.75
493.833	570.75
494.05	559.75
494.268	576.75
494.485	576.75
494.703	577.75
494.92	591.75
495.138	553.75
495.355	592.75
495.573	576.75
495.79	581.75
496.008	588.75
496.225	591.75
496.442	595.75
496.66	609.75
496.877	601.75
497.094	576.75
497.312	599.75
497.529	610.75
497.746	617.75
497.963	622.75
498.181	656.75
498.398	673.75
498.615	673.75
498.832	693.75
499.049	685.75
499.267	729.75
499.484	757.75
499.701	785.75
499.918	809.75
500.135	879.75
500.352	903.75
500.569	937.75
500.786	923.75
501.003	912.75
501.22	853.75
501.437	832.75
501.654	785.75
501.871	767.75
502.088	755.75
