Data from 1964.PennyLincolnUp.Lamp.En5.5.200Scan.071719.P1._HRD10591_14-05-00-909.txt Node
Date: Thu Jul 18 14:05:00 EDT 2019
User: cochatt
Spectrometer: HR+D1059
Trigger mode: 1
Integration Time (sec): 1.000000E-1
Scans to average: 1
Electric dark correction enabled: true
Nonlinearity correction enabled: false
Boxcar width: 0
XAxis mode: Wavelengths
Number of Pixels in Spectrum: 2048
>>>>>Begin Spectral Data<<<<<
223.165	-9.56
223.4	-9.56
223.635	-9.56
223.869	-1.56
224.104	-14.56
224.338	-27.56
224.573	-13.56
224.808	-7.56
225.042	-15.56
225.277	2.44
225.511	3.44
225.746	-3.56
225.98	-2.56
226.215	5.44
226.449	11.44
226.683	18.44
226.918	24.44
227.152	30.44
227.387	21.44
227.621	41.44
227.856	35.44
228.09	41.44
228.324	48.44
228.559	52.44
228.793	78.44
229.027	107.44
229.262	97.44
229.496	93.44
229.73	106.44
229.964	119.44
230.199	123.44
230.433	120.44
230.667	101.44
230.901	108.44
231.136	114.44
231.37	114.44
231.604	97.44
231.838	116.44
232.072	96.44
232.306	117.44
232.541	96.44
232.775	102.44
233.009	112.44
233.243	101.44
233.477	112.44
233.711	130.44
233.945	128.44
234.179	98.44
234.413	113.44
234.647	126.44
234.881	117.44
235.115	116.44
235.349	98.44
235.583	118.44
235.817	127.44
236.051	110.44
236.285	128.44
236.519	116.44
236.753	127.44
236.987	125.44
237.221	163.44
237.455	187.44
237.689	158.44
237.922	120.44
238.156	126.44
238.39	126.44
238.624	124.44
238.858	98.44
239.091	121.44
239.325	112.44
239.559	121.44
239.793	124.44
240.027	133.44
240.26	121.44
240.494	139.44
240.728	145.44
240.961	128.44
241.195	151.44
241.429	132.44
241.662	121.44
241.896	136.44
242.13	134.44
242.363	123.44
242.597	122.44
242.83	121.44
243.064	157.44
243.298	136.44
243.531	137.44
243.765	131.44
243.998	146.44
244.232	130.44
244.465	138.44
244.699	148.44
244.932	145.44
245.166	143.44
245.399	142.44
245.633	141.44
245.866	136.44
246.099	147.44
246.333	160.44
246.566	157.44
246.8	151.44
247.033	170.44
247.266	158.44
247.5	161.44
247.733	163.44
247.966	162.44
248.2	164.44
248.433	180.44
248.666	169.44
248.899	196.44
249.133	191.44
249.366	200.44
249.599	187.44
249.832	196.44
250.066	201.44
250.299	186.44
250.532	192.44
250.765	188.44
250.998	206.44
251.231	220.44
251.465	206.44
251.698	203.44
251.931	196.44
252.164	200.44
252.397	193.44
252.63	207.44
252.863	202.44
253.096	206.44
253.329	234.44
253.562	208.44
253.795	230.44
254.028	200.44
254.261	228.44
254.494	229.44
254.727	230.44
254.96	257.44
255.193	257.44
255.426	247.44
255.659	213.44
255.892	228.44
256.124	242.44
256.357	226.44
256.59	232.44
256.823	218.44
257.056	224.44
257.289	221.44
257.521	198.44
257.754	209.44
257.987	211.44
258.22	220.44
258.452	206.44
258.685	216.44
258.918	223.44
259.151	219.44
259.383	221.44
259.616	226.44
259.849	220.44
260.081	234.44
260.314	252.44
260.547	240.44
260.779	240.44
261.012	242.44
261.244	249.44
261.477	228.44
261.71	235.44
261.942	215.44
262.175	234.44
262.407	244.44
262.64	231.44
262.872	236.44
263.105	224.44
263.337	222.44
263.57	229.44
263.802	219.44
264.035	235.44
264.267	231.44
264.499	210.44
264.732	225.44
264.964	235.44
265.197	221.44
265.429	225.44
265.661	224.44
265.894	229.44
266.126	221.44
266.358	234.44
266.591	226.44
266.823	233.44
267.055	241.44
267.287	246.44
267.52	240.44
267.752	260.44
267.984	234.44
268.216	241.44
268.448	274.44
268.681	256.44
268.913	259.44
269.145	268.44
269.377	278.44
269.609	284.44
269.841	288.44
270.073	274.44
270.306	304.44
270.538	300.44
270.77	312.44
271.002	301.44
271.234	305.44
271.466	295.44
271.698	290.44
271.93	312.44
272.162	320.44
272.394	316.44
272.626	298.44
272.858	297.44
273.09	276.44
273.322	280.44
273.553	284.44
273.785	268.44
274.017	276.44
274.249	296.44
274.481	285.44
274.713	281.44
274.945	277.44
275.176	297.44
275.408	284.44
275.64	271.44
275.872	266.44
276.104	282.44
276.335	281.44
276.567	293.44
276.799	281.44
277.031	313.44
277.262	321.44
277.494	328.44
277.726	309.44
277.957	312.44
278.189	274.44
278.421	304.44
278.652	296.44
278.884	278.44
279.115	278.44
279.347	279.44
279.579	311.44
279.81	293.44
280.042	293.44
280.273	288.44
280.505	278.44
280.736	288.44
280.968	281.44
281.199	293.44
281.431	289.44
281.662	297.44
281.894	312.44
282.125	288.44
282.356	289.44
282.588	314.44
282.819	314.44
283.051	300.44
283.282	298.44
283.513	292.44
283.745	310.44
283.976	311.44
284.207	304.44
284.439	304.44
284.67	311.44
284.901	313.44
285.132	310.44
285.364	303.44
285.595	318.44
285.826	317.44
286.057	323.44
286.288	310.44
286.52	330.44
286.751	321.44
286.982	309.44
287.213	316.44
287.444	317.44
287.675	334.44
287.906	335.44
288.138	335.44
288.369	317.44
288.6	340.44
288.831	330.44
289.062	323.44
289.293	324.44
289.524	309.44
289.755	316.44
289.986	321.44
290.217	325.44
290.448	323.44
290.679	333.44
290.91	328.44
291.141	330.44
291.371	318.44
291.602	331.44
291.833	324.44
292.064	336.44
292.295	322.44
292.526	315.44
292.757	330.44
292.987	331.44
293.218	332.44
293.449	334.44
293.68	330.44
293.91	308.44
294.141	315.44
294.372	328.44
294.603	324.44
294.833	329.44
295.064	345.44
295.295	326.44
295.525	331.44
295.756	339.44
295.987	330.44
296.217	331.44
296.448	342.44
296.679	345.44
296.909	321.44
297.14	320.44
297.37	334.44
297.601	344.44
297.831	344.44
298.062	336.44
298.292	340.44
298.523	353.44
298.753	338.44
298.984	345.44
299.214	335.44
299.445	346.44
299.675	341.44
299.905	347.44
300.136	329.44
300.366	340.44
300.597	343.44
300.827	351.44
301.057	352.44
301.288	380.44
301.518	348.44
301.748	364.44
301.979	372.44
302.209	374.44
302.439	370.44
302.669	371.44
302.9	368.44
303.13	352.44
303.36	365.44
303.59	362.44
303.82	368.44
304.051	372.44
304.281	376.44
304.511	373.44
304.741	340.44
304.971	368.44
305.201	340.44
305.431	352.44
305.661	360.44
305.891	364.44
306.121	391.44
306.352	364.44
306.582	363.44
306.812	354.44
307.042	375.44
307.272	361.44
307.502	375.44
307.731	366.44
307.961	370.44
308.191	357.44
308.421	378.44
308.651	386.44
308.881	374.44
309.111	380.44
309.341	371.44
309.571	374.44
309.8	396.44
310.03	387.44
310.26	384.44
310.49	370.44
310.72	402.44
310.949	397.44
311.179	416.44
311.409	406.44
311.639	409.44
311.868	392.44
312.098	386.44
312.328	411.44
312.557	430.44
312.787	423.44
313.017	433.44
313.246	406.44
313.476	400.44
313.706	406.44
313.935	425.44
314.165	427.44
314.394	402.44
314.624	402.44
314.853	413.44
315.083	412.44
315.312	400.44
315.542	416.44
315.771	421.44
316.001	393.44
316.23	394.44
316.46	419.44
316.689	388.44
316.919	400.44
317.148	402.44
317.377	409.44
317.607	403.44
317.836	427.44
318.065	398.44
318.295	401.44
318.524	406.44
318.753	392.44
318.983	394.44
319.212	404.44
319.441	438.44
319.67	403.44
319.9	388.44
320.129	409.44
320.358	411.44
320.587	417.44
320.816	432.44
321.046	420.44
321.275	424.44
321.504	413.44
321.733	426.44
321.962	437.44
322.191	432.44
322.42	419.44
322.649	456.44
322.878	446.44
323.108	445.44
323.337	449.44
323.566	478.44
323.795	500.44
324.024	531.44
324.253	592.44
324.482	821.44
324.71	1163.44
324.939	1590.44
325.168	1337.44
325.397	734.44
325.626	572.44
325.855	505.44
326.084	483.44
326.313	475.44
326.542	472.44
326.77	505.44
326.999	601.44
327.228	733.44
327.457	1053.44
327.686	1186.44
327.914	802.44
328.143	590.44
328.372	564.44
328.6	551.44
328.829	534.44
329.058	533.44
329.287	539.44
329.515	529.44
329.744	513.44
329.972	489.44
330.201	498.44
330.43	518.44
330.658	566.44
330.887	552.44
331.115	534.44
331.344	505.44
331.572	465.44
331.801	497.44
332.03	493.44
332.258	486.44
332.486	450.44
332.715	476.44
332.943	482.44
333.172	502.44
333.4	507.44
333.629	489.44
333.857	522.44
334.085	532.44
334.314	536.44
334.542	551.44
334.771	562.44
334.999	528.44
335.227	506.44
335.455	507.44
335.684	473.44
335.912	496.44
336.14	477.44
336.369	498.44
336.597	478.44
336.825	495.44
337.053	476.44
337.281	484.44
337.51	471.44
337.738	470.44
337.966	474.44
338.194	458.44
338.422	465.44
338.65	443.44
338.878	455.44
339.106	467.44
339.334	469.44
339.562	456.44
339.79	448.44
340.018	458.44
340.246	447.44
340.474	436.44
340.702	447.44
340.93	453.44
341.158	435.44
341.386	436.44
341.614	453.44
341.842	451.44
342.07	439.44
342.298	436.44
342.526	454.44
342.754	432.44
342.981	446.44
343.209	459.44
343.437	432.44
343.665	455.44
343.893	453.44
344.12	488.44
344.348	472.44
344.576	477.44
344.804	462.44
345.031	474.44
345.259	468.44
345.487	442.44
345.714	451.44
345.942	441.44
346.17	439.44
346.397	433.44
346.625	439.44
346.853	449.44
347.08	433.44
347.308	441.44
347.535	431.44
347.763	440.44
347.99	445.44
348.218	440.44
348.445	437.44
348.673	425.44
348.9	422.44
349.128	411.44
349.355	412.44
349.583	432.44
349.81	409.44
350.037	405.44
350.265	398.44
350.492	420.44
350.72	415.44
350.947	419.44
351.174	416.44
351.402	417.44
351.629	439.44
351.856	424.44
352.083	408.44
352.311	423.44
352.538	408.44
352.765	421.44
352.992	419.44
353.22	426.44
353.447	420.44
353.674	399.44
353.901	385.44
354.128	394.44
354.355	409.44
354.583	388.44
354.81	398.44
355.037	396.44
355.264	402.44
355.491	395.44
355.718	405.44
355.945	382.44
356.172	398.44
356.399	406.44
356.626	394.44
356.853	413.44
357.08	406.44
357.307	398.44
357.534	395.44
357.761	377.44
357.988	404.44
358.215	402.44
358.441	413.44
358.668	417.44
358.895	390.44
359.122	387.44
359.349	414.44
359.576	418.44
359.802	425.44
360.029	434.44
360.256	439.44
360.483	427.44
360.709	433.44
360.936	419.44
361.163	386.44
361.39	399.44
361.616	423.44
361.843	413.44
362.07	410.44
362.296	410.44
362.523	401.44
362.749	417.44
362.976	390.44
363.203	420.44
363.429	403.44
363.656	411.44
363.882	394.44
364.109	406.44
364.335	396.44
364.562	414.44
364.788	397.44
365.015	389.44
365.241	399.44
365.468	384.44
365.694	390.44
365.92	392.44
366.147	407.44
366.373	412.44
366.599	403.44
366.826	385.44
367.052	408.44
367.278	371.44
367.505	412.44
367.731	397.44
367.957	406.44
368.184	409.44
368.41	418.44
368.636	412.44
368.862	409.44
369.089	432.44
369.315	406.44
369.541	387.44
369.767	400.44
369.993	401.44
370.219	410.44
370.445	404.44
370.672	395.44
370.898	402.44
371.124	397.44
371.35	402.44
371.576	409.44
371.802	401.44
372.028	378.44
372.254	393.44
372.48	419.44
372.706	404.44
372.932	404.44
373.158	396.44
373.384	409.44
373.61	413.44
373.835	398.44
374.061	433.44
374.287	405.44
374.513	406.44
374.739	417.44
374.965	416.44
375.191	413.44
375.416	407.44
375.642	408.44
375.868	392.44
376.094	390.44
376.319	413.44
376.545	378.44
376.771	402.44
376.997	398.44
377.222	398.44
377.448	389.44
377.674	388.44
377.899	384.44
378.125	406.44
378.35	404.44
378.576	387.44
378.802	396.44
379.027	409.44
379.253	392.44
379.478	382.44
379.704	392.44
379.929	404.44
380.155	372.44
380.38	408.44
380.606	391.44
380.831	386.44
381.057	381.44
381.282	393.44
381.507	383.44
381.733	392.44
381.958	392.44
382.184	397.44
382.409	406.44
382.634	386.44
382.86	388.44
383.085	406.44
383.31	398.44
383.535	419.44
383.761	394.44
383.986	404.44
384.211	407.44
384.436	432.44
384.662	428.44
384.887	442.44
385.112	434.44
385.337	412.44
385.562	436.44
385.787	425.44
386.013	430.44
386.238	440.44
386.463	444.44
386.688	431.44
386.913	434.44
387.138	421.44
387.363	429.44
387.588	416.44
387.813	446.44
388.038	428.44
388.263	441.44
388.488	449.44
388.713	436.44
388.938	404.44
389.163	419.44
389.387	412.44
389.612	444.44
389.837	428.44
390.062	411.44
390.287	423.44
390.512	417.44
390.736	420.44
390.961	450.44
391.186	444.44
391.411	440.44
391.636	456.44
391.86	438.44
392.085	455.44
392.31	432.44
392.534	442.44
392.759	441.44
392.984	423.44
393.208	418.44
393.433	429.44
393.658	454.44
393.882	438.44
394.107	425.44
394.331	430.44
394.556	443.44
394.78	456.44
395.005	440.44
395.229	432.44
395.454	418.44
395.678	456.44
395.903	443.44
396.127	454.44
396.352	472.44
396.576	453.44
396.801	444.44
397.025	456.44
397.249	472.44
397.474	447.44
397.698	447.44
397.922	462.44
398.147	478.44
398.371	490.44
398.595	483.44
398.82	471.44
399.044	535.44
399.268	522.44
399.492	549.44
399.717	579.44
399.941	606.44
400.165	594.44
400.389	622.44
400.613	540.44
400.837	512.44
401.062	500.44
401.286	506.44
401.51	482.44
401.734	469.44
401.958	492.44
402.182	501.44
402.406	481.44
402.63	501.44
402.854	502.44
403.078	497.44
403.302	472.44
403.526	502.44
403.75	497.44
403.974	488.44
404.198	515.44
404.422	523.44
404.645	537.44
404.869	509.44
405.093	537.44
405.317	561.44
405.541	601.44
405.765	545.44
405.988	523.44
406.212	522.44
406.436	537.44
406.66	553.44
406.883	531.44
407.107	567.44
407.331	589.44
407.555	637.44
407.778	640.44
408.002	594.44
408.226	548.44
408.449	519.44
408.673	549.44
408.896	562.44
409.12	587.44
409.344	580.44
409.567	503.44
409.791	522.44
410.014	510.44
410.238	494.44
410.461	477.44
410.685	479.44
410.908	509.44
411.132	523.44
411.355	549.44
411.578	511.44
411.802	492.44
412.025	491.44
412.249	515.44
412.472	542.44
412.695	568.44
412.919	538.44
413.142	504.44
413.365	486.44
413.589	475.44
413.812	468.44
414.035	459.44
414.258	470.44
414.482	473.44
414.705	444.44
414.928	478.44
415.151	468.44
415.374	467.44
415.597	471.44
415.821	441.44
416.044	458.44
416.267	486.44
416.49	441.44
416.713	452.44
416.936	458.44
417.159	451.44
417.382	475.44
417.605	459.44
417.828	484.44
418.051	502.44
418.274	466.44
418.497	465.44
418.72	448.44
418.943	458.44
419.166	470.44
419.389	520.44
419.611	498.44
419.834	490.44
420.057	477.44
420.28	493.44
420.503	487.44
420.726	472.44
420.948	486.44
421.171	518.44
421.394	544.44
421.617	497.44
421.839	486.44
422.062	491.44
422.285	518.44
422.507	529.44
422.73	592.44
422.953	552.44
423.175	532.44
423.398	475.44
423.621	491.44
423.843	480.44
424.066	504.44
424.288	499.44
424.511	504.44
424.733	571.44
424.956	612.44
425.178	578.44
425.401	604.44
425.623	590.44
425.846	533.44
426.068	492.44
426.291	480.44
426.513	515.44
426.735	524.44
426.958	542.44
427.18	586.44
427.402	677.44
427.625	724.44
427.847	642.44
428.069	563.44
428.292	533.44
428.514	485.44
428.736	473.44
428.958	466.44
429.181	444.44
429.403	456.44
429.625	470.44
429.847	486.44
430.069	521.44
430.292	535.44
430.514	465.44
430.736	457.44
430.958	454.44
431.18	445.44
431.402	454.44
431.624	423.44
431.846	436.44
432.068	432.44
432.29	449.44
432.512	450.44
432.734	422.44
432.956	425.44
433.178	461.44
433.4	454.44
433.622	443.44
433.844	441.44
434.066	432.44
434.287	444.44
434.509	444.44
434.731	449.44
434.953	456.44
435.175	461.44
435.397	448.44
435.618	473.44
435.84	541.44
436.062	593.44
436.284	607.44
436.505	540.44
436.727	496.44
436.949	473.44
437.17	435.44
437.392	440.44
437.614	458.44
437.835	472.44
438.057	546.44
438.278	621.44
438.5	630.44
438.721	700.44
438.943	650.44
439.165	548.44
439.386	510.44
439.608	486.44
439.829	478.44
440.05	520.44
440.272	546.44
440.493	519.44
440.715	470.44
440.936	474.44
441.158	462.44
441.379	451.44
441.6	471.44
441.822	476.44
442.043	530.44
442.264	555.44
442.486	614.44
442.707	529.44
442.928	485.44
443.149	484.44
443.371	518.44
443.592	540.44
443.813	628.44
444.034	641.44
444.255	561.44
444.476	515.44
444.698	503.44
444.919	503.44
445.14	637.44
445.361	560.44
445.582	529.44
445.803	537.44
446.024	629.44
446.245	617.44
446.466	578.44
446.687	502.44
446.908	493.44
447.129	477.44
447.35	455.44
447.571	436.44
447.792	422.44
448.013	445.44
448.234	465.44
448.455	495.44
448.675	560.44
448.896	650.44
449.117	553.44
449.338	505.44
449.559	616.44
449.779	694.44
450	559.44
450.221	478.44
450.442	438.44
450.662	428.44
450.883	432.44
451.104	441.44
451.324	433.44
451.545	414.44
451.766	428.44
451.986	403.44
452.207	409.44
452.428	413.44
452.648	407.44
452.869	406.44
453.089	397.44
453.31	412.44
453.53	404.44
453.751	422.44
453.971	397.44
454.192	399.44
454.412	390.44
454.633	405.44
454.853	376.44
455.073	399.44
455.294	394.44
455.514	448.44
455.734	429.44
455.955	384.44
456.175	380.44
456.395	376.44
456.616	356.44
456.836	369.44
457.056	380.44
457.276	377.44
457.497	377.44
457.717	389.44
457.937	379.44
458.157	403.44
458.377	406.44
458.598	411.44
458.818	454.44
459.038	492.44
459.258	522.44
459.478	437.44
459.698	436.44
459.918	439.44
460.138	444.44
460.358	417.44
460.578	456.44
460.798	454.44
461.018	456.44
461.238	433.44
461.458	460.44
461.678	456.44
461.898	456.44
462.118	437.44
462.338	452.44
462.558	456.44
462.777	472.44
462.997	480.44
463.217	491.44
463.437	502.44
463.657	504.44
463.876	492.44
464.096	482.44
464.316	481.44
464.536	498.44
464.755	473.44
464.975	483.44
465.195	476.44
465.414	513.44
465.634	494.44
465.854	440.44
466.073	437.44
466.293	426.44
466.512	408.44
466.732	410.44
466.951	398.44
467.171	400.44
467.391	410.44
467.61	406.44
467.829	406.44
468.049	409.44
468.268	413.44
468.488	408.44
468.707	412.44
468.927	388.44
469.146	388.44
469.365	396.44
469.585	420.44
469.804	412.44
470.023	414.44
470.243	417.44
470.462	440.44
470.681	446.44
470.901	442.44
471.12	408.44
471.339	427.44
471.558	408.44
471.777	401.44
471.997	408.44
472.216	415.44
472.435	434.44
472.654	404.44
472.873	419.44
473.092	425.44
473.311	419.44
473.53	413.44
473.749	409.44
473.968	450.44
474.187	503.44
474.406	540.44
474.625	449.44
474.844	415.44
475.063	423.44
475.282	378.44
475.501	420.44
475.72	421.44
475.939	416.44
476.158	440.44
476.377	416.44
476.596	418.44
476.814	426.44
477.033	434.44
477.252	437.44
477.471	458.44
477.69	441.44
477.908	444.44
478.127	465.44
478.346	458.44
478.564	480.44
478.783	444.44
479.002	479.44
479.22	466.44
479.439	500.44
479.658	473.44
479.876	507.44
480.095	501.44
480.313	535.44
480.532	523.44
480.751	523.44
480.969	528.44
481.188	563.44
481.406	571.44
481.624	512.44
481.843	504.44
482.061	484.44
482.28	490.44
482.498	487.44
482.717	488.44
482.935	453.44
483.153	476.44
483.372	477.44
483.59	479.44
483.808	487.44
484.027	475.44
484.245	502.44
484.463	471.44
484.681	508.44
484.9	471.44
485.118	512.44
485.336	496.44
485.554	492.44
485.772	508.44
485.99	492.44
486.209	484.44
486.427	503.44
486.645	489.44
486.863	521.44
487.081	510.44
487.299	520.44
487.517	516.44
487.735	523.44
487.953	490.44
488.171	522.44
488.389	512.44
488.607	492.44
488.825	486.44
489.043	518.44
489.261	515.44
489.479	522.44
489.696	524.44
489.914	503.44
490.132	524.44
490.35	546.44
490.568	526.44
490.786	543.44
491.003	558.44
491.221	566.44
491.439	552.44
491.657	536.44
491.874	557.44
492.092	566.44
492.31	584.44
492.527	579.44
492.745	572.44
492.963	587.44
493.18	579.44
493.398	565.44
493.615	576.44
493.833	581.44
494.05	606.44
494.268	581.44
494.485	563.44
494.703	597.44
494.92	588.44
495.138	572.44
495.355	632.44
495.573	581.44
495.79	597.44
496.008	601.44
496.225	581.44
496.442	613.44
496.66	595.44
496.877	594.44
497.094	601.44
497.312	589.44
497.529	624.44
497.746	631.44
497.963	618.44
498.181	644.44
498.398	678.44
498.615	688.44
498.832	697.44
499.049	718.44
499.267	712.44
499.484	766.44
499.701	781.44
499.918	813.44
500.135	839.44
500.352	914.44
500.569	942.44
500.786	939.44
501.003	914.44
501.22	878.44
501.437	809.44
501.654	798.44
501.871	797.44
502.088	746.44
