Data from 1964.PennyLincolnUp.Lamp.En5.5.200Scan.071719.P1._HRD10591_14-04-41-909.txt Node
Date: Thu Jul 18 14:04:41 EDT 2019
User: cochatt
Spectrometer: HR+D1059
Trigger mode: 1
Integration Time (sec): 1.000000E-1
Scans to average: 1
Electric dark correction enabled: true
Nonlinearity correction enabled: false
Boxcar width: 0
XAxis mode: Wavelengths
Number of Pixels in Spectrum: 2048
>>>>>Begin Spectral Data<<<<<
223.165	-24.62
223.4	-24.62
223.635	-24.62
223.869	-10.62
224.104	-18.62
224.338	-17.62
224.573	-10.62
224.808	-7.62
225.042	-13.62
225.277	-8.62
225.511	0.38
225.746	5.38
225.98	-1.62
226.215	8.38
226.449	18.38
226.683	17.38
226.918	36.38
227.152	27.38
227.387	33.38
227.621	27.38
227.856	28.38
228.09	64.38
228.324	55.38
228.559	53.38
228.793	64.38
229.027	104.38
229.262	86.38
229.496	102.38
229.73	115.38
229.964	138.38
230.199	116.38
230.433	101.38
230.667	127.38
230.901	105.38
231.136	93.38
231.37	102.38
231.604	110.38
231.838	104.38
232.072	107.38
232.306	104.38
232.541	106.38
232.775	115.38
233.009	111.38
233.243	109.38
233.477	117.38
233.711	113.38
233.945	117.38
234.179	125.38
234.413	136.38
234.647	108.38
234.881	132.38
235.115	113.38
235.349	121.38
235.583	127.38
235.817	142.38
236.051	127.38
236.285	120.38
236.519	107.38
236.753	123.38
236.987	136.38
237.221	159.38
237.455	198.38
237.689	151.38
237.922	133.38
238.156	132.38
238.39	124.38
238.624	120.38
238.858	128.38
239.091	121.38
239.325	133.38
239.559	140.38
239.793	113.38
240.027	141.38
240.26	132.38
240.494	137.38
240.728	151.38
240.961	152.38
241.195	145.38
241.429	129.38
241.662	134.38
241.896	130.38
242.13	133.38
242.363	138.38
242.597	133.38
242.83	137.38
243.064	134.38
243.298	141.38
243.531	135.38
243.765	141.38
243.998	132.38
244.232	139.38
244.465	137.38
244.699	135.38
244.932	162.38
245.166	159.38
245.399	149.38
245.633	147.38
245.866	148.38
246.099	158.38
246.333	157.38
246.566	141.38
246.8	144.38
247.033	174.38
247.266	187.38
247.5	170.38
247.733	163.38
247.966	168.38
248.2	158.38
248.433	174.38
248.666	154.38
248.899	189.38
249.133	191.38
249.366	188.38
249.599	185.38
249.832	174.38
250.066	171.38
250.299	175.38
250.532	187.38
250.765	203.38
250.998	220.38
251.231	209.38
251.465	209.38
251.698	190.38
251.931	196.38
252.164	181.38
252.397	202.38
252.63	190.38
252.863	207.38
253.096	208.38
253.329	217.38
253.562	218.38
253.795	219.38
254.028	223.38
254.261	218.38
254.494	218.38
254.727	224.38
254.96	271.38
255.193	259.38
255.426	229.38
255.659	231.38
255.892	237.38
256.124	236.38
256.357	236.38
256.59	222.38
256.823	202.38
257.056	215.38
257.289	221.38
257.521	230.38
257.754	220.38
257.987	237.38
258.22	230.38
258.452	220.38
258.685	199.38
258.918	209.38
259.151	237.38
259.383	215.38
259.616	218.38
259.849	229.38
260.081	241.38
260.314	264.38
260.547	272.38
260.779	256.38
261.012	234.38
261.244	220.38
261.477	243.38
261.71	221.38
261.942	228.38
262.175	214.38
262.407	243.38
262.64	218.38
262.872	230.38
263.105	209.38
263.337	219.38
263.57	229.38
263.802	230.38
264.035	245.38
264.267	224.38
264.499	246.38
264.732	234.38
264.964	232.38
265.197	226.38
265.429	231.38
265.661	240.38
265.894	232.38
266.126	237.38
266.358	224.38
266.591	235.38
266.823	239.38
267.055	260.38
267.287	243.38
267.52	256.38
267.752	240.38
267.984	238.38
268.216	240.38
268.448	235.38
268.681	224.38
268.913	243.38
269.145	263.38
269.377	267.38
269.609	283.38
269.841	281.38
270.073	279.38
270.306	293.38
270.538	330.38
270.77	307.38
271.002	301.38
271.234	299.38
271.466	279.38
271.698	298.38
271.93	309.38
272.162	316.38
272.394	313.38
272.626	292.38
272.858	303.38
273.09	291.38
273.322	284.38
273.553	278.38
273.785	276.38
274.017	273.38
274.249	282.38
274.481	288.38
274.713	273.38
274.945	287.38
275.176	285.38
275.408	300.38
275.64	306.38
275.872	292.38
276.104	288.38
276.335	302.38
276.567	283.38
276.799	307.38
277.031	314.38
277.262	307.38
277.494	332.38
277.726	328.38
277.957	295.38
278.189	302.38
278.421	317.38
278.652	291.38
278.884	291.38
279.115	294.38
279.347	293.38
279.579	294.38
279.81	293.38
280.042	288.38
280.273	285.38
280.505	294.38
280.736	287.38
280.968	282.38
281.199	313.38
281.431	289.38
281.662	288.38
281.894	298.38
282.125	294.38
282.356	321.38
282.588	324.38
282.819	318.38
283.051	298.38
283.282	287.38
283.513	317.38
283.745	305.38
283.976	314.38
284.207	314.38
284.439	322.38
284.67	328.38
284.901	321.38
285.132	297.38
285.364	309.38
285.595	321.38
285.826	312.38
286.057	302.38
286.288	332.38
286.52	311.38
286.751	317.38
286.982	329.38
287.213	334.38
287.444	357.38
287.675	331.38
287.906	320.38
288.138	327.38
288.369	346.38
288.6	333.38
288.831	335.38
289.062	336.38
289.293	336.38
289.524	316.38
289.755	328.38
289.986	325.38
290.217	321.38
290.448	329.38
290.679	327.38
290.91	341.38
291.141	330.38
291.371	327.38
291.602	331.38
291.833	319.38
292.064	316.38
292.295	329.38
292.526	312.38
292.757	322.38
292.987	329.38
293.218	340.38
293.449	331.38
293.68	345.38
293.91	333.38
294.141	334.38
294.372	322.38
294.603	333.38
294.833	349.38
295.064	344.38
295.295	337.38
295.525	344.38
295.756	331.38
295.987	343.38
296.217	347.38
296.448	349.38
296.679	348.38
296.909	339.38
297.14	344.38
297.37	341.38
297.601	339.38
297.831	334.38
298.062	353.38
298.292	351.38
298.523	357.38
298.753	348.38
298.984	342.38
299.214	344.38
299.445	341.38
299.675	339.38
299.905	368.38
300.136	363.38
300.366	350.38
300.597	348.38
300.827	351.38
301.057	360.38
301.288	366.38
301.518	375.38
301.748	373.38
301.979	357.38
302.209	393.38
302.439	379.38
302.669	376.38
302.9	364.38
303.13	362.38
303.36	375.38
303.59	360.38
303.82	358.38
304.051	375.38
304.281	364.38
304.511	385.38
304.741	380.38
304.971	369.38
305.201	365.38
305.431	363.38
305.661	353.38
305.891	358.38
306.121	347.38
306.352	371.38
306.582	379.38
306.812	380.38
307.042	389.38
307.272	386.38
307.502	368.38
307.731	363.38
307.961	383.38
308.191	392.38
308.421	365.38
308.651	369.38
308.881	379.38
309.111	394.38
309.341	373.38
309.571	401.38
309.8	384.38
310.03	401.38
310.26	383.38
310.49	384.38
310.72	426.38
310.949	401.38
311.179	408.38
311.409	392.38
311.639	408.38
311.868	404.38
312.098	406.38
312.328	409.38
312.557	401.38
312.787	408.38
313.017	409.38
313.246	403.38
313.476	383.38
313.706	392.38
313.935	399.38
314.165	419.38
314.394	428.38
314.624	413.38
314.853	415.38
315.083	391.38
315.312	401.38
315.542	402.38
315.771	409.38
316.001	406.38
316.23	419.38
316.46	396.38
316.689	420.38
316.919	409.38
317.148	424.38
317.377	419.38
317.607	411.38
317.836	430.38
318.065	416.38
318.295	432.38
318.524	433.38
318.753	412.38
318.983	427.38
319.212	422.38
319.441	436.38
319.67	414.38
319.9	415.38
320.129	411.38
320.358	414.38
320.587	405.38
320.816	401.38
321.046	423.38
321.275	409.38
321.504	433.38
321.733	426.38
321.962	416.38
322.191	438.38
322.42	444.38
322.649	448.38
322.878	445.38
323.108	446.38
323.337	469.38
323.566	453.38
323.795	497.38
324.024	529.38
324.253	612.38
324.482	802.38
324.71	1147.38
324.939	1576.38
325.168	1327.38
325.397	715.38
325.626	557.38
325.855	507.38
326.084	494.38
326.313	459.38
326.542	472.38
326.77	487.38
326.999	587.38
327.228	728.38
327.457	1020.38
327.686	1148.38
327.914	822.38
328.143	607.38
328.372	537.38
328.6	557.38
328.829	533.38
329.058	517.38
329.287	524.38
329.515	511.38
329.744	499.38
329.972	503.38
330.201	537.38
330.43	546.38
330.658	553.38
330.887	561.38
331.115	547.38
331.344	515.38
331.572	497.38
331.801	491.38
332.03	499.38
332.258	461.38
332.486	505.38
332.715	480.38
332.943	480.38
333.172	499.38
333.4	503.38
333.629	497.38
333.857	520.38
334.085	543.38
334.314	534.38
334.542	552.38
334.771	567.38
334.999	535.38
335.227	524.38
335.455	502.38
335.684	492.38
335.912	496.38
336.14	495.38
336.369	513.38
336.597	501.38
336.825	494.38
337.053	488.38
337.281	467.38
337.51	480.38
337.738	472.38
337.966	499.38
338.194	459.38
338.422	492.38
338.65	468.38
338.878	481.38
339.106	458.38
339.334	473.38
339.562	457.38
339.79	453.38
340.018	446.38
340.246	452.38
340.474	477.38
340.702	462.38
340.93	452.38
341.158	443.38
341.386	456.38
341.614	457.38
341.842	453.38
342.07	439.38
342.298	457.38
342.526	459.38
342.754	469.38
342.981	446.38
343.209	431.38
343.437	453.38
343.665	470.38
343.893	472.38
344.12	462.38
344.348	466.38
344.576	472.38
344.804	491.38
345.031	476.38
345.259	441.38
345.487	465.38
345.714	453.38
345.942	441.38
346.17	432.38
346.397	455.38
346.625	425.38
346.853	440.38
347.08	429.38
347.308	429.38
347.535	444.38
347.763	425.38
347.99	447.38
348.218	439.38
348.445	448.38
348.673	428.38
348.9	427.38
349.128	424.38
349.355	411.38
349.583	416.38
349.81	431.38
350.037	440.38
350.265	428.38
350.492	404.38
350.72	428.38
350.947	448.38
351.174	437.38
351.402	424.38
351.629	417.38
351.856	424.38
352.083	448.38
352.311	415.38
352.538	423.38
352.765	429.38
352.992	429.38
353.22	422.38
353.447	420.38
353.674	417.38
353.901	421.38
354.128	428.38
354.355	415.38
354.583	415.38
354.81	404.38
355.037	416.38
355.264	396.38
355.491	396.38
355.718	391.38
355.945	394.38
356.172	398.38
356.399	425.38
356.626	387.38
356.853	390.38
357.08	406.38
357.307	405.38
357.534	400.38
357.761	400.38
357.988	412.38
358.215	409.38
358.441	384.38
358.668	406.38
358.895	406.38
359.122	401.38
359.349	397.38
359.576	415.38
359.802	427.38
360.029	448.38
360.256	469.38
360.483	455.38
360.709	427.38
360.936	415.38
361.163	406.38
361.39	423.38
361.616	419.38
361.843	418.38
362.07	430.38
362.296	404.38
362.523	417.38
362.749	408.38
362.976	406.38
363.203	414.38
363.429	399.38
363.656	409.38
363.882	411.38
364.109	412.38
364.335	408.38
364.562	400.38
364.788	388.38
365.015	407.38
365.241	388.38
365.468	400.38
365.694	391.38
365.92	409.38
366.147	402.38
366.373	392.38
366.599	388.38
366.826	400.38
367.052	389.38
367.278	400.38
367.505	392.38
367.731	412.38
367.957	399.38
368.184	399.38
368.41	412.38
368.636	400.38
368.862	413.38
369.089	398.38
369.315	405.38
369.541	403.38
369.767	414.38
369.993	401.38
370.219	405.38
370.445	406.38
370.672	411.38
370.898	399.38
371.124	421.38
371.35	401.38
371.576	408.38
371.802	425.38
372.028	392.38
372.254	405.38
372.48	397.38
372.706	432.38
372.932	404.38
373.158	422.38
373.384	433.38
373.61	423.38
373.835	402.38
374.061	413.38
374.287	402.38
374.513	417.38
374.739	415.38
374.965	409.38
375.191	391.38
375.416	413.38
375.642	429.38
375.868	408.38
376.094	402.38
376.319	405.38
376.545	416.38
376.771	395.38
376.997	408.38
377.222	407.38
377.448	391.38
377.674	403.38
377.899	399.38
378.125	425.38
378.35	398.38
378.576	391.38
378.802	389.38
379.027	415.38
379.253	413.38
379.478	377.38
379.704	380.38
379.929	393.38
380.155	394.38
380.38	409.38
380.606	411.38
380.831	402.38
381.057	388.38
381.282	411.38
381.507	417.38
381.733	405.38
381.958	391.38
382.184	384.38
382.409	389.38
382.634	397.38
382.86	396.38
383.085	416.38
383.31	428.38
383.535	429.38
383.761	412.38
383.986	423.38
384.211	419.38
384.436	411.38
384.662	430.38
384.887	432.38
385.112	422.38
385.337	424.38
385.562	431.38
385.787	425.38
386.013	457.38
386.238	429.38
386.463	424.38
386.688	439.38
386.913	421.38
387.138	427.38
387.363	431.38
387.588	443.38
387.813	430.38
388.038	411.38
388.263	432.38
388.488	443.38
388.713	444.38
388.938	446.38
389.163	441.38
389.387	432.38
389.612	427.38
389.837	432.38
390.062	435.38
390.287	445.38
390.512	436.38
390.736	437.38
390.961	430.38
391.186	433.38
391.411	440.38
391.636	465.38
391.86	452.38
392.085	458.38
392.31	440.38
392.534	449.38
392.759	456.38
392.984	431.38
393.208	447.38
393.433	438.38
393.658	453.38
393.882	447.38
394.107	451.38
394.331	435.38
394.556	445.38
394.78	452.38
395.005	445.38
395.229	439.38
395.454	438.38
395.678	427.38
395.903	458.38
396.127	472.38
396.352	481.38
396.576	445.38
396.801	457.38
397.025	465.38
397.249	442.38
397.474	476.38
397.698	474.38
397.922	477.38
398.147	473.38
398.371	470.38
398.595	488.38
398.82	481.38
399.044	529.38
399.268	541.38
399.492	589.38
399.717	600.38
399.941	603.38
400.165	611.38
400.389	613.38
400.613	544.38
400.837	523.38
401.062	503.38
401.286	499.38
401.51	514.38
401.734	486.38
401.958	489.38
402.182	468.38
402.406	514.38
402.63	494.38
402.854	495.38
403.078	490.38
403.302	518.38
403.526	511.38
403.75	532.38
403.974	496.38
404.198	497.38
404.422	526.38
404.645	536.38
404.869	516.38
405.093	549.38
405.317	570.38
405.541	598.38
405.765	552.38
405.988	513.38
406.212	539.38
406.436	535.38
406.66	545.38
406.883	545.38
407.107	552.38
407.331	583.38
407.555	637.38
407.778	640.38
408.002	610.38
408.226	537.38
408.449	573.38
408.673	570.38
408.896	575.38
409.12	583.38
409.344	555.38
409.567	557.38
409.791	543.38
410.014	511.38
410.238	482.38
410.461	499.38
410.685	496.38
410.908	515.38
411.132	555.38
411.355	556.38
411.578	559.38
411.802	508.38
412.025	508.38
412.249	517.38
412.472	540.38
412.695	557.38
412.919	555.38
413.142	514.38
413.365	504.38
413.589	477.38
413.812	485.38
414.035	500.38
414.258	496.38
414.482	459.38
414.705	483.38
414.928	473.38
415.151	471.38
415.374	459.38
415.597	471.38
415.821	447.38
416.044	471.38
416.267	464.38
416.49	463.38
416.713	457.38
416.936	459.38
417.159	479.38
417.382	481.38
417.605	470.38
417.828	472.38
418.051	488.38
418.274	484.38
418.497	483.38
418.72	472.38
418.943	472.38
419.166	489.38
419.389	507.38
419.611	503.38
419.834	491.38
420.057	501.38
420.28	490.38
420.503	483.38
420.726	470.38
420.948	475.38
421.171	519.38
421.394	557.38
421.617	487.38
421.839	512.38
422.062	500.38
422.285	454.38
422.507	534.38
422.73	583.38
422.953	565.38
423.175	523.38
423.398	491.38
423.621	489.38
423.843	507.38
424.066	519.38
424.288	515.38
424.511	533.38
424.733	545.38
424.956	617.38
425.178	600.38
425.401	581.38
425.623	621.38
425.846	519.38
426.068	504.38
426.291	483.38
426.513	492.38
426.735	521.38
426.958	529.38
427.18	612.38
427.402	668.38
427.625	739.38
427.847	621.38
428.069	578.38
428.292	533.38
428.514	502.38
428.736	481.38
428.958	470.38
429.181	447.38
429.403	451.38
429.625	468.38
429.847	476.38
430.069	532.38
430.292	548.38
430.514	474.38
430.736	472.38
430.958	450.38
431.18	454.38
431.402	443.38
431.624	459.38
431.846	438.38
432.068	446.38
432.29	445.38
432.512	452.38
432.734	440.38
432.956	447.38
433.178	462.38
433.4	455.38
433.622	432.38
433.844	441.38
434.066	446.38
434.287	436.38
434.509	463.38
434.731	467.38
434.953	472.38
435.175	461.38
435.397	494.38
435.618	491.38
435.84	508.38
436.062	579.38
436.284	622.38
436.505	545.38
436.727	488.38
436.949	447.38
437.17	460.38
437.392	450.38
437.614	474.38
437.835	493.38
438.057	539.38
438.278	622.38
438.5	633.38
438.721	683.38
438.943	649.38
439.165	537.38
439.386	507.38
439.608	500.38
439.829	491.38
440.05	495.38
440.272	553.38
440.493	516.38
440.715	485.38
440.936	467.38
441.158	474.38
441.379	472.38
441.6	476.38
441.822	501.38
442.043	529.38
442.264	588.38
442.486	600.38
442.707	536.38
442.928	499.38
443.149	496.38
443.371	508.38
443.592	536.38
443.813	634.38
444.034	663.38
444.255	568.38
444.476	519.38
444.698	524.38
444.919	522.38
445.14	631.38
445.361	579.38
445.582	528.38
445.803	548.38
446.024	644.38
446.245	657.38
446.466	603.38
446.687	511.38
446.908	478.38
447.129	461.38
447.35	466.38
447.571	462.38
447.792	458.38
448.013	461.38
448.234	469.38
448.455	488.38
448.675	596.38
448.896	678.38
449.117	543.38
449.338	555.38
449.559	611.38
449.779	697.38
450	558.38
450.221	459.38
450.442	441.38
450.662	433.38
450.883	449.38
451.104	452.38
451.324	423.38
451.545	426.38
451.766	425.38
451.986	420.38
452.207	402.38
452.428	401.38
452.648	413.38
452.869	387.38
453.089	411.38
453.31	432.38
453.53	388.38
453.751	391.38
453.971	403.38
454.192	409.38
454.412	400.38
454.633	401.38
454.853	398.38
455.073	404.38
455.294	415.38
455.514	476.38
455.734	446.38
455.955	419.38
456.175	407.38
456.395	404.38
456.616	380.38
456.836	401.38
457.056	400.38
457.276	368.38
457.497	397.38
457.717	389.38
457.937	395.38
458.157	396.38
458.377	394.38
458.598	404.38
458.818	451.38
459.038	478.38
459.258	525.38
459.478	455.38
459.698	445.38
459.918	439.38
460.138	449.38
460.358	469.38
460.578	463.38
460.798	442.38
461.018	442.38
461.238	443.38
461.458	444.38
461.678	451.38
461.898	451.38
462.118	460.38
462.338	472.38
462.558	468.38
462.777	480.38
462.997	505.38
463.217	507.38
463.437	522.38
463.657	484.38
463.876	481.38
464.096	492.38
464.316	489.38
464.536	500.38
464.755	486.38
464.975	483.38
465.195	495.38
465.414	503.38
465.634	452.38
465.854	431.38
466.073	404.38
466.293	430.38
466.512	443.38
466.732	404.38
466.951	424.38
467.171	399.38
467.391	428.38
467.61	399.38
467.829	427.38
468.049	444.38
468.268	417.38
468.488	398.38
468.707	397.38
468.927	423.38
469.146	419.38
469.365	422.38
469.585	400.38
469.804	404.38
470.023	416.38
470.243	419.38
470.462	420.38
470.681	449.38
470.901	423.38
471.12	404.38
471.339	428.38
471.558	432.38
471.777	415.38
471.997	426.38
472.216	420.38
472.435	428.38
472.654	436.38
472.873	408.38
473.092	417.38
473.311	427.38
473.53	402.38
473.749	417.38
473.968	457.38
474.187	536.38
474.406	517.38
474.625	459.38
474.844	428.38
475.063	423.38
475.282	423.38
475.501	424.38
475.72	427.38
475.939	419.38
476.158	425.38
476.377	443.38
476.596	416.38
476.814	439.38
477.033	441.38
477.252	459.38
477.471	438.38
477.69	449.38
477.908	459.38
478.127	476.38
478.346	479.38
478.564	463.38
478.783	466.38
479.002	469.38
479.22	469.38
479.439	491.38
479.658	497.38
479.876	527.38
480.095	499.38
480.313	517.38
480.532	525.38
480.751	522.38
480.969	539.38
481.188	564.38
481.406	559.38
481.624	523.38
481.843	518.38
482.061	504.38
482.28	489.38
482.498	501.38
482.717	471.38
482.935	490.38
483.153	470.38
483.372	490.38
483.59	479.38
483.808	486.38
484.027	464.38
484.245	483.38
484.463	489.38
484.681	492.38
484.9	505.38
485.118	482.38
485.336	506.38
485.554	503.38
485.772	493.38
485.99	484.38
486.209	505.38
486.427	531.38
486.645	517.38
486.863	525.38
487.081	541.38
487.299	522.38
487.517	526.38
487.735	509.38
487.953	503.38
488.171	507.38
488.389	513.38
488.607	518.38
488.825	517.38
489.043	520.38
489.261	524.38
489.479	520.38
489.696	507.38
489.914	501.38
490.132	523.38
490.35	521.38
490.568	532.38
490.786	565.38
491.003	547.38
491.221	561.38
491.439	574.38
491.657	560.38
491.874	564.38
492.092	582.38
492.31	558.38
492.527	567.38
492.745	596.38
492.963	573.38
493.18	576.38
493.398	610.38
493.615	611.38
493.833	606.38
494.05	588.38
494.268	577.38
494.485	575.38
494.703	597.38
494.92	586.38
495.138	574.38
495.355	590.38
495.573	637.38
495.79	616.38
496.008	607.38
496.225	598.38
496.442	580.38
496.66	613.38
496.877	605.38
497.094	612.38
497.312	592.38
497.529	621.38
497.746	627.38
497.963	655.38
498.181	665.38
498.398	666.38
498.615	673.38
498.832	701.38
499.049	730.38
499.267	746.38
499.484	776.38
499.701	826.38
499.918	835.38
500.135	872.38
500.352	915.38
500.569	941.38
500.786	927.38
501.003	903.38
501.22	896.38
501.437	868.38
501.654	808.38
501.871	779.38
