Data from 1964.PennyLincolnUp.Lamp.En5.5.200Scan.071719.P1._HRD10591_14-04-54-909.txt Node
Date: Thu Jul 18 14:04:54 EDT 2019
User: cochatt
Spectrometer: HR+D1059
Trigger mode: 1
Integration Time (sec): 1.000000E-1
Scans to average: 1
Electric dark correction enabled: true
Nonlinearity correction enabled: false
Boxcar width: 0
XAxis mode: Wavelengths
Number of Pixels in Spectrum: 2048
>>>>>Begin Spectral Data<<<<<
223.165	-16.31
223.4	-16.31
223.635	-16.31
223.869	-14.31
224.104	-14.31
224.338	-16.31
224.573	-10.31
224.808	-6.31
225.042	-10.31
225.277	-9.31
225.511	4.69
225.746	13.69
225.98	1.69
226.215	-2.31
226.449	14.69
226.683	25.69
226.918	14.69
227.152	24.69
227.387	27.69
227.621	40.69
227.856	35.69
228.09	44.69
228.324	44.69
228.559	50.69
228.793	65.69
229.027	98.69
229.262	96.69
229.496	98.69
229.73	116.69
229.964	117.69
230.199	125.69
230.433	99.69
230.667	99.69
230.901	97.69
231.136	108.69
231.37	115.69
231.604	121.69
231.838	103.69
232.072	113.69
232.306	129.69
232.541	118.69
232.775	117.69
233.009	119.69
233.243	117.69
233.477	121.69
233.711	114.69
233.945	114.69
234.179	114.69
234.413	95.69
234.647	113.69
234.881	102.69
235.115	113.69
235.349	113.69
235.583	115.69
235.817	118.69
236.051	112.69
236.285	128.69
236.519	119.69
236.753	123.69
236.987	126.69
237.221	147.69
237.455	174.69
237.689	152.69
237.922	133.69
238.156	121.69
238.39	125.69
238.624	121.69
238.858	119.69
239.091	123.69
239.325	124.69
239.559	108.69
239.793	108.69
240.027	110.69
240.26	131.69
240.494	161.69
240.728	144.69
240.961	144.69
241.195	131.69
241.429	142.69
241.662	127.69
241.896	132.69
242.13	125.69
242.363	126.69
242.597	114.69
242.83	136.69
243.064	134.69
243.298	138.69
243.531	135.69
243.765	137.69
243.998	127.69
244.232	129.69
244.465	151.69
244.699	162.69
244.932	142.69
245.166	160.69
245.399	133.69
245.633	139.69
245.866	148.69
246.099	144.69
246.333	159.69
246.566	153.69
246.8	141.69
247.033	140.69
247.266	151.69
247.5	153.69
247.733	157.69
247.966	165.69
248.2	177.69
248.433	166.69
248.666	183.69
248.899	165.69
249.133	181.69
249.366	189.69
249.599	173.69
249.832	168.69
250.066	185.69
250.299	175.69
250.532	184.69
250.765	193.69
250.998	213.69
251.231	195.69
251.465	203.69
251.698	200.69
251.931	198.69
252.164	192.69
252.397	200.69
252.63	188.69
252.863	199.69
253.096	196.69
253.329	206.69
253.562	226.69
253.795	202.69
254.028	196.69
254.261	194.69
254.494	199.69
254.727	245.69
254.96	270.69
255.193	252.69
255.426	216.69
255.659	213.69
255.892	222.69
256.124	240.69
256.357	246.69
256.59	222.69
256.823	222.69
257.056	227.69
257.289	218.69
257.521	202.69
257.754	217.69
257.987	210.69
258.22	187.69
258.452	204.69
258.685	201.69
258.918	213.69
259.151	232.69
259.383	225.69
259.616	227.69
259.849	229.69
260.081	233.69
260.314	239.69
260.547	235.69
260.779	227.69
261.012	222.69
261.244	227.69
261.477	237.69
261.71	239.69
261.942	230.69
262.175	216.69
262.407	219.69
262.64	205.69
262.872	224.69
263.105	206.69
263.337	212.69
263.57	219.69
263.802	220.69
264.035	211.69
264.267	212.69
264.499	215.69
264.732	214.69
264.964	233.69
265.197	220.69
265.429	225.69
265.661	216.69
265.894	222.69
266.126	229.69
266.358	217.69
266.591	236.69
266.823	237.69
267.055	217.69
267.287	241.69
267.52	235.69
267.752	234.69
267.984	242.69
268.216	246.69
268.448	241.69
268.681	265.69
268.913	249.69
269.145	247.69
269.377	261.69
269.609	250.69
269.841	269.69
270.073	279.69
270.306	274.69
270.538	309.69
270.77	306.69
271.002	299.69
271.234	277.69
271.466	278.69
271.698	291.69
271.93	297.69
272.162	317.69
272.394	303.69
272.626	286.69
272.858	283.69
273.09	289.69
273.322	282.69
273.553	258.69
273.785	280.69
274.017	263.69
274.249	253.69
274.481	281.69
274.713	266.69
274.945	280.69
275.176	279.69
275.408	269.69
275.64	285.69
275.872	270.69
276.104	277.69
276.335	267.69
276.567	269.69
276.799	286.69
277.031	300.69
277.262	335.69
277.494	338.69
277.726	320.69
277.957	314.69
278.189	289.69
278.421	301.69
278.652	284.69
278.884	290.69
279.115	278.69
279.347	284.69
279.579	295.69
279.81	275.69
280.042	268.69
280.273	283.69
280.505	272.69
280.736	285.69
280.968	281.69
281.199	289.69
281.431	284.69
281.662	279.69
281.894	290.69
282.125	289.69
282.356	310.69
282.588	307.69
282.819	301.69
283.051	279.69
283.282	267.69
283.513	302.69
283.745	301.69
283.976	302.69
284.207	291.69
284.439	301.69
284.67	301.69
284.901	314.69
285.132	316.69
285.364	307.69
285.595	287.69
285.826	295.69
286.057	312.69
286.288	315.69
286.52	304.69
286.751	292.69
286.982	327.69
287.213	312.69
287.444	313.69
287.675	314.69
287.906	312.69
288.138	313.69
288.369	307.69
288.6	308.69
288.831	306.69
289.062	317.69
289.293	309.69
289.524	317.69
289.755	317.69
289.986	303.69
290.217	336.69
290.448	305.69
290.679	306.69
290.91	328.69
291.141	315.69
291.371	318.69
291.602	328.69
291.833	310.69
292.064	313.69
292.295	311.69
292.526	313.69
292.757	322.69
292.987	307.69
293.218	325.69
293.449	316.69
293.68	335.69
293.91	322.69
294.141	335.69
294.372	301.69
294.603	340.69
294.833	312.69
295.064	312.69
295.295	305.69
295.525	304.69
295.756	328.69
295.987	323.69
296.217	350.69
296.448	343.69
296.679	339.69
296.909	337.69
297.14	321.69
297.37	328.69
297.601	317.69
297.831	333.69
298.062	331.69
298.292	327.69
298.523	324.69
298.753	352.69
298.984	339.69
299.214	335.69
299.445	333.69
299.675	325.69
299.905	347.69
300.136	341.69
300.366	345.69
300.597	339.69
300.827	350.69
301.057	353.69
301.288	353.69
301.518	342.69
301.748	347.69
301.979	344.69
302.209	352.69
302.439	364.69
302.669	351.69
302.9	349.69
303.13	336.69
303.36	373.69
303.59	340.69
303.82	361.69
304.051	345.69
304.281	350.69
304.511	362.69
304.741	365.69
304.971	336.69
305.201	351.69
305.431	359.69
305.661	359.69
305.891	351.69
306.121	351.69
306.352	351.69
306.582	338.69
306.812	348.69
307.042	365.69
307.272	338.69
307.502	353.69
307.731	335.69
307.961	373.69
308.191	347.69
308.421	376.69
308.651	363.69
308.881	364.69
309.111	346.69
309.341	360.69
309.571	358.69
309.8	374.69
310.03	376.69
310.26	410.69
310.49	378.69
310.72	370.69
310.949	388.69
311.179	382.69
311.409	398.69
311.639	376.69
311.868	381.69
312.098	377.69
312.328	391.69
312.557	403.69
312.787	383.69
313.017	396.69
313.246	381.69
313.476	390.69
313.706	403.69
313.935	397.69
314.165	390.69
314.394	406.69
314.624	405.69
314.853	391.69
315.083	390.69
315.312	390.69
315.542	396.69
315.771	395.69
316.001	392.69
316.23	371.69
316.46	411.69
316.689	409.69
316.919	399.69
317.148	389.69
317.377	404.69
317.607	397.69
317.836	411.69
318.065	409.69
318.295	402.69
318.524	405.69
318.753	393.69
318.983	395.69
319.212	384.69
319.441	411.69
319.67	396.69
319.9	406.69
320.129	397.69
320.358	394.69
320.587	399.69
320.816	416.69
321.046	398.69
321.275	407.69
321.504	382.69
321.733	429.69
321.962	428.69
322.191	418.69
322.42	420.69
322.649	426.69
322.878	425.69
323.108	442.69
323.337	462.69
323.566	452.69
323.795	475.69
324.024	478.69
324.253	581.69
324.482	739.69
324.71	1129.69
324.939	1464.69
325.168	1290.69
325.397	670.69
325.626	527.69
325.855	470.69
326.084	458.69
326.313	461.69
326.542	470.69
326.77	499.69
326.999	534.69
327.228	711.69
327.457	1025.69
327.686	1113.69
327.914	795.69
328.143	550.69
328.372	532.69
328.6	484.69
328.829	469.69
329.058	502.69
329.287	512.69
329.515	471.69
329.744	483.69
329.972	497.69
330.201	514.69
330.43	491.69
330.658	539.69
330.887	545.69
331.115	512.69
331.344	474.69
331.572	465.69
331.801	479.69
332.03	466.69
332.258	461.69
332.486	489.69
332.715	466.69
332.943	470.69
333.172	469.69
333.4	479.69
333.629	460.69
333.857	501.69
334.085	483.69
334.314	491.69
334.542	533.69
334.771	549.69
334.999	497.69
335.227	481.69
335.455	473.69
335.684	474.69
335.912	473.69
336.14	470.69
336.369	456.69
336.597	473.69
336.825	466.69
337.053	443.69
337.281	450.69
337.51	440.69
337.738	445.69
337.966	465.69
338.194	476.69
338.422	451.69
338.65	459.69
338.878	444.69
339.106	438.69
339.334	449.69
339.562	436.69
339.79	457.69
340.018	426.69
340.246	428.69
340.474	413.69
340.702	447.69
340.93	424.69
341.158	443.69
341.386	447.69
341.614	429.69
341.842	425.69
342.07	427.69
342.298	426.69
342.526	445.69
342.754	433.69
342.981	422.69
343.209	437.69
343.437	427.69
343.665	462.69
343.893	450.69
344.12	461.69
344.348	471.69
344.576	465.69
344.804	433.69
345.031	425.69
345.259	441.69
345.487	443.69
345.714	446.69
345.942	418.69
346.17	413.69
346.397	426.69
346.625	428.69
346.853	429.69
347.08	404.69
347.308	403.69
347.535	412.69
347.763	416.69
347.99	414.69
348.218	398.69
348.445	419.69
348.673	407.69
348.9	433.69
349.128	419.69
349.355	406.69
349.583	408.69
349.81	421.69
350.037	407.69
350.265	422.69
350.492	414.69
350.72	419.69
350.947	396.69
351.174	409.69
351.402	437.69
351.629	410.69
351.856	403.69
352.083	409.69
352.311	417.69
352.538	424.69
352.765	437.69
352.992	409.69
353.22	402.69
353.447	397.69
353.674	407.69
353.901	397.69
354.128	355.69
354.355	372.69
354.583	384.69
354.81	385.69
355.037	401.69
355.264	381.69
355.491	380.69
355.718	389.69
355.945	387.69
356.172	394.69
356.399	371.69
356.626	388.69
356.853	400.69
357.08	401.69
357.307	388.69
357.534	401.69
357.761	381.69
357.988	396.69
358.215	378.69
358.441	385.69
358.668	383.69
358.895	397.69
359.122	387.69
359.349	396.69
359.576	419.69
359.802	420.69
360.029	418.69
360.256	421.69
360.483	416.69
360.709	397.69
360.936	385.69
361.163	395.69
361.39	402.69
361.616	405.69
361.843	393.69
362.07	397.69
362.296	406.69
362.523	419.69
362.749	400.69
362.976	403.69
363.203	387.69
363.429	393.69
363.656	395.69
363.882	394.69
364.109	389.69
364.335	389.69
364.562	379.69
364.788	397.69
365.015	395.69
365.241	406.69
365.468	377.69
365.694	389.69
365.92	389.69
366.147	402.69
366.373	387.69
366.599	383.69
366.826	389.69
367.052	380.69
367.278	381.69
367.505	391.69
367.731	383.69
367.957	380.69
368.184	380.69
368.41	392.69
368.636	402.69
368.862	393.69
369.089	370.69
369.315	396.69
369.541	412.69
369.767	386.69
369.993	378.69
370.219	385.69
370.445	396.69
370.672	387.69
370.898	388.69
371.124	405.69
371.35	381.69
371.576	385.69
371.802	386.69
372.028	395.69
372.254	389.69
372.48	387.69
372.706	372.69
372.932	389.69
373.158	399.69
373.384	408.69
373.61	395.69
373.835	381.69
374.061	396.69
374.287	391.69
374.513	385.69
374.739	405.69
374.965	398.69
375.191	406.69
375.416	415.69
375.642	387.69
375.868	402.69
376.094	388.69
376.319	391.69
376.545	386.69
376.771	386.69
376.997	367.69
377.222	381.69
377.448	393.69
377.674	396.69
377.899	378.69
378.125	380.69
378.35	374.69
378.576	390.69
378.802	376.69
379.027	407.69
379.253	388.69
379.478	376.69
379.704	365.69
379.929	375.69
380.155	383.69
380.38	381.69
380.606	381.69
380.831	388.69
381.057	371.69
381.282	373.69
381.507	377.69
381.733	387.69
381.958	377.69
382.184	380.69
382.409	394.69
382.634	395.69
382.86	395.69
383.085	407.69
383.31	388.69
383.535	389.69
383.761	399.69
383.986	409.69
384.211	387.69
384.436	438.69
384.662	417.69
384.887	420.69
385.112	422.69
385.337	405.69
385.562	422.69
385.787	416.69
386.013	425.69
386.238	431.69
386.463	410.69
386.688	414.69
386.913	406.69
387.138	417.69
387.363	406.69
387.588	413.69
387.813	416.69
388.038	428.69
388.263	433.69
388.488	402.69
388.713	417.69
388.938	422.69
389.163	411.69
389.387	422.69
389.612	415.69
389.837	411.69
390.062	405.69
390.287	415.69
390.512	400.69
390.736	409.69
390.961	408.69
391.186	413.69
391.411	415.69
391.636	431.69
391.86	430.69
392.085	440.69
392.31	429.69
392.534	424.69
392.759	425.69
392.984	407.69
393.208	430.69
393.433	422.69
393.658	398.69
393.882	418.69
394.107	420.69
394.331	431.69
394.556	429.69
394.78	430.69
395.005	409.69
395.229	425.69
395.454	430.69
395.678	436.69
395.903	435.69
396.127	450.69
396.352	446.69
396.576	450.69
396.801	412.69
397.025	431.69
397.249	442.69
397.474	456.69
397.698	439.69
397.922	446.69
398.147	470.69
398.371	466.69
398.595	444.69
398.82	457.69
399.044	490.69
399.268	509.69
399.492	534.69
399.717	549.69
399.941	571.69
400.165	570.69
400.389	571.69
400.613	522.69
400.837	505.69
401.062	487.69
401.286	490.69
401.51	482.69
401.734	450.69
401.958	499.69
402.182	481.69
402.406	484.69
402.63	487.69
402.854	473.69
403.078	489.69
403.302	481.69
403.526	475.69
403.75	489.69
403.974	475.69
404.198	472.69
404.422	507.69
404.645	511.69
404.869	500.69
405.093	531.69
405.317	556.69
405.541	580.69
405.765	524.69
405.988	506.69
406.212	494.69
406.436	516.69
406.66	506.69
406.883	524.69
407.107	557.69
407.331	579.69
407.555	625.69
407.778	615.69
408.002	584.69
408.226	544.69
408.449	547.69
408.673	516.69
408.896	553.69
409.12	572.69
409.344	527.69
409.567	488.69
409.791	507.69
410.014	500.69
410.238	482.69
410.461	475.69
410.685	467.69
410.908	489.69
411.132	521.69
411.355	543.69
411.578	539.69
411.802	490.69
412.025	473.69
412.249	487.69
412.472	501.69
412.695	531.69
412.919	505.69
413.142	478.69
413.365	473.69
413.589	464.69
413.812	465.69
414.035	455.69
414.258	474.69
414.482	451.69
414.705	469.69
414.928	486.69
415.151	466.69
415.374	459.69
415.597	456.69
415.821	429.69
416.044	429.69
416.267	450.69
416.49	420.69
416.713	436.69
416.936	445.69
417.159	467.69
417.382	483.69
417.605	458.69
417.828	461.69
418.051	477.69
418.274	476.69
418.497	450.69
418.72	462.69
418.943	443.69
419.166	483.69
419.389	498.69
419.611	492.69
419.834	495.69
420.057	495.69
420.28	459.69
420.503	455.69
420.726	454.69
420.948	483.69
421.171	502.69
421.394	514.69
421.617	479.69
421.839	471.69
422.062	442.69
422.285	473.69
422.507	517.69
422.73	571.69
422.953	535.69
423.175	484.69
423.398	465.69
423.621	496.69
423.843	495.69
424.066	511.69
424.288	498.69
424.511	511.69
424.733	561.69
424.956	577.69
425.178	561.69
425.401	569.69
425.623	583.69
425.846	491.69
426.068	492.69
426.291	486.69
426.513	476.69
426.735	484.69
426.958	525.69
427.18	564.69
427.402	661.69
427.625	677.69
427.847	616.69
428.069	552.69
428.292	519.69
428.514	449.69
428.736	446.69
428.958	449.69
429.181	447.69
429.403	434.69
429.625	439.69
429.847	464.69
430.069	523.69
430.292	528.69
430.514	471.69
430.736	434.69
430.958	432.69
431.18	436.69
431.402	414.69
431.624	426.69
431.846	410.69
432.068	418.69
432.29	424.69
432.512	411.69
432.734	412.69
432.956	417.69
433.178	438.69
433.4	445.69
433.622	429.69
433.844	440.69
434.066	430.69
434.287	436.69
434.509	431.69
434.731	443.69
434.953	445.69
435.175	455.69
435.397	474.69
435.618	476.69
435.84	513.69
436.062	547.69
436.284	599.69
436.505	507.69
436.727	478.69
436.949	449.69
437.17	463.69
437.392	466.69
437.614	446.69
437.835	467.69
438.057	527.69
438.278	603.69
438.5	607.69
438.721	646.69
438.943	622.69
439.165	524.69
439.386	495.69
439.608	466.69
439.829	451.69
440.05	474.69
440.272	520.69
440.493	489.69
440.715	461.69
440.936	442.69
441.158	449.69
441.379	445.69
441.6	455.69
441.822	469.69
442.043	487.69
442.264	552.69
442.486	594.69
442.707	499.69
442.928	479.69
443.149	504.69
443.371	505.69
443.592	537.69
443.813	600.69
444.034	639.69
444.255	573.69
444.476	510.69
444.698	500.69
444.919	489.69
445.14	607.69
445.361	551.69
445.582	493.69
445.803	534.69
446.024	617.69
446.245	600.69
446.466	551.69
446.687	474.69
446.908	469.69
447.129	434.69
447.35	422.69
447.571	450.69
447.792	418.69
448.013	430.69
448.234	434.69
448.455	476.69
448.675	541.69
448.896	666.69
449.117	547.69
449.338	525.69
449.559	611.69
449.779	683.69
450	564.69
450.221	482.69
450.442	446.69
450.662	433.69
450.883	431.69
451.104	442.69
451.324	409.69
451.545	405.69
451.766	402.69
451.986	384.69
452.207	392.69
452.428	392.69
452.648	385.69
452.869	381.69
453.089	396.69
453.31	375.69
453.53	383.69
453.751	380.69
453.971	387.69
454.192	390.69
454.412	379.69
454.633	382.69
454.853	403.69
455.073	381.69
455.294	399.69
455.514	436.69
455.734	439.69
455.955	397.69
456.175	389.69
456.395	357.69
456.616	375.69
456.836	365.69
457.056	371.69
457.276	357.69
457.497	354.69
457.717	390.69
457.937	373.69
458.157	380.69
458.377	386.69
458.598	404.69
458.818	437.69
459.038	470.69
459.258	475.69
459.478	450.69
459.698	401.69
459.918	412.69
460.138	428.69
460.358	452.69
460.578	426.69
460.798	441.69
461.018	460.69
461.238	426.69
461.458	427.69
461.678	454.69
461.898	450.69
462.118	436.69
462.338	446.69
462.558	446.69
462.777	468.69
462.997	488.69
463.217	499.69
463.437	501.69
463.657	505.69
463.876	480.69
464.096	478.69
464.316	475.69
464.536	472.69
464.755	460.69
464.975	464.69
465.195	479.69
465.414	502.69
465.634	454.69
465.854	415.69
466.073	436.69
466.293	421.69
466.512	378.69
466.732	406.69
466.951	407.69
467.171	393.69
467.391	420.69
467.61	400.69
467.829	409.69
468.049	420.69
468.268	409.69
468.488	380.69
468.707	391.69
468.927	391.69
469.146	374.69
469.365	396.69
469.585	368.69
469.804	397.69
470.023	411.69
470.243	411.69
470.462	407.69
470.681	412.69
470.901	411.69
471.12	426.69
471.339	391.69
471.558	397.69
471.777	414.69
471.997	395.69
472.216	407.69
472.435	435.69
472.654	420.69
472.873	407.69
473.092	395.69
473.311	407.69
473.53	416.69
473.749	413.69
473.968	442.69
474.187	509.69
474.406	527.69
474.625	456.69
474.844	409.69
475.063	396.69
475.282	405.69
475.501	411.69
475.72	402.69
475.939	403.69
476.158	427.69
476.377	431.69
476.596	410.69
476.814	422.69
477.033	421.69
477.252	427.69
477.471	428.69
477.69	461.69
477.908	436.69
478.127	425.69
478.346	471.69
478.564	439.69
478.783	467.69
479.002	460.69
479.22	473.69
479.439	453.69
479.658	473.69
479.876	472.69
480.095	484.69
480.313	521.69
480.532	501.69
480.751	515.69
480.969	510.69
481.188	499.69
481.406	526.69
481.624	508.69
481.843	471.69
482.061	470.69
482.28	471.69
482.498	481.69
482.717	460.69
482.935	454.69
483.153	466.69
483.372	469.69
483.59	456.69
483.808	467.69
484.027	472.69
484.245	454.69
484.463	473.69
484.681	484.69
484.9	461.69
485.118	478.69
485.336	460.69
485.554	478.69
485.772	469.69
485.99	478.69
486.209	462.69
486.427	475.69
486.645	487.69
486.863	491.69
487.081	494.69
487.299	507.69
487.517	500.69
487.735	495.69
487.953	510.69
488.171	490.69
488.389	484.69
488.607	479.69
488.825	522.69
489.043	487.69
489.261	486.69
489.479	513.69
489.696	505.69
489.914	504.69
490.132	503.69
490.35	484.69
490.568	515.69
490.786	520.69
491.003	546.69
491.221	526.69
491.439	534.69
491.657	538.69
491.874	554.69
492.092	559.69
492.31	553.69
492.527	567.69
492.745	536.69
492.963	565.69
493.18	564.69
493.398	571.69
493.615	568.69
493.833	560.69
494.05	561.69
494.268	538.69
494.485	569.69
494.703	569.69
494.92	573.69
495.138	570.69
495.355	574.69
495.573	565.69
495.79	582.69
496.008	595.69
496.225	586.69
496.442	581.69
496.66	588.69
496.877	581.69
497.094	580.69
497.312	598.69
497.529	607.69
497.746	625.69
497.963	609.69
498.181	636.69
498.398	625.69
498.615	683.69
498.832	698.69
499.049	690.69
499.267	703.69
499.484	723.69
499.701	746.69
499.918	799.69
500.135	840.69
500.352	888.69
500.569	902.69
500.786	901.69
501.003	857.69
501.22	852.69
501.437	809.69
501.654	794.69
501.871	771.69
502.088	742.69
