Data from 1964.PennyLincolnUp.Lamp.En5.5.200Scan.071719.P1._HRD10591_14-05-43-909.txt Node
Date: Thu Jul 18 14:05:43 EDT 2019
User: cochatt
Spectrometer: HR+D1059
Trigger mode: 1
Integration Time (sec): 1.000000E-1
Scans to average: 1
Electric dark correction enabled: true
Nonlinearity correction enabled: false
Boxcar width: 0
XAxis mode: Wavelengths
Number of Pixels in Spectrum: 2048
>>>>>Begin Spectral Data<<<<<
223.165	-19.75
223.4	-19.75
223.635	-19.75
223.869	-5.75
224.104	-17.75
224.338	-15.75
224.573	-10.75
224.808	-15.75
225.042	-12.75
225.277	-9.75
225.511	-12.75
225.746	-5.75
225.98	9.25
226.215	14.25
226.449	18.25
226.683	24.25
226.918	19.25
227.152	41.25
227.387	37.25
227.621	32.25
227.856	44.25
228.09	44.25
228.324	40.25
228.559	42.25
228.793	71.25
229.027	96.25
229.262	98.25
229.496	104.25
229.73	117.25
229.964	135.25
230.199	123.25
230.433	96.25
230.667	103.25
230.901	123.25
231.136	108.25
231.37	96.25
231.604	100.25
231.838	117.25
232.072	114.25
232.306	108.25
232.541	102.25
232.775	96.25
233.009	121.25
233.243	107.25
233.477	113.25
233.711	104.25
233.945	92.25
234.179	96.25
234.413	116.25
234.647	112.25
234.881	118.25
235.115	106.25
235.349	106.25
235.583	115.25
235.817	121.25
236.051	121.25
236.285	127.25
236.519	121.25
236.753	128.25
236.987	150.25
237.221	155.25
237.455	196.25
237.689	164.25
237.922	142.25
238.156	119.25
238.39	118.25
238.624	120.25
238.858	127.25
239.091	122.25
239.325	121.25
239.559	126.25
239.793	125.25
240.027	122.25
240.26	133.25
240.494	149.25
240.728	147.25
240.961	135.25
241.195	139.25
241.429	127.25
241.662	135.25
241.896	137.25
242.13	121.25
242.363	142.25
242.597	133.25
242.83	118.25
243.064	144.25
243.298	121.25
243.531	137.25
243.765	134.25
243.998	133.25
244.232	126.25
244.465	154.25
244.699	142.25
244.932	138.25
245.166	158.25
245.399	133.25
245.633	156.25
245.866	149.25
246.099	138.25
246.333	138.25
246.566	151.25
246.8	145.25
247.033	148.25
247.266	154.25
247.5	161.25
247.733	177.25
247.966	166.25
248.2	174.25
248.433	174.25
248.666	164.25
248.899	175.25
249.133	187.25
249.366	202.25
249.599	189.25
249.832	177.25
250.066	183.25
250.299	182.25
250.532	178.25
250.765	214.25
250.998	207.25
251.231	211.25
251.465	198.25
251.698	204.25
251.931	210.25
252.164	188.25
252.397	181.25
252.63	199.25
252.863	192.25
253.096	207.25
253.329	228.25
253.562	226.25
253.795	208.25
254.028	200.25
254.261	214.25
254.494	227.25
254.727	230.25
254.96	284.25
255.193	249.25
255.426	238.25
255.659	239.25
255.892	241.25
256.124	226.25
256.357	252.25
256.59	222.25
256.823	233.25
257.056	225.25
257.289	210.25
257.521	203.25
257.754	223.25
257.987	216.25
258.22	226.25
258.452	204.25
258.685	212.25
258.918	216.25
259.151	223.25
259.383	219.25
259.616	203.25
259.849	237.25
260.081	224.25
260.314	237.25
260.547	264.25
260.779	265.25
261.012	215.25
261.244	234.25
261.477	229.25
261.71	223.25
261.942	208.25
262.175	233.25
262.407	218.25
262.64	244.25
262.872	213.25
263.105	231.25
263.337	217.25
263.57	215.25
263.802	221.25
264.035	229.25
264.267	230.25
264.499	213.25
264.732	229.25
264.964	224.25
265.197	230.25
265.429	212.25
265.661	220.25
265.894	228.25
266.126	236.25
266.358	242.25
266.591	228.25
266.823	253.25
267.055	245.25
267.287	253.25
267.52	230.25
267.752	236.25
267.984	243.25
268.216	208.25
268.448	240.25
268.681	219.25
268.913	258.25
269.145	280.25
269.377	285.25
269.609	287.25
269.841	277.25
270.073	281.25
270.306	306.25
270.538	320.25
270.77	330.25
271.002	321.25
271.234	295.25
271.466	301.25
271.698	304.25
271.93	318.25
272.162	317.25
272.394	312.25
272.626	295.25
272.858	276.25
273.09	286.25
273.322	286.25
273.553	287.25
273.785	285.25
274.017	274.25
274.249	284.25
274.481	273.25
274.713	272.25
274.945	281.25
275.176	280.25
275.408	281.25
275.64	281.25
275.872	270.25
276.104	293.25
276.335	288.25
276.567	296.25
276.799	299.25
277.031	323.25
277.262	321.25
277.494	324.25
277.726	304.25
277.957	308.25
278.189	287.25
278.421	291.25
278.652	283.25
278.884	314.25
279.115	306.25
279.347	294.25
279.579	303.25
279.81	297.25
280.042	278.25
280.273	284.25
280.505	282.25
280.736	301.25
280.968	281.25
281.199	273.25
281.431	293.25
281.662	308.25
281.894	275.25
282.125	301.25
282.356	315.25
282.588	296.25
282.819	318.25
283.051	304.25
283.282	308.25
283.513	312.25
283.745	302.25
283.976	299.25
284.207	313.25
284.439	310.25
284.67	295.25
284.901	282.25
285.132	302.25
285.364	307.25
285.595	315.25
285.826	308.25
286.057	306.25
286.288	315.25
286.52	309.25
286.751	302.25
286.982	314.25
287.213	305.25
287.444	325.25
287.675	309.25
287.906	325.25
288.138	328.25
288.369	338.25
288.6	360.25
288.831	322.25
289.062	325.25
289.293	316.25
289.524	325.25
289.755	325.25
289.986	321.25
290.217	312.25
290.448	316.25
290.679	307.25
290.91	304.25
291.141	324.25
291.371	293.25
291.602	313.25
291.833	319.25
292.064	303.25
292.295	310.25
292.526	331.25
292.757	318.25
292.987	324.25
293.218	320.25
293.449	336.25
293.68	337.25
293.91	323.25
294.141	311.25
294.372	322.25
294.603	327.25
294.833	327.25
295.064	324.25
295.295	336.25
295.525	311.25
295.756	331.25
295.987	321.25
296.217	345.25
296.448	334.25
296.679	334.25
296.909	339.25
297.14	324.25
297.37	319.25
297.601	336.25
297.831	329.25
298.062	324.25
298.292	319.25
298.523	330.25
298.753	355.25
298.984	347.25
299.214	344.25
299.445	334.25
299.675	333.25
299.905	351.25
300.136	352.25
300.366	357.25
300.597	349.25
300.827	354.25
301.057	354.25
301.288	365.25
301.518	366.25
301.748	372.25
301.979	373.25
302.209	375.25
302.439	364.25
302.669	358.25
302.9	352.25
303.13	328.25
303.36	358.25
303.59	356.25
303.82	372.25
304.051	389.25
304.281	383.25
304.511	372.25
304.741	362.25
304.971	346.25
305.201	371.25
305.431	343.25
305.661	361.25
305.891	366.25
306.121	355.25
306.352	359.25
306.582	345.25
306.812	360.25
307.042	358.25
307.272	358.25
307.502	368.25
307.731	357.25
307.961	361.25
308.191	364.25
308.421	346.25
308.651	368.25
308.881	372.25
309.111	373.25
309.341	376.25
309.571	387.25
309.8	391.25
310.03	386.25
310.26	397.25
310.49	381.25
310.72	389.25
310.949	389.25
311.179	401.25
311.409	392.25
311.639	384.25
311.868	423.25
312.098	391.25
312.328	400.25
312.557	419.25
312.787	415.25
313.017	419.25
313.246	412.25
313.476	403.25
313.706	394.25
313.935	412.25
314.165	410.25
314.394	429.25
314.624	414.25
314.853	418.25
315.083	398.25
315.312	398.25
315.542	378.25
315.771	412.25
316.001	402.25
316.23	389.25
316.46	386.25
316.689	413.25
316.919	407.25
317.148	410.25
317.377	428.25
317.607	403.25
317.836	402.25
318.065	408.25
318.295	398.25
318.524	419.25
318.753	413.25
318.983	386.25
319.212	391.25
319.441	404.25
319.67	408.25
319.9	407.25
320.129	410.25
320.358	394.25
320.587	418.25
320.816	414.25
321.046	422.25
321.275	406.25
321.504	428.25
321.733	432.25
321.962	421.25
322.191	430.25
322.42	457.25
322.649	433.25
322.878	450.25
323.108	429.25
323.337	472.25
323.566	458.25
323.795	492.25
324.024	541.25
324.253	616.25
324.482	818.25
324.71	1223.25
324.939	1708.25
325.168	1435.25
325.397	748.25
325.626	563.25
325.855	519.25
326.084	482.25
326.313	478.25
326.542	471.25
326.77	544.25
326.999	628.25
327.228	770.25
327.457	1088.25
327.686	1270.25
327.914	874.25
328.143	610.25
328.372	553.25
328.6	533.25
328.829	527.25
329.058	535.25
329.287	542.25
329.515	514.25
329.744	518.25
329.972	518.25
330.201	508.25
330.43	556.25
330.658	553.25
330.887	553.25
331.115	513.25
331.344	518.25
331.572	497.25
331.801	482.25
332.03	487.25
332.258	490.25
332.486	478.25
332.715	486.25
332.943	471.25
333.172	476.25
333.4	477.25
333.629	492.25
333.857	532.25
334.085	523.25
334.314	522.25
334.542	551.25
334.771	560.25
334.999	510.25
335.227	509.25
335.455	486.25
335.684	503.25
335.912	476.25
336.14	475.25
336.369	477.25
336.597	471.25
336.825	480.25
337.053	495.25
337.281	462.25
337.51	473.25
337.738	455.25
337.966	473.25
338.194	467.25
338.422	465.25
338.65	448.25
338.878	444.25
339.106	461.25
339.334	468.25
339.562	457.25
339.79	460.25
340.018	468.25
340.246	448.25
340.474	455.25
340.702	448.25
340.93	447.25
341.158	430.25
341.386	438.25
341.614	444.25
341.842	438.25
342.07	414.25
342.298	439.25
342.526	450.25
342.754	436.25
342.981	446.25
343.209	425.25
343.437	456.25
343.665	470.25
343.893	476.25
344.12	486.25
344.348	470.25
344.576	482.25
344.804	466.25
345.031	450.25
345.259	462.25
345.487	454.25
345.714	450.25
345.942	414.25
346.17	440.25
346.397	412.25
346.625	404.25
346.853	424.25
347.08	437.25
347.308	421.25
347.535	440.25
347.763	422.25
347.99	425.25
348.218	425.25
348.445	449.25
348.673	428.25
348.9	415.25
349.128	423.25
349.355	423.25
349.583	412.25
349.81	392.25
350.037	416.25
350.265	403.25
350.492	404.25
350.72	433.25
350.947	423.25
351.174	403.25
351.402	432.25
351.629	416.25
351.856	428.25
352.083	430.25
352.311	447.25
352.538	416.25
352.765	436.25
352.992	443.25
353.22	418.25
353.447	398.25
353.674	412.25
353.901	409.25
354.128	380.25
354.355	406.25
354.583	409.25
354.81	389.25
355.037	395.25
355.264	395.25
355.491	383.25
355.718	407.25
355.945	401.25
356.172	400.25
356.399	388.25
356.626	386.25
356.853	380.25
357.08	396.25
357.307	395.25
357.534	393.25
357.761	376.25
357.988	398.25
358.215	410.25
358.441	417.25
358.668	392.25
358.895	396.25
359.122	418.25
359.349	411.25
359.576	426.25
359.802	445.25
360.029	419.25
360.256	458.25
360.483	427.25
360.709	431.25
360.936	419.25
361.163	407.25
361.39	393.25
361.616	430.25
361.843	414.25
362.07	404.25
362.296	401.25
362.523	402.25
362.749	389.25
362.976	418.25
363.203	386.25
363.429	377.25
363.656	410.25
363.882	410.25
364.109	400.25
364.335	404.25
364.562	403.25
364.788	396.25
365.015	394.25
365.241	392.25
365.468	401.25
365.694	384.25
365.92	391.25
366.147	384.25
366.373	409.25
366.599	407.25
366.826	377.25
367.052	374.25
367.278	381.25
367.505	390.25
367.731	378.25
367.957	392.25
368.184	394.25
368.41	396.25
368.636	365.25
368.862	407.25
369.089	394.25
369.315	393.25
369.541	386.25
369.767	399.25
369.993	397.25
370.219	393.25
370.445	393.25
370.672	421.25
370.898	396.25
371.124	403.25
371.35	397.25
371.576	390.25
371.802	408.25
372.028	395.25
372.254	410.25
372.48	391.25
372.706	404.25
372.932	419.25
373.158	421.25
373.384	402.25
373.61	404.25
373.835	393.25
374.061	396.25
374.287	413.25
374.513	406.25
374.739	413.25
374.965	401.25
375.191	405.25
375.416	416.25
375.642	401.25
375.868	413.25
376.094	394.25
376.319	392.25
376.545	398.25
376.771	390.25
376.997	397.25
377.222	382.25
377.448	392.25
377.674	372.25
377.899	374.25
378.125	393.25
378.35	409.25
378.576	395.25
378.802	382.25
379.027	377.25
379.253	394.25
379.478	386.25
379.704	368.25
379.929	375.25
380.155	387.25
380.38	372.25
380.606	396.25
380.831	387.25
381.057	418.25
381.282	386.25
381.507	377.25
381.733	394.25
381.958	400.25
382.184	387.25
382.409	409.25
382.634	403.25
382.86	404.25
383.085	392.25
383.31	404.25
383.535	414.25
383.761	423.25
383.986	396.25
384.211	404.25
384.436	408.25
384.662	419.25
384.887	426.25
385.112	423.25
385.337	415.25
385.562	441.25
385.787	439.25
386.013	418.25
386.238	436.25
386.463	426.25
386.688	428.25
386.913	436.25
387.138	406.25
387.363	429.25
387.588	420.25
387.813	434.25
388.038	428.25
388.263	407.25
388.488	419.25
388.713	428.25
388.938	434.25
389.163	440.25
389.387	437.25
389.612	433.25
389.837	441.25
390.062	451.25
390.287	422.25
390.512	422.25
390.736	414.25
390.961	426.25
391.186	424.25
391.411	424.25
391.636	432.25
391.86	434.25
392.085	435.25
392.31	426.25
392.534	451.25
392.759	438.25
392.984	444.25
393.208	441.25
393.433	416.25
393.658	428.25
393.882	445.25
394.107	439.25
394.331	430.25
394.556	439.25
394.78	426.25
395.005	430.25
395.229	445.25
395.454	449.25
395.678	436.25
395.903	449.25
396.127	456.25
396.352	453.25
396.576	452.25
396.801	445.25
397.025	432.25
397.249	464.25
397.474	454.25
397.698	428.25
397.922	461.25
398.147	482.25
398.371	484.25
398.595	480.25
398.82	484.25
399.044	496.25
399.268	533.25
399.492	529.25
399.717	575.25
399.941	587.25
400.165	596.25
400.389	592.25
400.613	517.25
400.837	516.25
401.062	516.25
401.286	491.25
401.51	508.25
401.734	470.25
401.958	472.25
402.182	486.25
402.406	479.25
402.63	497.25
402.854	476.25
403.078	506.25
403.302	508.25
403.526	504.25
403.75	505.25
403.974	494.25
404.198	514.25
404.422	518.25
404.645	514.25
404.869	508.25
405.093	551.25
405.317	562.25
405.541	599.25
405.765	545.25
405.988	510.25
406.212	534.25
406.436	513.25
406.66	559.25
406.883	528.25
407.107	561.25
407.331	594.25
407.555	651.25
407.778	656.25
408.002	591.25
408.226	549.25
408.449	560.25
408.673	542.25
408.896	560.25
409.12	592.25
409.344	518.25
409.567	510.25
409.791	504.25
410.014	501.25
410.238	502.25
410.461	482.25
410.685	496.25
410.908	510.25
411.132	528.25
411.355	535.25
411.578	535.25
411.802	505.25
412.025	485.25
412.249	514.25
412.472	508.25
412.695	553.25
412.919	540.25
413.142	520.25
413.365	487.25
413.589	486.25
413.812	465.25
414.035	473.25
414.258	470.25
414.482	466.25
414.705	462.25
414.928	469.25
415.151	465.25
415.374	469.25
415.597	444.25
415.821	461.25
416.044	458.25
416.267	468.25
416.49	482.25
416.713	442.25
416.936	484.25
417.159	447.25
417.382	455.25
417.605	456.25
417.828	459.25
418.051	486.25
418.274	451.25
418.497	457.25
418.72	470.25
418.943	474.25
419.166	484.25
419.389	504.25
419.611	484.25
419.834	492.25
420.057	458.25
420.28	518.25
420.503	495.25
420.726	482.25
420.948	505.25
421.171	499.25
421.394	524.25
421.617	469.25
421.839	468.25
422.062	478.25
422.285	494.25
422.507	543.25
422.73	572.25
422.953	575.25
423.175	523.25
423.398	492.25
423.621	505.25
423.843	491.25
424.066	494.25
424.288	518.25
424.511	529.25
424.733	538.25
424.956	601.25
425.178	597.25
425.401	598.25
425.623	632.25
425.846	522.25
426.068	496.25
426.291	467.25
426.513	480.25
426.735	490.25
426.958	542.25
427.18	606.25
427.402	696.25
427.625	731.25
427.847	650.25
428.069	580.25
428.292	514.25
428.514	474.25
428.736	474.25
428.958	460.25
429.181	423.25
429.403	449.25
429.625	472.25
429.847	480.25
430.069	542.25
430.292	544.25
430.514	471.25
430.736	474.25
430.958	438.25
431.18	447.25
431.402	440.25
431.624	416.25
431.846	418.25
432.068	416.25
432.29	429.25
432.512	441.25
432.734	464.25
432.956	442.25
433.178	467.25
433.4	472.25
433.622	441.25
433.844	444.25
434.066	439.25
434.287	426.25
434.509	444.25
434.731	459.25
434.953	450.25
435.175	469.25
435.397	492.25
435.618	495.25
435.84	522.25
436.062	592.25
436.284	628.25
436.505	535.25
436.727	472.25
436.949	458.25
437.17	428.25
437.392	436.25
437.614	480.25
437.835	473.25
438.057	529.25
438.278	630.25
438.5	628.25
438.721	697.25
438.943	652.25
439.165	532.25
439.386	481.25
439.608	485.25
439.829	467.25
440.05	513.25
440.272	550.25
440.493	500.25
440.715	496.25
440.936	455.25
441.158	462.25
441.379	459.25
441.6	462.25
441.822	496.25
442.043	518.25
442.264	598.25
442.486	590.25
442.707	528.25
442.928	502.25
443.149	503.25
443.371	486.25
443.592	533.25
443.813	620.25
444.034	658.25
444.255	580.25
444.476	506.25
444.698	497.25
444.919	513.25
445.14	594.25
445.361	569.25
445.582	505.25
445.803	575.25
446.024	653.25
446.245	650.25
446.466	590.25
446.687	503.25
446.908	489.25
447.129	474.25
447.35	481.25
447.571	471.25
447.792	432.25
448.013	446.25
448.234	472.25
448.455	486.25
448.675	599.25
448.896	662.25
449.117	553.25
449.338	532.25
449.559	629.25
449.779	689.25
450	563.25
450.221	472.25
450.442	440.25
450.662	461.25
450.883	445.25
451.104	432.25
451.324	436.25
451.545	423.25
451.766	418.25
451.986	408.25
452.207	387.25
452.428	384.25
452.648	393.25
452.869	412.25
453.089	400.25
453.31	405.25
453.53	398.25
453.751	403.25
453.971	404.25
454.192	411.25
454.412	391.25
454.633	413.25
454.853	373.25
455.073	412.25
455.294	429.25
455.514	486.25
455.734	449.25
455.955	384.25
456.175	398.25
456.395	386.25
456.616	372.25
456.836	377.25
457.056	371.25
457.276	368.25
457.497	371.25
457.717	385.25
457.937	391.25
458.157	386.25
458.377	381.25
458.598	418.25
458.818	434.25
459.038	495.25
459.258	514.25
459.478	455.25
459.698	420.25
459.918	414.25
460.138	422.25
460.358	458.25
460.578	455.25
460.798	449.25
461.018	446.25
461.238	438.25
461.458	434.25
461.678	466.25
461.898	429.25
462.118	463.25
462.338	463.25
462.558	456.25
462.777	471.25
462.997	486.25
463.217	499.25
463.437	497.25
463.657	500.25
463.876	493.25
464.096	496.25
464.316	495.25
464.536	469.25
464.755	499.25
464.975	490.25
465.195	496.25
465.414	481.25
465.634	490.25
465.854	420.25
466.073	411.25
466.293	430.25
466.512	402.25
466.732	422.25
466.951	404.25
467.171	401.25
467.391	401.25
467.61	416.25
467.829	426.25
468.049	413.25
468.268	393.25
468.488	409.25
468.707	397.25
468.927	372.25
469.146	388.25
469.365	410.25
469.585	392.25
469.804	407.25
470.023	416.25
470.243	399.25
470.462	407.25
470.681	423.25
470.901	422.25
471.12	408.25
471.339	416.25
471.558	412.25
471.777	427.25
471.997	409.25
472.216	414.25
472.435	411.25
472.654	436.25
472.873	409.25
473.092	411.25
473.311	412.25
473.53	415.25
473.749	408.25
473.968	458.25
474.187	535.25
474.406	548.25
474.625	463.25
474.844	434.25
475.063	396.25
475.282	405.25
475.501	405.25
475.72	423.25
475.939	434.25
476.158	425.25
476.377	414.25
476.596	428.25
476.814	424.25
477.033	423.25
477.252	438.25
477.471	441.25
477.69	433.25
477.908	457.25
478.127	463.25
478.346	448.25
478.564	464.25
478.783	458.25
479.002	466.25
479.22	483.25
479.439	491.25
479.658	478.25
479.876	489.25
480.095	519.25
480.313	516.25
480.532	508.25
480.751	478.25
480.969	515.25
481.188	561.25
481.406	566.25
481.624	542.25
481.843	502.25
482.061	509.25
482.28	487.25
482.498	484.25
482.717	451.25
482.935	485.25
483.153	473.25
483.372	442.25
483.59	465.25
483.808	472.25
484.027	468.25
484.245	473.25
484.463	476.25
484.681	473.25
484.9	484.25
485.118	476.25
485.336	487.25
485.554	500.25
485.772	495.25
485.99	518.25
486.209	488.25
486.427	523.25
486.645	495.25
486.863	515.25
487.081	519.25
487.299	492.25
487.517	519.25
487.735	489.25
487.953	519.25
488.171	515.25
488.389	496.25
488.607	503.25
488.825	505.25
489.043	521.25
489.261	512.25
489.479	511.25
489.696	488.25
489.914	523.25
490.132	543.25
490.35	523.25
490.568	540.25
490.786	523.25
491.003	539.25
491.221	537.25
491.439	530.25
491.657	565.25
491.874	578.25
492.092	594.25
492.31	557.25
492.527	562.25
492.745	596.25
492.963	569.25
493.18	577.25
493.398	578.25
493.615	605.25
493.833	596.25
494.05	572.25
494.268	615.25
494.485	574.25
494.703	576.25
494.92	565.25
495.138	582.25
495.355	606.25
495.573	592.25
495.79	580.25
496.008	593.25
496.225	588.25
496.442	581.25
496.66	610.25
496.877	597.25
497.094	593.25
497.312	601.25
497.529	625.25
497.746	633.25
497.963	623.25
498.181	649.25
498.398	703.25
498.615	664.25
498.832	691.25
499.049	720.25
499.267	702.25
499.484	726.25
499.701	794.25
499.918	829.25
500.135	842.25
500.352	928.25
500.569	911.25
500.786	908.25
501.003	919.25
501.22	874.25
501.437	861.25
501.654	814.25
501.871	797.25
502.088	734.25
