Data from 1964.PennyLincolnUp.Lamp.En5.5.200Scan.071719.P1._HRD10591_14-03-44-908.txt Node
Date: Thu Jul 18 14:03:44 EDT 2019
User: cochatt
Spectrometer: HR+D1059
Trigger mode: 1
Integration Time (sec): 1.000000E-1
Scans to average: 1
Electric dark correction enabled: true
Nonlinearity correction enabled: false
Boxcar width: 0
XAxis mode: Wavelengths
Number of Pixels in Spectrum: 2048
>>>>>Begin Spectral Data<<<<<
223.165	-7.25
223.4	-7.25
223.635	-7.25
223.869	-10.25
224.104	-16.25
224.338	-10.25
224.573	-21.25
224.808	-18.25
225.042	-4.25
225.277	-1.25
225.511	6.75
225.746	5.75
225.98	-13.25
226.215	9.75
226.449	21.75
226.683	13.75
226.918	26.75
227.152	17.75
227.387	37.75
227.621	35.75
227.856	26.75
228.09	49.75
228.324	47.75
228.559	51.75
228.793	56.75
229.027	71.75
229.262	94.75
229.496	99.75
229.73	99.75
229.964	120.75
230.199	107.75
230.433	98.75
230.667	101.75
230.901	104.75
231.136	111.75
231.37	106.75
231.604	91.75
231.838	94.75
232.072	89.75
232.306	113.75
232.541	114.75
232.775	94.75
233.009	108.75
233.243	115.75
233.477	99.75
233.711	92.75
233.945	111.75
234.179	108.75
234.413	106.75
234.647	117.75
234.881	103.75
235.115	121.75
235.349	110.75
235.583	109.75
235.817	112.75
236.051	118.75
236.285	109.75
236.519	108.75
236.753	122.75
236.987	119.75
237.221	164.75
237.455	183.75
237.689	166.75
237.922	129.75
238.156	133.75
238.39	118.75
238.624	115.75
238.858	126.75
239.091	116.75
239.325	117.75
239.559	123.75
239.793	109.75
240.027	126.75
240.26	133.75
240.494	142.75
240.728	138.75
240.961	126.75
241.195	135.75
241.429	134.75
241.662	124.75
241.896	136.75
242.13	120.75
242.363	130.75
242.597	122.75
242.83	139.75
243.064	135.75
243.298	127.75
243.531	121.75
243.765	131.75
243.998	127.75
244.232	127.75
244.465	135.75
244.699	132.75
244.932	141.75
245.166	139.75
245.399	135.75
245.633	132.75
245.866	140.75
246.099	137.75
246.333	131.75
246.566	149.75
246.8	158.75
247.033	144.75
247.266	142.75
247.5	149.75
247.733	163.75
247.966	145.75
248.2	151.75
248.433	165.75
248.666	172.75
248.899	163.75
249.133	181.75
249.366	181.75
249.599	185.75
249.832	165.75
250.066	154.75
250.299	179.75
250.532	181.75
250.765	201.75
250.998	204.75
251.231	210.75
251.465	195.75
251.698	189.75
251.931	184.75
252.164	183.75
252.397	176.75
252.63	197.75
252.863	198.75
253.096	214.75
253.329	200.75
253.562	202.75
253.795	210.75
254.028	196.75
254.261	215.75
254.494	213.75
254.727	215.75
254.96	244.75
255.193	245.75
255.426	202.75
255.659	224.75
255.892	215.75
256.124	217.75
256.357	206.75
256.59	207.75
256.823	190.75
257.056	210.75
257.289	209.75
257.521	212.75
257.754	217.75
257.987	206.75
258.22	199.75
258.452	204.75
258.685	209.75
258.918	203.75
259.151	216.75
259.383	191.75
259.616	219.75
259.849	211.75
260.081	242.75
260.314	236.75
260.547	228.75
260.779	235.75
261.012	215.75
261.244	238.75
261.477	217.75
261.71	212.75
261.942	212.75
262.175	210.75
262.407	218.75
262.64	221.75
262.872	203.75
263.105	198.75
263.337	208.75
263.57	208.75
263.802	216.75
264.035	198.75
264.267	198.75
264.499	208.75
264.732	221.75
264.964	223.75
265.197	210.75
265.429	208.75
265.661	207.75
265.894	217.75
266.126	209.75
266.358	232.75
266.591	207.75
266.823	216.75
267.055	234.75
267.287	241.75
267.52	218.75
267.752	227.75
267.984	223.75
268.216	231.75
268.448	236.75
268.681	249.75
268.913	226.75
269.145	257.75
269.377	259.75
269.609	277.75
269.841	269.75
270.073	254.75
270.306	274.75
270.538	305.75
270.77	269.75
271.002	280.75
271.234	279.75
271.466	281.75
271.698	291.75
271.93	296.75
272.162	275.75
272.394	295.75
272.626	284.75
272.858	286.75
273.09	276.75
273.322	268.75
273.553	246.75
273.785	270.75
274.017	271.75
274.249	255.75
274.481	262.75
274.713	271.75
274.945	271.75
275.176	283.75
275.408	284.75
275.64	279.75
275.872	271.75
276.104	284.75
276.335	267.75
276.567	275.75
276.799	274.75
277.031	286.75
277.262	278.75
277.494	307.75
277.726	313.75
277.957	296.75
278.189	276.75
278.421	273.75
278.652	271.75
278.884	268.75
279.115	285.75
279.347	276.75
279.579	279.75
279.81	282.75
280.042	266.75
280.273	272.75
280.505	268.75
280.736	276.75
280.968	286.75
281.199	265.75
281.431	275.75
281.662	300.75
281.894	289.75
282.125	269.75
282.356	293.75
282.588	294.75
282.819	289.75
283.051	303.75
283.282	287.75
283.513	283.75
283.745	285.75
283.976	286.75
284.207	281.75
284.439	280.75
284.67	279.75
284.901	313.75
285.132	306.75
285.364	323.75
285.595	317.75
285.826	277.75
286.057	282.75
286.288	277.75
286.52	308.75
286.751	305.75
286.982	305.75
287.213	290.75
287.444	295.75
287.675	298.75
287.906	316.75
288.138	316.75
288.369	315.75
288.6	311.75
288.831	324.75
289.062	330.75
289.293	307.75
289.524	299.75
289.755	291.75
289.986	312.75
290.217	309.75
290.448	309.75
290.679	281.75
290.91	315.75
291.141	313.75
291.371	301.75
291.602	309.75
291.833	303.75
292.064	299.75
292.295	317.75
292.526	312.75
292.757	303.75
292.987	310.75
293.218	301.75
293.449	322.75
293.68	289.75
293.91	311.75
294.141	310.75
294.372	313.75
294.603	316.75
294.833	329.75
295.064	324.75
295.295	317.75
295.525	331.75
295.756	316.75
295.987	299.75
296.217	318.75
296.448	323.75
296.679	317.75
296.909	326.75
297.14	307.75
297.37	333.75
297.601	330.75
297.831	325.75
298.062	331.75
298.292	325.75
298.523	337.75
298.753	325.75
298.984	358.75
299.214	333.75
299.445	315.75
299.675	331.75
299.905	341.75
300.136	336.75
300.366	331.75
300.597	330.75
300.827	357.75
301.057	348.75
301.288	345.75
301.518	333.75
301.748	341.75
301.979	347.75
302.209	341.75
302.439	358.75
302.669	355.75
302.9	337.75
303.13	340.75
303.36	335.75
303.59	346.75
303.82	369.75
304.051	337.75
304.281	355.75
304.511	332.75
304.741	341.75
304.971	369.75
305.201	337.75
305.431	366.75
305.661	340.75
305.891	335.75
306.121	340.75
306.352	346.75
306.582	345.75
306.812	335.75
307.042	350.75
307.272	354.75
307.502	343.75
307.731	345.75
307.961	348.75
308.191	354.75
308.421	353.75
308.651	352.75
308.881	337.75
309.111	358.75
309.341	356.75
309.571	355.75
309.8	376.75
310.03	389.75
310.26	360.75
310.49	374.75
310.72	371.75
310.949	392.75
311.179	381.75
311.409	383.75
311.639	365.75
311.868	374.75
312.098	375.75
312.328	376.75
312.557	379.75
312.787	380.75
313.017	373.75
313.246	385.75
313.476	399.75
313.706	375.75
313.935	356.75
314.165	390.75
314.394	377.75
314.624	388.75
314.853	377.75
315.083	353.75
315.312	389.75
315.542	378.75
315.771	382.75
316.001	390.75
316.23	385.75
316.46	386.75
316.689	384.75
316.919	387.75
317.148	387.75
317.377	400.75
317.607	400.75
317.836	390.75
318.065	399.75
318.295	401.75
318.524	385.75
318.753	371.75
318.983	375.75
319.212	391.75
319.441	393.75
319.67	411.75
319.9	386.75
320.129	397.75
320.358	396.75
320.587	382.75
320.816	403.75
321.046	396.75
321.275	393.75
321.504	390.75
321.733	397.75
321.962	402.75
322.191	404.75
322.42	410.75
322.649	397.75
322.878	403.75
323.108	408.75
323.337	411.75
323.566	439.75
323.795	437.75
324.024	468.75
324.253	540.75
324.482	738.75
324.71	1047.75
324.939	1358.75
325.168	1168.75
325.397	654.75
325.626	500.75
325.855	461.75
326.084	423.75
326.313	433.75
326.542	445.75
326.77	454.75
326.999	530.75
327.228	667.75
327.457	901.75
327.686	1051.75
327.914	748.75
328.143	515.75
328.372	517.75
328.6	486.75
328.829	469.75
329.058	480.75
329.287	481.75
329.515	482.75
329.744	470.75
329.972	476.75
330.201	470.75
330.43	488.75
330.658	494.75
330.887	489.75
331.115	494.75
331.344	465.75
331.572	446.75
331.801	449.75
332.03	485.75
332.258	457.75
332.486	434.75
332.715	451.75
332.943	438.75
333.172	460.75
333.4	459.75
333.629	460.75
333.857	462.75
334.085	473.75
334.314	488.75
334.542	526.75
334.771	544.75
334.999	490.75
335.227	468.75
335.455	475.75
335.684	448.75
335.912	452.75
336.14	463.75
336.369	455.75
336.597	452.75
336.825	456.75
337.053	429.75
337.281	441.75
337.51	432.75
337.738	430.75
337.966	427.75
338.194	407.75
338.422	435.75
338.65	422.75
338.878	406.75
339.106	415.75
339.334	433.75
339.562	443.75
339.79	439.75
340.018	450.75
340.246	422.75
340.474	421.75
340.702	406.75
340.93	419.75
341.158	436.75
341.386	407.75
341.614	419.75
341.842	408.75
342.07	425.75
342.298	422.75
342.526	435.75
342.754	420.75
342.981	425.75
343.209	422.75
343.437	413.75
343.665	425.75
343.893	468.75
344.12	459.75
344.348	439.75
344.576	438.75
344.804	453.75
345.031	453.75
345.259	434.75
345.487	412.75
345.714	435.75
345.942	407.75
346.17	405.75
346.397	380.75
346.625	403.75
346.853	391.75
347.08	398.75
347.308	405.75
347.535	420.75
347.763	401.75
347.99	389.75
348.218	411.75
348.445	399.75
348.673	390.75
348.9	407.75
349.128	388.75
349.355	398.75
349.583	409.75
349.81	389.75
350.037	393.75
350.265	373.75
350.492	376.75
350.72	381.75
350.947	366.75
351.174	385.75
351.402	407.75
351.629	411.75
351.856	406.75
352.083	404.75
352.311	404.75
352.538	394.75
352.765	389.75
352.992	393.75
353.22	391.75
353.447	405.75
353.674	390.75
353.901	390.75
354.128	373.75
354.355	385.75
354.583	391.75
354.81	400.75
355.037	378.75
355.264	388.75
355.491	375.75
355.718	384.75
355.945	362.75
356.172	394.75
356.399	369.75
356.626	359.75
356.853	369.75
357.08	385.75
357.307	390.75
357.534	361.75
357.761	371.75
357.988	393.75
358.215	367.75
358.441	385.75
358.668	368.75
358.895	373.75
359.122	374.75
359.349	389.75
359.576	411.75
359.802	409.75
360.029	399.75
360.256	401.75
360.483	395.75
360.709	403.75
360.936	385.75
361.163	369.75
361.39	387.75
361.616	404.75
361.843	387.75
362.07	386.75
362.296	379.75
362.523	380.75
362.749	386.75
362.976	384.75
363.203	399.75
363.429	395.75
363.656	379.75
363.882	351.75
364.109	384.75
364.335	356.75
364.562	389.75
364.788	379.75
365.015	385.75
365.241	382.75
365.468	387.75
365.694	378.75
365.92	382.75
366.147	378.75
366.373	366.75
366.599	363.75
366.826	359.75
367.052	370.75
367.278	385.75
367.505	381.75
367.731	390.75
367.957	382.75
368.184	386.75
368.41	394.75
368.636	380.75
368.862	377.75
369.089	383.75
369.315	391.75
369.541	389.75
369.767	377.75
369.993	389.75
370.219	369.75
370.445	372.75
370.672	388.75
370.898	385.75
371.124	379.75
371.35	387.75
371.576	392.75
371.802	386.75
372.028	381.75
372.254	367.75
372.48	371.75
372.706	373.75
372.932	385.75
373.158	390.75
373.384	398.75
373.61	387.75
373.835	390.75
374.061	403.75
374.287	388.75
374.513	366.75
374.739	389.75
374.965	401.75
375.191	385.75
375.416	389.75
375.642	370.75
375.868	387.75
376.094	393.75
376.319	386.75
376.545	369.75
376.771	377.75
376.997	371.75
377.222	365.75
377.448	391.75
377.674	371.75
377.899	372.75
378.125	380.75
378.35	373.75
378.576	355.75
378.802	386.75
379.027	382.75
379.253	378.75
379.478	365.75
379.704	364.75
379.929	373.75
380.155	381.75
380.38	378.75
380.606	355.75
380.831	371.75
381.057	381.75
381.282	389.75
381.507	371.75
381.733	396.75
381.958	376.75
382.184	378.75
382.409	387.75
382.634	375.75
382.86	380.75
383.085	385.75
383.31	397.75
383.535	405.75
383.761	387.75
383.986	403.75
384.211	404.75
384.436	390.75
384.662	403.75
384.887	398.75
385.112	391.75
385.337	408.75
385.562	405.75
385.787	400.75
386.013	412.75
386.238	430.75
386.463	439.75
386.688	433.75
386.913	401.75
387.138	413.75
387.363	410.75
387.588	406.75
387.813	417.75
388.038	399.75
388.263	414.75
388.488	421.75
388.713	419.75
388.938	405.75
389.163	423.75
389.387	409.75
389.612	433.75
389.837	423.75
390.062	397.75
390.287	415.75
390.512	413.75
390.736	407.75
390.961	402.75
391.186	414.75
391.411	406.75
391.636	405.75
391.86	430.75
392.085	424.75
392.31	402.75
392.534	431.75
392.759	418.75
392.984	403.75
393.208	399.75
393.433	406.75
393.658	427.75
393.882	405.75
394.107	407.75
394.331	414.75
394.556	400.75
394.78	435.75
395.005	427.75
395.229	434.75
395.454	437.75
395.678	443.75
395.903	425.75
396.127	451.75
396.352	447.75
396.576	410.75
396.801	409.75
397.025	438.75
397.249	414.75
397.474	448.75
397.698	444.75
397.922	450.75
398.147	447.75
398.371	466.75
398.595	477.75
398.82	458.75
399.044	485.75
399.268	493.75
399.492	542.75
399.717	562.75
399.941	572.75
400.165	581.75
400.389	561.75
400.613	519.75
400.837	498.75
401.062	467.75
401.286	476.75
401.51	452.75
401.734	443.75
401.958	467.75
402.182	468.75
402.406	444.75
402.63	468.75
402.854	473.75
403.078	469.75
403.302	454.75
403.526	486.75
403.75	497.75
403.974	489.75
404.198	462.75
404.422	471.75
404.645	496.75
404.869	495.75
405.093	509.75
405.317	551.75
405.541	571.75
405.765	514.75
405.988	497.75
406.212	492.75
406.436	527.75
406.66	509.75
406.883	527.75
407.107	521.75
407.331	550.75
407.555	611.75
407.778	605.75
408.002	552.75
408.226	519.75
408.449	521.75
408.673	494.75
408.896	540.75
409.12	557.75
409.344	531.75
409.567	478.75
409.791	493.75
410.014	486.75
410.238	468.75
410.461	484.75
410.685	480.75
410.908	478.75
411.132	497.75
411.355	524.75
411.578	501.75
411.802	494.75
412.025	479.75
412.249	474.75
412.472	510.75
412.695	522.75
412.919	505.75
413.142	473.75
413.365	461.75
413.589	461.75
413.812	456.75
414.035	439.75
414.258	436.75
414.482	451.75
414.705	441.75
414.928	437.75
415.151	449.75
415.374	429.75
415.597	448.75
415.821	435.75
416.044	452.75
416.267	447.75
416.49	441.75
416.713	435.75
416.936	455.75
417.159	438.75
417.382	444.75
417.605	449.75
417.828	454.75
418.051	474.75
418.274	455.75
418.497	413.75
418.72	465.75
418.943	448.75
419.166	452.75
419.389	460.75
419.611	497.75
419.834	476.75
420.057	453.75
420.28	460.75
420.503	469.75
420.726	473.75
420.948	458.75
421.171	476.75
421.394	509.75
421.617	470.75
421.839	437.75
422.062	435.75
422.285	455.75
422.507	491.75
422.73	548.75
422.953	544.75
423.175	484.75
423.398	450.75
423.621	467.75
423.843	477.75
424.066	490.75
424.288	475.75
424.511	501.75
424.733	517.75
424.956	564.75
425.178	549.75
425.401	554.75
425.623	580.75
425.846	509.75
426.068	495.75
426.291	470.75
426.513	455.75
426.735	471.75
426.958	477.75
427.18	542.75
427.402	623.75
427.625	687.75
427.847	586.75
428.069	505.75
428.292	489.75
428.514	473.75
428.736	449.75
428.958	449.75
429.181	428.75
429.403	430.75
429.625	443.75
429.847	460.75
430.069	487.75
430.292	490.75
430.514	444.75
430.736	410.75
430.958	421.75
431.18	413.75
431.402	420.75
431.624	402.75
431.846	418.75
432.068	403.75
432.29	411.75
432.512	405.75
432.734	435.75
432.956	417.75
433.178	419.75
433.4	432.75
433.622	406.75
433.844	440.75
434.066	422.75
434.287	399.75
434.509	429.75
434.731	426.75
434.953	423.75
435.175	461.75
435.397	449.75
435.618	455.75
435.84	483.75
436.062	567.75
436.284	581.75
436.505	492.75
436.727	465.75
436.949	471.75
437.17	422.75
437.392	426.75
437.614	438.75
437.835	464.75
438.057	487.75
438.278	561.75
438.5	583.75
438.721	625.75
438.943	585.75
439.165	478.75
439.386	454.75
439.608	474.75
439.829	472.75
440.05	471.75
440.272	483.75
440.493	487.75
440.715	458.75
440.936	437.75
441.158	423.75
441.379	444.75
441.6	427.75
441.822	469.75
442.043	489.75
442.264	538.75
442.486	549.75
442.707	492.75
442.928	467.75
443.149	467.75
443.371	497.75
443.592	537.75
443.813	579.75
444.034	616.75
444.255	522.75
444.476	473.75
444.698	479.75
444.919	484.75
445.14	588.75
445.361	550.75
445.582	492.75
445.803	531.75
446.024	578.75
446.245	571.75
446.466	549.75
446.687	464.75
446.908	475.75
447.129	415.75
447.35	410.75
447.571	435.75
447.792	406.75
448.013	419.75
448.234	416.75
448.455	466.75
448.675	535.75
448.896	615.75
449.117	525.75
449.338	497.75
449.559	575.75
449.779	655.75
450	524.75
450.221	467.75
450.442	403.75
450.662	399.75
450.883	398.75
451.104	403.75
451.324	389.75
451.545	388.75
451.766	389.75
451.986	369.75
452.207	373.75
452.428	393.75
452.648	370.75
452.869	369.75
453.089	362.75
453.31	400.75
453.53	351.75
453.751	385.75
453.971	374.75
454.192	369.75
454.412	376.75
454.633	377.75
454.853	370.75
455.073	396.75
455.294	396.75
455.514	399.75
455.734	421.75
455.955	398.75
456.175	365.75
456.395	372.75
456.616	355.75
456.836	340.75
457.056	358.75
457.276	369.75
457.497	361.75
457.717	369.75
457.937	358.75
458.157	372.75
458.377	388.75
458.598	382.75
458.818	405.75
459.038	451.75
459.258	473.75
459.478	443.75
459.698	429.75
459.918	418.75
460.138	395.75
460.358	403.75
460.578	419.75
460.798	433.75
461.018	452.75
461.238	424.75
461.458	432.75
461.678	435.75
461.898	421.75
462.118	423.75
462.338	437.75
462.558	438.75
462.777	447.75
462.997	480.75
463.217	482.75
463.437	462.75
463.657	482.75
463.876	454.75
464.096	462.75
464.316	448.75
464.536	447.75
464.755	437.75
464.975	437.75
465.195	458.75
465.414	473.75
465.634	435.75
465.854	425.75
466.073	411.75
466.293	393.75
466.512	402.75
466.732	392.75
466.951	389.75
467.171	419.75
467.391	411.75
467.61	392.75
467.829	424.75
468.049	403.75
468.268	403.75
468.488	399.75
468.707	388.75
468.927	374.75
469.146	363.75
469.365	377.75
469.585	379.75
469.804	382.75
470.023	393.75
470.243	408.75
470.462	403.75
470.681	410.75
470.901	407.75
471.12	409.75
471.339	389.75
471.558	417.75
471.777	379.75
471.997	396.75
472.216	383.75
472.435	396.75
472.654	405.75
472.873	388.75
473.092	391.75
473.311	415.75
473.53	415.75
473.749	390.75
473.968	430.75
474.187	491.75
474.406	508.75
474.625	435.75
474.844	407.75
475.063	382.75
475.282	403.75
475.501	391.75
475.72	407.75
475.939	399.75
476.158	398.75
476.377	400.75
476.596	399.75
476.814	412.75
477.033	415.75
477.252	413.75
477.471	415.75
477.69	408.75
477.908	429.75
478.127	423.75
478.346	439.75
478.564	433.75
478.783	437.75
479.002	452.75
479.22	464.75
479.439	459.75
479.658	470.75
479.876	468.75
480.095	456.75
480.313	512.75
480.532	497.75
480.751	473.75
480.969	485.75
481.188	512.75
481.406	535.75
481.624	490.75
481.843	465.75
482.061	467.75
482.28	451.75
482.498	440.75
482.717	458.75
482.935	444.75
483.153	430.75
483.372	455.75
483.59	447.75
483.808	441.75
484.027	458.75
484.245	458.75
484.463	442.75
484.681	454.75
484.9	454.75
485.118	462.75
485.336	456.75
485.554	468.75
485.772	467.75
485.99	475.75
486.209	468.75
486.427	466.75
486.645	491.75
486.863	473.75
487.081	479.75
487.299	487.75
487.517	467.75
487.735	475.75
487.953	482.75
488.171	486.75
488.389	470.75
488.607	478.75
488.825	488.75
489.043	477.75
489.261	482.75
489.479	486.75
489.696	474.75
489.914	486.75
490.132	500.75
490.35	488.75
490.568	501.75
490.786	508.75
491.003	510.75
491.221	520.75
491.439	524.75
491.657	535.75
491.874	537.75
492.092	521.75
492.31	522.75
492.527	541.75
492.745	535.75
492.963	542.75
493.18	525.75
493.398	535.75
493.615	558.75
493.833	533.75
494.05	552.75
494.268	575.75
494.485	537.75
494.703	553.75
494.92	561.75
495.138	551.75
495.355	571.75
495.573	561.75
495.79	561.75
496.008	561.75
496.225	559.75
496.442	559.75
496.66	577.75
496.877	569.75
497.094	559.75
497.312	570.75
497.529	593.75
497.746	577.75
497.963	594.75
498.181	610.75
498.398	620.75
498.615	646.75
498.832	669.75
499.049	655.75
499.267	685.75
499.484	710.75
499.701	755.75
499.918	793.75
500.135	837.75
500.352	847.75
500.569	874.75
500.786	870.75
501.003	861.75
501.22	814.75
501.437	803.75
501.654	765.75
501.871	721.75
502.088	702.75
