Data from 1964.PennyLincolnUp.Lamp.En5.5.200Scan.071719.P1._HRD10591_14-04-10-909.txt Node
Date: Thu Jul 18 14:04:10 EDT 2019
User: cochatt
Spectrometer: HR+D1059
Trigger mode: 1
Integration Time (sec): 1.000000E-1
Scans to average: 1
Electric dark correction enabled: true
Nonlinearity correction enabled: false
Boxcar width: 0
XAxis mode: Wavelengths
Number of Pixels in Spectrum: 2048
>>>>>Begin Spectral Data<<<<<
223.165	-20.38
223.4	-20.38
223.635	-20.38
223.869	-19.38
224.104	-20.38
224.338	-12.38
224.573	-22.38
224.808	-19.38
225.042	-5.38
225.277	-2.38
225.511	-4.38
225.746	24.62
225.98	4.62
226.215	17.62
226.449	10.62
226.683	11.62
226.918	25.62
227.152	31.62
227.387	20.62
227.621	18.62
227.856	29.62
228.09	47.62
228.324	53.62
228.559	47.62
228.793	71.62
229.027	94.62
229.262	68.62
229.496	104.62
229.73	118.62
229.964	111.62
230.199	110.62
230.433	108.62
230.667	107.62
230.901	112.62
231.136	116.62
231.37	110.62
231.604	101.62
231.838	107.62
232.072	92.62
232.306	99.62
232.541	105.62
232.775	104.62
233.009	119.62
233.243	97.62
233.477	106.62
233.711	112.62
233.945	113.62
234.179	115.62
234.413	104.62
234.647	114.62
234.881	110.62
235.115	112.62
235.349	98.62
235.583	107.62
235.817	103.62
236.051	99.62
236.285	127.62
236.519	121.62
236.753	117.62
236.987	136.62
237.221	148.62
237.455	172.62
237.689	155.62
237.922	130.62
238.156	126.62
238.39	108.62
238.624	106.62
238.858	124.62
239.091	108.62
239.325	114.62
239.559	116.62
239.793	107.62
240.027	123.62
240.26	120.62
240.494	140.62
240.728	126.62
240.961	130.62
241.195	123.62
241.429	140.62
241.662	132.62
241.896	119.62
242.13	129.62
242.363	118.62
242.597	127.62
242.83	122.62
243.064	134.62
243.298	123.62
243.531	144.62
243.765	126.62
243.998	114.62
244.232	126.62
244.465	145.62
244.699	129.62
244.932	136.62
245.166	140.62
245.399	132.62
245.633	126.62
245.866	120.62
246.099	144.62
246.333	137.62
246.566	141.62
246.8	146.62
247.033	136.62
247.266	129.62
247.5	149.62
247.733	156.62
247.966	158.62
248.2	166.62
248.433	169.62
248.666	159.62
248.899	180.62
249.133	169.62
249.366	185.62
249.599	176.62
249.832	171.62
250.066	167.62
250.299	170.62
250.532	176.62
250.765	189.62
250.998	210.62
251.231	186.62
251.465	201.62
251.698	179.62
251.931	185.62
252.164	187.62
252.397	186.62
252.63	180.62
252.863	186.62
253.096	200.62
253.329	192.62
253.562	197.62
253.795	207.62
254.028	196.62
254.261	204.62
254.494	209.62
254.727	224.62
254.96	244.62
255.193	223.62
255.426	220.62
255.659	201.62
255.892	211.62
256.124	201.62
256.357	210.62
256.59	205.62
256.823	204.62
257.056	201.62
257.289	198.62
257.521	192.62
257.754	198.62
257.987	210.62
258.22	197.62
258.452	209.62
258.685	192.62
258.918	217.62
259.151	208.62
259.383	221.62
259.616	215.62
259.849	221.62
260.081	199.62
260.314	235.62
260.547	233.62
260.779	239.62
261.012	222.62
261.244	216.62
261.477	207.62
261.71	224.62
261.942	203.62
262.175	232.62
262.407	213.62
262.64	196.62
262.872	211.62
263.105	211.62
263.337	213.62
263.57	197.62
263.802	222.62
264.035	198.62
264.267	202.62
264.499	214.62
264.732	201.62
264.964	211.62
265.197	208.62
265.429	223.62
265.661	217.62
265.894	221.62
266.126	220.62
266.358	230.62
266.591	208.62
266.823	216.62
267.055	235.62
267.287	210.62
267.52	232.62
267.752	244.62
267.984	216.62
268.216	238.62
268.448	227.62
268.681	226.62
268.913	251.62
269.145	250.62
269.377	254.62
269.609	258.62
269.841	251.62
270.073	258.62
270.306	264.62
270.538	294.62
270.77	283.62
271.002	276.62
271.234	268.62
271.466	287.62
271.698	291.62
271.93	292.62
272.162	296.62
272.394	295.62
272.626	287.62
272.858	275.62
273.09	270.62
273.322	271.62
273.553	265.62
273.785	265.62
274.017	257.62
274.249	273.62
274.481	287.62
274.713	252.62
274.945	275.62
275.176	256.62
275.408	248.62
275.64	269.62
275.872	265.62
276.104	267.62
276.335	266.62
276.567	276.62
276.799	272.62
277.031	296.62
277.262	290.62
277.494	311.62
277.726	296.62
277.957	291.62
278.189	284.62
278.421	266.62
278.652	272.62
278.884	278.62
279.115	291.62
279.347	278.62
279.579	295.62
279.81	267.62
280.042	276.62
280.273	286.62
280.505	272.62
280.736	276.62
280.968	261.62
281.199	271.62
281.431	286.62
281.662	290.62
281.894	285.62
282.125	286.62
282.356	292.62
282.588	295.62
282.819	297.62
283.051	273.62
283.282	281.62
283.513	298.62
283.745	300.62
283.976	300.62
284.207	296.62
284.439	312.62
284.67	288.62
284.901	310.62
285.132	295.62
285.364	289.62
285.595	309.62
285.826	294.62
286.057	274.62
286.288	292.62
286.52	289.62
286.751	308.62
286.982	306.62
287.213	295.62
287.444	307.62
287.675	288.62
287.906	310.62
288.138	316.62
288.369	300.62
288.6	295.62
288.831	320.62
289.062	322.62
289.293	310.62
289.524	318.62
289.755	296.62
289.986	289.62
290.217	310.62
290.448	322.62
290.679	307.62
290.91	319.62
291.141	315.62
291.371	305.62
291.602	319.62
291.833	310.62
292.064	316.62
292.295	298.62
292.526	305.62
292.757	301.62
292.987	304.62
293.218	307.62
293.449	305.62
293.68	310.62
293.91	314.62
294.141	303.62
294.372	313.62
294.603	318.62
294.833	313.62
295.064	311.62
295.295	309.62
295.525	326.62
295.756	330.62
295.987	323.62
296.217	319.62
296.448	343.62
296.679	336.62
296.909	333.62
297.14	314.62
297.37	335.62
297.601	319.62
297.831	341.62
298.062	322.62
298.292	337.62
298.523	316.62
298.753	317.62
298.984	322.62
299.214	322.62
299.445	322.62
299.675	314.62
299.905	328.62
300.136	320.62
300.366	330.62
300.597	328.62
300.827	340.62
301.057	340.62
301.288	348.62
301.518	341.62
301.748	340.62
301.979	350.62
302.209	345.62
302.439	347.62
302.669	348.62
302.9	328.62
303.13	333.62
303.36	352.62
303.59	346.62
303.82	346.62
304.051	345.62
304.281	359.62
304.511	380.62
304.741	336.62
304.971	340.62
305.201	338.62
305.431	348.62
305.661	357.62
305.891	339.62
306.121	342.62
306.352	352.62
306.582	345.62
306.812	359.62
307.042	354.62
307.272	347.62
307.502	361.62
307.731	355.62
307.961	351.62
308.191	361.62
308.421	349.62
308.651	363.62
308.881	344.62
309.111	345.62
309.341	343.62
309.571	360.62
309.8	350.62
310.03	371.62
310.26	378.62
310.49	374.62
310.72	383.62
310.949	390.62
311.179	360.62
311.409	373.62
311.639	364.62
311.868	395.62
312.098	370.62
312.328	366.62
312.557	367.62
312.787	401.62
313.017	373.62
313.246	375.62
313.476	388.62
313.706	387.62
313.935	378.62
314.165	382.62
314.394	380.62
314.624	400.62
314.853	394.62
315.083	374.62
315.312	382.62
315.542	374.62
315.771	369.62
316.001	404.62
316.23	384.62
316.46	373.62
316.689	403.62
316.919	389.62
317.148	385.62
317.377	386.62
317.607	379.62
317.836	390.62
318.065	367.62
318.295	376.62
318.524	393.62
318.753	387.62
318.983	394.62
319.212	372.62
319.441	374.62
319.67	412.62
319.9	391.62
320.129	372.62
320.358	396.62
320.587	382.62
320.816	409.62
321.046	404.62
321.275	407.62
321.504	383.62
321.733	402.62
321.962	406.62
322.191	406.62
322.42	407.62
322.649	395.62
322.878	433.62
323.108	432.62
323.337	432.62
323.566	447.62
323.795	464.62
324.024	497.62
324.253	575.62
324.482	740.62
324.71	1042.62
324.939	1399.62
325.168	1204.62
325.397	652.62
325.626	518.62
325.855	462.62
326.084	457.62
326.313	452.62
326.542	451.62
326.77	470.62
326.999	546.62
327.228	684.62
327.457	947.62
327.686	1072.62
327.914	752.62
328.143	561.62
328.372	516.62
328.6	487.62
328.829	465.62
329.058	482.62
329.287	475.62
329.515	461.62
329.744	473.62
329.972	478.62
330.201	467.62
330.43	487.62
330.658	522.62
330.887	540.62
331.115	485.62
331.344	466.62
331.572	467.62
331.801	462.62
332.03	474.62
332.258	475.62
332.486	443.62
332.715	460.62
332.943	446.62
333.172	476.62
333.4	482.62
333.629	481.62
333.857	490.62
334.085	483.62
334.314	518.62
334.542	523.62
334.771	502.62
334.999	485.62
335.227	472.62
335.455	474.62
335.684	478.62
335.912	476.62
336.14	453.62
336.369	478.62
336.597	464.62
336.825	432.62
337.053	453.62
337.281	447.62
337.51	447.62
337.738	424.62
337.966	434.62
338.194	430.62
338.422	435.62
338.65	442.62
338.878	434.62
339.106	430.62
339.334	448.62
339.562	439.62
339.79	438.62
340.018	426.62
340.246	422.62
340.474	421.62
340.702	430.62
340.93	434.62
341.158	418.62
341.386	424.62
341.614	441.62
341.842	432.62
342.07	411.62
342.298	434.62
342.526	411.62
342.754	408.62
342.981	416.62
343.209	416.62
343.437	428.62
343.665	427.62
343.893	450.62
344.12	470.62
344.348	419.62
344.576	433.62
344.804	448.62
345.031	427.62
345.259	434.62
345.487	415.62
345.714	432.62
345.942	422.62
346.17	393.62
346.397	414.62
346.625	392.62
346.853	400.62
347.08	393.62
347.308	403.62
347.535	409.62
347.763	425.62
347.99	423.62
348.218	419.62
348.445	408.62
348.673	412.62
348.9	407.62
349.128	397.62
349.355	383.62
349.583	418.62
349.81	379.62
350.037	378.62
350.265	386.62
350.492	402.62
350.72	397.62
350.947	400.62
351.174	399.62
351.402	402.62
351.629	407.62
351.856	395.62
352.083	405.62
352.311	415.62
352.538	404.62
352.765	412.62
352.992	409.62
353.22	378.62
353.447	403.62
353.674	377.62
353.901	386.62
354.128	393.62
354.355	364.62
354.583	370.62
354.81	395.62
355.037	392.62
355.264	379.62
355.491	374.62
355.718	377.62
355.945	388.62
356.172	370.62
356.399	376.62
356.626	377.62
356.853	402.62
357.08	371.62
357.307	380.62
357.534	376.62
357.761	377.62
357.988	384.62
358.215	376.62
358.441	367.62
358.668	381.62
358.895	385.62
359.122	376.62
359.349	369.62
359.576	386.62
359.802	407.62
360.029	422.62
360.256	414.62
360.483	400.62
360.709	394.62
360.936	412.62
361.163	392.62
361.39	391.62
361.616	406.62
361.843	392.62
362.07	374.62
362.296	407.62
362.523	392.62
362.749	393.62
362.976	397.62
363.203	374.62
363.429	367.62
363.656	391.62
363.882	385.62
364.109	395.62
364.335	358.62
364.562	386.62
364.788	378.62
365.015	376.62
365.241	375.62
365.468	385.62
365.694	388.62
365.92	378.62
366.147	363.62
366.373	392.62
366.599	378.62
366.826	370.62
367.052	374.62
367.278	383.62
367.505	368.62
367.731	386.62
367.957	379.62
368.184	351.62
368.41	396.62
368.636	392.62
368.862	385.62
369.089	380.62
369.315	376.62
369.541	388.62
369.767	379.62
369.993	377.62
370.219	372.62
370.445	392.62
370.672	370.62
370.898	376.62
371.124	376.62
371.35	356.62
371.576	386.62
371.802	360.62
372.028	386.62
372.254	401.62
372.48	406.62
372.706	390.62
372.932	388.62
373.158	404.62
373.384	383.62
373.61	375.62
373.835	389.62
374.061	382.62
374.287	377.62
374.513	406.62
374.739	396.62
374.965	392.62
375.191	395.62
375.416	410.62
375.642	384.62
375.868	388.62
376.094	380.62
376.319	379.62
376.545	386.62
376.771	387.62
376.997	393.62
377.222	376.62
377.448	374.62
377.674	378.62
377.899	374.62
378.125	378.62
378.35	371.62
378.576	388.62
378.802	376.62
379.027	372.62
379.253	382.62
379.478	376.62
379.704	365.62
379.929	373.62
380.155	387.62
380.38	383.62
380.606	390.62
380.831	372.62
381.057	389.62
381.282	374.62
381.507	365.62
381.733	379.62
381.958	391.62
382.184	398.62
382.409	385.62
382.634	387.62
382.86	379.62
383.085	394.62
383.31	406.62
383.535	372.62
383.761	393.62
383.986	404.62
384.211	391.62
384.436	395.62
384.662	404.62
384.887	394.62
385.112	384.62
385.337	403.62
385.562	409.62
385.787	410.62
386.013	435.62
386.238	414.62
386.463	410.62
386.688	434.62
386.913	404.62
387.138	417.62
387.363	423.62
387.588	400.62
387.813	408.62
388.038	394.62
388.263	427.62
388.488	419.62
388.713	412.62
388.938	402.62
389.163	407.62
389.387	411.62
389.612	427.62
389.837	401.62
390.062	411.62
390.287	392.62
390.512	415.62
390.736	398.62
390.961	436.62
391.186	392.62
391.411	407.62
391.636	414.62
391.86	413.62
392.085	429.62
392.31	430.62
392.534	428.62
392.759	436.62
392.984	423.62
393.208	419.62
393.433	402.62
393.658	432.62
393.882	404.62
394.107	404.62
394.331	433.62
394.556	389.62
394.78	410.62
395.005	420.62
395.229	407.62
395.454	438.62
395.678	426.62
395.903	437.62
396.127	453.62
396.352	442.62
396.576	413.62
396.801	414.62
397.025	436.62
397.249	435.62
397.474	459.62
397.698	430.62
397.922	470.62
398.147	443.62
398.371	449.62
398.595	474.62
398.82	465.62
399.044	481.62
399.268	494.62
399.492	519.62
399.717	558.62
399.941	596.62
400.165	572.62
400.389	572.62
400.613	522.62
400.837	500.62
401.062	477.62
401.286	484.62
401.51	461.62
401.734	460.62
401.958	473.62
402.182	472.62
402.406	466.62
402.63	493.62
402.854	486.62
403.078	448.62
403.302	480.62
403.526	482.62
403.75	483.62
403.974	484.62
404.198	470.62
404.422	496.62
404.645	481.62
404.869	500.62
405.093	510.62
405.317	550.62
405.541	544.62
405.765	523.62
405.988	498.62
406.212	505.62
406.436	502.62
406.66	519.62
406.883	516.62
407.107	545.62
407.331	566.62
407.555	605.62
407.778	600.62
408.002	568.62
408.226	537.62
408.449	523.62
408.673	523.62
408.896	536.62
409.12	551.62
409.344	528.62
409.567	489.62
409.791	476.62
410.014	481.62
410.238	478.62
410.461	465.62
410.685	459.62
410.908	474.62
411.132	510.62
411.355	518.62
411.578	498.62
411.802	486.62
412.025	484.62
412.249	493.62
412.472	523.62
412.695	532.62
412.919	498.62
413.142	465.62
413.365	459.62
413.589	468.62
413.812	452.62
414.035	456.62
414.258	445.62
414.482	469.62
414.705	452.62
414.928	451.62
415.151	444.62
415.374	428.62
415.597	435.62
415.821	448.62
416.044	432.62
416.267	439.62
416.49	443.62
416.713	443.62
416.936	439.62
417.159	429.62
417.382	446.62
417.605	450.62
417.828	456.62
418.051	460.62
418.274	426.62
418.497	457.62
418.72	434.62
418.943	442.62
419.166	443.62
419.389	504.62
419.611	462.62
419.834	474.62
420.057	488.62
420.28	487.62
420.503	475.62
420.726	453.62
420.948	442.62
421.171	495.62
421.394	502.62
421.617	472.62
421.839	441.62
422.062	450.62
422.285	460.62
422.507	501.62
422.73	544.62
422.953	519.62
423.175	482.62
423.398	474.62
423.621	474.62
423.843	491.62
424.066	475.62
424.288	486.62
424.511	494.62
424.733	537.62
424.956	558.62
425.178	568.62
425.401	539.62
425.623	576.62
425.846	520.62
426.068	472.62
426.291	474.62
426.513	452.62
426.735	470.62
426.958	515.62
427.18	548.62
427.402	640.62
427.625	711.62
427.847	576.62
428.069	523.62
428.292	491.62
428.514	466.62
428.736	438.62
428.958	462.62
429.181	400.62
429.403	432.62
429.625	448.62
429.847	467.62
430.069	492.62
430.292	493.62
430.514	437.62
430.736	447.62
430.958	422.62
431.18	419.62
431.402	422.62
431.624	422.62
431.846	421.62
432.068	426.62
432.29	406.62
432.512	421.62
432.734	412.62
432.956	411.62
433.178	440.62
433.4	418.62
433.622	420.62
433.844	410.62
434.066	419.62
434.287	417.62
434.509	431.62
434.731	405.62
434.953	437.62
435.175	448.62
435.397	444.62
435.618	463.62
435.84	477.62
436.062	547.62
436.284	611.62
436.505	498.62
436.727	468.62
436.949	451.62
437.17	443.62
437.392	449.62
437.614	425.62
437.835	442.62
438.057	494.62
438.278	588.62
438.5	564.62
438.721	623.62
438.943	612.62
439.165	490.62
439.386	476.62
439.608	454.62
439.829	466.62
440.05	481.62
440.272	487.62
440.493	475.62
440.715	451.62
440.936	439.62
441.158	438.62
441.379	431.62
441.6	452.62
441.822	448.62
442.043	475.62
442.264	539.62
442.486	576.62
442.707	506.62
442.928	472.62
443.149	470.62
443.371	486.62
443.592	503.62
443.813	588.62
444.034	610.62
444.255	538.62
444.476	503.62
444.698	498.62
444.919	476.62
445.14	577.62
445.361	530.62
445.582	491.62
445.803	515.62
446.024	599.62
446.245	605.62
446.466	532.62
446.687	483.62
446.908	456.62
447.129	446.62
447.35	430.62
447.571	421.62
447.792	411.62
448.013	414.62
448.234	424.62
448.455	465.62
448.675	538.62
448.896	627.62
449.117	537.62
449.338	506.62
449.559	587.62
449.779	657.62
450	532.62
450.221	447.62
450.442	422.62
450.662	404.62
450.883	393.62
451.104	427.62
451.324	394.62
451.545	394.62
451.766	399.62
451.986	374.62
452.207	377.62
452.428	396.62
452.648	376.62
452.869	390.62
453.089	390.62
453.31	388.62
453.53	372.62
453.751	381.62
453.971	378.62
454.192	385.62
454.412	376.62
454.633	377.62
454.853	376.62
455.073	367.62
455.294	385.62
455.514	439.62
455.734	414.62
455.955	373.62
456.175	386.62
456.395	371.62
456.616	364.62
456.836	364.62
457.056	348.62
457.276	372.62
457.497	384.62
457.717	360.62
457.937	366.62
458.157	384.62
458.377	375.62
458.598	385.62
458.818	408.62
459.038	440.62
459.258	495.62
459.478	434.62
459.698	398.62
459.918	392.62
460.138	404.62
460.358	421.62
460.578	430.62
460.798	424.62
461.018	438.62
461.238	431.62
461.458	451.62
461.678	439.62
461.898	421.62
462.118	424.62
462.338	445.62
462.558	434.62
462.777	456.62
462.997	481.62
463.217	494.62
463.437	496.62
463.657	479.62
463.876	467.62
464.096	464.62
464.316	460.62
464.536	464.62
464.755	445.62
464.975	461.62
465.195	466.62
465.414	494.62
465.634	445.62
465.854	404.62
466.073	404.62
466.293	418.62
466.512	389.62
466.732	400.62
466.951	390.62
467.171	389.62
467.391	403.62
467.61	390.62
467.829	378.62
468.049	386.62
468.268	388.62
468.488	391.62
468.707	395.62
468.927	392.62
469.146	378.62
469.365	396.62
469.585	388.62
469.804	388.62
470.023	398.62
470.243	390.62
470.462	406.62
470.681	408.62
470.901	409.62
471.12	390.62
471.339	406.62
471.558	395.62
471.777	397.62
471.997	399.62
472.216	385.62
472.435	409.62
472.654	408.62
472.873	375.62
473.092	388.62
473.311	394.62
473.53	382.62
473.749	392.62
473.968	420.62
474.187	494.62
474.406	502.62
474.625	428.62
474.844	395.62
475.063	396.62
475.282	408.62
475.501	391.62
475.72	422.62
475.939	410.62
476.158	383.62
476.377	416.62
476.596	409.62
476.814	399.62
477.033	422.62
477.252	427.62
477.471	439.62
477.69	428.62
477.908	431.62
478.127	428.62
478.346	447.62
478.564	437.62
478.783	438.62
479.002	457.62
479.22	442.62
479.439	472.62
479.658	434.62
479.876	470.62
480.095	511.62
480.313	512.62
480.532	489.62
480.751	471.62
480.969	499.62
481.188	528.62
481.406	523.62
481.624	464.62
481.843	472.62
482.061	455.62
482.28	451.62
482.498	459.62
482.717	446.62
482.935	451.62
483.153	444.62
483.372	461.62
483.59	458.62
483.808	464.62
484.027	454.62
484.245	454.62
484.463	460.62
484.681	465.62
484.9	454.62
485.118	479.62
485.336	471.62
485.554	485.62
485.772	469.62
485.99	474.62
486.209	465.62
486.427	471.62
486.645	479.62
486.863	483.62
487.081	467.62
487.299	490.62
487.517	462.62
487.735	456.62
487.953	491.62
488.171	476.62
488.389	466.62
488.607	496.62
488.825	483.62
489.043	470.62
489.261	496.62
489.479	485.62
489.696	489.62
489.914	498.62
490.132	493.62
490.35	487.62
490.568	500.62
490.786	509.62
491.003	521.62
491.221	509.62
491.439	514.62
491.657	532.62
491.874	521.62
492.092	555.62
492.31	532.62
492.527	562.62
492.745	532.62
492.963	539.62
493.18	560.62
493.398	574.62
493.615	561.62
493.833	552.62
494.05	537.62
494.268	521.62
494.485	562.62
494.703	529.62
494.92	558.62
495.138	551.62
495.355	570.62
495.573	562.62
495.79	531.62
496.008	563.62
496.225	563.62
496.442	545.62
496.66	566.62
496.877	580.62
497.094	590.62
497.312	577.62
497.529	578.62
497.746	603.62
497.963	585.62
498.181	608.62
498.398	623.62
498.615	642.62
498.832	674.62
499.049	678.62
499.267	713.62
499.484	737.62
499.701	768.62
499.918	798.62
500.135	816.62
500.352	887.62
500.569	907.62
500.786	875.62
501.003	878.62
501.22	854.62
501.437	838.62
501.654	794.62
501.871	734.62
502.088	719.62
