Data from 1964.PennyLincolnUp.Lamp.En5.5.200Scan.071719.P1._HRD10591_14-04-07-909.txt Node
Date: Thu Jul 18 14:04:07 EDT 2019
User: cochatt
Spectrometer: HR+D1059
Trigger mode: 1
Integration Time (sec): 1.000000E-1
Scans to average: 1
Electric dark correction enabled: true
Nonlinearity correction enabled: false
Boxcar width: 0
XAxis mode: Wavelengths
Number of Pixels in Spectrum: 2048
>>>>>Begin Spectral Data<<<<<
223.165	-13.19
223.4	-13.19
223.635	-13.19
223.869	-11.19
224.104	-9.19
224.338	-17.19
224.573	-15.19
224.808	-18.19
225.042	-5.19
225.277	-11.19
225.511	5.81
225.746	7.81
225.98	11.81
226.215	5.81
226.449	-1.19
226.683	14.81
226.918	20.81
227.152	34.81
227.387	40.81
227.621	41.81
227.856	40.81
228.09	42.81
228.324	51.81
228.559	43.81
228.793	64.81
229.027	97.81
229.262	88.81
229.496	100.81
229.73	115.81
229.964	111.81
230.199	105.81
230.433	87.81
230.667	105.81
230.901	117.81
231.136	90.81
231.37	92.81
231.604	110.81
231.838	100.81
232.072	123.81
232.306	109.81
232.541	103.81
232.775	103.81
233.009	108.81
233.243	127.81
233.477	120.81
233.711	110.81
233.945	109.81
234.179	108.81
234.413	107.81
234.647	113.81
234.881	121.81
235.115	117.81
235.349	109.81
235.583	120.81
235.817	130.81
236.051	106.81
236.285	110.81
236.519	98.81
236.753	138.81
236.987	136.81
237.221	145.81
237.455	174.81
237.689	149.81
237.922	126.81
238.156	121.81
238.39	125.81
238.624	112.81
238.858	113.81
239.091	105.81
239.325	122.81
239.559	120.81
239.793	118.81
240.027	138.81
240.26	134.81
240.494	146.81
240.728	133.81
240.961	136.81
241.195	137.81
241.429	138.81
241.662	127.81
241.896	118.81
242.13	137.81
242.363	120.81
242.597	132.81
242.83	143.81
243.064	138.81
243.298	155.81
243.531	129.81
243.765	140.81
243.998	142.81
244.232	145.81
244.465	131.81
244.699	134.81
244.932	139.81
245.166	136.81
245.399	141.81
245.633	143.81
245.866	143.81
246.099	144.81
246.333	147.81
246.566	146.81
246.8	145.81
247.033	147.81
247.266	148.81
247.5	146.81
247.733	169.81
247.966	165.81
248.2	156.81
248.433	165.81
248.666	168.81
248.899	174.81
249.133	164.81
249.366	187.81
249.599	187.81
249.832	162.81
250.066	183.81
250.299	179.81
250.532	182.81
250.765	187.81
250.998	184.81
251.231	195.81
251.465	218.81
251.698	182.81
251.931	174.81
252.164	178.81
252.397	198.81
252.63	192.81
252.863	184.81
253.096	196.81
253.329	207.81
253.562	212.81
253.795	202.81
254.028	198.81
254.261	213.81
254.494	210.81
254.727	227.81
254.96	216.81
255.193	232.81
255.426	217.81
255.659	201.81
255.892	207.81
256.124	206.81
256.357	218.81
256.59	207.81
256.823	200.81
257.056	208.81
257.289	203.81
257.521	202.81
257.754	207.81
257.987	194.81
258.22	210.81
258.452	194.81
258.685	205.81
258.918	195.81
259.151	222.81
259.383	221.81
259.616	220.81
259.849	210.81
260.081	226.81
260.314	217.81
260.547	232.81
260.779	238.81
261.012	222.81
261.244	220.81
261.477	217.81
261.71	197.81
261.942	203.81
262.175	217.81
262.407	219.81
262.64	217.81
262.872	210.81
263.105	199.81
263.337	219.81
263.57	193.81
263.802	213.81
264.035	203.81
264.267	213.81
264.499	205.81
264.732	212.81
264.964	220.81
265.197	217.81
265.429	204.81
265.661	213.81
265.894	220.81
266.126	224.81
266.358	227.81
266.591	219.81
266.823	214.81
267.055	214.81
267.287	219.81
267.52	228.81
267.752	235.81
267.984	224.81
268.216	232.81
268.448	231.81
268.681	237.81
268.913	255.81
269.145	237.81
269.377	242.81
269.609	254.81
269.841	247.81
270.073	250.81
270.306	272.81
270.538	297.81
270.77	272.81
271.002	270.81
271.234	253.81
271.466	279.81
271.698	296.81
271.93	297.81
272.162	311.81
272.394	296.81
272.626	266.81
272.858	275.81
273.09	271.81
273.322	271.81
273.553	263.81
273.785	258.81
274.017	269.81
274.249	245.81
274.481	253.81
274.713	268.81
274.945	271.81
275.176	266.81
275.408	257.81
275.64	274.81
275.872	274.81
276.104	262.81
276.335	248.81
276.567	265.81
276.799	270.81
277.031	298.81
277.262	282.81
277.494	309.81
277.726	303.81
277.957	276.81
278.189	294.81
278.421	264.81
278.652	278.81
278.884	277.81
279.115	280.81
279.347	260.81
279.579	282.81
279.81	269.81
280.042	261.81
280.273	277.81
280.505	278.81
280.736	282.81
280.968	262.81
281.199	298.81
281.431	296.81
281.662	295.81
281.894	281.81
282.125	282.81
282.356	290.81
282.588	292.81
282.819	294.81
283.051	274.81
283.282	272.81
283.513	294.81
283.745	294.81
283.976	289.81
284.207	288.81
284.439	276.81
284.67	323.81
284.901	287.81
285.132	287.81
285.364	284.81
285.595	299.81
285.826	294.81
286.057	305.81
286.288	309.81
286.52	300.81
286.751	285.81
286.982	287.81
287.213	297.81
287.444	292.81
287.675	289.81
287.906	289.81
288.138	309.81
288.369	311.81
288.6	290.81
288.831	311.81
289.062	300.81
289.293	312.81
289.524	329.81
289.755	298.81
289.986	311.81
290.217	297.81
290.448	298.81
290.679	311.81
290.91	312.81
291.141	300.81
291.371	303.81
291.602	307.81
291.833	307.81
292.064	297.81
292.295	278.81
292.526	299.81
292.757	292.81
292.987	282.81
293.218	308.81
293.449	307.81
293.68	296.81
293.91	298.81
294.141	295.81
294.372	303.81
294.603	300.81
294.833	312.81
295.064	305.81
295.295	287.81
295.525	302.81
295.756	316.81
295.987	314.81
296.217	317.81
296.448	343.81
296.679	314.81
296.909	319.81
297.14	312.81
297.37	321.81
297.601	323.81
297.831	305.81
298.062	312.81
298.292	312.81
298.523	319.81
298.753	330.81
298.984	339.81
299.214	312.81
299.445	312.81
299.675	309.81
299.905	353.81
300.136	339.81
300.366	324.81
300.597	316.81
300.827	333.81
301.057	332.81
301.288	342.81
301.518	327.81
301.748	342.81
301.979	344.81
302.209	354.81
302.439	321.81
302.669	326.81
302.9	347.81
303.13	351.81
303.36	355.81
303.59	351.81
303.82	340.81
304.051	338.81
304.281	326.81
304.511	338.81
304.741	354.81
304.971	348.81
305.201	333.81
305.431	318.81
305.661	349.81
305.891	335.81
306.121	347.81
306.352	341.81
306.582	356.81
306.812	329.81
307.042	342.81
307.272	356.81
307.502	364.81
307.731	334.81
307.961	336.81
308.191	330.81
308.421	365.81
308.651	356.81
308.881	342.81
309.111	346.81
309.341	344.81
309.571	354.81
309.8	354.81
310.03	366.81
310.26	361.81
310.49	367.81
310.72	370.81
310.949	375.81
311.179	377.81
311.409	369.81
311.639	368.81
311.868	371.81
312.098	370.81
312.328	384.81
312.557	369.81
312.787	367.81
313.017	371.81
313.246	387.81
313.476	374.81
313.706	358.81
313.935	366.81
314.165	372.81
314.394	383.81
314.624	378.81
314.853	369.81
315.083	371.81
315.312	381.81
315.542	373.81
315.771	374.81
316.001	386.81
316.23	380.81
316.46	376.81
316.689	384.81
316.919	375.81
317.148	384.81
317.377	387.81
317.607	382.81
317.836	373.81
318.065	346.81
318.295	380.81
318.524	377.81
318.753	390.81
318.983	361.81
319.212	362.81
319.441	375.81
319.67	383.81
319.9	405.81
320.129	373.81
320.358	366.81
320.587	373.81
320.816	387.81
321.046	399.81
321.275	403.81
321.504	385.81
321.733	394.81
321.962	396.81
322.191	400.81
322.42	405.81
322.649	413.81
322.878	414.81
323.108	409.81
323.337	434.81
323.566	436.81
323.795	441.81
324.024	455.81
324.253	550.81
324.482	700.81
324.71	1009.81
324.939	1365.81
325.168	1190.81
325.397	657.81
325.626	481.81
325.855	465.81
326.084	460.81
326.313	420.81
326.542	427.81
326.77	462.81
326.999	515.81
327.228	659.81
327.457	907.81
327.686	1048.81
327.914	742.81
328.143	554.81
328.372	505.81
328.6	486.81
328.829	465.81
329.058	486.81
329.287	484.81
329.515	449.81
329.744	455.81
329.972	437.81
330.201	470.81
330.43	474.81
330.658	503.81
330.887	498.81
331.115	487.81
331.344	459.81
331.572	449.81
331.801	454.81
332.03	457.81
332.258	437.81
332.486	444.81
332.715	438.81
332.943	447.81
333.172	442.81
333.4	466.81
333.629	463.81
333.857	470.81
334.085	495.81
334.314	492.81
334.542	507.81
334.771	515.81
334.999	499.81
335.227	466.81
335.455	437.81
335.684	479.81
335.912	459.81
336.14	435.81
336.369	455.81
336.597	440.81
336.825	443.81
337.053	437.81
337.281	434.81
337.51	441.81
337.738	438.81
337.966	442.81
338.194	430.81
338.422	439.81
338.65	455.81
338.878	448.81
339.106	436.81
339.334	431.81
339.562	422.81
339.79	417.81
340.018	435.81
340.246	416.81
340.474	426.81
340.702	412.81
340.93	417.81
341.158	400.81
341.386	409.81
341.614	416.81
341.842	437.81
342.07	430.81
342.298	409.81
342.526	409.81
342.754	411.81
342.981	414.81
343.209	392.81
343.437	417.81
343.665	434.81
343.893	418.81
344.12	455.81
344.348	443.81
344.576	442.81
344.804	436.81
345.031	413.81
345.259	414.81
345.487	441.81
345.714	416.81
345.942	397.81
346.17	423.81
346.397	392.81
346.625	409.81
346.853	387.81
347.08	386.81
347.308	404.81
347.535	403.81
347.763	396.81
347.99	407.81
348.218	406.81
348.445	389.81
348.673	407.81
348.9	411.81
349.128	391.81
349.355	388.81
349.583	397.81
349.81	356.81
350.037	387.81
350.265	397.81
350.492	389.81
350.72	403.81
350.947	381.81
351.174	378.81
351.402	398.81
351.629	403.81
351.856	389.81
352.083	390.81
352.311	388.81
352.538	416.81
352.765	394.81
352.992	388.81
353.22	388.81
353.447	387.81
353.674	384.81
353.901	385.81
354.128	376.81
354.355	371.81
354.583	387.81
354.81	379.81
355.037	366.81
355.264	377.81
355.491	361.81
355.718	381.81
355.945	357.81
356.172	375.81
356.399	375.81
356.626	379.81
356.853	373.81
357.08	372.81
357.307	379.81
357.534	350.81
357.761	379.81
357.988	391.81
358.215	385.81
358.441	379.81
358.668	356.81
358.895	381.81
359.122	379.81
359.349	376.81
359.576	398.81
359.802	391.81
360.029	410.81
360.256	411.81
360.483	380.81
360.709	407.81
360.936	385.81
361.163	383.81
361.39	389.81
361.616	392.81
361.843	393.81
362.07	396.81
362.296	389.81
362.523	387.81
362.749	395.81
362.976	358.81
363.203	369.81
363.429	371.81
363.656	378.81
363.882	381.81
364.109	379.81
364.335	362.81
364.562	363.81
364.788	371.81
365.015	378.81
365.241	361.81
365.468	378.81
365.694	368.81
365.92	375.81
366.147	373.81
366.373	382.81
366.599	362.81
366.826	398.81
367.052	365.81
367.278	359.81
367.505	388.81
367.731	372.81
367.957	362.81
368.184	375.81
368.41	353.81
368.636	382.81
368.862	407.81
369.089	383.81
369.315	371.81
369.541	380.81
369.767	379.81
369.993	361.81
370.219	377.81
370.445	379.81
370.672	369.81
370.898	378.81
371.124	376.81
371.35	375.81
371.576	375.81
371.802	369.81
372.028	366.81
372.254	366.81
372.48	379.81
372.706	377.81
372.932	375.81
373.158	391.81
373.384	392.81
373.61	387.81
373.835	391.81
374.061	356.81
374.287	374.81
374.513	381.81
374.739	401.81
374.965	381.81
375.191	388.81
375.416	390.81
375.642	386.81
375.868	387.81
376.094	402.81
376.319	363.81
376.545	365.81
376.771	380.81
376.997	368.81
377.222	363.81
377.448	371.81
377.674	371.81
377.899	382.81
378.125	377.81
378.35	361.81
378.576	378.81
378.802	369.81
379.027	370.81
379.253	378.81
379.478	379.81
379.704	370.81
379.929	361.81
380.155	358.81
380.38	385.81
380.606	380.81
380.831	356.81
381.057	369.81
381.282	387.81
381.507	365.81
381.733	375.81
381.958	383.81
382.184	370.81
382.409	369.81
382.634	378.81
382.86	377.81
383.085	390.81
383.31	381.81
383.535	386.81
383.761	382.81
383.986	383.81
384.211	404.81
384.436	383.81
384.662	386.81
384.887	389.81
385.112	408.81
385.337	425.81
385.562	406.81
385.787	401.81
386.013	406.81
386.238	404.81
386.463	408.81
386.688	414.81
386.913	407.81
387.138	394.81
387.363	412.81
387.588	413.81
387.813	402.81
388.038	395.81
388.263	395.81
388.488	397.81
388.713	416.81
388.938	408.81
389.163	394.81
389.387	413.81
389.612	398.81
389.837	420.81
390.062	412.81
390.287	393.81
390.512	410.81
390.736	418.81
390.961	405.81
391.186	406.81
391.411	431.81
391.636	435.81
391.86	420.81
392.085	415.81
392.31	403.81
392.534	411.81
392.759	409.81
392.984	428.81
393.208	406.81
393.433	389.81
393.658	408.81
393.882	401.81
394.107	406.81
394.331	396.81
394.556	411.81
394.78	389.81
395.005	405.81
395.229	426.81
395.454	394.81
395.678	425.81
395.903	430.81
396.127	444.81
396.352	440.81
396.576	398.81
396.801	419.81
397.025	399.81
397.249	437.81
397.474	426.81
397.698	423.81
397.922	431.81
398.147	437.81
398.371	453.81
398.595	440.81
398.82	427.81
399.044	463.81
399.268	486.81
399.492	527.81
399.717	554.81
399.941	565.81
400.165	570.81
400.389	538.81
400.613	497.81
400.837	487.81
401.062	461.81
401.286	471.81
401.51	473.81
401.734	457.81
401.958	465.81
402.182	464.81
402.406	463.81
402.63	449.81
402.854	460.81
403.078	475.81
403.302	476.81
403.526	479.81
403.75	485.81
403.974	440.81
404.198	456.81
404.422	478.81
404.645	474.81
404.869	471.81
405.093	495.81
405.317	535.81
405.541	585.81
405.765	513.81
405.988	466.81
406.212	478.81
406.436	505.81
406.66	531.81
406.883	501.81
407.107	511.81
407.331	534.81
407.555	606.81
407.778	606.81
408.002	563.81
408.226	516.81
408.449	513.81
408.673	502.81
408.896	513.81
409.12	546.81
409.344	519.81
409.567	499.81
409.791	483.81
410.014	490.81
410.238	461.81
410.461	458.81
410.685	494.81
410.908	489.81
411.132	502.81
411.355	507.81
411.578	481.81
411.802	458.81
412.025	506.81
412.249	466.81
412.472	482.81
412.695	497.81
412.919	493.81
413.142	468.81
413.365	448.81
413.589	441.81
413.812	451.81
414.035	461.81
414.258	449.81
414.482	448.81
414.705	434.81
414.928	418.81
415.151	421.81
415.374	439.81
415.597	439.81
415.821	422.81
416.044	435.81
416.267	438.81
416.49	440.81
416.713	422.81
416.936	409.81
417.159	409.81
417.382	439.81
417.605	436.81
417.828	438.81
418.051	456.81
418.274	424.81
418.497	424.81
418.72	428.81
418.943	441.81
419.166	452.81
419.389	465.81
419.611	465.81
419.834	459.81
420.057	468.81
420.28	439.81
420.503	476.81
420.726	441.81
420.948	463.81
421.171	478.81
421.394	497.81
421.617	468.81
421.839	433.81
422.062	454.81
422.285	447.81
422.507	499.81
422.73	558.81
422.953	497.81
423.175	489.81
423.398	468.81
423.621	457.81
423.843	473.81
424.066	464.81
424.288	460.81
424.511	480.81
424.733	518.81
424.956	601.81
425.178	552.81
425.401	526.81
425.623	547.81
425.846	483.81
426.068	467.81
426.291	470.81
426.513	454.81
426.735	472.81
426.958	476.81
427.18	540.81
427.402	636.81
427.625	697.81
427.847	594.81
428.069	511.81
428.292	489.81
428.514	441.81
428.736	443.81
428.958	417.81
429.181	410.81
429.403	419.81
429.625	433.81
429.847	450.81
430.069	484.81
430.292	476.81
430.514	429.81
430.736	408.81
430.958	411.81
431.18	393.81
431.402	397.81
431.624	393.81
431.846	422.81
432.068	419.81
432.29	409.81
432.512	439.81
432.734	429.81
432.956	397.81
433.178	395.81
433.4	399.81
433.622	409.81
433.844	423.81
434.066	413.81
434.287	414.81
434.509	411.81
434.731	426.81
434.953	439.81
435.175	441.81
435.397	475.81
435.618	461.81
435.84	473.81
436.062	546.81
436.284	597.81
436.505	495.81
436.727	449.81
436.949	412.81
437.17	421.81
437.392	417.81
437.614	436.81
437.835	430.81
438.057	496.81
438.278	568.81
438.5	569.81
438.721	627.81
438.943	600.81
439.165	483.81
439.386	454.81
439.608	446.81
439.829	433.81
440.05	471.81
440.272	512.81
440.493	467.81
440.715	446.81
440.936	414.81
441.158	421.81
441.379	421.81
441.6	454.81
441.822	463.81
442.043	487.81
442.264	553.81
442.486	563.81
442.707	473.81
442.928	467.81
443.149	456.81
443.371	481.81
443.592	507.81
443.813	551.81
444.034	621.81
444.255	519.81
444.476	487.81
444.698	488.81
444.919	464.81
445.14	586.81
445.361	505.81
445.582	485.81
445.803	516.81
446.024	573.81
446.245	577.81
446.466	518.81
446.687	465.81
446.908	425.81
447.129	434.81
447.35	407.81
447.571	413.81
447.792	404.81
448.013	426.81
448.234	431.81
448.455	451.81
448.675	539.81
448.896	602.81
449.117	524.81
449.338	539.81
449.559	565.81
449.779	627.81
450	488.81
450.221	414.81
450.442	406.81
450.662	402.81
450.883	406.81
451.104	409.81
451.324	400.81
451.545	397.81
451.766	389.81
451.986	381.81
452.207	360.81
452.428	362.81
452.648	386.81
452.869	377.81
453.089	375.81
453.31	387.81
453.53	370.81
453.751	380.81
453.971	373.81
454.192	379.81
454.412	370.81
454.633	372.81
454.853	363.81
455.073	378.81
455.294	372.81
455.514	433.81
455.734	410.81
455.955	373.81
456.175	362.81
456.395	348.81
456.616	355.81
456.836	344.81
457.056	358.81
457.276	351.81
457.497	360.81
457.717	361.81
457.937	363.81
458.157	362.81
458.377	375.81
458.598	390.81
458.818	413.81
459.038	456.81
459.258	456.81
459.478	408.81
459.698	408.81
459.918	415.81
460.138	399.81
460.358	422.81
460.578	420.81
460.798	414.81
461.018	426.81
461.238	416.81
461.458	404.81
461.678	408.81
461.898	426.81
462.118	418.81
462.338	436.81
462.558	427.81
462.777	434.81
462.997	481.81
463.217	483.81
463.437	468.81
463.657	457.81
463.876	482.81
464.096	453.81
464.316	445.81
464.536	450.81
464.755	465.81
464.975	445.81
465.195	443.81
465.414	483.81
465.634	436.81
465.854	417.81
466.073	405.81
466.293	395.81
466.512	386.81
466.732	387.81
466.951	391.81
467.171	382.81
467.391	391.81
467.61	390.81
467.829	398.81
468.049	408.81
468.268	389.81
468.488	387.81
468.707	375.81
468.927	381.81
469.146	376.81
469.365	353.81
469.585	375.81
469.804	372.81
470.023	393.81
470.243	397.81
470.462	383.81
470.681	413.81
470.901	379.81
471.12	390.81
471.339	388.81
471.558	418.81
471.777	402.81
471.997	408.81
472.216	416.81
472.435	405.81
472.654	398.81
472.873	400.81
473.092	381.81
473.311	388.81
473.53	394.81
473.749	389.81
473.968	409.81
474.187	498.81
474.406	512.81
474.625	421.81
474.844	387.81
475.063	385.81
475.282	407.81
475.501	397.81
475.72	395.81
475.939	411.81
476.158	403.81
476.377	386.81
476.596	407.81
476.814	390.81
477.033	387.81
477.252	445.81
477.471	413.81
477.69	436.81
477.908	423.81
478.127	426.81
478.346	423.81
478.564	442.81
478.783	446.81
479.002	446.81
479.22	431.81
479.439	441.81
479.658	465.81
479.876	448.81
480.095	453.81
480.313	499.81
480.532	490.81
480.751	471.81
480.969	470.81
481.188	515.81
481.406	501.81
481.624	481.81
481.843	475.81
482.061	457.81
482.28	447.81
482.498	453.81
482.717	450.81
482.935	449.81
483.153	469.81
483.372	450.81
483.59	440.81
483.808	445.81
484.027	449.81
484.245	450.81
484.463	446.81
484.681	467.81
484.9	460.81
485.118	465.81
485.336	437.81
485.554	467.81
485.772	464.81
485.99	473.81
486.209	457.81
486.427	469.81
486.645	458.81
486.863	478.81
487.081	482.81
487.299	477.81
487.517	469.81
487.735	450.81
487.953	461.81
488.171	466.81
488.389	479.81
488.607	464.81
488.825	461.81
489.043	472.81
489.261	485.81
489.479	467.81
489.696	465.81
489.914	479.81
490.132	483.81
490.35	510.81
490.568	495.81
490.786	506.81
491.003	511.81
491.221	514.81
491.439	523.81
491.657	508.81
491.874	522.81
492.092	548.81
492.31	511.81
492.527	540.81
492.745	525.81
492.963	558.81
493.18	550.81
493.398	528.81
493.615	541.81
493.833	540.81
494.05	547.81
494.268	542.81
494.485	541.81
494.703	555.81
494.92	567.81
495.138	529.81
495.355	520.81
495.573	546.81
495.79	570.81
496.008	562.81
496.225	542.81
496.442	552.81
496.66	583.81
496.877	570.81
497.094	554.81
497.312	554.81
497.529	577.81
497.746	577.81
497.963	612.81
498.181	602.81
498.398	629.81
498.615	614.81
498.832	653.81
499.049	675.81
499.267	683.81
499.484	703.81
499.701	739.81
499.918	754.81
500.135	819.81
500.352	867.81
500.569	861.81
500.786	854.81
501.003	851.81
501.22	817.81
501.437	802.81
501.654	762.81
501.871	732.81
502.088	716.81
