Data from 1964.PennyLincolnUp.Lamp.En5.5.200Scan.071719.P1._HRD10591_14-03-49-908.txt Node
Date: Thu Jul 18 14:03:49 EDT 2019
User: cochatt
Spectrometer: HR+D1059
Trigger mode: 1
Integration Time (sec): 1.000000E-1
Scans to average: 1
Electric dark correction enabled: true
Nonlinearity correction enabled: false
Boxcar width: 0
XAxis mode: Wavelengths
Number of Pixels in Spectrum: 2048
>>>>>Begin Spectral Data<<<<<
223.165	-34.12
223.4	-34.12
223.635	-34.12
223.869	-21.12
224.104	-10.12
224.338	-16.12
224.573	-12.12
224.808	6.88
225.042	-2.12
225.277	-2.12
225.511	-9.12
225.746	-2.12
225.98	9.88
226.215	6.88
226.449	10.88
226.683	22.88
226.918	24.88
227.152	26.88
227.387	28.88
227.621	23.88
227.856	40.88
228.09	51.88
228.324	33.88
228.559	47.88
228.793	59.88
229.027	79.88
229.262	88.88
229.496	87.88
229.73	104.88
229.964	126.88
230.199	105.88
230.433	99.88
230.667	99.88
230.901	111.88
231.136	100.88
231.37	98.88
231.604	101.88
231.838	106.88
232.072	91.88
232.306	98.88
232.541	101.88
232.775	91.88
233.009	100.88
233.243	106.88
233.477	86.88
233.711	109.88
233.945	100.88
234.179	103.88
234.413	101.88
234.647	98.88
234.881	98.88
235.115	106.88
235.349	116.88
235.583	93.88
235.817	117.88
236.051	115.88
236.285	107.88
236.519	105.88
236.753	128.88
236.987	144.88
237.221	164.88
237.455	183.88
237.689	131.88
237.922	130.88
238.156	123.88
238.39	115.88
238.624	122.88
238.858	106.88
239.091	113.88
239.325	111.88
239.559	125.88
239.793	113.88
240.027	124.88
240.26	130.88
240.494	153.88
240.728	121.88
240.961	132.88
241.195	136.88
241.429	123.88
241.662	132.88
241.896	128.88
242.13	126.88
242.363	117.88
242.597	117.88
242.83	114.88
243.064	138.88
243.298	127.88
243.531	119.88
243.765	118.88
243.998	143.88
244.232	125.88
244.465	138.88
244.699	154.88
244.932	131.88
245.166	136.88
245.399	129.88
245.633	145.88
245.866	142.88
246.099	147.88
246.333	125.88
246.566	147.88
246.8	146.88
247.033	139.88
247.266	156.88
247.5	148.88
247.733	144.88
247.966	155.88
248.2	135.88
248.433	153.88
248.666	156.88
248.899	171.88
249.133	177.88
249.366	179.88
249.599	162.88
249.832	163.88
250.066	154.88
250.299	174.88
250.532	169.88
250.765	176.88
250.998	189.88
251.231	198.88
251.465	190.88
251.698	182.88
251.931	188.88
252.164	166.88
252.397	173.88
252.63	181.88
252.863	196.88
253.096	208.88
253.329	202.88
253.562	197.88
253.795	194.88
254.028	205.88
254.261	189.88
254.494	197.88
254.727	210.88
254.96	226.88
255.193	223.88
255.426	207.88
255.659	210.88
255.892	219.88
256.124	215.88
256.357	209.88
256.59	211.88
256.823	199.88
257.056	199.88
257.289	199.88
257.521	199.88
257.754	189.88
257.987	192.88
258.22	196.88
258.452	185.88
258.685	181.88
258.918	184.88
259.151	184.88
259.383	217.88
259.616	214.88
259.849	205.88
260.081	210.88
260.314	224.88
260.547	226.88
260.779	233.88
261.012	217.88
261.244	216.88
261.477	221.88
261.71	205.88
261.942	219.88
262.175	210.88
262.407	212.88
262.64	192.88
262.872	202.88
263.105	206.88
263.337	204.88
263.57	211.88
263.802	196.88
264.035	199.88
264.267	196.88
264.499	203.88
264.732	217.88
264.964	196.88
265.197	205.88
265.429	204.88
265.661	206.88
265.894	183.88
266.126	208.88
266.358	206.88
266.591	215.88
266.823	212.88
267.055	217.88
267.287	214.88
267.52	214.88
267.752	202.88
267.984	234.88
268.216	225.88
268.448	229.88
268.681	233.88
268.913	234.88
269.145	239.88
269.377	251.88
269.609	234.88
269.841	242.88
270.073	252.88
270.306	263.88
270.538	287.88
270.77	262.88
271.002	277.88
271.234	268.88
271.466	278.88
271.698	286.88
271.93	291.88
272.162	297.88
272.394	279.88
272.626	263.88
272.858	262.88
273.09	263.88
273.322	257.88
273.553	266.88
273.785	253.88
274.017	241.88
274.249	241.88
274.481	242.88
274.713	274.88
274.945	263.88
275.176	263.88
275.408	257.88
275.64	243.88
275.872	250.88
276.104	257.88
276.335	260.88
276.567	261.88
276.799	280.88
277.031	276.88
277.262	271.88
277.494	284.88
277.726	288.88
277.957	276.88
278.189	277.88
278.421	261.88
278.652	259.88
278.884	255.88
279.115	274.88
279.347	267.88
279.579	257.88
279.81	272.88
280.042	263.88
280.273	267.88
280.505	267.88
280.736	266.88
280.968	250.88
281.199	261.88
281.431	273.88
281.662	294.88
281.894	276.88
282.125	286.88
282.356	294.88
282.588	298.88
282.819	293.88
283.051	276.88
283.282	279.88
283.513	296.88
283.745	278.88
283.976	293.88
284.207	289.88
284.439	283.88
284.67	271.88
284.901	292.88
285.132	286.88
285.364	275.88
285.595	291.88
285.826	288.88
286.057	274.88
286.288	274.88
286.52	301.88
286.751	272.88
286.982	280.88
287.213	287.88
287.444	313.88
287.675	292.88
287.906	290.88
288.138	291.88
288.369	298.88
288.6	308.88
288.831	288.88
289.062	291.88
289.293	310.88
289.524	309.88
289.755	291.88
289.986	285.88
290.217	286.88
290.448	294.88
290.679	291.88
290.91	285.88
291.141	281.88
291.371	285.88
291.602	305.88
291.833	304.88
292.064	308.88
292.295	287.88
292.526	273.88
292.757	296.88
292.987	267.88
293.218	306.88
293.449	303.88
293.68	307.88
293.91	296.88
294.141	287.88
294.372	313.88
294.603	303.88
294.833	289.88
295.064	285.88
295.295	315.88
295.525	305.88
295.756	299.88
295.987	292.88
296.217	328.88
296.448	329.88
296.679	316.88
296.909	315.88
297.14	298.88
297.37	312.88
297.601	322.88
297.831	320.88
298.062	312.88
298.292	312.88
298.523	328.88
298.753	311.88
298.984	301.88
299.214	319.88
299.445	334.88
299.675	331.88
299.905	317.88
300.136	323.88
300.366	312.88
300.597	323.88
300.827	340.88
301.057	324.88
301.288	340.88
301.518	319.88
301.748	322.88
301.979	320.88
302.209	313.88
302.439	321.88
302.669	326.88
302.9	337.88
303.13	333.88
303.36	328.88
303.59	312.88
303.82	347.88
304.051	325.88
304.281	340.88
304.511	353.88
304.741	352.88
304.971	333.88
305.201	340.88
305.431	349.88
305.661	333.88
305.891	329.88
306.121	336.88
306.352	330.88
306.582	355.88
306.812	324.88
307.042	338.88
307.272	325.88
307.502	332.88
307.731	337.88
307.961	359.88
308.191	327.88
308.421	338.88
308.651	333.88
308.881	332.88
309.111	325.88
309.341	325.88
309.571	350.88
309.8	335.88
310.03	353.88
310.26	341.88
310.49	340.88
310.72	377.88
310.949	357.88
311.179	371.88
311.409	371.88
311.639	359.88
311.868	351.88
312.098	362.88
312.328	365.88
312.557	358.88
312.787	371.88
313.017	385.88
313.246	376.88
313.476	362.88
313.706	367.88
313.935	366.88
314.165	386.88
314.394	359.88
314.624	389.88
314.853	368.88
315.083	358.88
315.312	370.88
315.542	365.88
315.771	353.88
316.001	377.88
316.23	391.88
316.46	348.88
316.689	361.88
316.919	374.88
317.148	383.88
317.377	372.88
317.607	373.88
317.836	359.88
318.065	368.88
318.295	367.88
318.524	366.88
318.753	370.88
318.983	379.88
319.212	367.88
319.441	367.88
319.67	375.88
319.9	357.88
320.129	362.88
320.358	384.88
320.587	377.88
320.816	374.88
321.046	383.88
321.275	377.88
321.504	378.88
321.733	392.88
321.962	395.88
322.191	394.88
322.42	374.88
322.649	389.88
322.878	392.88
323.108	400.88
323.337	401.88
323.566	419.88
323.795	442.88
324.024	465.88
324.253	503.88
324.482	703.88
324.71	989.88
324.939	1378.88
325.168	1131.88
325.397	629.88
325.626	485.88
325.855	423.88
326.084	449.88
326.313	431.88
326.542	442.88
326.77	465.88
326.999	515.88
327.228	631.88
327.457	888.88
327.686	1008.88
327.914	723.88
328.143	521.88
328.372	500.88
328.6	478.88
328.829	459.88
329.058	467.88
329.287	475.88
329.515	443.88
329.744	446.88
329.972	447.88
330.201	472.88
330.43	476.88
330.658	453.88
330.887	488.88
331.115	463.88
331.344	453.88
331.572	429.88
331.801	453.88
332.03	457.88
332.258	443.88
332.486	427.88
332.715	422.88
332.943	452.88
333.172	438.88
333.4	442.88
333.629	464.88
333.857	484.88
334.085	488.88
334.314	485.88
334.542	490.88
334.771	513.88
334.999	481.88
335.227	456.88
335.455	467.88
335.684	467.88
335.912	458.88
336.14	461.88
336.369	451.88
336.597	421.88
336.825	443.88
337.053	437.88
337.281	439.88
337.51	419.88
337.738	418.88
337.966	430.88
338.194	415.88
338.422	389.88
338.65	398.88
338.878	405.88
339.106	437.88
339.334	420.88
339.562	425.88
339.79	407.88
340.018	417.88
340.246	434.88
340.474	422.88
340.702	411.88
340.93	414.88
341.158	401.88
341.386	421.88
341.614	403.88
341.842	399.88
342.07	413.88
342.298	417.88
342.526	399.88
342.754	399.88
342.981	382.88
343.209	397.88
343.437	389.88
343.665	431.88
343.893	441.88
344.12	435.88
344.348	436.88
344.576	434.88
344.804	416.88
345.031	419.88
345.259	427.88
345.487	426.88
345.714	398.88
345.942	405.88
346.17	393.88
346.397	396.88
346.625	398.88
346.853	377.88
347.08	383.88
347.308	387.88
347.535	401.88
347.763	394.88
347.99	412.88
348.218	385.88
348.445	388.88
348.673	377.88
348.9	381.88
349.128	387.88
349.355	371.88
349.583	375.88
349.81	367.88
350.037	371.88
350.265	387.88
350.492	378.88
350.72	387.88
350.947	393.88
351.174	382.88
351.402	401.88
351.629	385.88
351.856	377.88
352.083	379.88
352.311	403.88
352.538	407.88
352.765	382.88
352.992	373.88
353.22	386.88
353.447	374.88
353.674	371.88
353.901	367.88
354.128	363.88
354.355	374.88
354.583	381.88
354.81	359.88
355.037	366.88
355.264	369.88
355.491	357.88
355.718	357.88
355.945	378.88
356.172	373.88
356.399	347.88
356.626	345.88
356.853	367.88
357.08	365.88
357.307	367.88
357.534	370.88
357.761	375.88
357.988	358.88
358.215	379.88
358.441	365.88
358.668	363.88
358.895	381.88
359.122	371.88
359.349	390.88
359.576	372.88
359.802	384.88
360.029	390.88
360.256	407.88
360.483	385.88
360.709	381.88
360.936	377.88
361.163	393.88
361.39	375.88
361.616	371.88
361.843	387.88
362.07	377.88
362.296	372.88
362.523	375.88
362.749	369.88
362.976	373.88
363.203	387.88
363.429	369.88
363.656	369.88
363.882	357.88
364.109	389.88
364.335	359.88
364.562	365.88
364.788	362.88
365.015	363.88
365.241	377.88
365.468	378.88
365.694	357.88
365.92	368.88
366.147	379.88
366.373	370.88
366.599	374.88
366.826	393.88
367.052	352.88
367.278	369.88
367.505	367.88
367.731	369.88
367.957	353.88
368.184	359.88
368.41	383.88
368.636	374.88
368.862	367.88
369.089	372.88
369.315	359.88
369.541	365.88
369.767	371.88
369.993	377.88
370.219	377.88
370.445	373.88
370.672	376.88
370.898	377.88
371.124	380.88
371.35	349.88
371.576	355.88
371.802	382.88
372.028	379.88
372.254	372.88
372.48	383.88
372.706	385.88
372.932	371.88
373.158	381.88
373.384	371.88
373.61	369.88
373.835	354.88
374.061	359.88
374.287	361.88
374.513	377.88
374.739	375.88
374.965	376.88
375.191	374.88
375.416	386.88
375.642	367.88
375.868	375.88
376.094	382.88
376.319	366.88
376.545	371.88
376.771	387.88
376.997	370.88
377.222	362.88
377.448	362.88
377.674	361.88
377.899	375.88
378.125	349.88
378.35	358.88
378.576	362.88
378.802	368.88
379.027	351.88
379.253	362.88
379.478	370.88
379.704	369.88
379.929	354.88
380.155	347.88
380.38	377.88
380.606	371.88
380.831	358.88
381.057	364.88
381.282	341.88
381.507	373.88
381.733	369.88
381.958	366.88
382.184	398.88
382.409	370.88
382.634	363.88
382.86	381.88
383.085	362.88
383.31	379.88
383.535	377.88
383.761	382.88
383.986	384.88
384.211	384.88
384.436	369.88
384.662	391.88
384.887	390.88
385.112	409.88
385.337	397.88
385.562	409.88
385.787	395.88
386.013	407.88
386.238	420.88
386.463	377.88
386.688	407.88
386.913	379.88
387.138	411.88
387.363	401.88
387.588	403.88
387.813	406.88
388.038	399.88
388.263	411.88
388.488	404.88
388.713	401.88
388.938	399.88
389.163	389.88
389.387	417.88
389.612	419.88
389.837	382.88
390.062	386.88
390.287	392.88
390.512	392.88
390.736	398.88
390.961	411.88
391.186	406.88
391.411	411.88
391.636	422.88
391.86	402.88
392.085	421.88
392.31	429.88
392.534	417.88
392.759	410.88
392.984	418.88
393.208	394.88
393.433	418.88
393.658	424.88
393.882	397.88
394.107	389.88
394.331	394.88
394.556	382.88
394.78	410.88
395.005	408.88
395.229	404.88
395.454	416.88
395.678	423.88
395.903	425.88
396.127	437.88
396.352	427.88
396.576	409.88
396.801	404.88
397.025	415.88
397.249	409.88
397.474	423.88
397.698	443.88
397.922	418.88
398.147	443.88
398.371	437.88
398.595	431.88
398.82	438.88
399.044	482.88
399.268	494.88
399.492	513.88
399.717	552.88
399.941	536.88
400.165	561.88
400.389	536.88
400.613	492.88
400.837	478.88
401.062	456.88
401.286	458.88
401.51	438.88
401.734	435.88
401.958	463.88
402.182	460.88
402.406	463.88
402.63	461.88
402.854	455.88
403.078	462.88
403.302	485.88
403.526	454.88
403.75	484.88
403.974	470.88
404.198	463.88
404.422	460.88
404.645	470.88
404.869	489.88
405.093	502.88
405.317	516.88
405.541	541.88
405.765	499.88
405.988	458.88
406.212	479.88
406.436	505.88
406.66	489.88
406.883	510.88
407.107	509.88
407.331	537.88
407.555	591.88
407.778	584.88
408.002	535.88
408.226	502.88
408.449	489.88
408.673	517.88
408.896	541.88
409.12	552.88
409.344	542.88
409.567	466.88
409.791	481.88
410.014	465.88
410.238	432.88
410.461	477.88
410.685	453.88
410.908	460.88
411.132	467.88
411.355	494.88
411.578	480.88
411.802	468.88
412.025	449.88
412.249	458.88
412.472	483.88
412.695	493.88
412.919	479.88
413.142	462.88
413.365	452.88
413.589	449.88
413.812	433.88
414.035	437.88
414.258	438.88
414.482	443.88
414.705	423.88
414.928	440.88
415.151	426.88
415.374	448.88
415.597	433.88
415.821	425.88
416.044	435.88
416.267	415.88
416.49	444.88
416.713	426.88
416.936	440.88
417.159	406.88
417.382	425.88
417.605	428.88
417.828	423.88
418.051	427.88
418.274	430.88
418.497	417.88
418.72	431.88
418.943	417.88
419.166	462.88
419.389	469.88
419.611	463.88
419.834	438.88
420.057	469.88
420.28	449.88
420.503	433.88
420.726	428.88
420.948	441.88
421.171	459.88
421.394	482.88
421.617	453.88
421.839	431.88
422.062	412.88
422.285	447.88
422.507	484.88
422.73	529.88
422.953	509.88
423.175	458.88
423.398	435.88
423.621	457.88
423.843	452.88
424.066	463.88
424.288	461.88
424.511	489.88
424.733	497.88
424.956	581.88
425.178	538.88
425.401	527.88
425.623	553.88
425.846	472.88
426.068	458.88
426.291	445.88
426.513	429.88
426.735	447.88
426.958	478.88
427.18	538.88
427.402	633.88
427.625	663.88
427.847	572.88
428.069	501.88
428.292	467.88
428.514	447.88
428.736	431.88
428.958	414.88
429.181	438.88
429.403	423.88
429.625	433.88
429.847	438.88
430.069	481.88
430.292	457.88
430.514	429.88
430.736	422.88
430.958	418.88
431.18	389.88
431.402	397.88
431.624	387.88
431.846	412.88
432.068	389.88
432.29	414.88
432.512	387.88
432.734	406.88
432.956	425.88
433.178	416.88
433.4	407.88
433.622	400.88
433.844	402.88
434.066	411.88
434.287	400.88
434.509	424.88
434.731	402.88
434.953	431.88
435.175	425.88
435.397	463.88
435.618	446.88
435.84	473.88
436.062	538.88
436.284	585.88
436.505	472.88
436.727	463.88
436.949	448.88
437.17	417.88
437.392	421.88
437.614	417.88
437.835	465.88
438.057	507.88
438.278	535.88
438.5	576.88
438.721	608.88
438.943	603.88
439.165	496.88
439.386	453.88
439.608	449.88
439.829	441.88
440.05	466.88
440.272	473.88
440.493	441.88
440.715	433.88
440.936	446.88
441.158	416.88
441.379	413.88
441.6	424.88
441.822	430.88
442.043	474.88
442.264	515.88
442.486	562.88
442.707	473.88
442.928	457.88
443.149	436.88
443.371	459.88
443.592	494.88
443.813	587.88
444.034	615.88
444.255	522.88
444.476	486.88
444.698	461.88
444.919	465.88
445.14	580.88
445.361	508.88
445.582	475.88
445.803	516.88
446.024	574.88
446.245	575.88
446.466	522.88
446.687	458.88
446.908	447.88
447.129	417.88
447.35	400.88
447.571	393.88
447.792	416.88
448.013	415.88
448.234	398.88
448.455	438.88
448.675	559.88
448.896	603.88
449.117	522.88
449.338	494.88
449.559	568.88
449.779	640.88
450	505.88
450.221	433.88
450.442	417.88
450.662	403.88
450.883	388.88
451.104	399.88
451.324	401.88
451.545	373.88
451.766	375.88
451.986	377.88
452.207	357.88
452.428	360.88
452.648	381.88
452.869	377.88
453.089	367.88
453.31	374.88
453.53	367.88
453.751	345.88
453.971	383.88
454.192	373.88
454.412	368.88
454.633	361.88
454.853	365.88
455.073	357.88
455.294	365.88
455.514	416.88
455.734	401.88
455.955	373.88
456.175	353.88
456.395	349.88
456.616	345.88
456.836	344.88
457.056	347.88
457.276	325.88
457.497	348.88
457.717	379.88
457.937	365.88
458.157	370.88
458.377	374.88
458.598	387.88
458.818	403.88
459.038	441.88
459.258	467.88
459.478	412.88
459.698	393.88
459.918	393.88
460.138	391.88
460.358	401.88
460.578	409.88
460.798	417.88
461.018	406.88
461.238	411.88
461.458	417.88
461.678	386.88
461.898	411.88
462.118	424.88
462.338	423.88
462.558	427.88
462.777	450.88
462.997	474.88
463.217	468.88
463.437	477.88
463.657	457.88
463.876	462.88
464.096	445.88
464.316	461.88
464.536	459.88
464.755	461.88
464.975	435.88
465.195	458.88
465.414	467.88
465.634	437.88
465.854	395.88
466.073	415.88
466.293	379.88
466.512	387.88
466.732	358.88
466.951	381.88
467.171	371.88
467.391	385.88
467.61	389.88
467.829	394.88
468.049	377.88
468.268	392.88
468.488	371.88
468.707	368.88
468.927	344.88
469.146	368.88
469.365	352.88
469.585	367.88
469.804	389.88
470.023	391.88
470.243	376.88
470.462	383.88
470.681	398.88
470.901	412.88
471.12	382.88
471.339	370.88
471.558	373.88
471.777	378.88
471.997	375.88
472.216	389.88
472.435	388.88
472.654	402.88
472.873	369.88
473.092	389.88
473.311	401.88
473.53	394.88
473.749	387.88
473.968	409.88
474.187	485.88
474.406	499.88
474.625	425.88
474.844	398.88
475.063	381.88
475.282	381.88
475.501	378.88
475.72	393.88
475.939	396.88
476.158	377.88
476.377	376.88
476.596	399.88
476.814	401.88
477.033	389.88
477.252	397.88
477.471	396.88
477.69	410.88
477.908	419.88
478.127	417.88
478.346	408.88
478.564	429.88
478.783	395.88
479.002	442.88
479.22	438.88
479.439	456.88
479.658	448.88
479.876	440.88
480.095	447.88
480.313	467.88
480.532	477.88
480.751	449.88
480.969	497.88
481.188	487.88
481.406	498.88
481.624	481.88
481.843	436.88
482.061	452.88
482.28	461.88
482.498	445.88
482.717	446.88
482.935	444.88
483.153	430.88
483.372	444.88
483.59	444.88
483.808	426.88
484.027	425.88
484.245	452.88
484.463	445.88
484.681	433.88
484.9	442.88
485.118	441.88
485.336	451.88
485.554	473.88
485.772	464.88
485.99	458.88
486.209	468.88
486.427	447.88
486.645	450.88
486.863	464.88
487.081	459.88
487.299	451.88
487.517	452.88
487.735	467.88
487.953	467.88
488.171	473.88
488.389	462.88
488.607	445.88
488.825	450.88
489.043	463.88
489.261	455.88
489.479	483.88
489.696	446.88
489.914	471.88
490.132	486.88
490.35	478.88
490.568	485.88
490.786	489.88
491.003	513.88
491.221	496.88
491.439	484.88
491.657	505.88
491.874	513.88
492.092	521.88
492.31	520.88
492.527	513.88
492.745	530.88
492.963	513.88
493.18	523.88
493.398	530.88
493.615	530.88
493.833	557.88
494.05	541.88
494.268	509.88
494.485	540.88
494.703	528.88
494.92	530.88
495.138	519.88
495.355	529.88
495.573	553.88
495.79	536.88
496.008	565.88
496.225	561.88
496.442	544.88
496.66	561.88
496.877	557.88
497.094	547.88
497.312	561.88
497.529	550.88
497.746	581.88
497.963	583.88
498.181	603.88
498.398	607.88
498.615	622.88
498.832	633.88
499.049	655.88
499.267	664.88
499.484	689.88
499.701	766.88
499.918	745.88
500.135	801.88
500.352	836.88
500.569	831.88
500.786	823.88
501.003	813.88
501.22	787.88
501.437	769.88
501.654	749.88
501.871	699.88
502.088	677.88
