Data from 1964.PennyLincolnUp.Lamp.En5.5.200Scan.071719.P1._HRD10591_14-04-30-909.txt Node
Date: Thu Jul 18 14:04:30 EDT 2019
User: cochatt
Spectrometer: HR+D1059
Trigger mode: 1
Integration Time (sec): 1.000000E-1
Scans to average: 1
Electric dark correction enabled: true
Nonlinearity correction enabled: false
Boxcar width: 0
XAxis mode: Wavelengths
Number of Pixels in Spectrum: 2048
>>>>>Begin Spectral Data<<<<<
223.165	-17.5
223.4	-17.5
223.635	-17.5
223.869	-13.5
224.104	-21.5
224.338	-21.5
224.573	8.5
224.808	10.5
225.042	-4.5
225.277	-24.5
225.511	-15.5
225.746	-17.5
225.98	15.5
226.215	21.5
226.449	8.5
226.683	20.5
226.918	15.5
227.152	35.5
227.387	55.5
227.621	48.5
227.856	58.5
228.09	47.5
228.324	43.5
228.559	55.5
228.793	61.5
229.027	91.5
229.262	89.5
229.496	108.5
229.73	118.5
229.964	121.5
230.199	123.5
230.433	112.5
230.667	109.5
230.901	102.5
231.136	106.5
231.37	117.5
231.604	126.5
231.838	112.5
232.072	99.5
232.306	107.5
232.541	120.5
232.775	108.5
233.009	117.5
233.243	99.5
233.477	104.5
233.711	98.5
233.945	106.5
234.179	126.5
234.413	114.5
234.647	122.5
234.881	109.5
235.115	123.5
235.349	117.5
235.583	101.5
235.817	124.5
236.051	121.5
236.285	124.5
236.519	122.5
236.753	117.5
236.987	120.5
237.221	153.5
237.455	198.5
237.689	149.5
237.922	143.5
238.156	127.5
238.39	120.5
238.624	139.5
238.858	132.5
239.091	111.5
239.325	112.5
239.559	130.5
239.793	112.5
240.027	143.5
240.26	127.5
240.494	155.5
240.728	134.5
240.961	143.5
241.195	148.5
241.429	126.5
241.662	112.5
241.896	112.5
242.13	130.5
242.363	126.5
242.597	146.5
242.83	139.5
243.064	129.5
243.298	150.5
243.531	125.5
243.765	128.5
243.998	159.5
244.232	137.5
244.465	139.5
244.699	150.5
244.932	139.5
245.166	143.5
245.399	143.5
245.633	146.5
245.866	146.5
246.099	154.5
246.333	165.5
246.566	145.5
246.8	151.5
247.033	152.5
247.266	150.5
247.5	169.5
247.733	168.5
247.966	168.5
248.2	170.5
248.433	156.5
248.666	155.5
248.899	174.5
249.133	189.5
249.366	171.5
249.599	182.5
249.832	169.5
250.066	168.5
250.299	176.5
250.532	190.5
250.765	183.5
250.998	203.5
251.231	201.5
251.465	193.5
251.698	215.5
251.931	198.5
252.164	197.5
252.397	189.5
252.63	205.5
252.863	210.5
253.096	199.5
253.329	217.5
253.562	215.5
253.795	214.5
254.028	214.5
254.261	217.5
254.494	230.5
254.727	236.5
254.96	255.5
255.193	253.5
255.426	253.5
255.659	220.5
255.892	222.5
256.124	223.5
256.357	234.5
256.59	233.5
256.823	201.5
257.056	201.5
257.289	203.5
257.521	203.5
257.754	225.5
257.987	200.5
258.22	202.5
258.452	207.5
258.685	211.5
258.918	205.5
259.151	213.5
259.383	207.5
259.616	216.5
259.849	219.5
260.081	238.5
260.314	239.5
260.547	240.5
260.779	236.5
261.012	228.5
261.244	233.5
261.477	226.5
261.71	226.5
261.942	220.5
262.175	218.5
262.407	234.5
262.64	223.5
262.872	221.5
263.105	227.5
263.337	210.5
263.57	207.5
263.802	215.5
264.035	238.5
264.267	212.5
264.499	216.5
264.732	231.5
264.964	222.5
265.197	225.5
265.429	215.5
265.661	222.5
265.894	229.5
266.126	212.5
266.358	224.5
266.591	237.5
266.823	234.5
267.055	221.5
267.287	234.5
267.52	230.5
267.752	236.5
267.984	243.5
268.216	243.5
268.448	227.5
268.681	234.5
268.913	255.5
269.145	260.5
269.377	285.5
269.609	263.5
269.841	261.5
270.073	275.5
270.306	291.5
270.538	309.5
270.77	284.5
271.002	292.5
271.234	280.5
271.466	299.5
271.698	283.5
271.93	304.5
272.162	303.5
272.394	302.5
272.626	282.5
272.858	275.5
273.09	278.5
273.322	263.5
273.553	285.5
273.785	269.5
274.017	286.5
274.249	267.5
274.481	263.5
274.713	267.5
274.945	259.5
275.176	274.5
275.408	276.5
275.64	285.5
275.872	263.5
276.104	281.5
276.335	265.5
276.567	288.5
276.799	287.5
277.031	320.5
277.262	327.5
277.494	320.5
277.726	284.5
277.957	302.5
278.189	299.5
278.421	270.5
278.652	283.5
278.884	299.5
279.115	264.5
279.347	273.5
279.579	282.5
279.81	285.5
280.042	294.5
280.273	278.5
280.505	292.5
280.736	282.5
280.968	275.5
281.199	279.5
281.431	281.5
281.662	281.5
281.894	288.5
282.125	287.5
282.356	299.5
282.588	327.5
282.819	305.5
283.051	281.5
283.282	272.5
283.513	277.5
283.745	297.5
283.976	299.5
284.207	311.5
284.439	291.5
284.67	294.5
284.901	299.5
285.132	291.5
285.364	303.5
285.595	304.5
285.826	291.5
286.057	289.5
286.288	305.5
286.52	312.5
286.751	315.5
286.982	292.5
287.213	299.5
287.444	285.5
287.675	299.5
287.906	312.5
288.138	315.5
288.369	313.5
288.6	333.5
288.831	325.5
289.062	331.5
289.293	318.5
289.524	310.5
289.755	295.5
289.986	309.5
290.217	298.5
290.448	327.5
290.679	311.5
290.91	323.5
291.141	318.5
291.371	311.5
291.602	310.5
291.833	329.5
292.064	307.5
292.295	299.5
292.526	315.5
292.757	319.5
292.987	301.5
293.218	327.5
293.449	313.5
293.68	310.5
293.91	315.5
294.141	289.5
294.372	297.5
294.603	312.5
294.833	318.5
295.064	309.5
295.295	328.5
295.525	302.5
295.756	320.5
295.987	318.5
296.217	341.5
296.448	332.5
296.679	323.5
296.909	319.5
297.14	308.5
297.37	329.5
297.601	326.5
297.831	303.5
298.062	333.5
298.292	326.5
298.523	325.5
298.753	339.5
298.984	310.5
299.214	322.5
299.445	335.5
299.675	353.5
299.905	337.5
300.136	330.5
300.366	334.5
300.597	340.5
300.827	342.5
301.057	333.5
301.288	352.5
301.518	348.5
301.748	345.5
301.979	337.5
302.209	345.5
302.439	344.5
302.669	344.5
302.9	350.5
303.13	356.5
303.36	380.5
303.59	355.5
303.82	360.5
304.051	358.5
304.281	347.5
304.511	341.5
304.741	343.5
304.971	344.5
305.201	344.5
305.431	347.5
305.661	369.5
305.891	361.5
306.121	337.5
306.352	356.5
306.582	356.5
306.812	353.5
307.042	360.5
307.272	375.5
307.502	368.5
307.731	381.5
307.961	356.5
308.191	337.5
308.421	365.5
308.651	361.5
308.881	366.5
309.111	363.5
309.341	352.5
309.571	369.5
309.8	368.5
310.03	383.5
310.26	383.5
310.49	394.5
310.72	375.5
310.949	388.5
311.179	398.5
311.409	381.5
311.639	365.5
311.868	393.5
312.098	385.5
312.328	391.5
312.557	404.5
312.787	397.5
313.017	393.5
313.246	408.5
313.476	392.5
313.706	398.5
313.935	402.5
314.165	397.5
314.394	390.5
314.624	386.5
314.853	385.5
315.083	395.5
315.312	393.5
315.542	375.5
315.771	378.5
316.001	375.5
316.23	383.5
316.46	378.5
316.689	392.5
316.919	390.5
317.148	395.5
317.377	386.5
317.607	385.5
317.836	390.5
318.065	395.5
318.295	387.5
318.524	394.5
318.753	389.5
318.983	389.5
319.212	390.5
319.441	397.5
319.67	401.5
319.9	383.5
320.129	390.5
320.358	411.5
320.587	401.5
320.816	405.5
321.046	397.5
321.275	395.5
321.504	406.5
321.733	415.5
321.962	441.5
322.191	406.5
322.42	423.5
322.649	441.5
322.878	449.5
323.108	443.5
323.337	443.5
323.566	456.5
323.795	463.5
324.024	472.5
324.253	553.5
324.482	745.5
324.71	1081.5
324.939	1466.5
325.168	1240.5
325.397	675.5
325.626	527.5
325.855	504.5
326.084	476.5
326.313	461.5
326.542	475.5
326.77	480.5
326.999	537.5
327.228	704.5
327.457	981.5
327.686	1097.5
327.914	811.5
328.143	582.5
328.372	525.5
328.6	503.5
328.829	501.5
329.058	517.5
329.287	519.5
329.515	510.5
329.744	481.5
329.972	483.5
330.201	481.5
330.43	524.5
330.658	515.5
330.887	539.5
331.115	515.5
331.344	475.5
331.572	471.5
331.801	483.5
332.03	469.5
332.258	460.5
332.486	457.5
332.715	469.5
332.943	455.5
333.172	453.5
333.4	477.5
333.629	476.5
333.857	486.5
334.085	503.5
334.314	501.5
334.542	524.5
334.771	540.5
334.999	500.5
335.227	489.5
335.455	481.5
335.684	484.5
335.912	480.5
336.14	460.5
336.369	465.5
336.597	475.5
336.825	492.5
337.053	440.5
337.281	458.5
337.51	444.5
337.738	454.5
337.966	451.5
338.194	435.5
338.422	477.5
338.65	461.5
338.878	441.5
339.106	449.5
339.334	443.5
339.562	435.5
339.79	427.5
340.018	427.5
340.246	430.5
340.474	425.5
340.702	442.5
340.93	427.5
341.158	414.5
341.386	415.5
341.614	444.5
341.842	424.5
342.07	426.5
342.298	421.5
342.526	442.5
342.754	439.5
342.981	402.5
343.209	421.5
343.437	447.5
343.665	441.5
343.893	433.5
344.12	451.5
344.348	463.5
344.576	471.5
344.804	446.5
345.031	448.5
345.259	453.5
345.487	447.5
345.714	428.5
345.942	431.5
346.17	420.5
346.397	397.5
346.625	418.5
346.853	411.5
347.08	405.5
347.308	423.5
347.535	425.5
347.763	422.5
347.99	416.5
348.218	423.5
348.445	419.5
348.673	405.5
348.9	425.5
349.128	409.5
349.355	392.5
349.583	382.5
349.81	390.5
350.037	405.5
350.265	404.5
350.492	412.5
350.72	396.5
350.947	406.5
351.174	396.5
351.402	407.5
351.629	391.5
351.856	411.5
352.083	398.5
352.311	383.5
352.538	404.5
352.765	410.5
352.992	402.5
353.22	411.5
353.447	395.5
353.674	396.5
353.901	397.5
354.128	387.5
354.355	391.5
354.583	390.5
354.81	394.5
355.037	401.5
355.264	394.5
355.491	359.5
355.718	392.5
355.945	363.5
356.172	367.5
356.399	375.5
356.626	402.5
356.853	369.5
357.08	364.5
357.307	358.5
357.534	381.5
357.761	399.5
357.988	377.5
358.215	388.5
358.441	379.5
358.668	397.5
358.895	393.5
359.122	394.5
359.349	383.5
359.576	390.5
359.802	408.5
360.029	426.5
360.256	413.5
360.483	403.5
360.709	384.5
360.936	409.5
361.163	381.5
361.39	391.5
361.616	420.5
361.843	407.5
362.07	369.5
362.296	401.5
362.523	391.5
362.749	381.5
362.976	375.5
363.203	387.5
363.429	406.5
363.656	401.5
363.882	368.5
364.109	389.5
364.335	419.5
364.562	365.5
364.788	368.5
365.015	401.5
365.241	381.5
365.468	404.5
365.694	398.5
365.92	375.5
366.147	388.5
366.373	379.5
366.599	388.5
366.826	387.5
367.052	382.5
367.278	382.5
367.505	384.5
367.731	380.5
367.957	379.5
368.184	385.5
368.41	390.5
368.636	402.5
368.862	392.5
369.089	378.5
369.315	404.5
369.541	385.5
369.767	387.5
369.993	381.5
370.219	395.5
370.445	385.5
370.672	383.5
370.898	383.5
371.124	364.5
371.35	395.5
371.576	389.5
371.802	391.5
372.028	390.5
372.254	388.5
372.48	391.5
372.706	394.5
372.932	395.5
373.158	391.5
373.384	376.5
373.61	381.5
373.835	416.5
374.061	377.5
374.287	390.5
374.513	383.5
374.739	385.5
374.965	405.5
375.191	393.5
375.416	404.5
375.642	398.5
375.868	373.5
376.094	386.5
376.319	387.5
376.545	402.5
376.771	379.5
376.997	408.5
377.222	366.5
377.448	378.5
377.674	381.5
377.899	368.5
378.125	375.5
378.35	381.5
378.576	391.5
378.802	362.5
379.027	396.5
379.253	379.5
379.478	380.5
379.704	373.5
379.929	368.5
380.155	383.5
380.38	379.5
380.606	389.5
380.831	397.5
381.057	393.5
381.282	389.5
381.507	384.5
381.733	385.5
381.958	388.5
382.184	368.5
382.409	397.5
382.634	376.5
382.86	393.5
383.085	387.5
383.31	394.5
383.535	401.5
383.761	404.5
383.986	387.5
384.211	373.5
384.436	404.5
384.662	419.5
384.887	423.5
385.112	406.5
385.337	421.5
385.562	411.5
385.787	404.5
386.013	423.5
386.238	395.5
386.463	412.5
386.688	414.5
386.913	429.5
387.138	419.5
387.363	428.5
387.588	421.5
387.813	421.5
388.038	422.5
388.263	423.5
388.488	401.5
388.713	408.5
388.938	393.5
389.163	423.5
389.387	403.5
389.612	407.5
389.837	419.5
390.062	398.5
390.287	406.5
390.512	404.5
390.736	402.5
390.961	409.5
391.186	416.5
391.411	411.5
391.636	423.5
391.86	429.5
392.085	441.5
392.31	449.5
392.534	437.5
392.759	423.5
392.984	422.5
393.208	412.5
393.433	402.5
393.658	422.5
393.882	401.5
394.107	407.5
394.331	408.5
394.556	436.5
394.78	436.5
395.005	428.5
395.229	425.5
395.454	447.5
395.678	445.5
395.903	453.5
396.127	453.5
396.352	445.5
396.576	443.5
396.801	439.5
397.025	460.5
397.249	441.5
397.474	467.5
397.698	467.5
397.922	462.5
398.147	439.5
398.371	442.5
398.595	463.5
398.82	479.5
399.044	490.5
399.268	494.5
399.492	517.5
399.717	552.5
399.941	569.5
400.165	576.5
400.389	570.5
400.613	527.5
400.837	506.5
401.062	478.5
401.286	496.5
401.51	499.5
401.734	479.5
401.958	439.5
402.182	463.5
402.406	475.5
402.63	473.5
402.854	488.5
403.078	472.5
403.302	487.5
403.526	503.5
403.75	476.5
403.974	501.5
404.198	476.5
404.422	513.5
404.645	476.5
404.869	497.5
405.093	517.5
405.317	552.5
405.541	562.5
405.765	533.5
405.988	493.5
406.212	499.5
406.436	495.5
406.66	518.5
406.883	509.5
407.107	519.5
407.331	561.5
407.555	616.5
407.778	606.5
408.002	573.5
408.226	542.5
408.449	535.5
408.673	520.5
408.896	539.5
409.12	572.5
409.344	549.5
409.567	506.5
409.791	490.5
410.014	472.5
410.238	493.5
410.461	483.5
410.685	492.5
410.908	480.5
411.132	519.5
411.355	521.5
411.578	491.5
411.802	495.5
412.025	463.5
412.249	467.5
412.472	479.5
412.695	523.5
412.919	548.5
413.142	475.5
413.365	473.5
413.589	456.5
413.812	455.5
414.035	467.5
414.258	457.5
414.482	452.5
414.705	451.5
414.928	443.5
415.151	458.5
415.374	443.5
415.597	445.5
415.821	440.5
416.044	442.5
416.267	464.5
416.49	453.5
416.713	441.5
416.936	456.5
417.159	455.5
417.382	435.5
417.605	466.5
417.828	455.5
418.051	480.5
418.274	452.5
418.497	443.5
418.72	464.5
418.943	432.5
419.166	472.5
419.389	491.5
419.611	489.5
419.834	489.5
420.057	476.5
420.28	471.5
420.503	462.5
420.726	471.5
420.948	471.5
421.171	495.5
421.394	520.5
421.617	474.5
421.839	473.5
422.062	451.5
422.285	438.5
422.507	501.5
422.73	560.5
422.953	546.5
423.175	480.5
423.398	467.5
423.621	478.5
423.843	470.5
424.066	511.5
424.288	479.5
424.511	492.5
424.733	533.5
424.956	563.5
425.178	567.5
425.401	573.5
425.623	569.5
425.846	533.5
426.068	483.5
426.291	472.5
426.513	499.5
426.735	502.5
426.958	507.5
427.18	563.5
427.402	645.5
427.625	703.5
427.847	583.5
428.069	533.5
428.292	469.5
428.514	477.5
428.736	437.5
428.958	442.5
429.181	436.5
429.403	427.5
429.625	456.5
429.847	477.5
430.069	515.5
430.292	494.5
430.514	452.5
430.736	457.5
430.958	448.5
431.18	435.5
431.402	432.5
431.624	416.5
431.846	418.5
432.068	429.5
432.29	442.5
432.512	436.5
432.734	425.5
432.956	416.5
433.178	442.5
433.4	441.5
433.622	441.5
433.844	412.5
434.066	409.5
434.287	412.5
434.509	443.5
434.731	419.5
434.953	451.5
435.175	447.5
435.397	463.5
435.618	469.5
435.84	491.5
436.062	559.5
436.284	559.5
436.505	507.5
436.727	475.5
436.949	474.5
437.17	448.5
437.392	436.5
437.614	423.5
437.835	459.5
438.057	522.5
438.278	587.5
438.5	590.5
438.721	650.5
438.943	617.5
439.165	501.5
439.386	463.5
439.608	466.5
439.829	465.5
440.05	470.5
440.272	506.5
440.493	490.5
440.715	462.5
440.936	462.5
441.158	461.5
441.379	422.5
441.6	453.5
441.822	470.5
442.043	490.5
442.264	546.5
442.486	567.5
442.707	509.5
442.928	475.5
443.149	463.5
443.371	478.5
443.592	527.5
443.813	610.5
444.034	631.5
444.255	547.5
444.476	496.5
444.698	486.5
444.919	481.5
445.14	608.5
445.361	563.5
445.582	503.5
445.803	540.5
446.024	617.5
446.245	605.5
446.466	536.5
446.687	475.5
446.908	462.5
447.129	440.5
447.35	459.5
447.571	422.5
447.792	416.5
448.013	414.5
448.234	445.5
448.455	464.5
448.675	555.5
448.896	636.5
449.117	539.5
449.338	522.5
449.559	621.5
449.779	640.5
450	532.5
450.221	465.5
450.442	435.5
450.662	420.5
450.883	416.5
451.104	439.5
451.324	428.5
451.545	414.5
451.766	398.5
451.986	388.5
452.207	385.5
452.428	402.5
452.648	387.5
452.869	394.5
453.089	385.5
453.31	403.5
453.53	382.5
453.751	384.5
453.971	381.5
454.192	407.5
454.412	381.5
454.633	384.5
454.853	375.5
455.073	394.5
455.294	409.5
455.514	449.5
455.734	437.5
455.955	393.5
456.175	382.5
456.395	358.5
456.616	363.5
456.836	351.5
457.056	376.5
457.276	361.5
457.497	362.5
457.717	381.5
457.937	377.5
458.157	393.5
458.377	404.5
458.598	396.5
458.818	424.5
459.038	474.5
459.258	490.5
459.478	430.5
459.698	400.5
459.918	411.5
460.138	417.5
460.358	437.5
460.578	430.5
460.798	423.5
461.018	433.5
461.238	431.5
461.458	448.5
461.678	424.5
461.898	440.5
462.118	448.5
462.338	444.5
462.558	461.5
462.777	475.5
462.997	488.5
463.217	495.5
463.437	486.5
463.657	463.5
463.876	471.5
464.096	470.5
464.316	472.5
464.536	458.5
464.755	487.5
464.975	483.5
465.195	459.5
465.414	465.5
465.634	430.5
465.854	429.5
466.073	400.5
466.293	417.5
466.512	392.5
466.732	416.5
466.951	408.5
467.171	429.5
467.391	393.5
467.61	401.5
467.829	419.5
468.049	406.5
468.268	401.5
468.488	395.5
468.707	392.5
468.927	387.5
469.146	386.5
469.365	390.5
469.585	380.5
469.804	385.5
470.023	424.5
470.243	403.5
470.462	397.5
470.681	407.5
470.901	414.5
471.12	397.5
471.339	389.5
471.558	398.5
471.777	411.5
471.997	419.5
472.216	399.5
472.435	429.5
472.654	416.5
472.873	400.5
473.092	405.5
473.311	409.5
473.53	407.5
473.749	384.5
473.968	428.5
474.187	501.5
474.406	499.5
474.625	424.5
474.844	407.5
475.063	379.5
475.282	410.5
475.501	406.5
475.72	419.5
475.939	428.5
476.158	428.5
476.377	408.5
476.596	411.5
476.814	433.5
477.033	426.5
477.252	419.5
477.471	436.5
477.69	437.5
477.908	465.5
478.127	439.5
478.346	441.5
478.564	451.5
478.783	453.5
479.002	456.5
479.22	454.5
479.439	456.5
479.658	467.5
479.876	461.5
480.095	467.5
480.313	519.5
480.532	510.5
480.751	496.5
480.969	495.5
481.188	491.5
481.406	524.5
481.624	492.5
481.843	482.5
482.061	480.5
482.28	463.5
482.498	468.5
482.717	466.5
482.935	460.5
483.153	468.5
483.372	450.5
483.59	461.5
483.808	480.5
484.027	451.5
484.245	472.5
484.463	481.5
484.681	484.5
484.9	455.5
485.118	464.5
485.336	473.5
485.554	478.5
485.772	465.5
485.99	472.5
486.209	470.5
486.427	463.5
486.645	469.5
486.863	511.5
487.081	488.5
487.299	480.5
487.517	488.5
487.735	480.5
487.953	495.5
488.171	493.5
488.389	492.5
488.607	477.5
488.825	493.5
489.043	485.5
489.261	494.5
489.479	481.5
489.696	502.5
489.914	511.5
490.132	508.5
490.35	507.5
490.568	522.5
490.786	544.5
491.003	512.5
491.221	509.5
491.439	542.5
491.657	535.5
491.874	557.5
492.092	547.5
492.31	551.5
492.527	553.5
492.745	572.5
492.963	553.5
493.18	567.5
493.398	533.5
493.615	541.5
493.833	574.5
494.05	576.5
494.268	565.5
494.485	552.5
494.703	563.5
494.92	571.5
495.138	558.5
495.355	593.5
495.573	574.5
495.79	571.5
496.008	597.5
496.225	567.5
496.442	577.5
496.66	582.5
496.877	584.5
497.094	575.5
497.312	579.5
497.529	604.5
497.746	621.5
497.963	618.5
498.181	638.5
498.398	638.5
498.615	659.5
498.832	695.5
499.049	711.5
499.267	699.5
499.484	729.5
499.701	778.5
499.918	793.5
500.135	848.5
500.352	896.5
500.569	898.5
500.786	897.5
501.003	892.5
501.22	828.5
501.437	828.5
501.654	788.5
501.871	774.5
502.088	733.5
502.305	675.5
502.522	665.5
502.739	643.5
502.956	629.5
503.172	623.5
503.389	623.5
503.606	633.5
503.823	589.5
504.04	595.5
504.256	604.5
504.473	592.5
504.69	574.5
504.907	582.5
505.123	570.5
505.34	553.5
505.557	544.5
505.773	558.5
505.99	547.5
506.207	533.5
506.423	558.5
506.64	523.5
506.856	521.5
507.073	511.5
507.289	528.5
507.506	504.5
507.722	518.5
507.939	519.5
508.155	543.5
508.372	497.5
508.588	501.5
508.805	523.5
509.021	485.5
509.238	517.5
509.454	507.5
509.67	504.5
509.887	492.5
510.103	525.5
510.319	503.5
510.536	536.5
510.752	761.5
510.968	666.5
511.184	492.5
511.401	479.5
511.617	475.5
511.833	476.5
512.049	478.5
512.265	492.5
512.481	467.5
512.698	457.5
512.914	458.5
513.13	489.5
513.346	455.5
513.562	480.5
513.778	480.5
513.994	474.5
514.21	481.5
514.426	497.5
514.642	501.5
514.858	511.5
515.074	501.5
515.29	591.5
515.506	758.5
515.721	627.5
515.937	537.5
516.153	506.5
516.369	493.5
516.585	509.5
516.801	516.5
517.016	494.5
517.232	519.5
517.448	527.5
517.664	524.5
517.879	512.5
518.095	514.5
518.311	503.5
518.527	493.5
518.742	498.5
518.958	494.5
519.173	501.5
519.389	472.5
519.605	501.5
519.82	466.5
