Data from 1964.PennyLincolnUp.Lamp.En5.5.200Scan.071719.P1._HRD10591_14-05-47-909.txt Node
Date: Thu Jul 18 14:05:47 EDT 2019
User: cochatt
Spectrometer: HR+D1059
Trigger mode: 1
Integration Time (sec): 1.000000E-1
Scans to average: 1
Electric dark correction enabled: true
Nonlinearity correction enabled: false
Boxcar width: 0
XAxis mode: Wavelengths
Number of Pixels in Spectrum: 2048
>>>>>Begin Spectral Data<<<<<
223.165	-23.06
223.4	-23.06
223.635	-23.06
223.869	-24.06
224.104	-17.06
224.338	-7.06
224.573	1.94
224.808	-1.06
225.042	-19.06
225.277	-11.06
225.511	-7.06
225.746	4.94
225.98	-5.06
226.215	13.94
226.449	26.94
226.683	7.94
226.918	18.94
227.152	39.94
227.387	38.94
227.621	37.94
227.856	32.94
228.09	31.94
228.324	46.94
228.559	53.94
228.793	61.94
229.027	83.94
229.262	118.94
229.496	110.94
229.73	115.94
229.964	127.94
230.199	106.94
230.433	108.94
230.667	112.94
230.901	89.94
231.136	116.94
231.37	102.94
231.604	85.94
231.838	102.94
232.072	105.94
232.306	109.94
232.541	104.94
232.775	102.94
233.009	110.94
233.243	112.94
233.477	122.94
233.711	110.94
233.945	114.94
234.179	111.94
234.413	116.94
234.647	118.94
234.881	101.94
235.115	118.94
235.349	115.94
235.583	122.94
235.817	120.94
236.051	113.94
236.285	121.94
236.519	110.94
236.753	132.94
236.987	129.94
237.221	149.94
237.455	189.94
237.689	150.94
237.922	131.94
238.156	135.94
238.39	119.94
238.624	114.94
238.858	123.94
239.091	124.94
239.325	117.94
239.559	130.94
239.793	123.94
240.027	118.94
240.26	122.94
240.494	142.94
240.728	145.94
240.961	138.94
241.195	117.94
241.429	126.94
241.662	117.94
241.896	136.94
242.13	144.94
242.363	131.94
242.597	128.94
242.83	131.94
243.064	129.94
243.298	142.94
243.531	146.94
243.765	131.94
243.998	129.94
244.232	128.94
244.465	150.94
244.699	151.94
244.932	153.94
245.166	134.94
245.399	150.94
245.633	142.94
245.866	151.94
246.099	149.94
246.333	145.94
246.566	157.94
246.8	144.94
247.033	150.94
247.266	159.94
247.5	156.94
247.733	150.94
247.966	163.94
248.2	163.94
248.433	158.94
248.666	170.94
248.899	184.94
249.133	188.94
249.366	208.94
249.599	176.94
249.832	185.94
250.066	177.94
250.299	153.94
250.532	181.94
250.765	199.94
250.998	215.94
251.231	217.94
251.465	207.94
251.698	200.94
251.931	212.94
252.164	199.94
252.397	187.94
252.63	193.94
252.863	196.94
253.096	205.94
253.329	225.94
253.562	226.94
253.795	199.94
254.028	212.94
254.261	201.94
254.494	220.94
254.727	248.94
254.96	270.94
255.193	249.94
255.426	240.94
255.659	219.94
255.892	236.94
256.124	228.94
256.357	231.94
256.59	219.94
256.823	213.94
257.056	203.94
257.289	211.94
257.521	199.94
257.754	210.94
257.987	208.94
258.22	216.94
258.452	215.94
258.685	206.94
258.918	209.94
259.151	225.94
259.383	218.94
259.616	210.94
259.849	245.94
260.081	230.94
260.314	227.94
260.547	243.94
260.779	234.94
261.012	236.94
261.244	238.94
261.477	239.94
261.71	236.94
261.942	228.94
262.175	238.94
262.407	236.94
262.64	214.94
262.872	221.94
263.105	228.94
263.337	217.94
263.57	224.94
263.802	227.94
264.035	223.94
264.267	195.94
264.499	222.94
264.732	228.94
264.964	225.94
265.197	227.94
265.429	238.94
265.661	226.94
265.894	242.94
266.126	227.94
266.358	218.94
266.591	222.94
266.823	261.94
267.055	242.94
267.287	252.94
267.52	250.94
267.752	231.94
267.984	246.94
268.216	244.94
268.448	239.94
268.681	239.94
268.913	239.94
269.145	292.94
269.377	282.94
269.609	301.94
269.841	274.94
270.073	297.94
270.306	305.94
270.538	313.94
270.77	311.94
271.002	312.94
271.234	289.94
271.466	295.94
271.698	308.94
271.93	326.94
272.162	332.94
272.394	327.94
272.626	302.94
272.858	300.94
273.09	289.94
273.322	288.94
273.553	262.94
273.785	269.94
274.017	274.94
274.249	282.94
274.481	279.94
274.713	306.94
274.945	291.94
275.176	288.94
275.408	273.94
275.64	276.94
275.872	265.94
276.104	286.94
276.335	301.94
276.567	281.94
276.799	296.94
277.031	305.94
277.262	329.94
277.494	328.94
277.726	318.94
277.957	288.94
278.189	308.94
278.421	287.94
278.652	296.94
278.884	290.94
279.115	282.94
279.347	292.94
279.579	294.94
279.81	265.94
280.042	294.94
280.273	279.94
280.505	304.94
280.736	299.94
280.968	286.94
281.199	289.94
281.431	289.94
281.662	278.94
281.894	312.94
282.125	293.94
282.356	310.94
282.588	322.94
282.819	309.94
283.051	305.94
283.282	305.94
283.513	298.94
283.745	323.94
283.976	313.94
284.207	322.94
284.439	305.94
284.67	306.94
284.901	321.94
285.132	326.94
285.364	302.94
285.595	309.94
285.826	302.94
286.057	312.94
286.288	300.94
286.52	309.94
286.751	305.94
286.982	316.94
287.213	318.94
287.444	343.94
287.675	320.94
287.906	328.94
288.138	349.94
288.369	325.94
288.6	341.94
288.831	316.94
289.062	298.94
289.293	341.94
289.524	342.94
289.755	317.94
289.986	336.94
290.217	326.94
290.448	326.94
290.679	329.94
290.91	322.94
291.141	331.94
291.371	321.94
291.602	318.94
291.833	316.94
292.064	316.94
292.295	337.94
292.526	332.94
292.757	321.94
292.987	319.94
293.218	304.94
293.449	334.94
293.68	315.94
293.91	305.94
294.141	320.94
294.372	313.94
294.603	328.94
294.833	325.94
295.064	331.94
295.295	337.94
295.525	337.94
295.756	346.94
295.987	331.94
296.217	344.94
296.448	341.94
296.679	337.94
296.909	317.94
297.14	338.94
297.37	341.94
297.601	332.94
297.831	326.94
298.062	349.94
298.292	340.94
298.523	330.94
298.753	357.94
298.984	338.94
299.214	348.94
299.445	334.94
299.675	336.94
299.905	357.94
300.136	332.94
300.366	345.94
300.597	330.94
300.827	351.94
301.057	357.94
301.288	357.94
301.518	346.94
301.748	364.94
301.979	365.94
302.209	373.94
302.439	370.94
302.669	365.94
302.9	358.94
303.13	355.94
303.36	373.94
303.59	374.94
303.82	368.94
304.051	394.94
304.281	366.94
304.511	375.94
304.741	381.94
304.971	347.94
305.201	374.94
305.431	356.94
305.661	366.94
305.891	362.94
306.121	371.94
306.352	387.94
306.582	377.94
306.812	381.94
307.042	381.94
307.272	370.94
307.502	383.94
307.731	378.94
307.961	376.94
308.191	349.94
308.421	359.94
308.651	382.94
308.881	385.94
309.111	382.94
309.341	381.94
309.571	372.94
309.8	376.94
310.03	392.94
310.26	394.94
310.49	390.94
310.72	415.94
310.949	412.94
311.179	406.94
311.409	401.94
311.639	388.94
311.868	398.94
312.098	407.94
312.328	404.94
312.557	425.94
312.787	420.94
313.017	435.94
313.246	426.94
313.476	401.94
313.706	392.94
313.935	416.94
314.165	415.94
314.394	413.94
314.624	411.94
314.853	405.94
315.083	402.94
315.312	438.94
315.542	424.94
315.771	392.94
316.001	400.94
316.23	388.94
316.46	429.94
316.689	408.94
316.919	413.94
317.148	394.94
317.377	394.94
317.607	422.94
317.836	407.94
318.065	420.94
318.295	412.94
318.524	410.94
318.753	409.94
318.983	400.94
319.212	405.94
319.441	392.94
319.67	412.94
319.9	425.94
320.129	404.94
320.358	418.94
320.587	416.94
320.816	412.94
321.046	420.94
321.275	440.94
321.504	428.94
321.733	419.94
321.962	425.94
322.191	436.94
322.42	462.94
322.649	442.94
322.878	465.94
323.108	455.94
323.337	478.94
323.566	481.94
323.795	530.94
324.024	529.94
324.253	616.94
324.482	839.94
324.71	1260.94
324.939	1703.94
325.168	1426.94
325.397	788.94
325.626	581.94
325.855	510.94
326.084	511.94
326.313	506.94
326.542	459.94
326.77	532.94
326.999	592.94
327.228	771.94
327.457	1104.94
327.686	1293.94
327.914	844.94
328.143	622.94
328.372	583.94
328.6	556.94
328.829	544.94
329.058	545.94
329.287	534.94
329.515	511.94
329.744	520.94
329.972	521.94
330.201	530.94
330.43	544.94
330.658	556.94
330.887	589.94
331.115	565.94
331.344	536.94
331.572	504.94
331.801	493.94
332.03	508.94
332.258	485.94
332.486	460.94
332.715	495.94
332.943	505.94
333.172	468.94
333.4	489.94
333.629	504.94
333.857	517.94
334.085	536.94
334.314	539.94
334.542	574.94
334.771	576.94
334.999	553.94
335.227	522.94
335.455	485.94
335.684	484.94
335.912	496.94
336.14	485.94
336.369	496.94
336.597	466.94
336.825	508.94
337.053	486.94
337.281	480.94
337.51	486.94
337.738	476.94
337.966	485.94
338.194	476.94
338.422	478.94
338.65	446.94
338.878	452.94
339.106	477.94
339.334	460.94
339.562	471.94
339.79	447.94
340.018	460.94
340.246	457.94
340.474	458.94
340.702	448.94
340.93	434.94
341.158	440.94
341.386	455.94
341.614	446.94
341.842	448.94
342.07	420.94
342.298	439.94
342.526	441.94
342.754	440.94
342.981	462.94
343.209	453.94
343.437	457.94
343.665	456.94
343.893	466.94
344.12	486.94
344.348	469.94
344.576	474.94
344.804	473.94
345.031	490.94
345.259	459.94
345.487	462.94
345.714	456.94
345.942	461.94
346.17	434.94
346.397	447.94
346.625	439.94
346.853	450.94
347.08	426.94
347.308	440.94
347.535	443.94
347.763	448.94
347.99	423.94
348.218	439.94
348.445	438.94
348.673	431.94
348.9	432.94
349.128	439.94
349.355	424.94
349.583	412.94
349.81	394.94
350.037	420.94
350.265	415.94
350.492	438.94
350.72	406.94
350.947	429.94
351.174	414.94
351.402	426.94
351.629	452.94
351.856	429.94
352.083	453.94
352.311	442.94
352.538	437.94
352.765	431.94
352.992	434.94
353.22	397.94
353.447	407.94
353.674	402.94
353.901	390.94
354.128	416.94
354.355	412.94
354.583	402.94
354.81	440.94
355.037	401.94
355.264	410.94
355.491	414.94
355.718	417.94
355.945	416.94
356.172	400.94
356.399	383.94
356.626	386.94
356.853	399.94
357.08	391.94
357.307	404.94
357.534	402.94
357.761	403.94
357.988	402.94
358.215	410.94
358.441	397.94
358.668	393.94
358.895	404.94
359.122	402.94
359.349	406.94
359.576	419.94
359.802	446.94
360.029	449.94
360.256	446.94
360.483	432.94
360.709	398.94
360.936	433.94
361.163	398.94
361.39	404.94
361.616	423.94
361.843	420.94
362.07	408.94
362.296	435.94
362.523	414.94
362.749	409.94
362.976	413.94
363.203	416.94
363.429	402.94
363.656	398.94
363.882	405.94
364.109	400.94
364.335	402.94
364.562	399.94
364.788	396.94
365.015	398.94
365.241	407.94
365.468	392.94
365.694	409.94
365.92	394.94
366.147	395.94
366.373	398.94
366.599	376.94
366.826	390.94
367.052	389.94
367.278	385.94
367.505	400.94
367.731	395.94
367.957	407.94
368.184	412.94
368.41	400.94
368.636	416.94
368.862	390.94
369.089	401.94
369.315	402.94
369.541	393.94
369.767	386.94
369.993	391.94
370.219	380.94
370.445	396.94
370.672	405.94
370.898	399.94
371.124	399.94
371.35	408.94
371.576	406.94
371.802	397.94
372.028	410.94
372.254	407.94
372.48	400.94
372.706	405.94
372.932	409.94
373.158	415.94
373.384	394.94
373.61	410.94
373.835	409.94
374.061	392.94
374.287	421.94
374.513	418.94
374.739	416.94
374.965	407.94
375.191	422.94
375.416	434.94
375.642	409.94
375.868	398.94
376.094	399.94
376.319	401.94
376.545	406.94
376.771	394.94
376.997	397.94
377.222	395.94
377.448	391.94
377.674	404.94
377.899	384.94
378.125	395.94
378.35	395.94
378.576	389.94
378.802	379.94
379.027	415.94
379.253	393.94
379.478	393.94
379.704	398.94
379.929	398.94
380.155	403.94
380.38	403.94
380.606	385.94
380.831	394.94
381.057	408.94
381.282	388.94
381.507	398.94
381.733	388.94
381.958	408.94
382.184	399.94
382.409	397.94
382.634	365.94
382.86	372.94
383.085	402.94
383.31	422.94
383.535	412.94
383.761	427.94
383.986	409.94
384.211	445.94
384.436	420.94
384.662	430.94
384.887	424.94
385.112	441.94
385.337	402.94
385.562	432.94
385.787	414.94
386.013	449.94
386.238	448.94
386.463	433.94
386.688	423.94
386.913	434.94
387.138	432.94
387.363	439.94
387.588	446.94
387.813	430.94
388.038	405.94
388.263	429.94
388.488	416.94
388.713	445.94
388.938	430.94
389.163	439.94
389.387	450.94
389.612	420.94
389.837	434.94
390.062	432.94
390.287	431.94
390.512	410.94
390.736	427.94
390.961	428.94
391.186	424.94
391.411	444.94
391.636	454.94
391.86	449.94
392.085	451.94
392.31	441.94
392.534	448.94
392.759	432.94
392.984	431.94
393.208	423.94
393.433	429.94
393.658	427.94
393.882	452.94
394.107	435.94
394.331	452.94
394.556	450.94
394.78	455.94
395.005	442.94
395.229	432.94
395.454	469.94
395.678	456.94
395.903	444.94
396.127	479.94
396.352	467.94
396.576	447.94
396.801	444.94
397.025	439.94
397.249	445.94
397.474	454.94
397.698	458.94
397.922	457.94
398.147	461.94
398.371	479.94
398.595	465.94
398.82	496.94
399.044	481.94
399.268	498.94
399.492	555.94
399.717	584.94
399.941	617.94
400.165	616.94
400.389	586.94
400.613	522.94
400.837	538.94
401.062	511.94
401.286	522.94
401.51	503.94
401.734	472.94
401.958	467.94
402.182	477.94
402.406	487.94
402.63	495.94
402.854	509.94
403.078	522.94
403.302	506.94
403.526	520.94
403.75	504.94
403.974	519.94
404.198	524.94
404.422	526.94
404.645	512.94
404.869	505.94
405.093	538.94
405.317	563.94
405.541	595.94
405.765	530.94
405.988	527.94
406.212	525.94
406.436	530.94
406.66	559.94
406.883	546.94
407.107	552.94
407.331	589.94
407.555	678.94
407.778	640.94
408.002	585.94
408.226	538.94
408.449	574.94
408.673	558.94
408.896	553.94
409.12	584.94
409.344	583.94
409.567	531.94
409.791	515.94
410.014	514.94
410.238	478.94
410.461	511.94
410.685	516.94
410.908	528.94
411.132	516.94
411.355	557.94
411.578	534.94
411.802	507.94
412.025	481.94
412.249	498.94
412.472	532.94
412.695	521.94
412.919	542.94
413.142	517.94
413.365	505.94
413.589	493.94
413.812	492.94
414.035	490.94
414.258	468.94
414.482	468.94
414.705	451.94
414.928	474.94
415.151	449.94
415.374	461.94
415.597	448.94
415.821	455.94
416.044	456.94
416.267	474.94
416.49	468.94
416.713	461.94
416.936	449.94
417.159	463.94
417.382	476.94
417.605	456.94
417.828	485.94
418.051	483.94
418.274	482.94
418.497	449.94
418.72	468.94
418.943	453.94
419.166	466.94
419.389	509.94
419.611	509.94
419.834	512.94
420.057	502.94
420.28	485.94
420.503	485.94
420.726	483.94
420.948	477.94
421.171	509.94
421.394	540.94
421.617	511.94
421.839	482.94
422.062	496.94
422.285	516.94
422.507	523.94
422.73	589.94
422.953	572.94
423.175	525.94
423.398	536.94
423.621	497.94
423.843	527.94
424.066	529.94
424.288	531.94
424.511	530.94
424.733	576.94
424.956	612.94
425.178	585.94
425.401	595.94
425.623	624.94
425.846	498.94
426.068	510.94
426.291	483.94
426.513	484.94
426.735	483.94
426.958	521.94
427.18	604.94
427.402	723.94
427.625	740.94
427.847	641.94
428.069	588.94
428.292	532.94
428.514	490.94
428.736	473.94
428.958	462.94
429.181	464.94
429.403	455.94
429.625	466.94
429.847	502.94
430.069	562.94
430.292	561.94
430.514	473.94
430.736	458.94
430.958	462.94
431.18	428.94
431.402	455.94
431.624	446.94
431.846	436.94
432.068	448.94
432.29	439.94
432.512	457.94
432.734	439.94
432.956	451.94
433.178	446.94
433.4	444.94
433.622	460.94
433.844	449.94
434.066	431.94
434.287	474.94
434.509	451.94
434.731	448.94
434.953	456.94
435.175	460.94
435.397	477.94
435.618	497.94
435.84	544.94
436.062	597.94
436.284	609.94
436.505	548.94
436.727	504.94
436.949	450.94
437.17	454.94
437.392	450.94
437.614	463.94
437.835	509.94
438.057	564.94
438.278	633.94
438.5	626.94
438.721	705.94
438.943	653.94
439.165	534.94
439.386	495.94
439.608	510.94
439.829	493.94
440.05	511.94
440.272	535.94
440.493	519.94
440.715	470.94
440.936	476.94
441.158	480.94
441.379	482.94
441.6	494.94
441.822	484.94
442.043	512.94
442.264	603.94
442.486	600.94
442.707	543.94
442.928	496.94
443.149	491.94
443.371	519.94
443.592	548.94
443.813	661.94
444.034	660.94
444.255	588.94
444.476	506.94
444.698	501.94
444.919	500.94
445.14	590.94
445.361	535.94
445.582	546.94
445.803	563.94
446.024	634.94
446.245	640.94
446.466	590.94
446.687	519.94
446.908	499.94
447.129	475.94
447.35	444.94
447.571	458.94
447.792	430.94
448.013	448.94
448.234	461.94
448.455	499.94
448.675	591.94
448.896	682.94
449.117	566.94
449.338	546.94
449.559	628.94
449.779	726.94
450	569.94
450.221	479.94
450.442	451.94
450.662	439.94
450.883	440.94
451.104	436.94
451.324	432.94
451.545	424.94
451.766	421.94
451.986	400.94
452.207	402.94
452.428	393.94
452.648	412.94
452.869	405.94
453.089	409.94
453.31	413.94
453.53	405.94
453.751	408.94
453.971	402.94
454.192	403.94
454.412	405.94
454.633	398.94
454.853	409.94
455.073	393.94
455.294	441.94
455.514	453.94
455.734	447.94
455.955	396.94
456.175	384.94
456.395	380.94
456.616	400.94
456.836	394.94
457.056	386.94
457.276	387.94
457.497	390.94
457.717	404.94
457.937	383.94
458.157	398.94
458.377	411.94
458.598	404.94
458.818	446.94
459.038	503.94
459.258	530.94
459.478	449.94
459.698	446.94
459.918	452.94
460.138	414.94
460.358	448.94
460.578	467.94
460.798	461.94
461.018	450.94
461.238	451.94
461.458	444.94
461.678	452.94
461.898	462.94
462.118	445.94
462.338	469.94
462.558	487.94
462.777	464.94
462.997	498.94
463.217	496.94
463.437	530.94
463.657	478.94
463.876	502.94
464.096	504.94
464.316	483.94
464.536	501.94
464.755	479.94
464.975	492.94
465.195	516.94
465.414	508.94
465.634	484.94
465.854	445.94
466.073	441.94
466.293	431.94
466.512	418.94
466.732	406.94
466.951	404.94
467.171	416.94
467.391	393.94
467.61	425.94
467.829	437.94
468.049	408.94
468.268	398.94
468.488	432.94
468.707	403.94
468.927	410.94
469.146	386.94
469.365	400.94
469.585	420.94
469.804	420.94
470.023	419.94
470.243	440.94
470.462	404.94
470.681	434.94
470.901	410.94
471.12	396.94
471.339	430.94
471.558	421.94
471.777	441.94
471.997	430.94
472.216	427.94
472.435	425.94
472.654	434.94
472.873	433.94
473.092	425.94
473.311	416.94
473.53	424.94
473.749	438.94
473.968	450.94
474.187	541.94
474.406	562.94
474.625	468.94
474.844	446.94
475.063	434.94
475.282	435.94
475.501	432.94
475.72	430.94
475.939	421.94
476.158	444.94
476.377	440.94
476.596	424.94
476.814	447.94
477.033	441.94
477.252	447.94
477.471	458.94
477.69	443.94
477.908	445.94
478.127	446.94
478.346	477.94
478.564	455.94
478.783	474.94
479.002	461.94
479.22	475.94
479.439	501.94
479.658	493.94
479.876	494.94
480.095	498.94
480.313	541.94
480.532	523.94
480.751	520.94
480.969	547.94
481.188	564.94
481.406	554.94
481.624	521.94
481.843	504.94
482.061	490.94
482.28	465.94
482.498	464.94
482.717	487.94
482.935	472.94
483.153	483.94
483.372	485.94
483.59	478.94
483.808	478.94
484.027	481.94
484.245	486.94
484.463	483.94
484.681	514.94
484.9	510.94
485.118	503.94
485.336	506.94
485.554	510.94
485.772	482.94
485.99	501.94
486.209	496.94
486.427	505.94
486.645	490.94
486.863	510.94
487.081	499.94
487.299	508.94
487.517	514.94
487.735	517.94
487.953	516.94
488.171	527.94
488.389	502.94
488.607	528.94
488.825	516.94
489.043	519.94
489.261	513.94
489.479	489.94
489.696	526.94
489.914	511.94
490.132	532.94
490.35	538.94
490.568	531.94
490.786	545.94
491.003	544.94
491.221	564.94
491.439	577.94
491.657	586.94
491.874	568.94
492.092	576.94
492.31	548.94
492.527	569.94
492.745	579.94
492.963	592.94
493.18	581.94
493.398	585.94
493.615	591.94
493.833	587.94
494.05	582.94
494.268	601.94
494.485	577.94
494.703	600.94
494.92	595.94
495.138	593.94
495.355	608.94
495.573	614.94
495.79	624.94
496.008	606.94
496.225	576.94
496.442	608.94
496.66	579.94
496.877	611.94
497.094	607.94
497.312	608.94
497.529	620.94
497.746	632.94
497.963	674.94
498.181	656.94
498.398	667.94
498.615	695.94
498.832	699.94
499.049	706.94
499.267	738.94
499.484	773.94
499.701	800.94
499.918	826.94
500.135	865.94
500.352	908.94
500.569	932.94
500.786	936.94
501.003	917.94
501.22	894.94
501.437	846.94
501.654	824.94
501.871	786.94
502.088	781.94
