Data from 1964.PennyLincolnUp.Lamp.En5.5.200Scan.071719.P1._HRD10591_14-06-27-909.txt Node
Date: Thu Jul 18 14:06:27 EDT 2019
User: cochatt
Spectrometer: HR+D1059
Trigger mode: 1
Integration Time (sec): 1.000000E-1
Scans to average: 1
Electric dark correction enabled: true
Nonlinearity correction enabled: false
Boxcar width: 0
XAxis mode: Wavelengths
Number of Pixels in Spectrum: 2048
>>>>>Begin Spectral Data<<<<<
223.165	-17.25
223.4	-17.25
223.635	-17.25
223.869	-32.25
224.104	-17.25
224.338	0.75
224.573	-19.25
224.808	-23.25
225.042	-9.25
225.277	-15.25
225.511	12.75
225.746	8.75
225.98	1.75
226.215	7.75
226.449	21.75
226.683	30.75
226.918	23.75
227.152	25.75
227.387	41.75
227.621	33.75
227.856	48.75
228.09	57.75
228.324	59.75
228.559	62.75
228.793	70.75
229.027	93.75
229.262	104.75
229.496	112.75
229.73	129.75
229.964	144.75
230.199	128.75
230.433	99.75
230.667	111.75
230.901	118.75
231.136	102.75
231.37	106.75
231.604	123.75
231.838	118.75
232.072	117.75
232.306	112.75
232.541	127.75
232.775	125.75
233.009	121.75
233.243	119.75
233.477	128.75
233.711	117.75
233.945	119.75
234.179	139.75
234.413	125.75
234.647	119.75
234.881	127.75
235.115	119.75
235.349	112.75
235.583	125.75
235.817	120.75
236.051	133.75
236.285	123.75
236.519	127.75
236.753	135.75
236.987	140.75
237.221	163.75
237.455	189.75
237.689	180.75
237.922	145.75
238.156	141.75
238.39	109.75
238.624	127.75
238.858	127.75
239.091	124.75
239.325	122.75
239.559	119.75
239.793	133.75
240.027	137.75
240.26	133.75
240.494	172.75
240.728	134.75
240.961	133.75
241.195	152.75
241.429	139.75
241.662	127.75
241.896	139.75
242.13	129.75
242.363	139.75
242.597	138.75
242.83	151.75
243.064	166.75
243.298	149.75
243.531	147.75
243.765	160.75
243.998	155.75
244.232	139.75
244.465	144.75
244.699	141.75
244.932	149.75
245.166	153.75
245.399	155.75
245.633	156.75
245.866	144.75
246.099	165.75
246.333	160.75
246.566	145.75
246.8	165.75
247.033	151.75
247.266	168.75
247.5	174.75
247.733	168.75
247.966	176.75
248.2	190.75
248.433	170.75
248.666	168.75
248.899	187.75
249.133	199.75
249.366	213.75
249.599	205.75
249.832	194.75
250.066	193.75
250.299	186.75
250.532	200.75
250.765	218.75
250.998	221.75
251.231	216.75
251.465	213.75
251.698	220.75
251.931	200.75
252.164	198.75
252.397	198.75
252.63	212.75
252.863	222.75
253.096	215.75
253.329	235.75
253.562	231.75
253.795	214.75
254.028	209.75
254.261	217.75
254.494	223.75
254.727	252.75
254.96	272.75
255.193	278.75
255.426	257.75
255.659	237.75
255.892	235.75
256.124	232.75
256.357	233.75
256.59	232.75
256.823	231.75
257.056	222.75
257.289	215.75
257.521	231.75
257.754	207.75
257.987	215.75
258.22	238.75
258.452	218.75
258.685	215.75
258.918	229.75
259.151	213.75
259.383	240.75
259.616	240.75
259.849	232.75
260.081	231.75
260.314	251.75
260.547	243.75
260.779	256.75
261.012	234.75
261.244	236.75
261.477	234.75
261.71	250.75
261.942	227.75
262.175	246.75
262.407	234.75
262.64	253.75
262.872	233.75
263.105	241.75
263.337	226.75
263.57	230.75
263.802	225.75
264.035	226.75
264.267	219.75
264.499	230.75
264.732	234.75
264.964	219.75
265.197	222.75
265.429	218.75
265.661	235.75
265.894	248.75
266.126	238.75
266.358	246.75
266.591	236.75
266.823	236.75
267.055	228.75
267.287	251.75
267.52	246.75
267.752	251.75
267.984	249.75
268.216	268.75
268.448	264.75
268.681	273.75
268.913	264.75
269.145	265.75
269.377	301.75
269.609	281.75
269.841	299.75
270.073	294.75
270.306	305.75
270.538	302.75
270.77	340.75
271.002	313.75
271.234	287.75
271.466	308.75
271.698	343.75
271.93	332.75
272.162	330.75
272.394	323.75
272.626	316.75
272.858	309.75
273.09	323.75
273.322	291.75
273.553	288.75
273.785	291.75
274.017	283.75
274.249	296.75
274.481	292.75
274.713	293.75
274.945	310.75
275.176	296.75
275.408	324.75
275.64	297.75
275.872	285.75
276.104	297.75
276.335	296.75
276.567	293.75
276.799	317.75
277.031	320.75
277.262	329.75
277.494	343.75
277.726	341.75
277.957	307.75
278.189	313.75
278.421	287.75
278.652	304.75
278.884	304.75
279.115	310.75
279.347	310.75
279.579	303.75
279.81	296.75
280.042	311.75
280.273	308.75
280.505	295.75
280.736	293.75
280.968	303.75
281.199	297.75
281.431	305.75
281.662	300.75
281.894	305.75
282.125	311.75
282.356	329.75
282.588	327.75
282.819	334.75
283.051	308.75
283.282	319.75
283.513	310.75
283.745	301.75
283.976	323.75
284.207	323.75
284.439	352.75
284.67	307.75
284.901	330.75
285.132	337.75
285.364	303.75
285.595	319.75
285.826	301.75
286.057	332.75
286.288	313.75
286.52	322.75
286.751	321.75
286.982	329.75
287.213	325.75
287.444	343.75
287.675	339.75
287.906	342.75
288.138	352.75
288.369	349.75
288.6	329.75
288.831	326.75
289.062	329.75
289.293	326.75
289.524	351.75
289.755	342.75
289.986	332.75
290.217	320.75
290.448	330.75
290.679	336.75
290.91	333.75
291.141	323.75
291.371	341.75
291.602	332.75
291.833	316.75
292.064	345.75
292.295	334.75
292.526	323.75
292.757	329.75
292.987	332.75
293.218	312.75
293.449	356.75
293.68	345.75
293.91	331.75
294.141	349.75
294.372	343.75
294.603	319.75
294.833	335.75
295.064	337.75
295.295	321.75
295.525	347.75
295.756	334.75
295.987	337.75
296.217	351.75
296.448	355.75
296.679	351.75
296.909	343.75
297.14	341.75
297.37	333.75
297.601	366.75
297.831	366.75
298.062	349.75
298.292	347.75
298.523	348.75
298.753	367.75
298.984	371.75
299.214	361.75
299.445	357.75
299.675	360.75
299.905	345.75
300.136	350.75
300.366	358.75
300.597	346.75
300.827	365.75
301.057	378.75
301.288	379.75
301.518	383.75
301.748	356.75
301.979	378.75
302.209	371.75
302.439	362.75
302.669	382.75
302.9	375.75
303.13	368.75
303.36	391.75
303.59	363.75
303.82	378.75
304.051	371.75
304.281	394.75
304.511	379.75
304.741	372.75
304.971	344.75
305.201	371.75
305.431	376.75
305.661	371.75
305.891	380.75
306.121	367.75
306.352	365.75
306.582	375.75
306.812	383.75
307.042	371.75
307.272	374.75
307.502	382.75
307.731	368.75
307.961	379.75
308.191	371.75
308.421	375.75
308.651	382.75
308.881	393.75
309.111	384.75
309.341	408.75
309.571	411.75
309.8	398.75
310.03	392.75
310.26	422.75
310.49	395.75
310.72	410.75
310.949	406.75
311.179	417.75
311.409	430.75
311.639	413.75
311.868	412.75
312.098	422.75
312.328	416.75
312.557	418.75
312.787	442.75
313.017	402.75
313.246	433.75
313.476	416.75
313.706	425.75
313.935	408.75
314.165	415.75
314.394	424.75
314.624	423.75
314.853	428.75
315.083	436.75
315.312	418.75
315.542	433.75
315.771	404.75
316.001	430.75
316.23	423.75
316.46	412.75
316.689	419.75
316.919	425.75
317.148	445.75
317.377	449.75
317.607	420.75
317.836	415.75
318.065	413.75
318.295	407.75
318.524	436.75
318.753	419.75
318.983	428.75
319.212	430.75
319.441	404.75
319.67	418.75
319.9	413.75
320.129	413.75
320.358	416.75
320.587	423.75
320.816	414.75
321.046	436.75
321.275	443.75
321.504	417.75
321.733	433.75
321.962	419.75
322.191	441.75
322.42	439.75
322.649	470.75
322.878	467.75
323.108	478.75
323.337	484.75
323.566	484.75
323.795	510.75
324.024	550.75
324.253	652.75
324.482	897.75
324.71	1307.75
324.939	1843.75
325.168	1502.75
325.397	825.75
325.626	579.75
325.855	535.75
326.084	513.75
326.313	531.75
326.542	518.75
326.77	522.75
326.999	644.75
327.228	806.75
327.457	1158.75
327.686	1352.75
327.914	930.75
328.143	649.75
328.372	616.75
328.6	574.75
328.829	549.75
329.058	564.75
329.287	575.75
329.515	521.75
329.744	537.75
329.972	563.75
330.201	558.75
330.43	561.75
330.658	565.75
330.887	591.75
331.115	549.75
331.344	526.75
331.572	508.75
331.801	524.75
332.03	494.75
332.258	515.75
332.486	511.75
332.715	485.75
332.943	512.75
333.172	493.75
333.4	515.75
333.629	527.75
333.857	515.75
334.085	552.75
334.314	552.75
334.542	580.75
334.771	575.75
334.999	529.75
335.227	513.75
335.455	505.75
335.684	496.75
335.912	500.75
336.14	486.75
336.369	495.75
336.597	500.75
336.825	472.75
337.053	505.75
337.281	502.75
337.51	478.75
337.738	471.75
337.966	472.75
338.194	472.75
338.422	475.75
338.65	492.75
338.878	490.75
339.106	478.75
339.334	475.75
339.562	460.75
339.79	474.75
340.018	463.75
340.246	479.75
340.474	465.75
340.702	491.75
340.93	452.75
341.158	455.75
341.386	463.75
341.614	461.75
341.842	465.75
342.07	455.75
342.298	455.75
342.526	441.75
342.754	435.75
342.981	431.75
343.209	468.75
343.437	467.75
343.665	467.75
343.893	508.75
344.12	495.75
344.348	494.75
344.576	491.75
344.804	494.75
345.031	489.75
345.259	487.75
345.487	473.75
345.714	494.75
345.942	466.75
346.17	445.75
346.397	456.75
346.625	431.75
346.853	463.75
347.08	437.75
347.308	423.75
347.535	439.75
347.763	450.75
347.99	424.75
348.218	456.75
348.445	449.75
348.673	439.75
348.9	458.75
349.128	449.75
349.355	431.75
349.583	435.75
349.81	445.75
350.037	440.75
350.265	443.75
350.492	434.75
350.72	431.75
350.947	410.75
351.174	443.75
351.402	447.75
351.629	455.75
351.856	463.75
352.083	449.75
352.311	434.75
352.538	411.75
352.765	448.75
352.992	446.75
353.22	423.75
353.447	432.75
353.674	416.75
353.901	412.75
354.128	402.75
354.355	419.75
354.583	422.75
354.81	413.75
355.037	413.75
355.264	416.75
355.491	428.75
355.718	404.75
355.945	403.75
356.172	406.75
356.399	395.75
356.626	399.75
356.853	396.75
357.08	399.75
357.307	424.75
357.534	406.75
357.761	396.75
357.988	412.75
358.215	394.75
358.441	405.75
358.668	415.75
358.895	420.75
359.122	433.75
359.349	428.75
359.576	437.75
359.802	455.75
360.029	457.75
360.256	451.75
360.483	457.75
360.709	405.75
360.936	424.75
361.163	421.75
361.39	443.75
361.616	451.75
361.843	422.75
362.07	424.75
362.296	431.75
362.523	425.75
362.749	416.75
362.976	411.75
363.203	423.75
363.429	415.75
363.656	406.75
363.882	407.75
364.109	407.75
364.335	406.75
364.562	380.75
364.788	393.75
365.015	416.75
365.241	397.75
365.468	422.75
365.694	399.75
365.92	442.75
366.147	416.75
366.373	425.75
366.599	389.75
366.826	407.75
367.052	410.75
367.278	403.75
367.505	407.75
367.731	430.75
367.957	409.75
368.184	410.75
368.41	413.75
368.636	410.75
368.862	415.75
369.089	406.75
369.315	402.75
369.541	399.75
369.767	424.75
369.993	419.75
370.219	422.75
370.445	390.75
370.672	392.75
370.898	415.75
371.124	424.75
371.35	423.75
371.576	413.75
371.802	401.75
372.028	411.75
372.254	415.75
372.48	425.75
372.706	420.75
372.932	422.75
373.158	438.75
373.384	405.75
373.61	423.75
373.835	412.75
374.061	421.75
374.287	408.75
374.513	401.75
374.739	417.75
374.965	419.75
375.191	405.75
375.416	419.75
375.642	406.75
375.868	417.75
376.094	415.75
376.319	409.75
376.545	417.75
376.771	412.75
376.997	406.75
377.222	395.75
377.448	414.75
377.674	406.75
377.899	396.75
378.125	406.75
378.35	411.75
378.576	393.75
378.802	391.75
379.027	395.75
379.253	414.75
379.478	401.75
379.704	405.75
379.929	397.75
380.155	386.75
380.38	393.75
380.606	419.75
380.831	414.75
381.057	405.75
381.282	408.75
381.507	420.75
381.733	415.75
381.958	413.75
382.184	421.75
382.409	425.75
382.634	421.75
382.86	411.75
383.085	413.75
383.31	438.75
383.535	444.75
383.761	440.75
383.986	436.75
384.211	435.75
384.436	436.75
384.662	418.75
384.887	421.75
385.112	448.75
385.337	437.75
385.562	440.75
385.787	463.75
386.013	439.75
386.238	436.75
386.463	444.75
386.688	465.75
386.913	444.75
387.138	440.75
387.363	415.75
387.588	441.75
387.813	441.75
388.038	440.75
388.263	422.75
388.488	443.75
388.713	421.75
388.938	435.75
389.163	438.75
389.387	444.75
389.612	432.75
389.837	432.75
390.062	455.75
390.287	423.75
390.512	441.75
390.736	462.75
390.961	457.75
391.186	466.75
391.411	459.75
391.636	441.75
391.86	446.75
392.085	468.75
392.31	459.75
392.534	474.75
392.759	459.75
392.984	447.75
393.208	437.75
393.433	456.75
393.658	461.75
393.882	454.75
394.107	445.75
394.331	456.75
394.556	445.75
394.78	445.75
395.005	427.75
395.229	424.75
395.454	442.75
395.678	444.75
395.903	479.75
396.127	508.75
396.352	473.75
396.576	469.75
396.801	451.75
397.025	456.75
397.249	453.75
397.474	447.75
397.698	473.75
397.922	488.75
398.147	513.75
398.371	491.75
398.595	486.75
398.82	479.75
399.044	517.75
399.268	532.75
399.492	585.75
399.717	601.75
399.941	614.75
400.165	627.75
400.389	621.75
400.613	556.75
400.837	531.75
401.062	537.75
401.286	513.75
401.51	496.75
401.734	512.75
401.958	477.75
402.182	482.75
402.406	507.75
402.63	515.75
402.854	501.75
403.078	483.75
403.302	521.75
403.526	532.75
403.75	526.75
403.974	514.75
404.198	511.75
404.422	521.75
404.645	542.75
404.869	537.75
405.093	557.75
405.317	581.75
405.541	607.75
405.765	571.75
405.988	532.75
406.212	554.75
406.436	549.75
406.66	576.75
406.883	548.75
407.107	576.75
407.331	617.75
407.555	657.75
407.778	639.75
408.002	620.75
408.226	569.75
408.449	537.75
408.673	569.75
408.896	576.75
409.12	600.75
409.344	581.75
409.567	545.75
409.791	525.75
410.014	530.75
410.238	525.75
410.461	515.75
410.685	511.75
410.908	535.75
411.132	577.75
411.355	584.75
411.578	551.75
411.802	504.75
412.025	502.75
412.249	527.75
412.472	527.75
412.695	577.75
412.919	571.75
413.142	524.75
413.365	501.75
413.589	508.75
413.812	478.75
414.035	496.75
414.258	475.75
414.482	484.75
414.705	501.75
414.928	474.75
415.151	490.75
415.374	477.75
415.597	482.75
415.821	479.75
416.044	489.75
416.267	490.75
416.49	465.75
416.713	484.75
416.936	471.75
417.159	468.75
417.382	485.75
417.605	484.75
417.828	489.75
418.051	503.75
418.274	493.75
418.497	495.75
418.72	476.75
418.943	465.75
419.166	477.75
419.389	520.75
419.611	527.75
419.834	507.75
420.057	499.75
420.28	515.75
420.503	507.75
420.726	484.75
420.948	503.75
421.171	533.75
421.394	533.75
421.617	516.75
421.839	475.75
422.062	488.75
422.285	512.75
422.507	567.75
422.73	603.75
422.953	589.75
423.175	529.75
423.398	515.75
423.621	513.75
423.843	567.75
424.066	551.75
424.288	513.75
424.511	552.75
424.733	588.75
424.956	631.75
425.178	617.75
425.401	630.75
425.623	618.75
425.846	558.75
426.068	520.75
426.291	509.75
426.513	515.75
426.735	517.75
426.958	560.75
427.18	598.75
427.402	716.75
427.625	779.75
427.847	671.75
428.069	623.75
428.292	553.75
428.514	499.75
428.736	488.75
428.958	485.75
429.181	470.75
429.403	468.75
429.625	487.75
429.847	519.75
430.069	556.75
430.292	548.75
430.514	504.75
430.736	491.75
430.958	442.75
431.18	449.75
431.402	458.75
431.624	444.75
431.846	457.75
432.068	467.75
432.29	460.75
432.512	463.75
432.734	470.75
432.956	464.75
433.178	483.75
433.4	450.75
433.622	457.75
433.844	442.75
434.066	443.75
434.287	449.75
434.509	462.75
434.731	471.75
434.953	479.75
435.175	472.75
435.397	511.75
435.618	493.75
435.84	530.75
436.062	580.75
436.284	662.75
436.505	547.75
436.727	523.75
436.949	467.75
437.17	485.75
437.392	470.75
437.614	485.75
437.835	515.75
438.057	593.75
438.278	675.75
438.5	662.75
438.721	711.75
438.943	675.75
439.165	536.75
439.386	507.75
439.608	514.75
439.829	508.75
440.05	532.75
440.272	546.75
440.493	548.75
440.715	511.75
440.936	487.75
441.158	494.75
441.379	487.75
441.6	485.75
441.822	493.75
442.043	549.75
442.264	588.75
442.486	637.75
442.707	538.75
442.928	513.75
443.149	501.75
443.371	536.75
443.592	589.75
443.813	661.75
444.034	695.75
444.255	592.75
444.476	535.75
444.698	519.75
444.919	528.75
445.14	623.75
445.361	563.75
445.582	552.75
445.803	591.75
446.024	658.75
446.245	683.75
446.466	614.75
446.687	550.75
446.908	518.75
447.129	469.75
447.35	459.75
447.571	467.75
447.792	449.75
448.013	462.75
448.234	475.75
448.455	532.75
448.675	589.75
448.896	692.75
449.117	591.75
449.338	559.75
449.559	656.75
449.779	722.75
450	570.75
450.221	500.75
450.442	446.75
450.662	449.75
450.883	431.75
451.104	465.75
451.324	435.75
451.545	434.75
451.766	423.75
451.986	421.75
452.207	425.75
452.428	408.75
452.648	413.75
452.869	409.75
453.089	428.75
453.31	405.75
453.53	414.75
453.751	420.75
453.971	404.75
454.192	427.75
454.412	416.75
454.633	407.75
454.853	409.75
455.073	404.75
455.294	437.75
455.514	507.75
455.734	480.75
455.955	414.75
456.175	419.75
456.395	404.75
456.616	417.75
456.836	403.75
457.056	399.75
457.276	400.75
457.497	404.75
457.717	382.75
457.937	387.75
458.157	393.75
458.377	422.75
458.598	430.75
458.818	471.75
459.038	518.75
459.258	533.75
459.478	469.75
459.698	448.75
459.918	438.75
460.138	427.75
460.358	449.75
460.578	447.75
460.798	456.75
461.018	463.75
461.238	482.75
461.458	448.75
461.678	468.75
461.898	475.75
462.118	469.75
462.338	469.75
462.558	487.75
462.777	479.75
462.997	529.75
463.217	527.75
463.437	516.75
463.657	528.75
463.876	508.75
464.096	500.75
464.316	521.75
464.536	501.75
464.755	491.75
464.975	487.75
465.195	504.75
465.414	513.75
465.634	488.75
465.854	462.75
466.073	458.75
466.293	446.75
466.512	444.75
466.732	413.75
466.951	441.75
467.171	425.75
467.391	422.75
467.61	433.75
467.829	418.75
468.049	443.75
468.268	436.75
468.488	426.75
468.707	418.75
468.927	402.75
469.146	393.75
469.365	402.75
469.585	408.75
469.804	415.75
470.023	437.75
470.243	436.75
470.462	446.75
470.681	432.75
470.901	445.75
471.12	429.75
471.339	432.75
471.558	439.75
471.777	443.75
471.997	436.75
472.216	426.75
472.435	429.75
472.654	445.75
472.873	425.75
473.092	415.75
473.311	419.75
473.53	424.75
473.749	445.75
473.968	479.75
474.187	583.75
474.406	560.75
474.625	461.75
474.844	453.75
475.063	418.75
475.282	404.75
475.501	413.75
475.72	432.75
475.939	422.75
476.158	437.75
476.377	444.75
476.596	428.75
476.814	457.75
477.033	459.75
477.252	442.75
477.471	455.75
477.69	475.75
477.908	472.75
478.127	475.75
478.346	463.75
478.564	475.75
478.783	472.75
479.002	475.75
479.22	473.75
479.439	489.75
479.658	504.75
479.876	511.75
480.095	535.75
480.313	547.75
480.532	537.75
480.751	533.75
480.969	540.75
481.188	564.75
481.406	596.75
481.624	543.75
481.843	516.75
482.061	521.75
482.28	495.75
482.498	487.75
482.717	494.75
482.935	497.75
483.153	494.75
483.372	501.75
483.59	487.75
483.808	499.75
484.027	491.75
484.245	505.75
484.463	500.75
484.681	508.75
484.9	514.75
485.118	504.75
485.336	495.75
485.554	522.75
485.772	516.75
485.99	497.75
486.209	521.75
486.427	529.75
486.645	522.75
486.863	528.75
487.081	564.75
487.299	539.75
487.517	509.75
487.735	520.75
487.953	528.75
488.171	519.75
488.389	496.75
488.607	527.75
488.825	505.75
489.043	560.75
489.261	549.75
489.479	547.75
489.696	536.75
489.914	552.75
490.132	526.75
490.35	535.75
490.568	527.75
490.786	545.75
491.003	570.75
491.221	593.75
491.439	561.75
491.657	569.75
491.874	593.75
492.092	599.75
492.31	601.75
492.527	583.75
492.745	598.75
492.963	583.75
493.18	585.75
493.398	613.75
493.615	613.75
493.833	628.75
494.05	600.75
494.268	637.75
494.485	623.75
494.703	603.75
494.92	606.75
495.138	600.75
495.355	613.75
495.573	624.75
495.79	610.75
496.008	620.75
496.225	607.75
496.442	595.75
496.66	604.75
496.877	613.75
497.094	608.75
497.312	632.75
497.529	659.75
497.746	630.75
497.963	653.75
498.181	682.75
498.398	685.75
498.615	705.75
498.832	703.75
499.049	720.75
499.267	748.75
499.484	787.75
499.701	819.75
499.918	856.75
500.135	901.75
500.352	919.75
500.569	941.75
500.786	953.75
501.003	923.75
501.22	895.75
501.437	866.75
501.654	825.75
501.871	821.75
