Data from 1964.PennyLincolnUp.Lamp.En5.5.200Scan.071719.P1._HRD10591_14-04-25-909.txt Node
Date: Thu Jul 18 14:04:25 EDT 2019
User: cochatt
Spectrometer: HR+D1059
Trigger mode: 1
Integration Time (sec): 1.000000E-1
Scans to average: 1
Electric dark correction enabled: true
Nonlinearity correction enabled: false
Boxcar width: 0
XAxis mode: Wavelengths
Number of Pixels in Spectrum: 2048
>>>>>Begin Spectral Data<<<<<
223.165	-17.75
223.4	-17.75
223.635	-17.75
223.869	-14.75
224.104	-25.75
224.338	-12.75
224.573	4.25
224.808	-14.75
225.042	-0.75
225.277	1.25
225.511	4.25
225.746	-11.75
225.98	-1.75
226.215	3.25
226.449	6.25
226.683	14.25
226.918	34.25
227.152	32.25
227.387	42.25
227.621	26.25
227.856	23.25
228.09	38.25
228.324	50.25
228.559	57.25
228.793	60.25
229.027	80.25
229.262	101.25
229.496	88.25
229.73	110.25
229.964	119.25
230.199	99.25
230.433	93.25
230.667	91.25
230.901	98.25
231.136	115.25
231.37	98.25
231.604	110.25
231.838	83.25
232.072	96.25
232.306	98.25
232.541	107.25
232.775	90.25
233.009	112.25
233.243	115.25
233.477	107.25
233.711	115.25
233.945	117.25
234.179	98.25
234.413	87.25
234.647	101.25
234.881	119.25
235.115	119.25
235.349	118.25
235.583	100.25
235.817	121.25
236.051	106.25
236.285	115.25
236.519	121.25
236.753	125.25
236.987	128.25
237.221	151.25
237.455	176.25
237.689	150.25
237.922	125.25
238.156	104.25
238.39	118.25
238.624	121.25
238.858	116.25
239.091	119.25
239.325	123.25
239.559	112.25
239.793	122.25
240.027	132.25
240.26	125.25
240.494	134.25
240.728	134.25
240.961	125.25
241.195	133.25
241.429	123.25
241.662	126.25
241.896	118.25
242.13	127.25
242.363	111.25
242.597	125.25
242.83	133.25
243.064	130.25
243.298	125.25
243.531	138.25
243.765	131.25
243.998	136.25
244.232	120.25
244.465	149.25
244.699	145.25
244.932	142.25
245.166	132.25
245.399	131.25
245.633	150.25
245.866	145.25
246.099	125.25
246.333	129.25
246.566	134.25
246.8	134.25
247.033	154.25
247.266	152.25
247.5	150.25
247.733	140.25
247.966	144.25
248.2	159.25
248.433	153.25
248.666	159.25
248.899	169.25
249.133	171.25
249.366	190.25
249.599	174.25
249.832	154.25
250.066	162.25
250.299	164.25
250.532	162.25
250.765	193.25
250.998	199.25
251.231	196.25
251.465	186.25
251.698	174.25
251.931	168.25
252.164	181.25
252.397	171.25
252.63	185.25
252.863	184.25
253.096	191.25
253.329	197.25
253.562	199.25
253.795	185.25
254.028	190.25
254.261	188.25
254.494	203.25
254.727	227.25
254.96	234.25
255.193	239.25
255.426	223.25
255.659	208.25
255.892	184.25
256.124	188.25
256.357	190.25
256.59	200.25
256.823	223.25
257.056	201.25
257.289	191.25
257.521	178.25
257.754	187.25
257.987	197.25
258.22	189.25
258.452	187.25
258.685	195.25
258.918	198.25
259.151	203.25
259.383	201.25
259.616	204.25
259.849	183.25
260.081	216.25
260.314	213.25
260.547	218.25
260.779	226.25
261.012	210.25
261.244	222.25
261.477	229.25
261.71	214.25
261.942	211.25
262.175	221.25
262.407	218.25
262.64	220.25
262.872	210.25
263.105	209.25
263.337	201.25
263.57	199.25
263.802	193.25
264.035	203.25
264.267	200.25
264.499	201.25
264.732	220.25
264.964	186.25
265.197	208.25
265.429	202.25
265.661	217.25
265.894	215.25
266.126	216.25
266.358	208.25
266.591	225.25
266.823	233.25
267.055	215.25
267.287	216.25
267.52	218.25
267.752	217.25
267.984	222.25
268.216	228.25
268.448	225.25
268.681	221.25
268.913	242.25
269.145	247.25
269.377	264.25
269.609	265.25
269.841	268.25
270.073	276.25
270.306	281.25
270.538	272.25
270.77	270.25
271.002	265.25
271.234	279.25
271.466	273.25
271.698	285.25
271.93	288.25
272.162	294.25
272.394	278.25
272.626	279.25
272.858	278.25
273.09	273.25
273.322	263.25
273.553	255.25
273.785	264.25
274.017	266.25
274.249	245.25
274.481	265.25
274.713	258.25
274.945	257.25
275.176	277.25
275.408	266.25
275.64	251.25
275.872	246.25
276.104	265.25
276.335	247.25
276.567	259.25
276.799	259.25
277.031	274.25
277.262	306.25
277.494	291.25
277.726	293.25
277.957	301.25
278.189	281.25
278.421	274.25
278.652	285.25
278.884	265.25
279.115	281.25
279.347	273.25
279.579	281.25
279.81	269.25
280.042	273.25
280.273	257.25
280.505	274.25
280.736	275.25
280.968	289.25
281.199	269.25
281.431	277.25
281.662	277.25
281.894	273.25
282.125	279.25
282.356	290.25
282.588	277.25
282.819	306.25
283.051	286.25
283.282	277.25
283.513	290.25
283.745	281.25
283.976	287.25
284.207	282.25
284.439	301.25
284.67	305.25
284.901	294.25
285.132	286.25
285.364	294.25
285.595	285.25
285.826	279.25
286.057	312.25
286.288	288.25
286.52	282.25
286.751	296.25
286.982	294.25
287.213	281.25
287.444	311.25
287.675	299.25
287.906	319.25
288.138	299.25
288.369	322.25
288.6	311.25
288.831	305.25
289.062	311.25
289.293	294.25
289.524	301.25
289.755	309.25
289.986	297.25
290.217	279.25
290.448	298.25
290.679	298.25
290.91	298.25
291.141	319.25
291.371	307.25
291.602	303.25
291.833	282.25
292.064	302.25
292.295	305.25
292.526	298.25
292.757	302.25
292.987	292.25
293.218	301.25
293.449	319.25
293.68	301.25
293.91	315.25
294.141	298.25
294.372	294.25
294.603	312.25
294.833	302.25
295.064	302.25
295.295	312.25
295.525	318.25
295.756	307.25
295.987	325.25
296.217	311.25
296.448	326.25
296.679	310.25
296.909	307.25
297.14	325.25
297.37	311.25
297.601	311.25
297.831	321.25
298.062	317.25
298.292	313.25
298.523	321.25
298.753	310.25
298.984	319.25
299.214	328.25
299.445	312.25
299.675	321.25
299.905	337.25
300.136	320.25
300.366	325.25
300.597	312.25
300.827	321.25
301.057	338.25
301.288	365.25
301.518	331.25
301.748	340.25
301.979	349.25
302.209	354.25
302.439	338.25
302.669	358.25
302.9	333.25
303.13	314.25
303.36	339.25
303.59	335.25
303.82	357.25
304.051	321.25
304.281	345.25
304.511	318.25
304.741	345.25
304.971	351.25
305.201	345.25
305.431	330.25
305.661	344.25
305.891	342.25
306.121	363.25
306.352	337.25
306.582	339.25
306.812	341.25
307.042	344.25
307.272	342.25
307.502	331.25
307.731	347.25
307.961	356.25
308.191	345.25
308.421	341.25
308.651	330.25
308.881	341.25
309.111	327.25
309.341	330.25
309.571	344.25
309.8	367.25
310.03	367.25
310.26	371.25
310.49	371.25
310.72	372.25
310.949	377.25
311.179	372.25
311.409	359.25
311.639	377.25
311.868	357.25
312.098	379.25
312.328	379.25
312.557	369.25
312.787	381.25
313.017	381.25
313.246	390.25
313.476	367.25
313.706	384.25
313.935	394.25
314.165	386.25
314.394	408.25
314.624	393.25
314.853	387.25
315.083	376.25
315.312	388.25
315.542	396.25
315.771	389.25
316.001	374.25
316.23	366.25
316.46	381.25
316.689	378.25
316.919	377.25
317.148	396.25
317.377	381.25
317.607	393.25
317.836	360.25
318.065	359.25
318.295	376.25
318.524	377.25
318.753	366.25
318.983	373.25
319.212	373.25
319.441	378.25
319.67	378.25
319.9	374.25
320.129	369.25
320.358	401.25
320.587	389.25
320.816	385.25
321.046	375.25
321.275	387.25
321.504	378.25
321.733	391.25
321.962	402.25
322.191	418.25
322.42	399.25
322.649	422.25
322.878	435.25
323.108	430.25
323.337	435.25
323.566	446.25
323.795	447.25
324.024	462.25
324.253	538.25
324.482	687.25
324.71	1030.25
324.939	1384.25
325.168	1148.25
325.397	670.25
325.626	521.25
325.855	449.25
326.084	435.25
326.313	437.25
326.542	436.25
326.77	461.25
326.999	538.25
327.228	681.25
327.457	906.25
327.686	1020.25
327.914	765.25
328.143	538.25
328.372	486.25
328.6	467.25
328.829	452.25
329.058	471.25
329.287	479.25
329.515	473.25
329.744	465.25
329.972	436.25
330.201	464.25
330.43	497.25
330.658	515.25
330.887	521.25
331.115	502.25
331.344	477.25
331.572	433.25
331.801	447.25
332.03	470.25
332.258	430.25
332.486	441.25
332.715	435.25
332.943	457.25
333.172	464.25
333.4	470.25
333.629	472.25
333.857	469.25
334.085	468.25
334.314	490.25
334.542	493.25
334.771	497.25
334.999	451.25
335.227	469.25
335.455	465.25
335.684	465.25
335.912	439.25
336.14	455.25
336.369	444.25
336.597	446.25
336.825	434.25
337.053	444.25
337.281	432.25
337.51	442.25
337.738	423.25
337.966	418.25
338.194	448.25
338.422	446.25
338.65	442.25
338.878	433.25
339.106	441.25
339.334	441.25
339.562	432.25
339.79	421.25
340.018	435.25
340.246	427.25
340.474	425.25
340.702	423.25
340.93	422.25
341.158	394.25
341.386	431.25
341.614	403.25
341.842	399.25
342.07	401.25
342.298	414.25
342.526	416.25
342.754	414.25
342.981	404.25
343.209	420.25
343.437	424.25
343.665	442.25
343.893	445.25
344.12	445.25
344.348	430.25
344.576	444.25
344.804	416.25
345.031	424.25
345.259	424.25
345.487	429.25
345.714	404.25
345.942	405.25
346.17	406.25
346.397	394.25
346.625	391.25
346.853	385.25
347.08	373.25
347.308	374.25
347.535	389.25
347.763	425.25
347.99	399.25
348.218	403.25
348.445	414.25
348.673	401.25
348.9	389.25
349.128	399.25
349.355	398.25
349.583	362.25
349.81	381.25
350.037	391.25
350.265	395.25
350.492	383.25
350.72	387.25
350.947	377.25
351.174	401.25
351.402	377.25
351.629	389.25
351.856	403.25
352.083	405.25
352.311	419.25
352.538	388.25
352.765	395.25
352.992	398.25
353.22	391.25
353.447	375.25
353.674	392.25
353.901	370.25
354.128	371.25
354.355	380.25
354.583	369.25
354.81	355.25
355.037	370.25
355.264	389.25
355.491	369.25
355.718	370.25
355.945	366.25
356.172	376.25
356.399	375.25
356.626	356.25
356.853	393.25
357.08	373.25
357.307	383.25
357.534	373.25
357.761	352.25
357.988	362.25
358.215	375.25
358.441	382.25
358.668	374.25
358.895	371.25
359.122	386.25
359.349	385.25
359.576	396.25
359.802	401.25
360.029	396.25
360.256	388.25
360.483	410.25
360.709	394.25
360.936	385.25
361.163	394.25
361.39	419.25
361.616	411.25
361.843	391.25
362.07	370.25
362.296	396.25
362.523	388.25
362.749	378.25
362.976	367.25
363.203	392.25
363.429	367.25
363.656	371.25
363.882	390.25
364.109	369.25
364.335	372.25
364.562	391.25
364.788	369.25
365.015	371.25
365.241	357.25
365.468	369.25
365.694	353.25
365.92	381.25
366.147	379.25
366.373	371.25
366.599	359.25
366.826	373.25
367.052	381.25
367.278	366.25
367.505	358.25
367.731	355.25
367.957	373.25
368.184	395.25
368.41	377.25
368.636	374.25
368.862	373.25
369.089	381.25
369.315	365.25
369.541	354.25
369.767	365.25
369.993	381.25
370.219	375.25
370.445	382.25
370.672	381.25
370.898	369.25
371.124	386.25
371.35	399.25
371.576	357.25
371.802	375.25
372.028	369.25
372.254	382.25
372.48	390.25
372.706	388.25
372.932	362.25
373.158	389.25
373.384	362.25
373.61	362.25
373.835	372.25
374.061	393.25
374.287	385.25
374.513	391.25
374.739	379.25
374.965	365.25
375.191	381.25
375.416	373.25
375.642	374.25
375.868	370.25
376.094	361.25
376.319	385.25
376.545	360.25
376.771	365.25
376.997	367.25
377.222	374.25
377.448	379.25
377.674	361.25
377.899	363.25
378.125	372.25
378.35	381.25
378.576	366.25
378.802	354.25
379.027	354.25
379.253	376.25
379.478	371.25
379.704	362.25
379.929	378.25
380.155	392.25
380.38	385.25
380.606	381.25
380.831	369.25
381.057	362.25
381.282	356.25
381.507	375.25
381.733	370.25
381.958	379.25
382.184	408.25
382.409	366.25
382.634	381.25
382.86	375.25
383.085	375.25
383.31	388.25
383.535	374.25
383.761	394.25
383.986	374.25
384.211	376.25
384.436	393.25
384.662	400.25
384.887	402.25
385.112	394.25
385.337	383.25
385.562	410.25
385.787	429.25
386.013	406.25
386.238	392.25
386.463	392.25
386.688	412.25
386.913	420.25
387.138	406.25
387.363	396.25
387.588	382.25
387.813	406.25
388.038	409.25
388.263	416.25
388.488	381.25
388.713	414.25
388.938	411.25
389.163	428.25
389.387	403.25
389.612	405.25
389.837	393.25
390.062	392.25
390.287	407.25
390.512	398.25
390.736	390.25
390.961	414.25
391.186	408.25
391.411	433.25
391.636	411.25
391.86	405.25
392.085	413.25
392.31	431.25
392.534	428.25
392.759	405.25
392.984	429.25
393.208	398.25
393.433	395.25
393.658	409.25
393.882	399.25
394.107	396.25
394.331	430.25
394.556	408.25
394.78	407.25
395.005	414.25
395.229	411.25
395.454	455.25
395.678	425.25
395.903	416.25
396.127	434.25
396.352	436.25
396.576	413.25
396.801	403.25
397.025	430.25
397.249	413.25
397.474	437.25
397.698	438.25
397.922	454.25
398.147	446.25
398.371	460.25
398.595	450.25
398.82	455.25
399.044	496.25
399.268	487.25
399.492	523.25
399.717	534.25
399.941	568.25
400.165	567.25
400.389	541.25
400.613	519.25
400.837	489.25
401.062	471.25
401.286	465.25
401.51	465.25
401.734	466.25
401.958	464.25
402.182	465.25
402.406	468.25
402.63	461.25
402.854	460.25
403.078	477.25
403.302	476.25
403.526	485.25
403.75	464.25
403.974	472.25
404.198	485.25
404.422	468.25
404.645	474.25
404.869	482.25
405.093	485.25
405.317	533.25
405.541	535.25
405.765	545.25
405.988	497.25
406.212	479.25
406.436	502.25
406.66	505.25
406.883	498.25
407.107	517.25
407.331	543.25
407.555	602.25
407.778	593.25
408.002	553.25
408.226	507.25
408.449	512.25
408.673	531.25
408.896	527.25
409.12	524.25
409.344	531.25
409.567	495.25
409.791	465.25
410.014	472.25
410.238	462.25
410.461	459.25
410.685	475.25
410.908	484.25
411.132	501.25
411.355	538.25
411.578	487.25
411.802	455.25
412.025	456.25
412.249	479.25
412.472	479.25
412.695	526.25
412.919	499.25
413.142	464.25
413.365	455.25
413.589	455.25
413.812	441.25
414.035	446.25
414.258	444.25
414.482	442.25
414.705	437.25
414.928	455.25
415.151	456.25
415.374	426.25
415.597	442.25
415.821	443.25
416.044	434.25
416.267	423.25
416.49	452.25
416.713	430.25
416.936	433.25
417.159	438.25
417.382	455.25
417.605	426.25
417.828	427.25
418.051	451.25
418.274	448.25
418.497	434.25
418.72	423.25
418.943	439.25
419.166	446.25
419.389	449.25
419.611	476.25
419.834	465.25
420.057	457.25
420.28	465.25
420.503	443.25
420.726	452.25
420.948	456.25
421.171	489.25
421.394	498.25
421.617	449.25
421.839	419.25
422.062	447.25
422.285	458.25
422.507	501.25
422.73	533.25
422.953	514.25
423.175	469.25
423.398	468.25
423.621	445.25
423.843	482.25
424.066	497.25
424.288	469.25
424.511	487.25
424.733	511.25
424.956	573.25
425.178	566.25
425.401	565.25
425.623	569.25
425.846	489.25
426.068	478.25
426.291	458.25
426.513	469.25
426.735	458.25
426.958	489.25
427.18	541.25
427.402	612.25
427.625	680.25
427.847	579.25
428.069	504.25
428.292	462.25
428.514	454.25
428.736	435.25
428.958	455.25
429.181	430.25
429.403	422.25
429.625	425.25
429.847	448.25
430.069	513.25
430.292	478.25
430.514	438.25
430.736	419.25
430.958	428.25
431.18	421.25
431.402	407.25
431.624	398.25
431.846	407.25
432.068	385.25
432.29	393.25
432.512	420.25
432.734	414.25
432.956	390.25
433.178	439.25
433.4	404.25
433.622	417.25
433.844	438.25
434.066	407.25
434.287	393.25
434.509	449.25
434.731	407.25
434.953	435.25
435.175	441.25
435.397	447.25
435.618	454.25
435.84	481.25
436.062	527.25
436.284	554.25
436.505	482.25
436.727	465.25
436.949	438.25
437.17	415.25
437.392	437.25
437.614	421.25
437.835	439.25
438.057	516.25
438.278	585.25
438.5	559.25
438.721	629.25
438.943	597.25
439.165	471.25
439.386	465.25
439.608	449.25
439.829	438.25
440.05	469.25
440.272	475.25
440.493	466.25
440.715	447.25
440.936	427.25
441.158	419.25
441.379	435.25
441.6	438.25
441.822	457.25
442.043	477.25
442.264	511.25
442.486	547.25
442.707	495.25
442.928	451.25
443.149	477.25
443.371	480.25
443.592	507.25
443.813	566.25
444.034	638.25
444.255	517.25
444.476	480.25
444.698	463.25
444.919	460.25
445.14	609.25
445.361	550.25
445.582	477.25
445.803	519.25
446.024	584.25
446.245	591.25
446.466	533.25
446.687	456.25
446.908	441.25
447.129	426.25
447.35	417.25
447.571	421.25
447.792	407.25
448.013	441.25
448.234	429.25
448.455	463.25
448.675	521.25
448.896	609.25
449.117	502.25
449.338	515.25
449.559	577.25
449.779	630.25
450	504.25
450.221	445.25
450.442	443.25
450.662	426.25
450.883	395.25
451.104	395.25
451.324	422.25
451.545	400.25
451.766	367.25
451.986	385.25
452.207	359.25
452.428	375.25
452.648	376.25
452.869	369.25
453.089	390.25
453.31	381.25
453.53	380.25
453.751	361.25
453.971	363.25
454.192	378.25
454.412	365.25
454.633	370.25
454.853	356.25
455.073	369.25
455.294	389.25
455.514	426.25
455.734	415.25
455.955	387.25
456.175	377.25
456.395	361.25
456.616	352.25
456.836	347.25
457.056	365.25
457.276	359.25
457.497	377.25
457.717	349.25
457.937	363.25
458.157	358.25
458.377	354.25
458.598	391.25
458.818	411.25
459.038	448.25
459.258	465.25
459.478	411.25
459.698	399.25
459.918	413.25
460.138	418.25
460.358	413.25
460.578	426.25
460.798	428.25
461.018	437.25
461.238	429.25
461.458	418.25
461.678	391.25
461.898	419.25
462.118	426.25
462.338	442.25
462.558	450.25
462.777	459.25
462.997	449.25
463.217	478.25
463.437	481.25
463.657	468.25
463.876	450.25
464.096	468.25
464.316	461.25
464.536	466.25
464.755	442.25
464.975	431.25
465.195	459.25
465.414	456.25
465.634	442.25
465.854	429.25
466.073	406.25
466.293	387.25
466.512	416.25
466.732	372.25
466.951	394.25
467.171	384.25
467.391	389.25
467.61	401.25
467.829	400.25
468.049	415.25
468.268	382.25
468.488	374.25
468.707	381.25
468.927	380.25
469.146	383.25
469.365	374.25
469.585	365.25
469.804	374.25
470.023	402.25
470.243	393.25
470.462	377.25
470.681	387.25
470.901	401.25
471.12	394.25
471.339	394.25
471.558	390.25
471.777	377.25
471.997	387.25
472.216	395.25
472.435	425.25
472.654	375.25
472.873	391.25
473.092	398.25
473.311	377.25
473.53	376.25
473.749	398.25
473.968	428.25
474.187	481.25
474.406	502.25
474.625	424.25
474.844	401.25
475.063	393.25
475.282	397.25
475.501	391.25
475.72	398.25
475.939	388.25
476.158	395.25
476.377	411.25
476.596	409.25
476.814	431.25
477.033	405.25
477.252	446.25
477.471	412.25
477.69	426.25
477.908	442.25
478.127	437.25
478.346	424.25
478.564	433.25
478.783	430.25
479.002	456.25
479.22	449.25
479.439	469.25
479.658	470.25
479.876	483.25
480.095	451.25
480.313	485.25
480.532	467.25
480.751	480.25
480.969	478.25
481.188	510.25
481.406	483.25
481.624	457.25
481.843	456.25
482.061	453.25
482.28	468.25
482.498	442.25
482.717	451.25
482.935	449.25
483.153	436.25
483.372	439.25
483.59	445.25
483.808	447.25
484.027	467.25
484.245	456.25
484.463	437.25
484.681	463.25
484.9	453.25
485.118	449.25
485.336	445.25
485.554	479.25
485.772	462.25
485.99	446.25
486.209	467.25
486.427	451.25
486.645	459.25
486.863	471.25
487.081	470.25
487.299	450.25
487.517	480.25
487.735	469.25
487.953	478.25
488.171	466.25
488.389	481.25
488.607	478.25
488.825	467.25
489.043	473.25
489.261	488.25
489.479	483.25
489.696	478.25
489.914	472.25
490.132	473.25
490.35	467.25
490.568	495.25
490.786	505.25
491.003	522.25
491.221	509.25
491.439	494.25
491.657	501.25
491.874	525.25
492.092	529.25
492.31	522.25
492.527	523.25
492.745	542.25
492.963	525.25
493.18	545.25
493.398	542.25
493.615	547.25
493.833	545.25
494.05	546.25
494.268	530.25
494.485	535.25
494.703	520.25
494.92	537.25
495.138	544.25
495.355	532.25
495.573	557.25
495.79	565.25
496.008	570.25
496.225	547.25
496.442	546.25
496.66	535.25
496.877	567.25
497.094	571.25
497.312	581.25
497.529	578.25
497.746	582.25
497.963	599.25
498.181	608.25
498.398	635.25
498.615	632.25
498.832	638.25
499.049	660.25
499.267	699.25
499.484	723.25
499.701	774.25
499.918	778.25
500.135	813.25
500.352	846.25
500.569	887.25
500.786	886.25
501.003	835.25
501.22	827.25
501.437	794.25
501.654	749.25
501.871	702.25
502.088	701.25
