Data from 1964.PennyLincolnUp.Lamp.En5.5.200Scan.071719.P1._HRD10591_14-04-45-908.txt Node
Date: Thu Jul 18 14:04:45 EDT 2019
User: cochatt
Spectrometer: HR+D1059
Trigger mode: 1
Integration Time (sec): 1.000000E-1
Scans to average: 1
Electric dark correction enabled: true
Nonlinearity correction enabled: false
Boxcar width: 0
XAxis mode: Wavelengths
Number of Pixels in Spectrum: 2048
>>>>>Begin Spectral Data<<<<<
223.165	-16.88
223.4	-16.88
223.635	-16.88
223.869	-9.88
224.104	-20.88
224.338	-4.88
224.573	-10.88
224.808	-18.88
225.042	-18.88
225.277	-19.88
225.511	9.12
225.746	16.12
225.98	5.12
226.215	8.12
226.449	27.12
226.683	11.12
226.918	15.12
227.152	29.12
227.387	33.12
227.621	28.12
227.856	49.12
228.09	55.12
228.324	51.12
228.559	56.12
228.793	60.12
229.027	81.12
229.262	100.12
229.496	91.12
229.73	111.12
229.964	113.12
230.199	115.12
230.433	104.12
230.667	91.12
230.901	90.12
231.136	105.12
231.37	107.12
231.604	108.12
231.838	112.12
232.072	104.12
232.306	111.12
232.541	105.12
232.775	112.12
233.009	119.12
233.243	116.12
233.477	108.12
233.711	104.12
233.945	115.12
234.179	123.12
234.413	128.12
234.647	109.12
234.881	110.12
235.115	119.12
235.349	123.12
235.583	119.12
235.817	115.12
236.051	116.12
236.285	111.12
236.519	108.12
236.753	125.12
236.987	117.12
237.221	142.12
237.455	183.12
237.689	163.12
237.922	134.12
238.156	132.12
238.39	108.12
238.624	116.12
238.858	116.12
239.091	120.12
239.325	119.12
239.559	125.12
239.793	123.12
240.027	120.12
240.26	131.12
240.494	143.12
240.728	142.12
240.961	134.12
241.195	124.12
241.429	128.12
241.662	142.12
241.896	126.12
242.13	122.12
242.363	118.12
242.597	140.12
242.83	131.12
243.064	135.12
243.298	137.12
243.531	136.12
243.765	146.12
243.998	158.12
244.232	145.12
244.465	135.12
244.699	154.12
244.932	143.12
245.166	141.12
245.399	143.12
245.633	134.12
245.866	148.12
246.099	149.12
246.333	160.12
246.566	153.12
246.8	147.12
247.033	150.12
247.266	140.12
247.5	158.12
247.733	140.12
247.966	169.12
248.2	158.12
248.433	183.12
248.666	164.12
248.899	157.12
249.133	185.12
249.366	208.12
249.599	179.12
249.832	169.12
250.066	170.12
250.299	165.12
250.532	174.12
250.765	173.12
250.998	198.12
251.231	207.12
251.465	203.12
251.698	190.12
251.931	191.12
252.164	205.12
252.397	207.12
252.63	177.12
252.863	193.12
253.096	201.12
253.329	212.12
253.562	207.12
253.795	199.12
254.028	196.12
254.261	207.12
254.494	199.12
254.727	240.12
254.96	251.12
255.193	243.12
255.426	225.12
255.659	230.12
255.892	215.12
256.124	216.12
256.357	220.12
256.59	209.12
256.823	201.12
257.056	197.12
257.289	199.12
257.521	206.12
257.754	188.12
257.987	193.12
258.22	199.12
258.452	181.12
258.685	208.12
258.918	212.12
259.151	205.12
259.383	203.12
259.616	215.12
259.849	204.12
260.081	217.12
260.314	248.12
260.547	247.12
260.779	235.12
261.012	219.12
261.244	224.12
261.477	196.12
261.71	214.12
261.942	209.12
262.175	210.12
262.407	216.12
262.64	202.12
262.872	217.12
263.105	209.12
263.337	202.12
263.57	209.12
263.802	191.12
264.035	224.12
264.267	219.12
264.499	215.12
264.732	210.12
264.964	224.12
265.197	215.12
265.429	203.12
265.661	220.12
265.894	216.12
266.126	215.12
266.358	213.12
266.591	231.12
266.823	229.12
267.055	238.12
267.287	232.12
267.52	231.12
267.752	223.12
267.984	238.12
268.216	231.12
268.448	244.12
268.681	245.12
268.913	248.12
269.145	276.12
269.377	249.12
269.609	259.12
269.841	255.12
270.073	262.12
270.306	259.12
270.538	275.12
270.77	311.12
271.002	270.12
271.234	283.12
271.466	271.12
271.698	292.12
271.93	295.12
272.162	309.12
272.394	299.12
272.626	266.12
272.858	271.12
273.09	250.12
273.322	269.12
273.553	263.12
273.785	261.12
274.017	270.12
274.249	256.12
274.481	278.12
274.713	249.12
274.945	272.12
275.176	265.12
275.408	256.12
275.64	272.12
275.872	265.12
276.104	273.12
276.335	265.12
276.567	284.12
276.799	269.12
277.031	291.12
277.262	304.12
277.494	300.12
277.726	279.12
277.957	313.12
278.189	319.12
278.421	281.12
278.652	280.12
278.884	262.12
279.115	271.12
279.347	269.12
279.579	282.12
279.81	271.12
280.042	267.12
280.273	248.12
280.505	270.12
280.736	272.12
280.968	283.12
281.199	273.12
281.431	286.12
281.662	291.12
281.894	278.12
282.125	286.12
282.356	289.12
282.588	292.12
282.819	293.12
283.051	298.12
283.282	289.12
283.513	288.12
283.745	282.12
283.976	289.12
284.207	289.12
284.439	293.12
284.67	285.12
284.901	300.12
285.132	294.12
285.364	286.12
285.595	287.12
285.826	289.12
286.057	296.12
286.288	283.12
286.52	301.12
286.751	293.12
286.982	299.12
287.213	295.12
287.444	308.12
287.675	286.12
287.906	297.12
288.138	316.12
288.369	292.12
288.6	317.12
288.831	306.12
289.062	319.12
289.293	323.12
289.524	304.12
289.755	297.12
289.986	309.12
290.217	303.12
290.448	315.12
290.679	309.12
290.91	312.12
291.141	289.12
291.371	312.12
291.602	304.12
291.833	311.12
292.064	303.12
292.295	297.12
292.526	285.12
292.757	304.12
292.987	300.12
293.218	308.12
293.449	313.12
293.68	303.12
293.91	311.12
294.141	309.12
294.372	304.12
294.603	299.12
294.833	304.12
295.064	320.12
295.295	312.12
295.525	308.12
295.756	312.12
295.987	316.12
296.217	328.12
296.448	337.12
296.679	315.12
296.909	307.12
297.14	306.12
297.37	329.12
297.601	305.12
297.831	328.12
298.062	331.12
298.292	318.12
298.523	321.12
298.753	313.12
298.984	332.12
299.214	314.12
299.445	322.12
299.675	313.12
299.905	319.12
300.136	327.12
300.366	336.12
300.597	317.12
300.827	332.12
301.057	334.12
301.288	352.12
301.518	339.12
301.748	326.12
301.979	325.12
302.209	319.12
302.439	336.12
302.669	343.12
302.9	345.12
303.13	336.12
303.36	342.12
303.59	317.12
303.82	347.12
304.051	328.12
304.281	335.12
304.511	343.12
304.741	333.12
304.971	333.12
305.201	350.12
305.431	341.12
305.661	337.12
305.891	351.12
306.121	336.12
306.352	351.12
306.582	358.12
306.812	347.12
307.042	334.12
307.272	351.12
307.502	327.12
307.731	361.12
307.961	340.12
308.191	349.12
308.421	337.12
308.651	339.12
308.881	363.12
309.111	338.12
309.341	345.12
309.571	361.12
309.8	360.12
310.03	358.12
310.26	381.12
310.49	359.12
310.72	381.12
310.949	377.12
311.179	380.12
311.409	377.12
311.639	353.12
311.868	365.12
312.098	368.12
312.328	375.12
312.557	379.12
312.787	395.12
313.017	374.12
313.246	395.12
313.476	365.12
313.706	369.12
313.935	379.12
314.165	383.12
314.394	400.12
314.624	389.12
314.853	373.12
315.083	390.12
315.312	371.12
315.542	385.12
315.771	354.12
316.001	381.12
316.23	395.12
316.46	367.12
316.689	400.12
316.919	376.12
317.148	387.12
317.377	375.12
317.607	371.12
317.836	391.12
318.065	391.12
318.295	371.12
318.524	377.12
318.753	384.12
318.983	383.12
319.212	391.12
319.441	380.12
319.67	363.12
319.9	392.12
320.129	383.12
320.358	356.12
320.587	369.12
320.816	375.12
321.046	382.12
321.275	380.12
321.504	381.12
321.733	397.12
321.962	409.12
322.191	389.12
322.42	385.12
322.649	411.12
322.878	402.12
323.108	407.12
323.337	413.12
323.566	445.12
323.795	461.12
324.024	476.12
324.253	565.12
324.482	723.12
324.71	1053.12
324.939	1378.12
325.168	1199.12
325.397	656.12
325.626	511.12
325.855	474.12
326.084	443.12
326.313	452.12
326.542	443.12
326.77	479.12
326.999	549.12
327.228	671.12
327.457	942.12
327.686	1048.12
327.914	742.12
328.143	555.12
328.372	515.12
328.6	477.12
328.829	465.12
329.058	485.12
329.287	475.12
329.515	483.12
329.744	453.12
329.972	462.12
330.201	467.12
330.43	505.12
330.658	520.12
330.887	505.12
331.115	514.12
331.344	461.12
331.572	468.12
331.801	447.12
332.03	463.12
332.258	446.12
332.486	434.12
332.715	479.12
332.943	453.12
333.172	462.12
333.4	462.12
333.629	459.12
333.857	463.12
334.085	506.12
334.314	506.12
334.542	521.12
334.771	515.12
334.999	472.12
335.227	475.12
335.455	442.12
335.684	455.12
335.912	463.12
336.14	443.12
336.369	435.12
336.597	429.12
336.825	435.12
337.053	431.12
337.281	441.12
337.51	436.12
337.738	435.12
337.966	438.12
338.194	451.12
338.422	427.12
338.65	439.12
338.878	427.12
339.106	422.12
339.334	420.12
339.562	415.12
339.79	422.12
340.018	448.12
340.246	401.12
340.474	415.12
340.702	411.12
340.93	424.12
341.158	412.12
341.386	425.12
341.614	416.12
341.842	413.12
342.07	435.12
342.298	399.12
342.526	415.12
342.754	398.12
342.981	405.12
343.209	422.12
343.437	426.12
343.665	438.12
343.893	446.12
344.12	445.12
344.348	468.12
344.576	429.12
344.804	421.12
345.031	415.12
345.259	436.12
345.487	419.12
345.714	413.12
345.942	426.12
346.17	389.12
346.397	391.12
346.625	393.12
346.853	384.12
347.08	395.12
347.308	399.12
347.535	379.12
347.763	409.12
347.99	384.12
348.218	397.12
348.445	413.12
348.673	398.12
348.9	395.12
349.128	387.12
349.355	385.12
349.583	393.12
349.81	407.12
350.037	373.12
350.265	406.12
350.492	395.12
350.72	385.12
350.947	387.12
351.174	384.12
351.402	399.12
351.629	395.12
351.856	392.12
352.083	390.12
352.311	409.12
352.538	416.12
352.765	408.12
352.992	424.12
353.22	384.12
353.447	377.12
353.674	374.12
353.901	381.12
354.128	379.12
354.355	376.12
354.583	383.12
354.81	364.12
355.037	372.12
355.264	379.12
355.491	366.12
355.718	387.12
355.945	383.12
356.172	380.12
356.399	376.12
356.626	391.12
356.853	371.12
357.08	377.12
357.307	390.12
357.534	365.12
357.761	371.12
357.988	345.12
358.215	389.12
358.441	379.12
358.668	378.12
358.895	381.12
359.122	366.12
359.349	375.12
359.576	395.12
359.802	394.12
360.029	388.12
360.256	408.12
360.483	402.12
360.709	376.12
360.936	391.12
361.163	379.12
361.39	369.12
361.616	384.12
361.843	369.12
362.07	380.12
362.296	387.12
362.523	356.12
362.749	375.12
362.976	389.12
363.203	372.12
363.429	380.12
363.656	369.12
363.882	373.12
364.109	393.12
364.335	380.12
364.562	383.12
364.788	373.12
365.015	368.12
365.241	389.12
365.468	365.12
365.694	377.12
365.92	372.12
366.147	357.12
366.373	359.12
366.599	369.12
366.826	355.12
367.052	382.12
367.278	370.12
367.505	360.12
367.731	371.12
367.957	355.12
368.184	383.12
368.41	373.12
368.636	383.12
368.862	367.12
369.089	367.12
369.315	366.12
369.541	372.12
369.767	383.12
369.993	379.12
370.219	385.12
370.445	380.12
370.672	377.12
370.898	383.12
371.124	336.12
371.35	377.12
371.576	375.12
371.802	367.12
372.028	379.12
372.254	395.12
372.48	392.12
372.706	393.12
372.932	390.12
373.158	386.12
373.384	391.12
373.61	389.12
373.835	372.12
374.061	377.12
374.287	392.12
374.513	382.12
374.739	390.12
374.965	391.12
375.191	397.12
375.416	383.12
375.642	377.12
375.868	374.12
376.094	387.12
376.319	368.12
376.545	368.12
376.771	377.12
376.997	377.12
377.222	352.12
377.448	342.12
377.674	367.12
377.899	376.12
378.125	381.12
378.35	362.12
378.576	379.12
378.802	375.12
379.027	367.12
379.253	380.12
379.478	356.12
379.704	343.12
379.929	357.12
380.155	354.12
380.38	353.12
380.606	383.12
380.831	359.12
381.057	391.12
381.282	357.12
381.507	376.12
381.733	377.12
381.958	371.12
382.184	358.12
382.409	400.12
382.634	387.12
382.86	386.12
383.085	377.12
383.31	389.12
383.535	394.12
383.761	381.12
383.986	379.12
384.211	390.12
384.436	403.12
384.662	397.12
384.887	406.12
385.112	408.12
385.337	394.12
385.562	388.12
385.787	404.12
386.013	407.12
386.238	416.12
386.463	398.12
386.688	397.12
386.913	396.12
387.138	380.12
387.363	423.12
387.588	393.12
387.813	413.12
388.038	403.12
388.263	419.12
388.488	404.12
388.713	404.12
388.938	391.12
389.163	401.12
389.387	412.12
389.612	411.12
389.837	403.12
390.062	419.12
390.287	409.12
390.512	397.12
390.736	405.12
390.961	414.12
391.186	399.12
391.411	395.12
391.636	408.12
391.86	429.12
392.085	435.12
392.31	419.12
392.534	407.12
392.759	411.12
392.984	411.12
393.208	398.12
393.433	408.12
393.658	404.12
393.882	415.12
394.107	416.12
394.331	414.12
394.556	399.12
394.78	404.12
395.005	402.12
395.229	407.12
395.454	419.12
395.678	414.12
395.903	413.12
396.127	431.12
396.352	433.12
396.576	416.12
396.801	431.12
397.025	433.12
397.249	429.12
397.474	432.12
397.698	427.12
397.922	436.12
398.147	453.12
398.371	436.12
398.595	444.12
398.82	428.12
399.044	467.12
399.268	480.12
399.492	533.12
399.717	548.12
399.941	575.12
400.165	557.12
400.389	569.12
400.613	510.12
400.837	476.12
401.062	457.12
401.286	464.12
401.51	477.12
401.734	462.12
401.958	460.12
402.182	450.12
402.406	462.12
402.63	442.12
402.854	466.12
403.078	469.12
403.302	487.12
403.526	481.12
403.75	476.12
403.974	462.12
404.198	485.12
404.422	464.12
404.645	485.12
404.869	488.12
405.093	488.12
405.317	511.12
405.541	549.12
405.765	541.12
405.988	511.12
406.212	494.12
406.436	498.12
406.66	531.12
406.883	492.12
407.107	529.12
407.331	554.12
407.555	599.12
407.778	573.12
408.002	543.12
408.226	497.12
408.449	491.12
408.673	504.12
408.896	541.12
409.12	529.12
409.344	511.12
409.567	488.12
409.791	463.12
410.014	457.12
410.238	461.12
410.461	460.12
410.685	477.12
410.908	456.12
411.132	508.12
411.355	508.12
411.578	509.12
411.802	454.12
412.025	448.12
412.249	460.12
412.472	511.12
412.695	509.12
412.919	504.12
413.142	467.12
413.365	431.12
413.589	461.12
413.812	422.12
414.035	439.12
414.258	440.12
414.482	444.12
414.705	438.12
414.928	438.12
415.151	450.12
415.374	453.12
415.597	437.12
415.821	447.12
416.044	432.12
416.267	417.12
416.49	433.12
416.713	420.12
416.936	424.12
417.159	427.12
417.382	430.12
417.605	436.12
417.828	453.12
418.051	467.12
418.274	461.12
418.497	430.12
418.72	420.12
418.943	421.12
419.166	466.12
419.389	460.12
419.611	469.12
419.834	461.12
420.057	455.12
420.28	445.12
420.503	463.12
420.726	458.12
420.948	446.12
421.171	510.12
421.394	491.12
421.617	474.12
421.839	447.12
422.062	453.12
422.285	457.12
422.507	496.12
422.73	537.12
422.953	528.12
423.175	487.12
423.398	455.12
423.621	444.12
423.843	461.12
424.066	463.12
424.288	459.12
424.511	479.12
424.733	517.12
424.956	560.12
425.178	546.12
425.401	534.12
425.623	550.12
425.846	494.12
426.068	448.12
426.291	455.12
426.513	440.12
426.735	476.12
426.958	488.12
427.18	556.12
427.402	652.12
427.625	703.12
427.847	581.12
428.069	522.12
428.292	489.12
428.514	443.12
428.736	439.12
428.958	445.12
429.181	437.12
429.403	443.12
429.625	439.12
429.847	441.12
430.069	519.12
430.292	493.12
430.514	446.12
430.736	439.12
430.958	438.12
431.18	417.12
431.402	425.12
431.624	399.12
431.846	421.12
432.068	402.12
432.29	413.12
432.512	415.12
432.734	411.12
432.956	420.12
433.178	445.12
433.4	451.12
433.622	409.12
433.844	413.12
434.066	421.12
434.287	423.12
434.509	427.12
434.731	414.12
434.953	435.12
435.175	441.12
435.397	448.12
435.618	453.12
435.84	459.12
436.062	529.12
436.284	563.12
436.505	488.12
436.727	473.12
436.949	424.12
437.17	408.12
437.392	422.12
437.614	427.12
437.835	444.12
438.057	492.12
438.278	585.12
438.5	568.12
438.721	604.12
438.943	592.12
439.165	483.12
439.386	441.12
439.608	454.12
439.829	458.12
440.05	470.12
440.272	506.12
440.493	465.12
440.715	455.12
440.936	440.12
441.158	424.12
441.379	436.12
441.6	443.12
441.822	449.12
442.043	496.12
442.264	537.12
442.486	543.12
442.707	488.12
442.928	487.12
443.149	481.12
443.371	478.12
443.592	502.12
443.813	568.12
444.034	595.12
444.255	529.12
444.476	499.12
444.698	469.12
444.919	456.12
445.14	587.12
445.361	524.12
445.582	482.12
445.803	552.12
446.024	568.12
446.245	570.12
446.466	546.12
446.687	478.12
446.908	457.12
447.129	425.12
447.35	414.12
447.571	423.12
447.792	409.12
448.013	420.12
448.234	432.12
448.455	462.12
448.675	547.12
448.896	605.12
449.117	536.12
449.338	496.12
449.559	572.12
449.779	655.12
450	522.12
450.221	457.12
450.442	411.12
450.662	400.12
450.883	413.12
451.104	395.12
451.324	395.12
451.545	400.12
451.766	389.12
451.986	359.12
452.207	379.12
452.428	375.12
452.648	365.12
452.869	359.12
453.089	377.12
453.31	389.12
453.53	378.12
453.751	374.12
453.971	392.12
454.192	383.12
454.412	397.12
454.633	355.12
454.853	364.12
455.073	368.12
455.294	400.12
455.514	407.12
455.734	401.12
455.955	365.12
456.175	355.12
456.395	357.12
456.616	345.12
456.836	352.12
457.056	373.12
457.276	349.12
457.497	365.12
457.717	360.12
457.937	361.12
458.157	377.12
458.377	349.12
458.598	369.12
458.818	406.12
459.038	441.12
459.258	465.12
459.478	405.12
459.698	414.12
459.918	393.12
460.138	392.12
460.358	412.12
460.578	403.12
460.798	421.12
461.018	422.12
461.238	431.12
461.458	413.12
461.678	425.12
461.898	411.12
462.118	416.12
462.338	431.12
462.558	438.12
462.777	416.12
462.997	476.12
463.217	474.12
463.437	475.12
463.657	469.12
463.876	471.12
464.096	474.12
464.316	464.12
464.536	445.12
464.755	451.12
464.975	459.12
465.195	440.12
465.414	481.12
465.634	448.12
465.854	424.12
466.073	411.12
466.293	421.12
466.512	396.12
466.732	383.12
466.951	397.12
467.171	384.12
467.391	396.12
467.61	403.12
467.829	387.12
468.049	388.12
468.268	382.12
468.488	389.12
468.707	373.12
468.927	389.12
469.146	384.12
469.365	390.12
469.585	391.12
469.804	396.12
470.023	386.12
470.243	388.12
470.462	391.12
470.681	400.12
470.901	396.12
471.12	379.12
471.339	391.12
471.558	391.12
471.777	387.12
471.997	365.12
472.216	383.12
472.435	419.12
472.654	395.12
472.873	388.12
473.092	398.12
473.311	384.12
473.53	372.12
473.749	408.12
473.968	427.12
474.187	484.12
474.406	488.12
474.625	417.12
474.844	428.12
475.063	398.12
475.282	399.12
475.501	389.12
475.72	396.12
475.939	396.12
476.158	413.12
476.377	408.12
476.596	387.12
476.814	414.12
477.033	427.12
477.252	427.12
477.471	422.12
477.69	401.12
477.908	425.12
478.127	425.12
478.346	428.12
478.564	436.12
478.783	416.12
479.002	435.12
479.22	423.12
479.439	458.12
479.658	470.12
479.876	452.12
480.095	482.12
480.313	466.12
480.532	480.12
480.751	463.12
480.969	486.12
481.188	520.12
481.406	484.12
481.624	482.12
481.843	452.12
482.061	446.12
482.28	461.12
482.498	447.12
482.717	450.12
482.935	449.12
483.153	441.12
483.372	463.12
483.59	446.12
483.808	450.12
484.027	432.12
484.245	457.12
484.463	452.12
484.681	459.12
484.9	456.12
485.118	470.12
485.336	456.12
485.554	454.12
485.772	471.12
485.99	455.12
486.209	461.12
486.427	464.12
486.645	481.12
486.863	487.12
487.081	472.12
487.299	477.12
487.517	483.12
487.735	477.12
487.953	457.12
488.171	475.12
488.389	460.12
488.607	463.12
488.825	495.12
489.043	458.12
489.261	469.12
489.479	487.12
489.696	492.12
489.914	485.12
490.132	480.12
490.35	491.12
490.568	505.12
490.786	500.12
491.003	479.12
491.221	511.12
491.439	502.12
491.657	503.12
491.874	515.12
492.092	537.12
492.31	523.12
492.527	529.12
492.745	525.12
492.963	536.12
493.18	557.12
493.398	548.12
493.615	539.12
493.833	546.12
494.05	533.12
494.268	547.12
494.485	581.12
494.703	549.12
494.92	558.12
495.138	540.12
495.355	535.12
495.573	544.12
495.79	536.12
496.008	540.12
496.225	546.12
496.442	554.12
496.66	541.12
496.877	553.12
497.094	563.12
497.312	574.12
497.529	569.12
497.746	579.12
497.963	603.12
498.181	603.12
498.398	611.12
498.615	647.12
498.832	656.12
499.049	685.12
499.267	709.12
499.484	717.12
499.701	745.12
499.918	775.12
500.135	802.12
500.352	863.12
500.569	847.12
500.786	877.12
501.003	852.12
501.22	824.12
501.437	783.12
501.654	737.12
501.871	721.12
502.088	693.12
