Data from 1964.PennyLincolnUp.Lamp.En5.5.200Scan.071719.P1._HRD10591_14-06-17-911.txt Node
Date: Thu Jul 18 14:06:17 EDT 2019
User: cochatt
Spectrometer: HR+D1059
Trigger mode: 1
Integration Time (sec): 1.000000E-1
Scans to average: 1
Electric dark correction enabled: true
Nonlinearity correction enabled: false
Boxcar width: 0
XAxis mode: Wavelengths
Number of Pixels in Spectrum: 2048
>>>>>Begin Spectral Data<<<<<
223.165	-0.12
223.4	-0.12
223.635	-0.12
223.869	-8.12
224.104	-28.12
224.338	-6.12
224.573	-25.12
224.808	-28.12
225.042	-2.12
225.277	-1.12
225.511	-3.12
225.746	3.88
225.98	14.88
226.215	15.88
226.449	11.88
226.683	5.88
226.918	12.88
227.152	36.88
227.387	43.88
227.621	45.88
227.856	49.88
228.09	43.88
228.324	61.88
228.559	58.88
228.793	64.88
229.027	101.88
229.262	107.88
229.496	96.88
229.73	125.88
229.964	153.88
230.199	133.88
230.433	113.88
230.667	105.88
230.901	106.88
231.136	119.88
231.37	93.88
231.604	100.88
231.838	112.88
232.072	118.88
232.306	123.88
232.541	128.88
232.775	124.88
233.009	110.88
233.243	128.88
233.477	131.88
233.711	126.88
233.945	111.88
234.179	101.88
234.413	116.88
234.647	125.88
234.881	112.88
235.115	128.88
235.349	138.88
235.583	117.88
235.817	124.88
236.051	117.88
236.285	133.88
236.519	125.88
236.753	129.88
236.987	149.88
237.221	173.88
237.455	218.88
237.689	162.88
237.922	136.88
238.156	137.88
238.39	144.88
238.624	123.88
238.858	133.88
239.091	124.88
239.325	129.88
239.559	139.88
239.793	121.88
240.027	124.88
240.26	135.88
240.494	158.88
240.728	136.88
240.961	159.88
241.195	136.88
241.429	145.88
241.662	154.88
241.896	148.88
242.13	145.88
242.363	143.88
242.597	135.88
242.83	140.88
243.064	151.88
243.298	156.88
243.531	154.88
243.765	142.88
243.998	151.88
244.232	144.88
244.465	156.88
244.699	157.88
244.932	153.88
245.166	160.88
245.399	148.88
245.633	162.88
245.866	154.88
246.099	152.88
246.333	154.88
246.566	169.88
246.8	165.88
247.033	168.88
247.266	156.88
247.5	168.88
247.733	173.88
247.966	158.88
248.2	165.88
248.433	170.88
248.666	176.88
248.899	191.88
249.133	198.88
249.366	204.88
249.599	208.88
249.832	197.88
250.066	196.88
250.299	177.88
250.532	202.88
250.765	212.88
250.998	239.88
251.231	238.88
251.465	226.88
251.698	206.88
251.931	210.88
252.164	208.88
252.397	198.88
252.63	224.88
252.863	220.88
253.096	235.88
253.329	226.88
253.562	234.88
253.795	226.88
254.028	216.88
254.261	216.88
254.494	226.88
254.727	255.88
254.96	287.88
255.193	276.88
255.426	263.88
255.659	246.88
255.892	253.88
256.124	255.88
256.357	258.88
256.59	234.88
256.823	218.88
257.056	218.88
257.289	239.88
257.521	246.88
257.754	240.88
257.987	235.88
258.22	215.88
258.452	232.88
258.685	217.88
258.918	223.88
259.151	239.88
259.383	225.88
259.616	237.88
259.849	248.88
260.081	249.88
260.314	260.88
260.547	266.88
260.779	264.88
261.012	257.88
261.244	229.88
261.477	230.88
261.71	232.88
261.942	266.88
262.175	248.88
262.407	255.88
262.64	241.88
262.872	225.88
263.105	238.88
263.337	234.88
263.57	235.88
263.802	225.88
264.035	232.88
264.267	237.88
264.499	244.88
264.732	226.88
264.964	236.88
265.197	238.88
265.429	240.88
265.661	236.88
265.894	240.88
266.126	244.88
266.358	237.88
266.591	242.88
266.823	241.88
267.055	255.88
267.287	260.88
267.52	249.88
267.752	249.88
267.984	255.88
268.216	265.88
268.448	280.88
268.681	275.88
268.913	269.88
269.145	293.88
269.377	293.88
269.609	306.88
269.841	295.88
270.073	316.88
270.306	317.88
270.538	339.88
270.77	333.88
271.002	318.88
271.234	317.88
271.466	309.88
271.698	338.88
271.93	349.88
272.162	344.88
272.394	324.88
272.626	333.88
272.858	304.88
273.09	298.88
273.322	301.88
273.553	296.88
273.785	316.88
274.017	280.88
274.249	300.88
274.481	275.88
274.713	308.88
274.945	309.88
275.176	312.88
275.408	292.88
275.64	299.88
275.872	296.88
276.104	311.88
276.335	312.88
276.567	302.88
276.799	321.88
277.031	316.88
277.262	343.88
277.494	357.88
277.726	348.88
277.957	327.88
278.189	329.88
278.421	325.88
278.652	329.88
278.884	312.88
279.115	308.88
279.347	317.88
279.579	317.88
279.81	308.88
280.042	305.88
280.273	294.88
280.505	320.88
280.736	310.88
280.968	303.88
281.199	319.88
281.431	308.88
281.662	303.88
281.894	320.88
282.125	310.88
282.356	324.88
282.588	333.88
282.819	341.88
283.051	310.88
283.282	304.88
283.513	320.88
283.745	319.88
283.976	337.88
284.207	308.88
284.439	314.88
284.67	324.88
284.901	319.88
285.132	320.88
285.364	317.88
285.595	324.88
285.826	347.88
286.057	322.88
286.288	317.88
286.52	332.88
286.751	309.88
286.982	320.88
287.213	319.88
287.444	327.88
287.675	344.88
287.906	336.88
288.138	343.88
288.369	358.88
288.6	342.88
288.831	329.88
289.062	347.88
289.293	320.88
289.524	329.88
289.755	326.88
289.986	331.88
290.217	343.88
290.448	352.88
290.679	342.88
290.91	343.88
291.141	341.88
291.371	350.88
291.602	324.88
291.833	329.88
292.064	342.88
292.295	354.88
292.526	334.88
292.757	324.88
292.987	352.88
293.218	334.88
293.449	342.88
293.68	343.88
293.91	352.88
294.141	345.88
294.372	350.88
294.603	343.88
294.833	342.88
295.064	360.88
295.295	348.88
295.525	331.88
295.756	359.88
295.987	346.88
296.217	356.88
296.448	347.88
296.679	371.88
296.909	343.88
297.14	350.88
297.37	361.88
297.601	344.88
297.831	357.88
298.062	342.88
298.292	361.88
298.523	340.88
298.753	342.88
298.984	351.88
299.214	372.88
299.445	346.88
299.675	360.88
299.905	366.88
300.136	370.88
300.366	373.88
300.597	375.88
300.827	385.88
301.057	374.88
301.288	388.88
301.518	375.88
301.748	407.88
301.979	397.88
302.209	384.88
302.439	370.88
302.669	384.88
302.9	386.88
303.13	372.88
303.36	372.88
303.59	396.88
303.82	398.88
304.051	397.88
304.281	392.88
304.511	387.88
304.741	387.88
304.971	365.88
305.201	386.88
305.431	376.88
305.661	388.88
305.891	383.88
306.121	374.88
306.352	392.88
306.582	396.88
306.812	393.88
307.042	398.88
307.272	382.88
307.502	381.88
307.731	386.88
307.961	405.88
308.191	381.88
308.421	399.88
308.651	411.88
308.881	405.88
309.111	388.88
309.341	398.88
309.571	402.88
309.8	424.88
310.03	414.88
310.26	414.88
310.49	412.88
310.72	433.88
310.949	463.88
311.179	422.88
311.409	438.88
311.639	433.88
311.868	414.88
312.098	410.88
312.328	446.88
312.557	423.88
312.787	418.88
313.017	429.88
313.246	453.88
313.476	417.88
313.706	436.88
313.935	408.88
314.165	423.88
314.394	447.88
314.624	432.88
314.853	448.88
315.083	436.88
315.312	449.88
315.542	424.88
315.771	434.88
316.001	433.88
316.23	447.88
316.46	410.88
316.689	430.88
316.919	437.88
317.148	458.88
317.377	452.88
317.607	430.88
317.836	427.88
318.065	460.88
318.295	437.88
318.524	424.88
318.753	421.88
318.983	450.88
319.212	436.88
319.441	446.88
319.67	437.88
319.9	434.88
320.129	423.88
320.358	421.88
320.587	449.88
320.816	449.88
321.046	457.88
321.275	448.88
321.504	442.88
321.733	424.88
321.962	469.88
322.191	461.88
322.42	477.88
322.649	477.88
322.878	461.88
323.108	487.88
323.337	504.88
323.566	494.88
323.795	524.88
324.024	574.88
324.253	684.88
324.482	906.88
324.71	1329.88
324.939	1866.88
325.168	1574.88
325.397	832.88
325.626	600.88
325.855	544.88
326.084	537.88
326.313	550.88
326.542	528.88
326.77	565.88
326.999	613.88
327.228	825.88
327.457	1196.88
327.686	1362.88
327.914	954.88
328.143	654.88
328.372	611.88
328.6	575.88
328.829	571.88
329.058	559.88
329.287	590.88
329.515	559.88
329.744	546.88
329.972	565.88
330.201	546.88
330.43	570.88
330.658	594.88
330.887	618.88
331.115	588.88
331.344	539.88
331.572	512.88
331.801	543.88
332.03	523.88
332.258	485.88
332.486	486.88
332.715	490.88
332.943	509.88
333.172	538.88
333.4	535.88
333.629	541.88
333.857	570.88
334.085	554.88
334.314	557.88
334.542	580.88
334.771	593.88
334.999	544.88
335.227	554.88
335.455	501.88
335.684	516.88
335.912	492.88
336.14	501.88
336.369	492.88
336.597	488.88
336.825	480.88
337.053	501.88
337.281	471.88
337.51	480.88
337.738	513.88
337.966	511.88
338.194	510.88
338.422	490.88
338.65	501.88
338.878	495.88
339.106	476.88
339.334	498.88
339.562	487.88
339.79	466.88
340.018	467.88
340.246	468.88
340.474	472.88
340.702	462.88
340.93	461.88
341.158	484.88
341.386	462.88
341.614	473.88
341.842	472.88
342.07	476.88
342.298	450.88
342.526	465.88
342.754	470.88
342.981	462.88
343.209	476.88
343.437	489.88
343.665	484.88
343.893	487.88
344.12	522.88
344.348	480.88
344.576	516.88
344.804	485.88
345.031	474.88
345.259	480.88
345.487	478.88
345.714	466.88
345.942	485.88
346.17	460.88
346.397	453.88
346.625	446.88
346.853	452.88
347.08	440.88
347.308	457.88
347.535	477.88
347.763	433.88
347.99	441.88
348.218	452.88
348.445	465.88
348.673	460.88
348.9	445.88
349.128	446.88
349.355	434.88
349.583	430.88
349.81	433.88
350.037	421.88
350.265	439.88
350.492	412.88
350.72	414.88
350.947	432.88
351.174	450.88
351.402	448.88
351.629	430.88
351.856	440.88
352.083	438.88
352.311	453.88
352.538	446.88
352.765	464.88
352.992	454.88
353.22	445.88
353.447	460.88
353.674	454.88
353.901	442.88
354.128	445.88
354.355	426.88
354.583	407.88
354.81	416.88
355.037	404.88
355.264	406.88
355.491	424.88
355.718	425.88
355.945	416.88
356.172	427.88
356.399	423.88
356.626	410.88
356.853	434.88
357.08	412.88
357.307	420.88
357.534	412.88
357.761	413.88
357.988	423.88
358.215	425.88
358.441	419.88
358.668	425.88
358.895	422.88
359.122	422.88
359.349	455.88
359.576	424.88
359.802	441.88
360.029	455.88
360.256	465.88
360.483	455.88
360.709	447.88
360.936	420.88
361.163	430.88
361.39	428.88
361.616	438.88
361.843	440.88
362.07	442.88
362.296	425.88
362.523	421.88
362.749	430.88
362.976	417.88
363.203	415.88
363.429	418.88
363.656	430.88
363.882	400.88
364.109	418.88
364.335	421.88
364.562	417.88
364.788	434.88
365.015	418.88
365.241	429.88
365.468	437.88
365.694	410.88
365.92	420.88
366.147	407.88
366.373	421.88
366.599	396.88
366.826	425.88
367.052	422.88
367.278	403.88
367.505	401.88
367.731	420.88
367.957	410.88
368.184	411.88
368.41	424.88
368.636	420.88
368.862	421.88
369.089	422.88
369.315	406.88
369.541	425.88
369.767	413.88
369.993	412.88
370.219	423.88
370.445	428.88
370.672	433.88
370.898	419.88
371.124	426.88
371.35	421.88
371.576	422.88
371.802	425.88
372.028	421.88
372.254	431.88
372.48	437.88
372.706	407.88
372.932	412.88
373.158	432.88
373.384	429.88
373.61	427.88
373.835	427.88
374.061	429.88
374.287	421.88
374.513	421.88
374.739	440.88
374.965	428.88
375.191	420.88
375.416	425.88
375.642	428.88
375.868	407.88
376.094	427.88
376.319	419.88
376.545	406.88
376.771	417.88
376.997	400.88
377.222	424.88
377.448	413.88
377.674	412.88
377.899	393.88
378.125	414.88
378.35	412.88
378.576	408.88
378.802	418.88
379.027	414.88
379.253	410.88
379.478	409.88
379.704	407.88
379.929	417.88
380.155	379.88
380.38	413.88
380.606	429.88
380.831	403.88
381.057	404.88
381.282	413.88
381.507	407.88
381.733	413.88
381.958	411.88
382.184	433.88
382.409	414.88
382.634	441.88
382.86	414.88
383.085	441.88
383.31	428.88
383.535	433.88
383.761	428.88
383.986	410.88
384.211	426.88
384.436	438.88
384.662	433.88
384.887	458.88
385.112	434.88
385.337	450.88
385.562	448.88
385.787	458.88
386.013	466.88
386.238	448.88
386.463	460.88
386.688	449.88
386.913	445.88
387.138	438.88
387.363	445.88
387.588	455.88
387.813	461.88
388.038	442.88
388.263	438.88
388.488	435.88
388.713	467.88
388.938	458.88
389.163	461.88
389.387	448.88
389.612	463.88
389.837	451.88
390.062	456.88
390.287	454.88
390.512	438.88
390.736	443.88
390.961	441.88
391.186	457.88
391.411	465.88
391.636	429.88
391.86	459.88
392.085	470.88
392.31	447.88
392.534	464.88
392.759	466.88
392.984	464.88
393.208	460.88
393.433	441.88
393.658	434.88
393.882	450.88
394.107	454.88
394.331	440.88
394.556	458.88
394.78	466.88
395.005	460.88
395.229	462.88
395.454	458.88
395.678	470.88
395.903	476.88
396.127	481.88
396.352	495.88
396.576	494.88
396.801	480.88
397.025	454.88
397.249	470.88
397.474	487.88
397.698	463.88
397.922	490.88
398.147	504.88
398.371	528.88
398.595	487.88
398.82	503.88
399.044	527.88
399.268	542.88
399.492	572.88
399.717	593.88
399.941	622.88
400.165	622.88
400.389	630.88
400.613	594.88
400.837	542.88
401.062	500.88
401.286	516.88
401.51	485.88
401.734	490.88
401.958	493.88
402.182	508.88
402.406	520.88
402.63	518.88
402.854	526.88
403.078	519.88
403.302	538.88
403.526	553.88
403.75	526.88
403.974	516.88
404.198	507.88
404.422	519.88
404.645	536.88
404.869	521.88
405.093	549.88
405.317	587.88
405.541	637.88
405.765	568.88
405.988	528.88
406.212	544.88
406.436	567.88
406.66	574.88
406.883	566.88
407.107	566.88
407.331	635.88
407.555	680.88
407.778	668.88
408.002	612.88
408.226	576.88
408.449	576.88
408.673	573.88
408.896	604.88
409.12	622.88
409.344	585.88
409.567	549.88
409.791	538.88
410.014	520.88
410.238	534.88
410.461	520.88
410.685	534.88
410.908	528.88
411.132	561.88
411.355	578.88
411.578	549.88
411.802	527.88
412.025	503.88
412.249	529.88
412.472	546.88
412.695	561.88
412.919	564.88
413.142	549.88
413.365	516.88
413.589	504.88
413.812	482.88
414.035	500.88
414.258	486.88
414.482	479.88
414.705	481.88
414.928	491.88
415.151	477.88
415.374	490.88
415.597	474.88
415.821	505.88
416.044	513.88
416.267	495.88
416.49	489.88
416.713	466.88
416.936	470.88
417.159	488.88
417.382	515.88
417.605	479.88
417.828	499.88
418.051	522.88
418.274	508.88
418.497	505.88
418.72	482.88
418.943	479.88
419.166	502.88
419.389	513.88
419.611	523.88
419.834	528.88
420.057	507.88
420.28	516.88
420.503	503.88
420.726	506.88
420.948	527.88
421.171	537.88
421.394	560.88
421.617	510.88
421.839	496.88
422.062	493.88
422.285	517.88
422.507	563.88
422.73	615.88
422.953	603.88
423.175	533.88
423.398	536.88
423.621	512.88
423.843	533.88
424.066	533.88
424.288	530.88
424.511	556.88
424.733	592.88
424.956	660.88
425.178	635.88
425.401	618.88
425.623	655.88
425.846	550.88
426.068	501.88
426.291	511.88
426.513	520.88
426.735	530.88
426.958	558.88
427.18	630.88
427.402	741.88
427.625	796.88
427.847	668.88
428.069	605.88
428.292	550.88
428.514	526.88
428.736	488.88
428.958	486.88
429.181	494.88
429.403	478.88
429.625	482.88
429.847	505.88
430.069	563.88
430.292	544.88
430.514	485.88
430.736	496.88
430.958	474.88
431.18	468.88
431.402	480.88
431.624	471.88
431.846	443.88
432.068	457.88
432.29	460.88
432.512	456.88
432.734	475.88
432.956	469.88
433.178	490.88
433.4	492.88
433.622	471.88
433.844	496.88
434.066	460.88
434.287	453.88
434.509	463.88
434.731	472.88
434.953	499.88
435.175	501.88
435.397	516.88
435.618	529.88
435.84	560.88
436.062	624.88
436.284	663.88
436.505	555.88
436.727	521.88
436.949	471.88
437.17	464.88
437.392	465.88
437.614	479.88
437.835	534.88
438.057	566.88
438.278	664.88
438.5	670.88
438.721	735.88
438.943	663.88
439.165	549.88
439.386	517.88
439.608	525.88
439.829	528.88
440.05	552.88
440.272	576.88
440.493	532.88
440.715	493.88
440.936	475.88
441.158	482.88
441.379	485.88
441.6	495.88
441.822	505.88
442.043	531.88
442.264	631.88
442.486	643.88
442.707	586.88
442.928	528.88
443.149	537.88
443.371	522.88
443.592	580.88
443.813	664.88
444.034	726.88
444.255	603.88
444.476	551.88
444.698	526.88
444.919	509.88
445.14	640.88
445.361	577.88
445.582	572.88
445.803	604.88
446.024	691.88
446.245	674.88
446.466	621.88
446.687	542.88
446.908	501.88
447.129	493.88
447.35	494.88
447.571	465.88
447.792	456.88
448.013	487.88
448.234	492.88
448.455	517.88
448.675	614.88
448.896	706.88
449.117	584.88
449.338	549.88
449.559	658.88
449.779	746.88
450	597.88
450.221	510.88
450.442	455.88
450.662	440.88
450.883	456.88
451.104	448.88
451.324	455.88
451.545	450.88
451.766	420.88
451.986	441.88
452.207	412.88
452.428	423.88
452.648	406.88
452.869	431.88
453.089	416.88
453.31	422.88
453.53	423.88
453.751	423.88
453.971	416.88
454.192	418.88
454.412	411.88
454.633	411.88
454.853	384.88
455.073	429.88
455.294	441.88
455.514	483.88
455.734	475.88
455.955	417.88
456.175	423.88
456.395	398.88
456.616	402.88
456.836	420.88
457.056	401.88
457.276	386.88
457.497	405.88
457.717	409.88
457.937	405.88
458.157	413.88
458.377	403.88
458.598	431.88
458.818	469.88
459.038	550.88
459.258	540.88
459.478	487.88
459.698	464.88
459.918	454.88
460.138	446.88
460.358	474.88
460.578	469.88
460.798	461.88
461.018	474.88
461.238	467.88
461.458	448.88
461.678	441.88
461.898	482.88
462.118	474.88
462.338	510.88
462.558	486.88
462.777	480.88
462.997	514.88
463.217	524.88
463.437	527.88
463.657	493.88
463.876	502.88
464.096	504.88
464.316	486.88
464.536	511.88
464.755	486.88
464.975	506.88
465.195	516.88
465.414	545.88
465.634	497.88
465.854	471.88
466.073	457.88
466.293	438.88
466.512	441.88
466.732	438.88
466.951	463.88
467.171	414.88
467.391	427.88
467.61	432.88
467.829	441.88
468.049	421.88
468.268	420.88
468.488	408.88
468.707	438.88
468.927	427.88
469.146	409.88
469.365	403.88
469.585	433.88
469.804	433.88
470.023	439.88
470.243	420.88
470.462	450.88
470.681	458.88
470.901	455.88
471.12	431.88
471.339	433.88
471.558	433.88
471.777	436.88
471.997	444.88
472.216	439.88
472.435	446.88
472.654	439.88
472.873	431.88
473.092	431.88
473.311	446.88
473.53	433.88
473.749	438.88
473.968	487.88
474.187	552.88
474.406	558.88
474.625	482.88
474.844	448.88
475.063	445.88
475.282	442.88
475.501	441.88
475.72	453.88
475.939	459.88
476.158	444.88
476.377	465.88
476.596	442.88
476.814	430.88
477.033	444.88
477.252	472.88
477.471	469.88
477.69	452.88
477.908	465.88
478.127	480.88
478.346	477.88
478.564	480.88
478.783	494.88
479.002	516.88
479.22	512.88
479.439	490.88
479.658	510.88
479.876	515.88
480.095	524.88
480.313	564.88
480.532	573.88
480.751	542.88
480.969	545.88
481.188	581.88
481.406	574.88
481.624	565.88
481.843	554.88
482.061	501.88
482.28	534.88
482.498	493.88
482.717	508.88
482.935	522.88
483.153	509.88
483.372	497.88
483.59	479.88
483.808	502.88
484.027	502.88
484.245	494.88
484.463	511.88
484.681	529.88
484.9	513.88
485.118	520.88
485.336	528.88
485.554	527.88
485.772	525.88
485.99	540.88
486.209	534.88
486.427	538.88
486.645	543.88
486.863	518.88
487.081	554.88
487.299	529.88
487.517	545.88
487.735	499.88
487.953	537.88
488.171	537.88
488.389	541.88
488.607	531.88
488.825	539.88
489.043	512.88
489.261	528.88
489.479	560.88
489.696	551.88
489.914	543.88
490.132	568.88
490.35	539.88
490.568	556.88
490.786	571.88
491.003	572.88
491.221	564.88
491.439	585.88
491.657	582.88
491.874	573.88
492.092	587.88
492.31	593.88
492.527	602.88
492.745	611.88
492.963	622.88
493.18	629.88
493.398	635.88
493.615	624.88
493.833	619.88
494.05	608.88
494.268	617.88
494.485	609.88
494.703	616.88
494.92	621.88
495.138	629.88
495.355	630.88
495.573	621.88
495.79	630.88
496.008	618.88
496.225	618.88
496.442	635.88
496.66	636.88
496.877	669.88
497.094	647.88
497.312	633.88
497.529	651.88
497.746	688.88
497.963	685.88
498.181	694.88
498.398	709.88
498.615	719.88
498.832	732.88
499.049	741.88
499.267	778.88
499.484	833.88
499.701	856.88
499.918	866.88
500.135	914.88
500.352	952.88
500.569	946.88
500.786	934.88
501.003	957.88
501.22	908.88
501.437	878.88
501.654	846.88
501.871	813.88
502.088	786.88
