Data from 1964.PennyLincolnUp.Lamp.En5.5.200Scan.071719.P1._HRD10591_14-04-43-909.txt Node
Date: Thu Jul 18 14:04:43 EDT 2019
User: cochatt
Spectrometer: HR+D1059
Trigger mode: 1
Integration Time (sec): 1.000000E-1
Scans to average: 1
Electric dark correction enabled: true
Nonlinearity correction enabled: false
Boxcar width: 0
XAxis mode: Wavelengths
Number of Pixels in Spectrum: 2048
>>>>>Begin Spectral Data<<<<<
223.165	-21.38
223.4	-21.38
223.635	-21.38
223.869	-16.38
224.104	1.62
224.338	-12.38
224.573	-14.38
224.808	-1.38
225.042	-17.38
225.277	-14.38
225.511	-2.38
225.746	5.62
225.98	14.62
226.215	4.62
226.449	13.62
226.683	13.62
226.918	22.62
227.152	23.62
227.387	39.62
227.621	35.62
227.856	28.62
228.09	52.62
228.324	56.62
228.559	62.62
228.793	66.62
229.027	80.62
229.262	108.62
229.496	106.62
229.73	109.62
229.964	146.62
230.199	111.62
230.433	107.62
230.667	98.62
230.901	100.62
231.136	100.62
231.37	120.62
231.604	111.62
231.838	116.62
232.072	114.62
232.306	111.62
232.541	108.62
232.775	100.62
233.009	115.62
233.243	120.62
233.477	109.62
233.711	101.62
233.945	110.62
234.179	108.62
234.413	122.62
234.647	119.62
234.881	116.62
235.115	114.62
235.349	106.62
235.583	120.62
235.817	120.62
236.051	132.62
236.285	115.62
236.519	133.62
236.753	124.62
236.987	122.62
237.221	141.62
237.455	182.62
237.689	170.62
237.922	145.62
238.156	130.62
238.39	126.62
238.624	120.62
238.858	126.62
239.091	118.62
239.325	131.62
239.559	112.62
239.793	126.62
240.027	127.62
240.26	141.62
240.494	142.62
240.728	137.62
240.961	152.62
241.195	150.62
241.429	132.62
241.662	136.62
241.896	133.62
242.13	139.62
242.363	140.62
242.597	137.62
242.83	149.62
243.064	140.62
243.298	146.62
243.531	138.62
243.765	128.62
243.998	147.62
244.232	144.62
244.465	154.62
244.699	130.62
244.932	142.62
245.166	139.62
245.399	173.62
245.633	159.62
245.866	145.62
246.099	143.62
246.333	164.62
246.566	149.62
246.8	162.62
247.033	153.62
247.266	175.62
247.5	164.62
247.733	165.62
247.966	171.62
248.2	180.62
248.433	163.62
248.666	165.62
248.899	176.62
249.133	189.62
249.366	199.62
249.599	175.62
249.832	197.62
250.066	188.62
250.299	171.62
250.532	196.62
250.765	189.62
250.998	212.62
251.231	203.62
251.465	206.62
251.698	223.62
251.931	198.62
252.164	207.62
252.397	202.62
252.63	200.62
252.863	198.62
253.096	228.62
253.329	234.62
253.562	219.62
253.795	202.62
254.028	210.62
254.261	208.62
254.494	216.62
254.727	243.62
254.96	256.62
255.193	256.62
255.426	233.62
255.659	217.62
255.892	218.62
256.124	224.62
256.357	229.62
256.59	229.62
256.823	200.62
257.056	202.62
257.289	211.62
257.521	213.62
257.754	222.62
257.987	230.62
258.22	205.62
258.452	211.62
258.685	210.62
258.918	213.62
259.151	220.62
259.383	214.62
259.616	243.62
259.849	212.62
260.081	247.62
260.314	268.62
260.547	261.62
260.779	239.62
261.012	230.62
261.244	230.62
261.477	225.62
261.71	235.62
261.942	220.62
262.175	225.62
262.407	215.62
262.64	213.62
262.872	228.62
263.105	214.62
263.337	218.62
263.57	237.62
263.802	214.62
264.035	224.62
264.267	232.62
264.499	222.62
264.732	228.62
264.964	231.62
265.197	220.62
265.429	214.62
265.661	219.62
265.894	229.62
266.126	224.62
266.358	231.62
266.591	222.62
266.823	233.62
267.055	228.62
267.287	247.62
267.52	245.62
267.752	234.62
267.984	244.62
268.216	227.62
268.448	234.62
268.681	239.62
268.913	242.62
269.145	274.62
269.377	293.62
269.609	291.62
269.841	266.62
270.073	271.62
270.306	287.62
270.538	303.62
270.77	324.62
271.002	314.62
271.234	301.62
271.466	304.62
271.698	296.62
271.93	318.62
272.162	308.62
272.394	316.62
272.626	323.62
272.858	296.62
273.09	280.62
273.322	285.62
273.553	278.62
273.785	292.62
274.017	273.62
274.249	288.62
274.481	284.62
274.713	287.62
274.945	299.62
275.176	296.62
275.408	301.62
275.64	283.62
275.872	284.62
276.104	286.62
276.335	285.62
276.567	282.62
276.799	290.62
277.031	300.62
277.262	312.62
277.494	313.62
277.726	312.62
277.957	315.62
278.189	280.62
278.421	284.62
278.652	288.62
278.884	290.62
279.115	292.62
279.347	298.62
279.579	303.62
279.81	301.62
280.042	309.62
280.273	287.62
280.505	295.62
280.736	284.62
280.968	291.62
281.199	300.62
281.431	311.62
281.662	299.62
281.894	310.62
282.125	319.62
282.356	294.62
282.588	310.62
282.819	304.62
283.051	306.62
283.282	309.62
283.513	306.62
283.745	314.62
283.976	315.62
284.207	302.62
284.439	299.62
284.67	307.62
284.901	299.62
285.132	311.62
285.364	290.62
285.595	323.62
285.826	315.62
286.057	314.62
286.288	328.62
286.52	310.62
286.751	278.62
286.982	321.62
287.213	310.62
287.444	310.62
287.675	342.62
287.906	342.62
288.138	327.62
288.369	331.62
288.6	342.62
288.831	322.62
289.062	329.62
289.293	325.62
289.524	351.62
289.755	333.62
289.986	328.62
290.217	335.62
290.448	329.62
290.679	315.62
290.91	313.62
291.141	304.62
291.371	328.62
291.602	319.62
291.833	329.62
292.064	338.62
292.295	319.62
292.526	343.62
292.757	319.62
292.987	315.62
293.218	319.62
293.449	307.62
293.68	326.62
293.91	341.62
294.141	332.62
294.372	341.62
294.603	326.62
294.833	328.62
295.064	335.62
295.295	346.62
295.525	322.62
295.756	330.62
295.987	329.62
296.217	342.62
296.448	349.62
296.679	342.62
296.909	338.62
297.14	333.62
297.37	332.62
297.601	329.62
297.831	330.62
298.062	351.62
298.292	354.62
298.523	341.62
298.753	331.62
298.984	332.62
299.214	327.62
299.445	367.62
299.675	373.62
299.905	370.62
300.136	361.62
300.366	352.62
300.597	351.62
300.827	373.62
301.057	355.62
301.288	361.62
301.518	350.62
301.748	374.62
301.979	370.62
302.209	355.62
302.439	354.62
302.669	378.62
302.9	362.62
303.13	374.62
303.36	370.62
303.59	388.62
303.82	384.62
304.051	391.62
304.281	372.62
304.511	362.62
304.741	363.62
304.971	361.62
305.201	374.62
305.431	382.62
305.661	382.62
305.891	355.62
306.121	378.62
306.352	357.62
306.582	374.62
306.812	349.62
307.042	361.62
307.272	378.62
307.502	372.62
307.731	390.62
307.961	366.62
308.191	386.62
308.421	371.62
308.651	361.62
308.881	378.62
309.111	390.62
309.341	384.62
309.571	390.62
309.8	394.62
310.03	386.62
310.26	407.62
310.49	399.62
310.72	396.62
310.949	397.62
311.179	403.62
311.409	394.62
311.639	398.62
311.868	413.62
312.098	415.62
312.328	392.62
312.557	410.62
312.787	392.62
313.017	425.62
313.246	394.62
313.476	386.62
313.706	403.62
313.935	410.62
314.165	398.62
314.394	426.62
314.624	403.62
314.853	402.62
315.083	434.62
315.312	412.62
315.542	402.62
315.771	401.62
316.001	390.62
316.23	410.62
316.46	403.62
316.689	415.62
316.919	406.62
317.148	404.62
317.377	419.62
317.607	418.62
317.836	424.62
318.065	414.62
318.295	402.62
318.524	433.62
318.753	409.62
318.983	415.62
319.212	401.62
319.441	416.62
319.67	417.62
319.9	427.62
320.129	403.62
320.358	424.62
320.587	407.62
320.816	402.62
321.046	432.62
321.275	426.62
321.504	405.62
321.733	410.62
321.962	425.62
322.191	455.62
322.42	437.62
322.649	430.62
322.878	452.62
323.108	444.62
323.337	461.62
323.566	456.62
323.795	485.62
324.024	510.62
324.253	599.62
324.482	772.62
324.71	1117.62
324.939	1514.62
325.168	1273.62
325.397	708.62
325.626	542.62
325.855	510.62
326.084	479.62
326.313	467.62
326.542	499.62
326.77	505.62
326.999	571.62
327.228	736.62
327.457	991.62
327.686	1175.62
327.914	802.62
328.143	589.62
328.372	578.62
328.6	530.62
328.829	502.62
329.058	509.62
329.287	515.62
329.515	515.62
329.744	487.62
329.972	491.62
330.201	522.62
330.43	514.62
330.658	546.62
330.887	564.62
331.115	531.62
331.344	502.62
331.572	489.62
331.801	486.62
332.03	490.62
332.258	496.62
332.486	455.62
332.715	473.62
332.943	494.62
333.172	478.62
333.4	503.62
333.629	496.62
333.857	511.62
334.085	520.62
334.314	535.62
334.542	549.62
334.771	552.62
334.999	507.62
335.227	520.62
335.455	503.62
335.684	496.62
335.912	488.62
336.14	478.62
336.369	487.62
336.597	463.62
336.825	491.62
337.053	469.62
337.281	471.62
337.51	476.62
337.738	469.62
337.966	466.62
338.194	467.62
338.422	472.62
338.65	464.62
338.878	466.62
339.106	468.62
339.334	454.62
339.562	456.62
339.79	461.62
340.018	453.62
340.246	469.62
340.474	476.62
340.702	474.62
340.93	445.62
341.158	448.62
341.386	443.62
341.614	455.62
341.842	444.62
342.07	439.62
342.298	453.62
342.526	440.62
342.754	450.62
342.981	443.62
343.209	444.62
343.437	443.62
343.665	452.62
343.893	466.62
344.12	470.62
344.348	459.62
344.576	477.62
344.804	469.62
345.031	447.62
345.259	470.62
345.487	420.62
345.714	442.62
345.942	447.62
346.17	431.62
346.397	445.62
346.625	426.62
346.853	436.62
347.08	426.62
347.308	417.62
347.535	426.62
347.763	436.62
347.99	445.62
348.218	426.62
348.445	438.62
348.673	418.62
348.9	436.62
349.128	430.62
349.355	390.62
349.583	417.62
349.81	408.62
350.037	421.62
350.265	428.62
350.492	424.62
350.72	408.62
350.947	415.62
351.174	430.62
351.402	420.62
351.629	406.62
351.856	399.62
352.083	440.62
352.311	442.62
352.538	439.62
352.765	449.62
352.992	426.62
353.22	396.62
353.447	403.62
353.674	430.62
353.901	406.62
354.128	434.62
354.355	399.62
354.583	406.62
354.81	427.62
355.037	407.62
355.264	392.62
355.491	396.62
355.718	404.62
355.945	409.62
356.172	381.62
356.399	404.62
356.626	402.62
356.853	405.62
357.08	432.62
357.307	399.62
357.534	404.62
357.761	406.62
357.988	396.62
358.215	404.62
358.441	381.62
358.668	406.62
358.895	400.62
359.122	413.62
359.349	410.62
359.576	406.62
359.802	419.62
360.029	438.62
360.256	412.62
360.483	429.62
360.709	408.62
360.936	396.62
361.163	419.62
361.39	405.62
361.616	412.62
361.843	406.62
362.07	412.62
362.296	399.62
362.523	401.62
362.749	412.62
362.976	416.62
363.203	395.62
363.429	399.62
363.656	396.62
363.882	391.62
364.109	412.62
364.335	408.62
364.562	406.62
364.788	393.62
365.015	399.62
365.241	406.62
365.468	400.62
365.694	401.62
365.92	418.62
366.147	399.62
366.373	425.62
366.599	387.62
366.826	413.62
367.052	406.62
367.278	379.62
367.505	400.62
367.731	396.62
367.957	388.62
368.184	394.62
368.41	390.62
368.636	387.62
368.862	397.62
369.089	426.62
369.315	389.62
369.541	377.62
369.767	382.62
369.993	401.62
370.219	388.62
370.445	412.62
370.672	390.62
370.898	412.62
371.124	404.62
371.35	398.62
371.576	420.62
371.802	422.62
372.028	387.62
372.254	407.62
372.48	389.62
372.706	398.62
372.932	400.62
373.158	396.62
373.384	403.62
373.61	406.62
373.835	410.62
374.061	425.62
374.287	408.62
374.513	384.62
374.739	406.62
374.965	398.62
375.191	407.62
375.416	429.62
375.642	406.62
375.868	400.62
376.094	404.62
376.319	407.62
376.545	406.62
376.771	412.62
376.997	404.62
377.222	398.62
377.448	400.62
377.674	398.62
377.899	404.62
378.125	383.62
378.35	404.62
378.576	391.62
378.802	392.62
379.027	405.62
379.253	394.62
379.478	365.62
379.704	399.62
379.929	370.62
380.155	392.62
380.38	385.62
380.606	394.62
380.831	404.62
381.057	387.62
381.282	405.62
381.507	403.62
381.733	414.62
381.958	389.62
382.184	408.62
382.409	403.62
382.634	399.62
382.86	382.62
383.085	411.62
383.31	394.62
383.535	397.62
383.761	412.62
383.986	418.62
384.211	420.62
384.436	411.62
384.662	432.62
384.887	425.62
385.112	419.62
385.337	417.62
385.562	419.62
385.787	413.62
386.013	452.62
386.238	445.62
386.463	446.62
386.688	435.62
386.913	432.62
387.138	425.62
387.363	450.62
387.588	442.62
387.813	435.62
388.038	439.62
388.263	415.62
388.488	441.62
388.713	440.62
388.938	425.62
389.163	463.62
389.387	450.62
389.612	428.62
389.837	426.62
390.062	436.62
390.287	431.62
390.512	394.62
390.736	431.62
390.961	423.62
391.186	444.62
391.411	443.62
391.636	444.62
391.86	440.62
392.085	459.62
392.31	457.62
392.534	431.62
392.759	441.62
392.984	440.62
393.208	453.62
393.433	434.62
393.658	438.62
393.882	428.62
394.107	458.62
394.331	444.62
394.556	430.62
394.78	442.62
395.005	446.62
395.229	420.62
395.454	460.62
395.678	453.62
395.903	467.62
396.127	463.62
396.352	476.62
396.576	454.62
396.801	429.62
397.025	469.62
397.249	464.62
397.474	444.62
397.698	443.62
397.922	470.62
398.147	476.62
398.371	491.62
398.595	481.62
398.82	499.62
399.044	527.62
399.268	534.62
399.492	551.62
399.717	608.62
399.941	599.62
400.165	621.62
400.389	612.62
400.613	565.62
400.837	514.62
401.062	507.62
401.286	482.62
401.51	510.62
401.734	494.62
401.958	501.62
402.182	492.62
402.406	486.62
402.63	503.62
402.854	503.62
403.078	502.62
403.302	504.62
403.526	508.62
403.75	504.62
403.974	516.62
404.198	519.62
404.422	499.62
404.645	509.62
404.869	514.62
405.093	558.62
405.317	580.62
405.541	572.62
405.765	577.62
405.988	529.62
406.212	548.62
406.436	516.62
406.66	554.62
406.883	549.62
407.107	558.62
407.331	584.62
407.555	643.62
407.778	640.62
408.002	593.62
408.226	566.62
408.449	536.62
408.673	543.62
408.896	575.62
409.12	595.62
409.344	543.62
409.567	513.62
409.791	523.62
410.014	496.62
410.238	498.62
410.461	503.62
410.685	503.62
410.908	519.62
411.132	528.62
411.355	552.62
411.578	527.62
411.802	517.62
412.025	485.62
412.249	519.62
412.472	521.62
412.695	566.62
412.919	553.62
413.142	515.62
413.365	491.62
413.589	476.62
413.812	501.62
414.035	491.62
414.258	468.62
414.482	479.62
414.705	459.62
414.928	479.62
415.151	481.62
415.374	486.62
415.597	471.62
415.821	464.62
416.044	483.62
416.267	454.62
416.49	452.62
416.713	459.62
416.936	480.62
417.159	471.62
417.382	465.62
417.605	466.62
417.828	460.62
418.051	498.62
418.274	489.62
418.497	459.62
418.72	471.62
418.943	478.62
419.166	483.62
419.389	500.62
419.611	501.62
419.834	486.62
420.057	508.62
420.28	478.62
420.503	499.62
420.726	482.62
420.948	502.62
421.171	528.62
421.394	546.62
421.617	508.62
421.839	476.62
422.062	471.62
422.285	487.62
422.507	542.62
422.73	599.62
422.953	570.62
423.175	502.62
423.398	507.62
423.621	508.62
423.843	510.62
424.066	518.62
424.288	510.62
424.511	521.62
424.733	540.62
424.956	591.62
425.178	610.62
425.401	592.62
425.623	596.62
425.846	506.62
426.068	475.62
426.291	495.62
426.513	476.62
426.735	485.62
426.958	534.62
427.18	577.62
427.402	676.62
427.625	758.62
427.847	634.62
428.069	558.62
428.292	506.62
428.514	475.62
428.736	471.62
428.958	476.62
429.181	448.62
429.403	457.62
429.625	468.62
429.847	494.62
430.069	532.62
430.292	518.62
430.514	471.62
430.736	459.62
430.958	435.62
431.18	446.62
431.402	442.62
431.624	450.62
431.846	437.62
432.068	424.62
432.29	434.62
432.512	447.62
432.734	468.62
432.956	445.62
433.178	447.62
433.4	462.62
433.622	429.62
433.844	447.62
434.066	440.62
434.287	435.62
434.509	468.62
434.731	460.62
434.953	451.62
435.175	490.62
435.397	484.62
435.618	518.62
435.84	515.62
436.062	605.62
436.284	602.62
436.505	541.62
436.727	487.62
436.949	460.62
437.17	468.62
437.392	464.62
437.614	491.62
437.835	500.62
438.057	576.62
438.278	611.62
438.5	606.62
438.721	660.62
438.943	655.62
439.165	516.62
439.386	500.62
439.608	492.62
439.829	492.62
440.05	493.62
440.272	520.62
440.493	488.62
440.715	478.62
440.936	477.62
441.158	456.62
441.379	467.62
441.6	482.62
441.822	520.62
442.043	526.62
442.264	574.62
442.486	619.62
442.707	527.62
442.928	506.62
443.149	479.62
443.371	514.62
443.592	542.62
443.813	606.62
444.034	663.62
444.255	564.62
444.476	514.62
444.698	511.62
444.919	522.62
445.14	644.62
445.361	574.62
445.582	547.62
445.803	583.62
446.024	622.62
446.245	627.62
446.466	589.62
446.687	484.62
446.908	484.62
447.129	450.62
447.35	453.62
447.571	452.62
447.792	432.62
448.013	439.62
448.234	456.62
448.455	492.62
448.675	581.62
448.896	656.62
449.117	570.62
449.338	529.62
449.559	614.62
449.779	674.62
450	515.62
450.221	461.62
450.442	428.62
450.662	446.62
450.883	438.62
451.104	439.62
451.324	446.62
451.545	411.62
451.766	394.62
451.986	407.62
452.207	413.62
452.428	410.62
452.648	428.62
452.869	374.62
453.089	428.62
453.31	407.62
453.53	419.62
453.751	389.62
453.971	408.62
454.192	416.62
454.412	405.62
454.633	400.62
454.853	394.62
455.073	394.62
455.294	412.62
455.514	462.62
455.734	454.62
455.955	390.62
456.175	395.62
456.395	384.62
456.616	349.62
456.836	384.62
457.056	372.62
457.276	370.62
457.497	383.62
457.717	379.62
457.937	392.62
458.157	418.62
458.377	404.62
458.598	411.62
458.818	439.62
459.038	473.62
459.258	512.62
459.478	459.62
459.698	462.62
459.918	422.62
460.138	438.62
460.358	445.62
460.578	444.62
460.798	444.62
461.018	464.62
461.238	454.62
461.458	458.62
461.678	468.62
461.898	457.62
462.118	439.62
462.338	477.62
462.558	478.62
462.777	484.62
462.997	476.62
463.217	491.62
463.437	507.62
463.657	502.62
463.876	483.62
464.096	508.62
464.316	479.62
464.536	469.62
464.755	485.62
464.975	480.62
465.195	481.62
465.414	524.62
465.634	472.62
465.854	436.62
466.073	451.62
466.293	427.62
466.512	401.62
466.732	421.62
466.951	426.62
467.171	422.62
467.391	399.62
467.61	427.62
467.829	415.62
468.049	416.62
468.268	409.62
468.488	408.62
468.707	414.62
468.927	394.62
469.146	419.62
469.365	411.62
469.585	403.62
469.804	427.62
470.023	412.62
470.243	431.62
470.462	435.62
470.681	426.62
470.901	428.62
471.12	412.62
471.339	409.62
471.558	420.62
471.777	434.62
471.997	407.62
472.216	408.62
472.435	433.62
472.654	440.62
472.873	422.62
473.092	408.62
473.311	418.62
473.53	412.62
473.749	413.62
473.968	442.62
474.187	533.62
474.406	537.62
474.625	471.62
474.844	429.62
475.063	422.62
475.282	431.62
475.501	434.62
475.72	420.62
475.939	428.62
476.158	413.62
476.377	414.62
476.596	426.62
476.814	442.62
477.033	442.62
477.252	430.62
477.471	444.62
477.69	450.62
477.908	437.62
478.127	467.62
478.346	467.62
478.564	459.62
478.783	463.62
479.002	470.62
479.22	483.62
479.439	501.62
479.658	495.62
479.876	532.62
480.095	512.62
480.313	516.62
480.532	532.62
480.751	524.62
480.969	537.62
481.188	552.62
481.406	549.62
481.624	529.62
481.843	508.62
482.061	500.62
482.28	511.62
482.498	475.62
482.717	469.62
482.935	485.62
483.153	476.62
483.372	495.62
483.59	466.62
483.808	493.62
484.027	470.62
484.245	488.62
484.463	491.62
484.681	498.62
484.9	480.62
485.118	482.62
485.336	472.62
485.554	511.62
485.772	508.62
485.99	502.62
486.209	511.62
486.427	485.62
486.645	500.62
486.863	511.62
487.081	512.62
487.299	516.62
487.517	486.62
487.735	487.62
487.953	514.62
488.171	516.62
488.389	487.62
488.607	509.62
488.825	519.62
489.043	519.62
489.261	519.62
489.479	482.62
489.696	534.62
489.914	530.62
490.132	524.62
490.35	538.62
490.568	519.62
490.786	558.62
491.003	569.62
491.221	556.62
491.439	553.62
491.657	551.62
491.874	557.62
492.092	566.62
492.31	582.62
492.527	552.62
492.745	584.62
492.963	582.62
493.18	573.62
493.398	586.62
493.615	590.62
493.833	589.62
494.05	575.62
494.268	579.62
494.485	595.62
494.703	584.62
494.92	586.62
495.138	583.62
495.355	580.62
495.573	586.62
495.79	591.62
496.008	577.62
496.225	610.62
496.442	586.62
496.66	609.62
496.877	611.62
497.094	596.62
497.312	606.62
497.529	628.62
497.746	614.62
497.963	637.62
498.181	641.62
498.398	674.62
498.615	694.62
498.832	711.62
499.049	708.62
499.267	715.62
499.484	766.62
499.701	810.62
499.918	836.62
500.135	900.62
500.352	948.62
500.569	930.62
500.786	958.62
501.003	928.62
501.22	864.62
501.437	831.62
501.654	793.62
501.871	787.62
