Data from 1964.PennyLincolnUp.Lamp.En5.5.200Scan.071719.P1._HRD10591_14-04-26-909.txt Node
Date: Thu Jul 18 14:04:26 EDT 2019
User: cochatt
Spectrometer: HR+D1059
Trigger mode: 1
Integration Time (sec): 1.000000E-1
Scans to average: 1
Electric dark correction enabled: true
Nonlinearity correction enabled: false
Boxcar width: 0
XAxis mode: Wavelengths
Number of Pixels in Spectrum: 2048
>>>>>Begin Spectral Data<<<<<
223.165	-8.25
223.4	-8.25
223.635	-8.25
223.869	0.75
224.104	-23.25
224.338	-18.25
224.573	-7.25
224.808	-7.25
225.042	-2.25
225.277	1.75
225.511	-9.25
225.746	3.75
225.98	5.75
226.215	9.75
226.449	10.75
226.683	11.75
226.918	15.75
227.152	15.75
227.387	34.75
227.621	25.75
227.856	38.75
228.09	55.75
228.324	46.75
228.559	53.75
228.793	66.75
229.027	79.75
229.262	102.75
229.496	104.75
229.73	107.75
229.964	128.75
230.199	127.75
230.433	106.75
230.667	105.75
230.901	96.75
231.136	98.75
231.37	105.75
231.604	98.75
231.838	99.75
232.072	103.75
232.306	105.75
232.541	109.75
232.775	123.75
233.009	132.75
233.243	108.75
233.477	117.75
233.711	119.75
233.945	111.75
234.179	119.75
234.413	111.75
234.647	124.75
234.881	114.75
235.115	117.75
235.349	125.75
235.583	114.75
235.817	117.75
236.051	123.75
236.285	123.75
236.519	104.75
236.753	115.75
236.987	123.75
237.221	155.75
237.455	164.75
237.689	145.75
237.922	124.75
238.156	124.75
238.39	115.75
238.624	126.75
238.858	135.75
239.091	136.75
239.325	109.75
239.559	119.75
239.793	135.75
240.027	150.75
240.26	145.75
240.494	140.75
240.728	129.75
240.961	161.75
241.195	141.75
241.429	139.75
241.662	137.75
241.896	129.75
242.13	132.75
242.363	132.75
242.597	129.75
242.83	135.75
243.064	141.75
243.298	129.75
243.531	134.75
243.765	141.75
243.998	133.75
244.232	130.75
244.465	147.75
244.699	138.75
244.932	134.75
245.166	147.75
245.399	139.75
245.633	145.75
245.866	151.75
246.099	139.75
246.333	160.75
246.566	141.75
246.8	146.75
247.033	151.75
247.266	146.75
247.5	146.75
247.733	153.75
247.966	161.75
248.2	158.75
248.433	161.75
248.666	156.75
248.899	171.75
249.133	181.75
249.366	191.75
249.599	187.75
249.832	173.75
250.066	168.75
250.299	175.75
250.532	181.75
250.765	199.75
250.998	200.75
251.231	200.75
251.465	210.75
251.698	183.75
251.931	189.75
252.164	171.75
252.397	192.75
252.63	185.75
252.863	187.75
253.096	204.75
253.329	191.75
253.562	188.75
253.795	202.75
254.028	192.75
254.261	201.75
254.494	206.75
254.727	217.75
254.96	245.75
255.193	246.75
255.426	202.75
255.659	210.75
255.892	209.75
256.124	217.75
256.357	213.75
256.59	202.75
256.823	206.75
257.056	214.75
257.289	207.75
257.521	213.75
257.754	194.75
257.987	219.75
258.22	223.75
258.452	206.75
258.685	211.75
258.918	218.75
259.151	209.75
259.383	215.75
259.616	217.75
259.849	222.75
260.081	210.75
260.314	238.75
260.547	237.75
260.779	224.75
261.012	231.75
261.244	205.75
261.477	214.75
261.71	212.75
261.942	222.75
262.175	231.75
262.407	200.75
262.64	192.75
262.872	216.75
263.105	233.75
263.337	220.75
263.57	203.75
263.802	206.75
264.035	216.75
264.267	220.75
264.499	225.75
264.732	222.75
264.964	223.75
265.197	213.75
265.429	220.75
265.661	223.75
265.894	216.75
266.126	219.75
266.358	225.75
266.591	221.75
266.823	224.75
267.055	233.75
267.287	222.75
267.52	226.75
267.752	225.75
267.984	238.75
268.216	253.75
268.448	230.75
268.681	238.75
268.913	250.75
269.145	252.75
269.377	259.75
269.609	260.75
269.841	264.75
270.073	281.75
270.306	269.75
270.538	285.75
270.77	289.75
271.002	276.75
271.234	276.75
271.466	275.75
271.698	298.75
271.93	305.75
272.162	295.75
272.394	305.75
272.626	285.75
272.858	276.75
273.09	283.75
273.322	281.75
273.553	264.75
273.785	279.75
274.017	272.75
274.249	263.75
274.481	264.75
274.713	273.75
274.945	257.75
275.176	253.75
275.408	257.75
275.64	269.75
275.872	264.75
276.104	259.75
276.335	265.75
276.567	279.75
276.799	269.75
277.031	276.75
277.262	281.75
277.494	306.75
277.726	294.75
277.957	286.75
278.189	279.75
278.421	289.75
278.652	269.75
278.884	277.75
279.115	291.75
279.347	263.75
279.579	257.75
279.81	275.75
280.042	281.75
280.273	262.75
280.505	270.75
280.736	262.75
280.968	272.75
281.199	250.75
281.431	286.75
281.662	291.75
281.894	285.75
282.125	273.75
282.356	285.75
282.588	287.75
282.819	291.75
283.051	294.75
283.282	293.75
283.513	290.75
283.745	294.75
283.976	296.75
284.207	287.75
284.439	306.75
284.67	293.75
284.901	294.75
285.132	285.75
285.364	284.75
285.595	295.75
285.826	298.75
286.057	299.75
286.288	313.75
286.52	314.75
286.751	304.75
286.982	284.75
287.213	283.75
287.444	299.75
287.675	309.75
287.906	301.75
288.138	299.75
288.369	298.75
288.6	306.75
288.831	284.75
289.062	309.75
289.293	294.75
289.524	299.75
289.755	313.75
289.986	309.75
290.217	312.75
290.448	303.75
290.679	311.75
290.91	311.75
291.141	317.75
291.371	317.75
291.602	298.75
291.833	303.75
292.064	288.75
292.295	303.75
292.526	318.75
292.757	299.75
292.987	318.75
293.218	304.75
293.449	312.75
293.68	309.75
293.91	301.75
294.141	311.75
294.372	303.75
294.603	312.75
294.833	318.75
295.064	299.75
295.295	293.75
295.525	298.75
295.756	316.75
295.987	321.75
296.217	345.75
296.448	339.75
296.679	323.75
296.909	315.75
297.14	320.75
297.37	315.75
297.601	331.75
297.831	326.75
298.062	303.75
298.292	317.75
298.523	333.75
298.753	320.75
298.984	338.75
299.214	324.75
299.445	311.75
299.675	340.75
299.905	344.75
300.136	337.75
300.366	333.75
300.597	327.75
300.827	333.75
301.057	360.75
301.288	340.75
301.518	351.75
301.748	346.75
301.979	331.75
302.209	359.75
302.439	342.75
302.669	359.75
302.9	370.75
303.13	333.75
303.36	357.75
303.59	352.75
303.82	341.75
304.051	349.75
304.281	349.75
304.511	343.75
304.741	346.75
304.971	331.75
305.201	335.75
305.431	347.75
305.661	348.75
305.891	347.75
306.121	342.75
306.352	339.75
306.582	343.75
306.812	352.75
307.042	334.75
307.272	351.75
307.502	346.75
307.731	334.75
307.961	349.75
308.191	356.75
308.421	350.75
308.651	338.75
308.881	343.75
309.111	355.75
309.341	351.75
309.571	349.75
309.8	347.75
310.03	369.75
310.26	364.75
310.49	363.75
310.72	373.75
310.949	391.75
311.179	368.75
311.409	377.75
311.639	366.75
311.868	361.75
312.098	364.75
312.328	382.75
312.557	382.75
312.787	402.75
313.017	391.75
313.246	381.75
313.476	385.75
313.706	361.75
313.935	359.75
314.165	400.75
314.394	385.75
314.624	382.75
314.853	371.75
315.083	395.75
315.312	387.75
315.542	361.75
315.771	402.75
316.001	395.75
316.23	379.75
316.46	413.75
316.689	377.75
316.919	382.75
317.148	384.75
317.377	399.75
317.607	380.75
317.836	387.75
318.065	392.75
318.295	379.75
318.524	377.75
318.753	386.75
318.983	365.75
319.212	355.75
319.441	391.75
319.67	398.75
319.9	374.75
320.129	374.75
320.358	374.75
320.587	382.75
320.816	393.75
321.046	416.75
321.275	387.75
321.504	376.75
321.733	391.75
321.962	383.75
322.191	425.75
322.42	406.75
322.649	416.75
322.878	424.75
323.108	404.75
323.337	421.75
323.566	455.75
323.795	443.75
324.024	477.75
324.253	550.75
324.482	712.75
324.71	1014.75
324.939	1388.75
325.168	1174.75
325.397	667.75
325.626	511.75
325.855	451.75
326.084	432.75
326.313	455.75
326.542	439.75
326.77	479.75
326.999	537.75
327.228	657.75
327.457	881.75
327.686	1053.75
327.914	704.75
328.143	545.75
328.372	490.75
328.6	486.75
328.829	464.75
329.058	479.75
329.287	496.75
329.515	460.75
329.744	446.75
329.972	464.75
330.201	490.75
330.43	478.75
330.658	502.75
330.887	495.75
331.115	462.75
331.344	464.75
331.572	459.75
331.801	445.75
332.03	445.75
332.258	441.75
332.486	441.75
332.715	439.75
332.943	449.75
333.172	460.75
333.4	473.75
333.629	458.75
333.857	462.75
334.085	487.75
334.314	484.75
334.542	520.75
334.771	527.75
334.999	482.75
335.227	473.75
335.455	458.75
335.684	460.75
335.912	441.75
336.14	437.75
336.369	453.75
336.597	442.75
336.825	433.75
337.053	439.75
337.281	432.75
337.51	447.75
337.738	433.75
337.966	447.75
338.194	444.75
338.422	426.75
338.65	446.75
338.878	401.75
339.106	437.75
339.334	441.75
339.562	450.75
339.79	427.75
340.018	434.75
340.246	422.75
340.474	409.75
340.702	431.75
340.93	410.75
341.158	427.75
341.386	416.75
341.614	432.75
341.842	405.75
342.07	422.75
342.298	412.75
342.526	406.75
342.754	417.75
342.981	419.75
343.209	424.75
343.437	409.75
343.665	429.75
343.893	422.75
344.12	433.75
344.348	418.75
344.576	434.75
344.804	442.75
345.031	433.75
345.259	423.75
345.487	407.75
345.714	406.75
345.942	399.75
346.17	399.75
346.397	395.75
346.625	399.75
346.853	392.75
347.08	377.75
347.308	396.75
347.535	398.75
347.763	413.75
347.99	386.75
348.218	406.75
348.445	414.75
348.673	411.75
348.9	387.75
349.128	405.75
349.355	391.75
349.583	409.75
349.81	389.75
350.037	399.75
350.265	399.75
350.492	392.75
350.72	391.75
350.947	402.75
351.174	407.75
351.402	407.75
351.629	397.75
351.856	401.75
352.083	382.75
352.311	405.75
352.538	399.75
352.765	407.75
352.992	382.75
353.22	391.75
353.447	380.75
353.674	383.75
353.901	391.75
354.128	396.75
354.355	373.75
354.583	376.75
354.81	355.75
355.037	377.75
355.264	383.75
355.491	383.75
355.718	381.75
355.945	371.75
356.172	366.75
356.399	376.75
356.626	381.75
356.853	369.75
357.08	353.75
357.307	360.75
357.534	374.75
357.761	381.75
357.988	377.75
358.215	404.75
358.441	389.75
358.668	374.75
358.895	377.75
359.122	373.75
359.349	391.75
359.576	386.75
359.802	421.75
360.029	405.75
360.256	418.75
360.483	394.75
360.709	406.75
360.936	395.75
361.163	369.75
361.39	385.75
361.616	381.75
361.843	396.75
362.07	378.75
362.296	401.75
362.523	385.75
362.749	386.75
362.976	392.75
363.203	380.75
363.429	382.75
363.656	363.75
363.882	391.75
364.109	381.75
364.335	373.75
364.562	365.75
364.788	368.75
365.015	375.75
365.241	379.75
365.468	375.75
365.694	387.75
365.92	393.75
366.147	396.75
366.373	372.75
366.599	374.75
366.826	368.75
367.052	359.75
367.278	381.75
367.505	379.75
367.731	362.75
367.957	353.75
368.184	389.75
368.41	387.75
368.636	359.75
368.862	381.75
369.089	383.75
369.315	398.75
369.541	385.75
369.767	381.75
369.993	395.75
370.219	369.75
370.445	369.75
370.672	360.75
370.898	379.75
371.124	371.75
371.35	370.75
371.576	377.75
371.802	383.75
372.028	373.75
372.254	383.75
372.48	386.75
372.706	394.75
372.932	383.75
373.158	389.75
373.384	375.75
373.61	393.75
373.835	377.75
374.061	373.75
374.287	400.75
374.513	379.75
374.739	394.75
374.965	383.75
375.191	376.75
375.416	364.75
375.642	368.75
375.868	379.75
376.094	383.75
376.319	383.75
376.545	388.75
376.771	360.75
376.997	373.75
377.222	373.75
377.448	356.75
377.674	377.75
377.899	364.75
378.125	374.75
378.35	361.75
378.576	373.75
378.802	369.75
379.027	379.75
379.253	377.75
379.478	370.75
379.704	367.75
379.929	375.75
380.155	365.75
380.38	377.75
380.606	385.75
380.831	354.75
381.057	381.75
381.282	367.75
381.507	360.75
381.733	367.75
381.958	373.75
382.184	377.75
382.409	381.75
382.634	401.75
382.86	378.75
383.085	375.75
383.31	391.75
383.535	392.75
383.761	380.75
383.986	382.75
384.211	389.75
384.436	387.75
384.662	387.75
384.887	428.75
385.112	401.75
385.337	391.75
385.562	402.75
385.787	416.75
386.013	424.75
386.238	373.75
386.463	406.75
386.688	404.75
386.913	430.75
387.138	401.75
387.363	396.75
387.588	421.75
387.813	398.75
388.038	406.75
388.263	395.75
388.488	406.75
388.713	407.75
388.938	415.75
389.163	413.75
389.387	397.75
389.612	413.75
389.837	408.75
390.062	421.75
390.287	420.75
390.512	421.75
390.736	402.75
390.961	403.75
391.186	413.75
391.411	405.75
391.636	412.75
391.86	419.75
392.085	417.75
392.31	400.75
392.534	411.75
392.759	417.75
392.984	414.75
393.208	408.75
393.433	410.75
393.658	417.75
393.882	391.75
394.107	409.75
394.331	410.75
394.556	407.75
394.78	411.75
395.005	424.75
395.229	403.75
395.454	423.75
395.678	418.75
395.903	439.75
396.127	452.75
396.352	440.75
396.576	408.75
396.801	414.75
397.025	395.75
397.249	413.75
397.474	443.75
397.698	427.75
397.922	451.75
398.147	459.75
398.371	451.75
398.595	425.75
398.82	469.75
399.044	498.75
399.268	482.75
399.492	523.75
399.717	577.75
399.941	555.75
400.165	566.75
400.389	557.75
400.613	529.75
400.837	526.75
401.062	471.75
401.286	459.75
401.51	458.75
401.734	451.75
401.958	470.75
402.182	470.75
402.406	471.75
402.63	471.75
402.854	460.75
403.078	461.75
403.302	455.75
403.526	478.75
403.75	470.75
403.974	465.75
404.198	473.75
404.422	488.75
404.645	479.75
404.869	487.75
405.093	490.75
405.317	528.75
405.541	529.75
405.765	501.75
405.988	515.75
406.212	500.75
406.436	473.75
406.66	491.75
406.883	487.75
407.107	529.75
407.331	539.75
407.555	618.75
407.778	609.75
408.002	542.75
408.226	513.75
408.449	509.75
408.673	512.75
408.896	519.75
409.12	528.75
409.344	521.75
409.567	490.75
409.791	477.75
410.014	478.75
410.238	468.75
410.461	477.75
410.685	473.75
410.908	496.75
411.132	478.75
411.355	488.75
411.578	504.75
411.802	469.75
412.025	479.75
412.249	457.75
412.472	494.75
412.695	501.75
412.919	491.75
413.142	462.75
413.365	475.75
413.589	445.75
413.812	449.75
414.035	445.75
414.258	429.75
414.482	448.75
414.705	445.75
414.928	449.75
415.151	419.75
415.374	438.75
415.597	402.75
415.821	438.75
416.044	431.75
416.267	435.75
416.49	431.75
416.713	448.75
416.936	451.75
417.159	441.75
417.382	430.75
417.605	433.75
417.828	453.75
418.051	440.75
418.274	441.75
418.497	448.75
418.72	444.75
418.943	431.75
419.166	460.75
419.389	469.75
419.611	472.75
419.834	465.75
420.057	458.75
420.28	455.75
420.503	463.75
420.726	444.75
420.948	453.75
421.171	472.75
421.394	519.75
421.617	461.75
421.839	432.75
422.062	447.75
422.285	468.75
422.507	490.75
422.73	544.75
422.953	512.75
423.175	488.75
423.398	469.75
423.621	473.75
423.843	476.75
424.066	480.75
424.288	471.75
424.511	481.75
424.733	514.75
424.956	595.75
425.178	563.75
425.401	556.75
425.623	549.75
425.846	496.75
426.068	454.75
426.291	457.75
426.513	431.75
426.735	453.75
426.958	501.75
427.18	556.75
427.402	614.75
427.625	680.75
427.847	604.75
428.069	525.75
428.292	467.75
428.514	457.75
428.736	444.75
428.958	443.75
429.181	428.75
429.403	423.75
429.625	441.75
429.847	459.75
430.069	491.75
430.292	495.75
430.514	437.75
430.736	437.75
430.958	425.75
431.18	404.75
431.402	409.75
431.624	401.75
431.846	396.75
432.068	408.75
432.29	431.75
432.512	399.75
432.734	435.75
432.956	413.75
433.178	418.75
433.4	433.75
433.622	431.75
433.844	418.75
434.066	438.75
434.287	413.75
434.509	411.75
434.731	422.75
434.953	425.75
435.175	428.75
435.397	465.75
435.618	472.75
435.84	501.75
436.062	544.75
436.284	573.75
436.505	509.75
436.727	446.75
436.949	435.75
437.17	418.75
437.392	415.75
437.614	439.75
437.835	440.75
438.057	487.75
438.278	567.75
438.5	573.75
438.721	647.75
438.943	595.75
439.165	481.75
439.386	447.75
439.608	457.75
439.829	447.75
440.05	451.75
440.272	480.75
440.493	487.75
440.715	450.75
440.936	433.75
441.158	416.75
441.379	429.75
441.6	472.75
441.822	457.75
442.043	477.75
442.264	526.75
442.486	561.75
442.707	496.75
442.928	472.75
443.149	469.75
443.371	484.75
443.592	506.75
443.813	561.75
444.034	613.75
444.255	533.75
444.476	482.75
444.698	471.75
444.919	466.75
445.14	605.75
445.361	545.75
445.582	473.75
445.803	525.75
446.024	573.75
446.245	590.75
446.466	521.75
446.687	483.75
446.908	439.75
447.129	415.75
447.35	412.75
447.571	417.75
447.792	404.75
448.013	425.75
448.234	426.75
448.455	450.75
448.675	549.75
448.896	608.75
449.117	538.75
449.338	517.75
449.559	569.75
449.779	635.75
450	509.75
450.221	435.75
450.442	397.75
450.662	397.75
450.883	375.75
451.104	389.75
451.324	395.75
451.545	393.75
451.766	371.75
451.986	367.75
452.207	354.75
452.428	380.75
452.648	366.75
452.869	364.75
453.089	375.75
453.31	385.75
453.53	348.75
453.751	350.75
453.971	369.75
454.192	384.75
454.412	373.75
454.633	370.75
454.853	383.75
455.073	381.75
455.294	386.75
455.514	435.75
455.734	422.75
455.955	376.75
456.175	384.75
456.395	376.75
456.616	362.75
456.836	363.75
457.056	355.75
457.276	362.75
457.497	346.75
457.717	358.75
457.937	384.75
458.157	375.75
458.377	366.75
458.598	383.75
458.818	407.75
459.038	461.75
459.258	466.75
459.478	419.75
459.698	405.75
459.918	416.75
460.138	399.75
460.358	418.75
460.578	398.75
460.798	414.75
461.018	411.75
461.238	409.75
461.458	417.75
461.678	417.75
461.898	409.75
462.118	431.75
462.338	423.75
462.558	430.75
462.777	426.75
462.997	488.75
463.217	465.75
463.437	470.75
463.657	465.75
463.876	459.75
464.096	462.75
464.316	465.75
464.536	470.75
464.755	477.75
464.975	453.75
465.195	434.75
465.414	457.75
465.634	447.75
465.854	434.75
466.073	421.75
466.293	423.75
466.512	393.75
466.732	377.75
466.951	394.75
467.171	395.75
467.391	385.75
467.61	397.75
467.829	378.75
468.049	397.75
468.268	404.75
468.488	366.75
468.707	370.75
468.927	401.75
469.146	367.75
469.365	367.75
469.585	374.75
469.804	379.75
470.023	385.75
470.243	403.75
470.462	412.75
470.681	419.75
470.901	387.75
471.12	381.75
471.339	378.75
471.558	358.75
471.777	383.75
471.997	401.75
472.216	398.75
472.435	410.75
472.654	413.75
472.873	392.75
473.092	379.75
473.311	368.75
473.53	385.75
473.749	393.75
473.968	419.75
474.187	488.75
474.406	466.75
474.625	435.75
474.844	406.75
475.063	404.75
475.282	377.75
475.501	387.75
475.72	412.75
475.939	405.75
476.158	392.75
476.377	387.75
476.596	375.75
476.814	406.75
477.033	408.75
477.252	423.75
477.471	424.75
477.69	411.75
477.908	430.75
478.127	445.75
478.346	431.75
478.564	419.75
478.783	431.75
479.002	433.75
479.22	455.75
479.439	441.75
479.658	459.75
479.876	438.75
480.095	462.75
480.313	481.75
480.532	464.75
480.751	473.75
480.969	490.75
481.188	498.75
481.406	515.75
481.624	490.75
481.843	476.75
482.061	462.75
482.28	457.75
482.498	434.75
482.717	449.75
482.935	455.75
483.153	453.75
483.372	447.75
483.59	457.75
483.808	459.75
484.027	447.75
484.245	452.75
484.463	450.75
484.681	461.75
484.9	453.75
485.118	467.75
485.336	463.75
485.554	444.75
485.772	471.75
485.99	468.75
486.209	450.75
486.427	478.75
486.645	471.75
486.863	476.75
487.081	461.75
487.299	477.75
487.517	475.75
487.735	466.75
487.953	461.75
488.171	471.75
488.389	471.75
488.607	459.75
488.825	471.75
489.043	477.75
489.261	490.75
489.479	488.75
489.696	497.75
489.914	485.75
490.132	482.75
490.35	496.75
490.568	501.75
490.786	490.75
491.003	519.75
491.221	513.75
491.439	513.75
491.657	520.75
491.874	524.75
492.092	540.75
492.31	540.75
492.527	527.75
492.745	535.75
492.963	526.75
493.18	546.75
493.398	550.75
493.615	538.75
493.833	536.75
494.05	559.75
494.268	570.75
494.485	555.75
494.703	554.75
494.92	556.75
495.138	562.75
495.355	539.75
495.573	545.75
495.79	550.75
496.008	558.75
496.225	540.75
496.442	545.75
496.66	558.75
496.877	544.75
497.094	543.75
497.312	561.75
497.529	569.75
497.746	593.75
497.963	581.75
498.181	586.75
498.398	624.75
498.615	645.75
498.832	638.75
499.049	641.75
499.267	669.75
499.484	705.75
499.701	730.75
499.918	770.75
500.135	822.75
500.352	837.75
500.569	861.75
500.786	871.75
501.003	845.75
501.22	848.75
501.437	764.75
501.654	745.75
501.871	733.75
502.088	717.75
