Data from 1964.PennyLincolnUp.Lamp.En5.5.200Scan.071719.P1._HRD10591_14-05-58-909.txt Node
Date: Thu Jul 18 14:05:58 EDT 2019
User: cochatt
Spectrometer: HR+D1059
Trigger mode: 1
Integration Time (sec): 1.000000E-1
Scans to average: 1
Electric dark correction enabled: true
Nonlinearity correction enabled: false
Boxcar width: 0
XAxis mode: Wavelengths
Number of Pixels in Spectrum: 2048
>>>>>Begin Spectral Data<<<<<
223.165	-21.56
223.4	-21.56
223.635	-21.56
223.869	-11.56
224.104	-22.56
224.338	-10.56
224.573	-11.56
224.808	-13.56
225.042	-11.56
225.277	-4.56
225.511	-3.56
225.746	0.44
225.98	23.44
226.215	12.44
226.449	12.44
226.683	10.44
226.918	28.44
227.152	23.44
227.387	42.44
227.621	34.44
227.856	50.44
228.09	52.44
228.324	34.44
228.559	54.44
228.793	41.44
229.027	79.44
229.262	86.44
229.496	105.44
229.73	113.44
229.964	147.44
230.199	119.44
230.433	121.44
230.667	101.44
230.901	117.44
231.136	104.44
231.37	109.44
231.604	94.44
231.838	97.44
232.072	113.44
232.306	96.44
232.541	126.44
232.775	113.44
233.009	121.44
233.243	102.44
233.477	120.44
233.711	114.44
233.945	129.44
234.179	123.44
234.413	119.44
234.647	113.44
234.881	110.44
235.115	116.44
235.349	105.44
235.583	115.44
235.817	115.44
236.051	120.44
236.285	124.44
236.519	120.44
236.753	142.44
236.987	124.44
237.221	171.44
237.455	188.44
237.689	176.44
237.922	132.44
238.156	144.44
238.39	134.44
238.624	143.44
238.858	126.44
239.091	126.44
239.325	116.44
239.559	142.44
239.793	129.44
240.027	142.44
240.26	140.44
240.494	132.44
240.728	146.44
240.961	160.44
241.195	142.44
241.429	142.44
241.662	133.44
241.896	132.44
242.13	124.44
242.363	138.44
242.597	128.44
242.83	131.44
243.064	146.44
243.298	154.44
243.531	149.44
243.765	144.44
243.998	134.44
244.232	132.44
244.465	142.44
244.699	154.44
244.932	139.44
245.166	148.44
245.399	139.44
245.633	132.44
245.866	146.44
246.099	131.44
246.333	152.44
246.566	155.44
246.8	152.44
247.033	166.44
247.266	153.44
247.5	167.44
247.733	160.44
247.966	167.44
248.2	172.44
248.433	168.44
248.666	170.44
248.899	178.44
249.133	194.44
249.366	205.44
249.599	189.44
249.832	195.44
250.066	184.44
250.299	192.44
250.532	205.44
250.765	188.44
250.998	217.44
251.231	209.44
251.465	227.44
251.698	196.44
251.931	190.44
252.164	198.44
252.397	207.44
252.63	206.44
252.863	210.44
253.096	217.44
253.329	206.44
253.562	193.44
253.795	207.44
254.028	225.44
254.261	239.44
254.494	230.44
254.727	234.44
254.96	258.44
255.193	257.44
255.426	235.44
255.659	230.44
255.892	233.44
256.124	224.44
256.357	248.44
256.59	232.44
256.823	225.44
257.056	217.44
257.289	217.44
257.521	237.44
257.754	231.44
257.987	220.44
258.22	207.44
258.452	214.44
258.685	233.44
258.918	232.44
259.151	223.44
259.383	221.44
259.616	229.44
259.849	233.44
260.081	244.44
260.314	238.44
260.547	260.44
260.779	234.44
261.012	224.44
261.244	236.44
261.477	226.44
261.71	236.44
261.942	243.44
262.175	222.44
262.407	221.44
262.64	213.44
262.872	236.44
263.105	216.44
263.337	209.44
263.57	236.44
263.802	235.44
264.035	214.44
264.267	217.44
264.499	229.44
264.732	222.44
264.964	214.44
265.197	234.44
265.429	222.44
265.661	234.44
265.894	215.44
266.126	219.44
266.358	236.44
266.591	227.44
266.823	247.44
267.055	249.44
267.287	231.44
267.52	248.44
267.752	240.44
267.984	233.44
268.216	258.44
268.448	264.44
268.681	269.44
268.913	259.44
269.145	282.44
269.377	295.44
269.609	283.44
269.841	284.44
270.073	283.44
270.306	317.44
270.538	332.44
270.77	320.44
271.002	316.44
271.234	324.44
271.466	301.44
271.698	315.44
271.93	314.44
272.162	307.44
272.394	320.44
272.626	299.44
272.858	313.44
273.09	302.44
273.322	293.44
273.553	289.44
273.785	283.44
274.017	277.44
274.249	270.44
274.481	273.44
274.713	268.44
274.945	290.44
275.176	285.44
275.408	278.44
275.64	290.44
275.872	293.44
276.104	285.44
276.335	280.44
276.567	311.44
276.799	294.44
277.031	313.44
277.262	306.44
277.494	327.44
277.726	309.44
277.957	299.44
278.189	320.44
278.421	298.44
278.652	299.44
278.884	276.44
279.115	288.44
279.347	309.44
279.579	312.44
279.81	300.44
280.042	271.44
280.273	305.44
280.505	305.44
280.736	287.44
280.968	309.44
281.199	304.44
281.431	292.44
281.662	287.44
281.894	294.44
282.125	301.44
282.356	316.44
282.588	312.44
282.819	319.44
283.051	312.44
283.282	283.44
283.513	300.44
283.745	316.44
283.976	311.44
284.207	322.44
284.439	303.44
284.67	317.44
284.901	305.44
285.132	309.44
285.364	300.44
285.595	313.44
285.826	305.44
286.057	312.44
286.288	308.44
286.52	309.44
286.751	298.44
286.982	323.44
287.213	317.44
287.444	328.44
287.675	325.44
287.906	316.44
288.138	338.44
288.369	331.44
288.6	343.44
288.831	336.44
289.062	346.44
289.293	322.44
289.524	334.44
289.755	321.44
289.986	313.44
290.217	333.44
290.448	320.44
290.679	316.44
290.91	317.44
291.141	314.44
291.371	329.44
291.602	323.44
291.833	344.44
292.064	314.44
292.295	317.44
292.526	334.44
292.757	334.44
292.987	344.44
293.218	320.44
293.449	335.44
293.68	340.44
293.91	342.44
294.141	336.44
294.372	320.44
294.603	320.44
294.833	348.44
295.064	331.44
295.295	336.44
295.525	336.44
295.756	344.44
295.987	340.44
296.217	347.44
296.448	364.44
296.679	337.44
296.909	339.44
297.14	329.44
297.37	354.44
297.601	353.44
297.831	342.44
298.062	326.44
298.292	338.44
298.523	356.44
298.753	350.44
298.984	351.44
299.214	356.44
299.445	354.44
299.675	344.44
299.905	347.44
300.136	336.44
300.366	351.44
300.597	360.44
300.827	353.44
301.057	355.44
301.288	371.44
301.518	347.44
301.748	384.44
301.979	348.44
302.209	360.44
302.439	357.44
302.669	379.44
302.9	357.44
303.13	360.44
303.36	357.44
303.59	346.44
303.82	361.44
304.051	361.44
304.281	362.44
304.511	354.44
304.741	370.44
304.971	362.44
305.201	367.44
305.431	358.44
305.661	355.44
305.891	362.44
306.121	370.44
306.352	372.44
306.582	385.44
306.812	355.44
307.042	388.44
307.272	375.44
307.502	358.44
307.731	384.44
307.961	378.44
308.191	374.44
308.421	380.44
308.651	354.44
308.881	372.44
309.111	391.44
309.341	390.44
309.571	390.44
309.8	393.44
310.03	387.44
310.26	387.44
310.49	395.44
310.72	400.44
310.949	403.44
311.179	414.44
311.409	393.44
311.639	405.44
311.868	393.44
312.098	410.44
312.328	406.44
312.557	409.44
312.787	437.44
313.017	423.44
313.246	404.44
313.476	405.44
313.706	416.44
313.935	414.44
314.165	409.44
314.394	419.44
314.624	417.44
314.853	428.44
315.083	416.44
315.312	438.44
315.542	404.44
315.771	399.44
316.001	397.44
316.23	394.44
316.46	401.44
316.689	407.44
316.919	427.44
317.148	432.44
317.377	438.44
317.607	421.44
317.836	418.44
318.065	410.44
318.295	416.44
318.524	407.44
318.753	402.44
318.983	408.44
319.212	391.44
319.441	422.44
319.67	408.44
319.9	412.44
320.129	417.44
320.358	420.44
320.587	425.44
320.816	427.44
321.046	424.44
321.275	413.44
321.504	419.44
321.733	436.44
321.962	428.44
322.191	430.44
322.42	423.44
322.649	462.44
322.878	449.44
323.108	464.44
323.337	466.44
323.566	474.44
323.795	501.44
324.024	517.44
324.253	616.44
324.482	851.44
324.71	1243.44
324.939	1712.44
325.168	1436.44
325.397	800.44
325.626	593.44
325.855	501.44
326.084	513.44
326.313	483.44
326.542	512.44
326.77	534.44
326.999	611.44
327.228	802.44
327.457	1096.44
327.686	1283.44
327.914	889.44
328.143	636.44
328.372	596.44
328.6	550.44
328.829	522.44
329.058	564.44
329.287	526.44
329.515	544.44
329.744	514.44
329.972	511.44
330.201	527.44
330.43	536.44
330.658	549.44
330.887	589.44
331.115	559.44
331.344	518.44
331.572	517.44
331.801	505.44
332.03	505.44
332.258	485.44
332.486	474.44
332.715	497.44
332.943	476.44
333.172	488.44
333.4	492.44
333.629	519.44
333.857	560.44
334.085	505.44
334.314	545.44
334.542	547.44
334.771	565.44
334.999	546.44
335.227	499.44
335.455	488.44
335.684	483.44
335.912	486.44
336.14	490.44
336.369	458.44
336.597	470.44
336.825	490.44
337.053	455.44
337.281	469.44
337.51	466.44
337.738	456.44
337.966	478.44
338.194	488.44
338.422	477.44
338.65	464.44
338.878	474.44
339.106	464.44
339.334	452.44
339.562	440.44
339.79	452.44
340.018	457.44
340.246	464.44
340.474	465.44
340.702	435.44
340.93	464.44
341.158	450.44
341.386	471.44
341.614	456.44
341.842	451.44
342.07	457.44
342.298	472.44
342.526	443.44
342.754	454.44
342.981	445.44
343.209	438.44
343.437	433.44
343.665	450.44
343.893	461.44
344.12	487.44
344.348	481.44
344.576	485.44
344.804	459.44
345.031	479.44
345.259	454.44
345.487	459.44
345.714	455.44
345.942	451.44
346.17	448.44
346.397	445.44
346.625	436.44
346.853	434.44
347.08	406.44
347.308	444.44
347.535	436.44
347.763	448.44
347.99	426.44
348.218	453.44
348.445	448.44
348.673	437.44
348.9	428.44
349.128	404.44
349.355	411.44
349.583	416.44
349.81	421.44
350.037	422.44
350.265	424.44
350.492	411.44
350.72	432.44
350.947	410.44
351.174	406.44
351.402	444.44
351.629	425.44
351.856	446.44
352.083	424.44
352.311	436.44
352.538	418.44
352.765	432.44
352.992	412.44
353.22	428.44
353.447	419.44
353.674	406.44
353.901	425.44
354.128	421.44
354.355	392.44
354.583	410.44
354.81	417.44
355.037	406.44
355.264	379.44
355.491	396.44
355.718	392.44
355.945	406.44
356.172	397.44
356.399	389.44
356.626	408.44
356.853	416.44
357.08	409.44
357.307	412.44
357.534	394.44
357.761	402.44
357.988	400.44
358.215	402.44
358.441	422.44
358.668	403.44
358.895	393.44
359.122	400.44
359.349	405.44
359.576	418.44
359.802	403.44
360.029	430.44
360.256	428.44
360.483	434.44
360.709	425.44
360.936	430.44
361.163	412.44
361.39	411.44
361.616	419.44
361.843	420.44
362.07	419.44
362.296	413.44
362.523	422.44
362.749	400.44
362.976	389.44
363.203	427.44
363.429	418.44
363.656	396.44
363.882	405.44
364.109	395.44
364.335	397.44
364.562	399.44
364.788	407.44
365.015	417.44
365.241	400.44
365.468	398.44
365.694	384.44
365.92	386.44
366.147	419.44
366.373	391.44
366.599	385.44
366.826	394.44
367.052	394.44
367.278	390.44
367.505	401.44
367.731	393.44
367.957	393.44
368.184	404.44
368.41	402.44
368.636	414.44
368.862	403.44
369.089	434.44
369.315	401.44
369.541	406.44
369.767	380.44
369.993	397.44
370.219	420.44
370.445	394.44
370.672	397.44
370.898	408.44
371.124	400.44
371.35	407.44
371.576	416.44
371.802	393.44
372.028	387.44
372.254	381.44
372.48	392.44
372.706	380.44
372.932	408.44
373.158	404.44
373.384	394.44
373.61	399.44
373.835	395.44
374.061	390.44
374.287	412.44
374.513	386.44
374.739	413.44
374.965	418.44
375.191	414.44
375.416	422.44
375.642	405.44
375.868	397.44
376.094	408.44
376.319	390.44
376.545	412.44
376.771	403.44
376.997	395.44
377.222	401.44
377.448	396.44
377.674	384.44
377.899	386.44
378.125	392.44
378.35	415.44
378.576	380.44
378.802	378.44
379.027	378.44
379.253	408.44
379.478	394.44
379.704	388.44
379.929	380.44
380.155	403.44
380.38	413.44
380.606	388.44
380.831	397.44
381.057	410.44
381.282	406.44
381.507	406.44
381.733	395.44
381.958	395.44
382.184	385.44
382.409	418.44
382.634	408.44
382.86	408.44
383.085	426.44
383.31	436.44
383.535	410.44
383.761	402.44
383.986	393.44
384.211	406.44
384.436	438.44
384.662	413.44
384.887	409.44
385.112	425.44
385.337	450.44
385.562	426.44
385.787	450.44
386.013	437.44
386.238	429.44
386.463	440.44
386.688	434.44
386.913	420.44
387.138	432.44
387.363	426.44
387.588	429.44
387.813	448.44
388.038	444.44
388.263	434.44
388.488	435.44
388.713	426.44
388.938	448.44
389.163	435.44
389.387	444.44
389.612	449.44
389.837	442.44
390.062	416.44
390.287	431.44
390.512	445.44
390.736	422.44
390.961	429.44
391.186	442.44
391.411	441.44
391.636	433.44
391.86	460.44
392.085	458.44
392.31	442.44
392.534	461.44
392.759	459.44
392.984	440.44
393.208	443.44
393.433	450.44
393.658	440.44
393.882	408.44
394.107	417.44
394.331	424.44
394.556	416.44
394.78	434.44
395.005	432.44
395.229	450.44
395.454	445.44
395.678	452.44
395.903	463.44
396.127	472.44
396.352	476.44
396.576	439.44
396.801	458.44
397.025	449.44
397.249	465.44
397.474	468.44
397.698	445.44
397.922	474.44
398.147	489.44
398.371	478.44
398.595	469.44
398.82	500.44
399.044	479.44
399.268	524.44
399.492	556.44
399.717	610.44
399.941	606.44
400.165	613.44
400.389	599.44
400.613	566.44
400.837	520.44
401.062	522.44
401.286	502.44
401.51	482.44
401.734	498.44
401.958	475.44
402.182	493.44
402.406	488.44
402.63	494.44
402.854	500.44
403.078	517.44
403.302	487.44
403.526	520.44
403.75	504.44
403.974	493.44
404.198	520.44
404.422	524.44
404.645	524.44
404.869	518.44
405.093	548.44
405.317	568.44
405.541	588.44
405.765	576.44
405.988	532.44
406.212	518.44
406.436	558.44
406.66	554.44
406.883	538.44
407.107	547.44
407.331	598.44
407.555	636.44
407.778	627.44
408.002	599.44
408.226	549.44
408.449	554.44
408.673	537.44
408.896	572.44
409.12	569.44
409.344	557.44
409.567	521.44
409.791	502.44
410.014	505.44
410.238	515.44
410.461	496.44
410.685	504.44
410.908	517.44
411.132	534.44
411.355	567.44
411.578	550.44
411.802	499.44
412.025	505.44
412.249	501.44
412.472	545.44
412.695	556.44
412.919	531.44
413.142	516.44
413.365	501.44
413.589	483.44
413.812	467.44
414.035	472.44
414.258	487.44
414.482	484.44
414.705	474.44
414.928	491.44
415.151	485.44
415.374	477.44
415.597	459.44
415.821	470.44
416.044	461.44
416.267	468.44
416.49	451.44
416.713	462.44
416.936	475.44
417.159	467.44
417.382	457.44
417.605	470.44
417.828	469.44
418.051	482.44
418.274	474.44
418.497	470.44
418.72	469.44
418.943	481.44
419.166	457.44
419.389	500.44
419.611	508.44
419.834	493.44
420.057	481.44
420.28	496.44
420.503	485.44
420.726	496.44
420.948	484.44
421.171	507.44
421.394	557.44
421.617	484.44
421.839	480.44
422.062	482.44
422.285	476.44
422.507	532.44
422.73	603.44
422.953	580.44
423.175	526.44
423.398	471.44
423.621	500.44
423.843	500.44
424.066	509.44
424.288	510.44
424.511	535.44
424.733	568.44
424.956	621.44
425.178	607.44
425.401	593.44
425.623	612.44
425.846	520.44
426.068	520.44
426.291	506.44
426.513	509.44
426.735	508.44
426.958	527.44
427.18	602.44
427.402	678.44
427.625	743.44
427.847	624.44
428.069	580.44
428.292	544.44
428.514	478.44
428.736	455.44
428.958	471.44
429.181	449.44
429.403	449.44
429.625	457.44
429.847	487.44
430.069	531.44
430.292	531.44
430.514	466.44
430.736	458.44
430.958	451.44
431.18	450.44
431.402	450.44
431.624	440.44
431.846	428.44
432.068	438.44
432.29	446.44
432.512	448.44
432.734	440.44
432.956	456.44
433.178	451.44
433.4	432.44
433.622	454.44
433.844	437.44
434.066	449.44
434.287	432.44
434.509	438.44
434.731	460.44
434.953	465.44
435.175	480.44
435.397	496.44
435.618	512.44
435.84	551.44
436.062	585.44
436.284	648.44
436.505	538.44
436.727	497.44
436.949	485.44
437.17	470.44
437.392	449.44
437.614	466.44
437.835	472.44
438.057	545.44
438.278	628.44
438.5	624.44
438.721	652.44
438.943	661.44
439.165	536.44
439.386	478.44
439.608	468.44
439.829	485.44
440.05	508.44
440.272	532.44
440.493	517.44
440.715	467.44
440.936	476.44
441.158	466.44
441.379	470.44
441.6	474.44
441.822	483.44
442.043	518.44
442.264	597.44
442.486	615.44
442.707	550.44
442.928	515.44
443.149	505.44
443.371	521.44
443.592	533.44
443.813	611.44
444.034	666.44
444.255	571.44
444.476	510.44
444.698	526.44
444.919	496.44
445.14	623.44
445.361	571.44
445.582	533.44
445.803	582.44
446.024	645.44
446.245	635.44
446.466	590.44
446.687	504.44
446.908	476.44
447.129	449.44
447.35	458.44
447.571	470.44
447.792	427.44
448.013	462.44
448.234	455.44
448.455	484.44
448.675	606.44
448.896	644.44
449.117	580.44
449.338	557.44
449.559	634.44
449.779	730.44
450	573.44
450.221	466.44
450.442	451.44
450.662	426.44
450.883	440.44
451.104	438.44
451.324	418.44
451.545	410.44
451.766	428.44
451.986	403.44
452.207	405.44
452.428	419.44
452.648	422.44
452.869	399.44
453.089	410.44
453.31	420.44
453.53	401.44
453.751	395.44
453.971	416.44
454.192	416.44
454.412	390.44
454.633	420.44
454.853	389.44
455.073	384.44
455.294	407.44
455.514	460.44
455.734	440.44
455.955	391.44
456.175	401.44
456.395	394.44
456.616	376.44
456.836	393.44
457.056	377.44
457.276	379.44
457.497	389.44
457.717	381.44
457.937	384.44
458.157	388.44
458.377	416.44
458.598	419.44
458.818	449.44
459.038	484.44
459.258	533.44
459.478	466.44
459.698	439.44
459.918	434.44
460.138	442.44
460.358	430.44
460.578	464.44
460.798	443.44
461.018	458.44
461.238	490.44
461.458	463.44
461.678	448.44
461.898	461.44
462.118	456.44
462.338	471.44
462.558	461.44
462.777	471.44
462.997	485.44
463.217	500.44
463.437	517.44
463.657	504.44
463.876	491.44
464.096	480.44
464.316	477.44
464.536	468.44
464.755	468.44
464.975	475.44
465.195	519.44
465.414	517.44
465.634	478.44
465.854	435.44
466.073	430.44
466.293	426.44
466.512	428.44
466.732	417.44
466.951	429.44
467.171	433.44
467.391	440.44
467.61	416.44
467.829	429.44
468.049	424.44
468.268	418.44
468.488	405.44
468.707	408.44
468.927	412.44
469.146	399.44
469.365	421.44
469.585	395.44
469.804	426.44
470.023	421.44
470.243	405.44
470.462	409.44
470.681	435.44
470.901	429.44
471.12	424.44
471.339	424.44
471.558	430.44
471.777	440.44
471.997	426.44
472.216	426.44
472.435	434.44
472.654	444.44
472.873	412.44
473.092	420.44
473.311	412.44
473.53	429.44
473.749	413.44
473.968	449.44
474.187	536.44
474.406	556.44
474.625	473.44
474.844	432.44
475.063	412.44
475.282	424.44
475.501	428.44
475.72	412.44
475.939	435.44
476.158	405.44
476.377	431.44
476.596	430.44
476.814	436.44
477.033	451.44
477.252	426.44
477.471	459.44
477.69	453.44
477.908	443.44
478.127	461.44
478.346	454.44
478.564	461.44
478.783	482.44
479.002	480.44
479.22	467.44
479.439	493.44
479.658	491.44
479.876	489.44
480.095	490.44
480.313	521.44
480.532	517.44
480.751	499.44
480.969	499.44
481.188	557.44
481.406	562.44
481.624	542.44
481.843	500.44
482.061	491.44
482.28	487.44
482.498	490.44
482.717	485.44
482.935	472.44
483.153	478.44
483.372	492.44
483.59	461.44
483.808	493.44
484.027	480.44
484.245	490.44
484.463	486.44
484.681	517.44
484.9	479.44
485.118	517.44
485.336	496.44
485.554	486.44
485.772	487.44
485.99	482.44
486.209	491.44
486.427	494.44
486.645	520.44
486.863	512.44
487.081	527.44
487.299	518.44
487.517	514.44
487.735	513.44
487.953	504.44
488.171	523.44
488.389	489.44
488.607	503.44
488.825	507.44
489.043	499.44
489.261	507.44
489.479	527.44
489.696	539.44
489.914	516.44
490.132	516.44
490.35	507.44
490.568	541.44
490.786	540.44
491.003	557.44
491.221	556.44
491.439	565.44
491.657	562.44
491.874	580.44
492.092	568.44
492.31	558.44
492.527	579.44
492.745	566.44
492.963	591.44
493.18	565.44
493.398	606.44
493.615	603.44
493.833	605.44
494.05	584.44
494.268	577.44
494.485	601.44
494.703	597.44
494.92	580.44
495.138	585.44
495.355	594.44
495.573	608.44
495.79	606.44
496.008	594.44
496.225	599.44
496.442	607.44
496.66	594.44
496.877	595.44
497.094	597.44
497.312	614.44
497.529	605.44
497.746	656.44
497.963	634.44
498.181	652.44
498.398	641.44
498.615	666.44
498.832	694.44
499.049	717.44
499.267	710.44
499.484	753.44
499.701	786.44
499.918	866.44
500.135	882.44
500.352	918.44
500.569	939.44
500.786	932.44
501.003	895.44
501.22	868.44
501.437	840.44
501.654	820.44
501.871	795.44
