Data from 1964.PennyLincolnUp.Lamp.En5.5.200Scan.071719.P1._HRD10591_14-04-01-909.txt Node
Date: Thu Jul 18 14:04:01 EDT 2019
User: cochatt
Spectrometer: HR+D1059
Trigger mode: 1
Integration Time (sec): 1.000000E-1
Scans to average: 1
Electric dark correction enabled: true
Nonlinearity correction enabled: false
Boxcar width: 0
XAxis mode: Wavelengths
Number of Pixels in Spectrum: 2048
>>>>>Begin Spectral Data<<<<<
223.165	-27.62
223.4	-27.62
223.635	-27.62
223.869	-24.62
224.104	-8.62
224.338	-20.62
224.573	-0.62
224.808	-7.62
225.042	-9.62
225.277	-17.62
225.511	11.38
225.746	7.38
225.98	13.38
226.215	-0.62
226.449	14.38
226.683	21.38
226.918	32.38
227.152	17.38
227.387	40.38
227.621	32.38
227.856	55.38
228.09	35.38
228.324	46.38
228.559	56.38
228.793	69.38
229.027	90.38
229.262	100.38
229.496	93.38
229.73	125.38
229.964	151.38
230.199	119.38
230.433	103.38
230.667	107.38
230.901	111.38
231.136	93.38
231.37	108.38
231.604	108.38
231.838	108.38
232.072	103.38
232.306	106.38
232.541	106.38
232.775	104.38
233.009	108.38
233.243	109.38
233.477	120.38
233.711	114.38
233.945	119.38
234.179	119.38
234.413	116.38
234.647	118.38
234.881	121.38
235.115	103.38
235.349	118.38
235.583	119.38
235.817	108.38
236.051	123.38
236.285	129.38
236.519	115.38
236.753	131.38
236.987	143.38
237.221	160.38
237.455	186.38
237.689	171.38
237.922	129.38
238.156	135.38
238.39	127.38
238.624	136.38
238.858	110.38
239.091	141.38
239.325	117.38
239.559	127.38
239.793	146.38
240.027	120.38
240.26	142.38
240.494	128.38
240.728	140.38
240.961	136.38
241.195	128.38
241.429	143.38
241.662	132.38
241.896	115.38
242.13	126.38
242.363	125.38
242.597	127.38
242.83	141.38
243.064	131.38
243.298	133.38
243.531	129.38
243.765	147.38
243.998	149.38
244.232	137.38
244.465	139.38
244.699	145.38
244.932	150.38
245.166	144.38
245.399	140.38
245.633	149.38
245.866	147.38
246.099	150.38
246.333	150.38
246.566	141.38
246.8	146.38
247.033	155.38
247.266	158.38
247.5	148.38
247.733	161.38
247.966	157.38
248.2	164.38
248.433	169.38
248.666	161.38
248.899	176.38
249.133	196.38
249.366	193.38
249.599	180.38
249.832	195.38
250.066	166.38
250.299	174.38
250.532	180.38
250.765	202.38
250.998	209.38
251.231	214.38
251.465	219.38
251.698	213.38
251.931	199.38
252.164	203.38
252.397	196.38
252.63	199.38
252.863	207.38
253.096	203.38
253.329	225.38
253.562	224.38
253.795	206.38
254.028	226.38
254.261	208.38
254.494	233.38
254.727	218.38
254.96	249.38
255.193	240.38
255.426	225.38
255.659	233.38
255.892	218.38
256.124	207.38
256.357	229.38
256.59	215.38
256.823	220.38
257.056	220.38
257.289	209.38
257.521	207.38
257.754	208.38
257.987	203.38
258.22	202.38
258.452	198.38
258.685	199.38
258.918	213.38
259.151	223.38
259.383	195.38
259.616	209.38
259.849	236.38
260.081	238.38
260.314	248.38
260.547	245.38
260.779	244.38
261.012	240.38
261.244	227.38
261.477	223.38
261.71	221.38
261.942	220.38
262.175	217.38
262.407	244.38
262.64	230.38
262.872	213.38
263.105	220.38
263.337	231.38
263.57	223.38
263.802	226.38
264.035	223.38
264.267	207.38
264.499	235.38
264.732	207.38
264.964	216.38
265.197	225.38
265.429	216.38
265.661	234.38
265.894	239.38
266.126	224.38
266.358	231.38
266.591	223.38
266.823	238.38
267.055	239.38
267.287	247.38
267.52	238.38
267.752	237.38
267.984	241.38
268.216	249.38
268.448	231.38
268.681	245.38
268.913	265.38
269.145	263.38
269.377	271.38
269.609	273.38
269.841	289.38
270.073	273.38
270.306	276.38
270.538	303.38
270.77	292.38
271.002	295.38
271.234	285.38
271.466	298.38
271.698	297.38
271.93	312.38
272.162	308.38
272.394	292.38
272.626	304.38
272.858	292.38
273.09	272.38
273.322	280.38
273.553	275.38
273.785	283.38
274.017	274.38
274.249	262.38
274.481	272.38
274.713	253.38
274.945	283.38
275.176	263.38
275.408	269.38
275.64	279.38
275.872	269.38
276.104	284.38
276.335	286.38
276.567	273.38
276.799	281.38
277.031	308.38
277.262	318.38
277.494	328.38
277.726	316.38
277.957	304.38
278.189	295.38
278.421	301.38
278.652	271.38
278.884	285.38
279.115	276.38
279.347	287.38
279.579	286.38
279.81	303.38
280.042	282.38
280.273	284.38
280.505	270.38
280.736	287.38
280.968	263.38
281.199	277.38
281.431	291.38
281.662	287.38
281.894	293.38
282.125	301.38
282.356	316.38
282.588	301.38
282.819	308.38
283.051	301.38
283.282	296.38
283.513	296.38
283.745	302.38
283.976	312.38
284.207	303.38
284.439	294.38
284.67	320.38
284.901	307.38
285.132	314.38
285.364	279.38
285.595	303.38
285.826	309.38
286.057	314.38
286.288	309.38
286.52	301.38
286.751	293.38
286.982	323.38
287.213	321.38
287.444	314.38
287.675	317.38
287.906	320.38
288.138	311.38
288.369	353.38
288.6	363.38
288.831	337.38
289.062	336.38
289.293	323.38
289.524	318.38
289.755	302.38
289.986	317.38
290.217	317.38
290.448	332.38
290.679	313.38
290.91	328.38
291.141	319.38
291.371	331.38
291.602	309.38
291.833	316.38
292.064	328.38
292.295	323.38
292.526	324.38
292.757	328.38
292.987	327.38
293.218	318.38
293.449	318.38
293.68	316.38
293.91	326.38
294.141	332.38
294.372	326.38
294.603	328.38
294.833	337.38
295.064	328.38
295.295	317.38
295.525	329.38
295.756	334.38
295.987	335.38
296.217	341.38
296.448	349.38
296.679	340.38
296.909	340.38
297.14	340.38
297.37	337.38
297.601	346.38
297.831	312.38
298.062	326.38
298.292	346.38
298.523	322.38
298.753	332.38
298.984	329.38
299.214	342.38
299.445	337.38
299.675	357.38
299.905	353.38
300.136	356.38
300.366	348.38
300.597	356.38
300.827	341.38
301.057	359.38
301.288	376.38
301.518	357.38
301.748	367.38
301.979	377.38
302.209	365.38
302.439	349.38
302.669	354.38
302.9	355.38
303.13	359.38
303.36	403.38
303.59	352.38
303.82	360.38
304.051	370.38
304.281	379.38
304.511	355.38
304.741	351.38
304.971	346.38
305.201	364.38
305.431	369.38
305.661	359.38
305.891	356.38
306.121	342.38
306.352	348.38
306.582	378.38
306.812	371.38
307.042	371.38
307.272	374.38
307.502	368.38
307.731	345.38
307.961	364.38
308.191	376.38
308.421	375.38
308.651	360.38
308.881	364.38
309.111	410.38
309.341	375.38
309.571	387.38
309.8	373.38
310.03	397.38
310.26	384.38
310.49	380.38
310.72	408.38
310.949	407.38
311.179	401.38
311.409	376.38
311.639	373.38
311.868	390.38
312.098	391.38
312.328	416.38
312.557	405.38
312.787	416.38
313.017	420.38
313.246	411.38
313.476	409.38
313.706	405.38
313.935	412.38
314.165	391.38
314.394	412.38
314.624	406.38
314.853	419.38
315.083	407.38
315.312	419.38
315.542	397.38
315.771	381.38
316.001	379.38
316.23	396.38
316.46	394.38
316.689	390.38
316.919	416.38
317.148	409.38
317.377	406.38
317.607	400.38
317.836	374.38
318.065	418.38
318.295	417.38
318.524	404.38
318.753	399.38
318.983	402.38
319.212	407.38
319.441	407.38
319.67	408.38
319.9	401.38
320.129	413.38
320.358	410.38
320.587	416.38
320.816	408.38
321.046	433.38
321.275	435.38
321.504	403.38
321.733	398.38
321.962	408.38
322.191	412.38
322.42	417.38
322.649	433.38
322.878	425.38
323.108	457.38
323.337	442.38
323.566	448.38
323.795	472.38
324.024	512.38
324.253	578.38
324.482	785.38
324.71	1119.38
324.939	1482.38
325.168	1211.38
325.397	695.38
325.626	550.38
325.855	478.38
326.084	481.38
326.313	472.38
326.542	473.38
326.77	495.38
326.999	547.38
327.228	742.38
327.457	960.38
327.686	1128.38
327.914	787.38
328.143	573.38
328.372	541.38
328.6	526.38
328.829	497.38
329.058	496.38
329.287	522.38
329.515	483.38
329.744	490.38
329.972	478.38
330.201	505.38
330.43	543.38
330.658	547.38
330.887	543.38
331.115	519.38
331.344	510.38
331.572	491.38
331.801	471.38
332.03	471.38
332.258	488.38
332.486	471.38
332.715	464.38
332.943	482.38
333.172	501.38
333.4	494.38
333.629	508.38
333.857	519.38
334.085	509.38
334.314	509.38
334.542	553.38
334.771	542.38
334.999	531.38
335.227	501.38
335.455	514.38
335.684	492.38
335.912	488.38
336.14	481.38
336.369	485.38
336.597	479.38
336.825	479.38
337.053	463.38
337.281	485.38
337.51	487.38
337.738	492.38
337.966	470.38
338.194	450.38
338.422	449.38
338.65	437.38
338.878	458.38
339.106	445.38
339.334	457.38
339.562	462.38
339.79	452.38
340.018	433.38
340.246	444.38
340.474	463.38
340.702	450.38
340.93	462.38
341.158	443.38
341.386	448.38
341.614	449.38
341.842	449.38
342.07	427.38
342.298	448.38
342.526	433.38
342.754	415.38
342.981	429.38
343.209	427.38
343.437	432.38
343.665	466.38
343.893	469.38
344.12	466.38
344.348	459.38
344.576	463.38
344.804	457.38
345.031	451.38
345.259	455.38
345.487	419.38
345.714	431.38
345.942	428.38
346.17	419.38
346.397	440.38
346.625	428.38
346.853	418.38
347.08	417.38
347.308	414.38
347.535	414.38
347.763	439.38
347.99	424.38
348.218	415.38
348.445	426.38
348.673	427.38
348.9	436.38
349.128	416.38
349.355	400.38
349.583	392.38
349.81	427.38
350.037	416.38
350.265	413.38
350.492	408.38
350.72	414.38
350.947	426.38
351.174	419.38
351.402	417.38
351.629	424.38
351.856	416.38
352.083	412.38
352.311	440.38
352.538	453.38
352.765	404.38
352.992	421.38
353.22	415.38
353.447	413.38
353.674	424.38
353.901	447.38
354.128	431.38
354.355	393.38
354.583	399.38
354.81	413.38
355.037	409.38
355.264	389.38
355.491	391.38
355.718	395.38
355.945	401.38
356.172	399.38
356.399	427.38
356.626	406.38
356.853	396.38
357.08	398.38
357.307	381.38
357.534	363.38
357.761	393.38
357.988	391.38
358.215	387.38
358.441	407.38
358.668	403.38
358.895	391.38
359.122	407.38
359.349	401.38
359.576	404.38
359.802	416.38
360.029	417.38
360.256	436.38
360.483	423.38
360.709	402.38
360.936	407.38
361.163	394.38
361.39	404.38
361.616	436.38
361.843	409.38
362.07	395.38
362.296	419.38
362.523	415.38
362.749	409.38
362.976	406.38
363.203	411.38
363.429	372.38
363.656	411.38
363.882	395.38
364.109	409.38
364.335	393.38
364.562	402.38
364.788	400.38
365.015	410.38
365.241	419.38
365.468	378.38
365.694	403.38
365.92	411.38
366.147	394.38
366.373	388.38
366.599	392.38
366.826	398.38
367.052	396.38
367.278	395.38
367.505	408.38
367.731	383.38
367.957	396.38
368.184	407.38
368.41	405.38
368.636	400.38
368.862	405.38
369.089	419.38
369.315	395.38
369.541	409.38
369.767	401.38
369.993	381.38
370.219	393.38
370.445	391.38
370.672	393.38
370.898	388.38
371.124	369.38
371.35	390.38
371.576	399.38
371.802	385.38
372.028	392.38
372.254	404.38
372.48	392.38
372.706	396.38
372.932	401.38
373.158	392.38
373.384	412.38
373.61	399.38
373.835	400.38
374.061	383.38
374.287	381.38
374.513	401.38
374.739	408.38
374.965	383.38
375.191	405.38
375.416	403.38
375.642	402.38
375.868	406.38
376.094	411.38
376.319	403.38
376.545	396.38
376.771	373.38
376.997	388.38
377.222	386.38
377.448	401.38
377.674	395.38
377.899	400.38
378.125	383.38
378.35	395.38
378.576	375.38
378.802	387.38
379.027	375.38
379.253	359.38
379.478	385.38
379.704	391.38
379.929	378.38
380.155	396.38
380.38	387.38
380.606	400.38
380.831	413.38
381.057	409.38
381.282	399.38
381.507	387.38
381.733	397.38
381.958	388.38
382.184	388.38
382.409	386.38
382.634	416.38
382.86	405.38
383.085	392.38
383.31	411.38
383.535	397.38
383.761	411.38
383.986	419.38
384.211	403.38
384.436	418.38
384.662	403.38
384.887	411.38
385.112	437.38
385.337	421.38
385.562	415.38
385.787	427.38
386.013	440.38
386.238	427.38
386.463	426.38
386.688	431.38
386.913	419.38
387.138	435.38
387.363	447.38
387.588	430.38
387.813	441.38
388.038	417.38
388.263	413.38
388.488	432.38
388.713	436.38
388.938	443.38
389.163	429.38
389.387	430.38
389.612	434.38
389.837	412.38
390.062	419.38
390.287	410.38
390.512	413.38
390.736	416.38
390.961	437.38
391.186	421.38
391.411	419.38
391.636	427.38
391.86	461.38
392.085	451.38
392.31	458.38
392.534	457.38
392.759	426.38
392.984	424.38
393.208	429.38
393.433	439.38
393.658	425.38
393.882	422.38
394.107	433.38
394.331	421.38
394.556	423.38
394.78	450.38
395.005	411.38
395.229	421.38
395.454	455.38
395.678	441.38
395.903	459.38
396.127	483.38
396.352	469.38
396.576	451.38
396.801	435.38
397.025	436.38
397.249	433.38
397.474	442.38
397.698	452.38
397.922	453.38
398.147	471.38
398.371	485.38
398.595	471.38
398.82	468.38
399.044	512.38
399.268	548.38
399.492	555.38
399.717	603.38
399.941	585.38
400.165	601.38
400.389	600.38
400.613	535.38
400.837	526.38
401.062	532.38
401.286	495.38
401.51	501.38
401.734	490.38
401.958	501.38
402.182	493.38
402.406	488.38
402.63	493.38
402.854	491.38
403.078	504.38
403.302	504.38
403.526	469.38
403.75	503.38
403.974	502.38
404.198	523.38
404.422	530.38
404.645	499.38
404.869	496.38
405.093	553.38
405.317	559.38
405.541	587.38
405.765	545.38
405.988	517.38
406.212	511.38
406.436	530.38
406.66	542.38
406.883	532.38
407.107	546.38
407.331	578.38
407.555	631.38
407.778	647.38
408.002	607.38
408.226	541.38
408.449	537.38
408.673	528.38
408.896	528.38
409.12	592.38
409.344	551.38
409.567	526.38
409.791	505.38
410.014	494.38
410.238	492.38
410.461	488.38
410.685	494.38
410.908	513.38
411.132	545.38
411.355	558.38
411.578	547.38
411.802	506.38
412.025	505.38
412.249	533.38
412.472	544.38
412.695	534.38
412.919	523.38
413.142	507.38
413.365	492.38
413.589	490.38
413.812	465.38
414.035	470.38
414.258	450.38
414.482	459.38
414.705	457.38
414.928	471.38
415.151	470.38
415.374	468.38
415.597	472.38
415.821	454.38
416.044	478.38
416.267	475.38
416.49	456.38
416.713	445.38
416.936	460.38
417.159	462.38
417.382	480.38
417.605	500.38
417.828	469.38
418.051	472.38
418.274	487.38
418.497	460.38
418.72	466.38
418.943	451.38
419.166	462.38
419.389	514.38
419.611	485.38
419.834	469.38
420.057	486.38
420.28	482.38
420.503	499.38
420.726	464.38
420.948	473.38
421.171	514.38
421.394	551.38
421.617	479.38
421.839	462.38
422.062	472.38
422.285	474.38
422.507	529.38
422.73	565.38
422.953	563.38
423.175	509.38
423.398	473.38
423.621	509.38
423.843	496.38
424.066	499.38
424.288	500.38
424.511	527.38
424.733	557.38
424.956	614.38
425.178	593.38
425.401	609.38
425.623	576.38
425.846	502.38
426.068	487.38
426.291	484.38
426.513	503.38
426.735	489.38
426.958	535.38
427.18	575.38
427.402	680.38
427.625	727.38
427.847	603.38
428.069	530.38
428.292	499.38
428.514	518.38
428.736	481.38
428.958	471.38
429.181	457.38
429.403	436.38
429.625	455.38
429.847	479.38
430.069	539.38
430.292	541.38
430.514	473.38
430.736	471.38
430.958	437.38
431.18	433.38
431.402	437.38
431.624	422.38
431.846	438.38
432.068	437.38
432.29	437.38
432.512	431.38
432.734	436.38
432.956	441.38
433.178	440.38
433.4	442.38
433.622	429.38
433.844	445.38
434.066	450.38
434.287	419.38
434.509	434.38
434.731	459.38
434.953	454.38
435.175	473.38
435.397	491.38
435.618	475.38
435.84	525.38
436.062	588.38
436.284	614.38
436.505	539.38
436.727	499.38
436.949	448.38
437.17	448.38
437.392	454.38
437.614	471.38
437.835	484.38
438.057	556.38
438.278	615.38
438.5	606.38
438.721	656.38
438.943	637.38
439.165	503.38
439.386	493.38
439.608	487.38
439.829	465.38
440.05	482.38
440.272	542.38
440.493	492.38
440.715	459.38
440.936	480.38
441.158	465.38
441.379	456.38
441.6	483.38
441.822	487.38
442.043	500.38
442.264	568.38
442.486	598.38
442.707	511.38
442.928	471.38
443.149	467.38
443.371	530.38
443.592	543.38
443.813	601.38
444.034	647.38
444.255	544.38
444.476	515.38
444.698	501.38
444.919	497.38
445.14	643.38
445.361	556.38
445.582	531.38
445.803	540.38
446.024	608.38
446.245	623.38
446.466	588.38
446.687	503.38
446.908	489.38
447.129	462.38
447.35	445.38
447.571	449.38
447.792	442.38
448.013	441.38
448.234	440.38
448.455	470.38
448.675	561.38
448.896	620.38
449.117	546.38
449.338	511.38
449.559	589.38
449.779	686.38
450	527.38
450.221	471.38
450.442	433.38
450.662	433.38
450.883	427.38
451.104	435.38
451.324	423.38
451.545	427.38
451.766	405.38
451.986	389.38
452.207	401.38
452.428	389.38
452.648	393.38
452.869	405.38
453.089	395.38
453.31	420.38
453.53	412.38
453.751	377.38
453.971	400.38
454.192	405.38
454.412	389.38
454.633	420.38
454.853	406.38
455.073	368.38
455.294	409.38
455.514	465.38
455.734	436.38
455.955	389.38
456.175	387.38
456.395	372.38
456.616	379.38
456.836	369.38
457.056	375.38
457.276	362.38
457.497	379.38
457.717	390.38
457.937	379.38
458.157	389.38
458.377	391.38
458.598	410.38
458.818	414.38
459.038	450.38
459.258	494.38
459.478	429.38
459.698	433.38
459.918	427.38
460.138	440.38
460.358	428.38
460.578	413.38
460.798	442.38
461.018	461.38
461.238	448.38
461.458	456.38
461.678	436.38
461.898	426.38
462.118	432.38
462.338	442.38
462.558	465.38
462.777	478.38
462.997	495.38
463.217	496.38
463.437	503.38
463.657	482.38
463.876	481.38
464.096	486.38
464.316	464.38
464.536	454.38
464.755	485.38
464.975	468.38
465.195	492.38
465.414	515.38
465.634	472.38
465.854	442.38
466.073	440.38
466.293	420.38
466.512	408.38
466.732	425.38
466.951	395.38
467.171	394.38
467.391	428.38
467.61	434.38
467.829	424.38
468.049	417.38
468.268	404.38
468.488	402.38
468.707	384.38
468.927	382.38
469.146	391.38
469.365	425.38
469.585	406.38
469.804	402.38
470.023	404.38
470.243	427.38
470.462	402.38
470.681	429.38
470.901	419.38
471.12	425.38
471.339	417.38
471.558	436.38
471.777	426.38
471.997	408.38
472.216	419.38
472.435	425.38
472.654	415.38
472.873	408.38
473.092	392.38
473.311	421.38
473.53	375.38
473.749	416.38
473.968	443.38
474.187	522.38
474.406	517.38
474.625	462.38
474.844	425.38
475.063	409.38
475.282	423.38
475.501	411.38
475.72	393.38
475.939	398.38
476.158	427.38
476.377	409.38
476.596	415.38
476.814	447.38
477.033	426.38
477.252	421.38
477.471	433.38
477.69	444.38
477.908	424.38
478.127	466.38
478.346	485.38
478.564	471.38
478.783	473.38
479.002	460.38
479.22	484.38
479.439	480.38
479.658	492.38
479.876	499.38
480.095	465.38
480.313	505.38
480.532	521.38
480.751	518.38
480.969	513.38
481.188	535.38
481.406	553.38
481.624	506.38
481.843	485.38
482.061	491.38
482.28	488.38
482.498	481.38
482.717	482.38
482.935	489.38
483.153	482.38
483.372	474.38
483.59	465.38
483.808	486.38
484.027	446.38
484.245	474.38
484.463	472.38
484.681	479.38
484.9	470.38
485.118	495.38
485.336	481.38
485.554	470.38
485.772	486.38
485.99	492.38
486.209	511.38
486.427	499.38
486.645	489.38
486.863	492.38
487.081	497.38
487.299	503.38
487.517	505.38
487.735	494.38
487.953	490.38
488.171	504.38
488.389	503.38
488.607	500.38
488.825	500.38
489.043	512.38
489.261	497.38
489.479	499.38
489.696	507.38
489.914	507.38
490.132	527.38
490.35	523.38
490.568	499.38
490.786	534.38
491.003	573.38
491.221	552.38
491.439	537.38
491.657	542.38
491.874	559.38
492.092	568.38
492.31	567.38
492.527	567.38
492.745	559.38
492.963	565.38
493.18	560.38
493.398	567.38
493.615	578.38
493.833	563.38
494.05	549.38
494.268	575.38
494.485	571.38
494.703	580.38
494.92	569.38
495.138	591.38
495.355	580.38
495.573	582.38
495.79	591.38
496.008	579.38
496.225	573.38
496.442	579.38
496.66	601.38
496.877	571.38
497.094	616.38
497.312	586.38
497.529	605.38
497.746	591.38
497.963	605.38
498.181	623.38
498.398	653.38
498.615	667.38
498.832	690.38
499.049	701.38
499.267	719.38
499.484	768.38
499.701	793.38
499.918	833.38
500.135	861.38
500.352	896.38
500.569	915.38
500.786	937.38
501.003	899.38
501.22	854.38
501.437	838.38
501.654	789.38
501.871	775.38
502.088	727.38
