Data from 1964.PennyLincolnUp.Lamp.En5.5.200Scan.071719.P1._HRD10591_14-05-16-909.txt Node
Date: Thu Jul 18 14:05:16 EDT 2019
User: cochatt
Spectrometer: HR+D1059
Trigger mode: 1
Integration Time (sec): 1.000000E-1
Scans to average: 1
Electric dark correction enabled: true
Nonlinearity correction enabled: false
Boxcar width: 0
XAxis mode: Wavelengths
Number of Pixels in Spectrum: 2048
>>>>>Begin Spectral Data<<<<<
223.165	3.62
223.4	3.62
223.635	3.62
223.869	-23.38
224.104	-18.38
224.338	-7.38
224.573	-12.38
224.808	-13.38
225.042	-18.38
225.277	-15.38
225.511	-15.38
225.746	2.62
225.98	21.62
226.215	-4.38
226.449	23.62
226.683	27.62
226.918	25.62
227.152	23.62
227.387	30.62
227.621	38.62
227.856	45.62
228.09	51.62
228.324	55.62
228.559	48.62
228.793	61.62
229.027	99.62
229.262	101.62
229.496	99.62
229.73	116.62
229.964	142.62
230.199	119.62
230.433	115.62
230.667	104.62
230.901	110.62
231.136	112.62
231.37	103.62
231.604	117.62
231.838	123.62
232.072	105.62
232.306	118.62
232.541	113.62
232.775	118.62
233.009	123.62
233.243	110.62
233.477	116.62
233.711	111.62
233.945	128.62
234.179	113.62
234.413	121.62
234.647	108.62
234.881	109.62
235.115	119.62
235.349	110.62
235.583	108.62
235.817	113.62
236.051	121.62
236.285	143.62
236.519	127.62
236.753	131.62
236.987	140.62
237.221	152.62
237.455	187.62
237.689	157.62
237.922	132.62
238.156	135.62
238.39	128.62
238.624	132.62
238.858	129.62
239.091	123.62
239.325	132.62
239.559	124.62
239.793	129.62
240.027	137.62
240.26	138.62
240.494	152.62
240.728	142.62
240.961	143.62
241.195	139.62
241.429	138.62
241.662	153.62
241.896	140.62
242.13	139.62
242.363	132.62
242.597	154.62
242.83	137.62
243.064	139.62
243.298	148.62
243.531	140.62
243.765	138.62
243.998	151.62
244.232	158.62
244.465	142.62
244.699	139.62
244.932	153.62
245.166	127.62
245.399	135.62
245.633	135.62
245.866	148.62
246.099	154.62
246.333	160.62
246.566	159.62
246.8	153.62
247.033	158.62
247.266	169.62
247.5	165.62
247.733	179.62
247.966	172.62
248.2	172.62
248.433	166.62
248.666	185.62
248.899	188.62
249.133	190.62
249.366	187.62
249.599	191.62
249.832	192.62
250.066	176.62
250.299	188.62
250.532	195.62
250.765	209.62
250.998	221.62
251.231	218.62
251.465	204.62
251.698	214.62
251.931	207.62
252.164	187.62
252.397	206.62
252.63	203.62
252.863	206.62
253.096	216.62
253.329	214.62
253.562	221.62
253.795	228.62
254.028	220.62
254.261	209.62
254.494	232.62
254.727	245.62
254.96	241.62
255.193	257.62
255.426	235.62
255.659	210.62
255.892	235.62
256.124	222.62
256.357	231.62
256.59	211.62
256.823	199.62
257.056	206.62
257.289	203.62
257.521	210.62
257.754	195.62
257.987	209.62
258.22	222.62
258.452	212.62
258.685	203.62
258.918	225.62
259.151	205.62
259.383	225.62
259.616	227.62
259.849	233.62
260.081	236.62
260.314	260.62
260.547	266.62
260.779	235.62
261.012	225.62
261.244	220.62
261.477	239.62
261.71	233.62
261.942	231.62
262.175	238.62
262.407	218.62
262.64	211.62
262.872	204.62
263.105	208.62
263.337	213.62
263.57	206.62
263.802	225.62
264.035	229.62
264.267	209.62
264.499	220.62
264.732	237.62
264.964	207.62
265.197	232.62
265.429	220.62
265.661	249.62
265.894	230.62
266.126	232.62
266.358	234.62
266.591	239.62
266.823	236.62
267.055	230.62
267.287	253.62
267.52	244.62
267.752	237.62
267.984	237.62
268.216	257.62
268.448	230.62
268.681	236.62
268.913	235.62
269.145	276.62
269.377	287.62
269.609	290.62
269.841	294.62
270.073	269.62
270.306	293.62
270.538	312.62
270.77	316.62
271.002	308.62
271.234	295.62
271.466	303.62
271.698	315.62
271.93	302.62
272.162	316.62
272.394	304.62
272.626	287.62
272.858	271.62
273.09	301.62
273.322	277.62
273.553	291.62
273.785	300.62
274.017	274.62
274.249	280.62
274.481	267.62
274.713	264.62
274.945	278.62
275.176	277.62
275.408	294.62
275.64	268.62
275.872	279.62
276.104	290.62
276.335	274.62
276.567	267.62
276.799	291.62
277.031	327.62
277.262	313.62
277.494	333.62
277.726	323.62
277.957	298.62
278.189	300.62
278.421	299.62
278.652	303.62
278.884	295.62
279.115	288.62
279.347	306.62
279.579	293.62
279.81	296.62
280.042	283.62
280.273	311.62
280.505	304.62
280.736	300.62
280.968	301.62
281.199	273.62
281.431	290.62
281.662	297.62
281.894	299.62
282.125	296.62
282.356	307.62
282.588	311.62
282.819	281.62
283.051	296.62
283.282	290.62
283.513	312.62
283.745	313.62
283.976	311.62
284.207	305.62
284.439	298.62
284.67	321.62
284.901	335.62
285.132	297.62
285.364	300.62
285.595	306.62
285.826	303.62
286.057	310.62
286.288	300.62
286.52	292.62
286.751	325.62
286.982	331.62
287.213	310.62
287.444	336.62
287.675	334.62
287.906	309.62
288.138	331.62
288.369	319.62
288.6	328.62
288.831	327.62
289.062	327.62
289.293	317.62
289.524	341.62
289.755	337.62
289.986	317.62
290.217	296.62
290.448	315.62
290.679	319.62
290.91	319.62
291.141	301.62
291.371	321.62
291.602	307.62
291.833	313.62
292.064	327.62
292.295	330.62
292.526	306.62
292.757	330.62
292.987	325.62
293.218	308.62
293.449	322.62
293.68	320.62
293.91	327.62
294.141	323.62
294.372	328.62
294.603	323.62
294.833	322.62
295.064	318.62
295.295	332.62
295.525	319.62
295.756	326.62
295.987	334.62
296.217	346.62
296.448	333.62
296.679	344.62
296.909	325.62
297.14	337.62
297.37	321.62
297.601	331.62
297.831	340.62
298.062	342.62
298.292	333.62
298.523	343.62
298.753	350.62
298.984	347.62
299.214	331.62
299.445	327.62
299.675	331.62
299.905	329.62
300.136	337.62
300.366	335.62
300.597	349.62
300.827	355.62
301.057	340.62
301.288	370.62
301.518	360.62
301.748	370.62
301.979	367.62
302.209	366.62
302.439	374.62
302.669	361.62
302.9	368.62
303.13	359.62
303.36	356.62
303.59	352.62
303.82	362.62
304.051	375.62
304.281	355.62
304.511	379.62
304.741	355.62
304.971	357.62
305.201	372.62
305.431	371.62
305.661	371.62
305.891	360.62
306.121	371.62
306.352	349.62
306.582	372.62
306.812	369.62
307.042	371.62
307.272	389.62
307.502	367.62
307.731	351.62
307.961	379.62
308.191	365.62
308.421	362.62
308.651	367.62
308.881	361.62
309.111	367.62
309.341	388.62
309.571	379.62
309.8	393.62
310.03	381.62
310.26	388.62
310.49	405.62
310.72	409.62
310.949	402.62
311.179	405.62
311.409	381.62
311.639	385.62
311.868	396.62
312.098	397.62
312.328	414.62
312.557	396.62
312.787	416.62
313.017	407.62
313.246	417.62
313.476	385.62
313.706	367.62
313.935	397.62
314.165	429.62
314.394	429.62
314.624	408.62
314.853	432.62
315.083	392.62
315.312	408.62
315.542	420.62
315.771	373.62
316.001	393.62
316.23	404.62
316.46	408.62
316.689	406.62
316.919	386.62
317.148	416.62
317.377	417.62
317.607	404.62
317.836	401.62
318.065	409.62
318.295	396.62
318.524	387.62
318.753	417.62
318.983	409.62
319.212	397.62
319.441	414.62
319.67	409.62
319.9	415.62
320.129	407.62
320.358	415.62
320.587	399.62
320.816	418.62
321.046	418.62
321.275	440.62
321.504	414.62
321.733	411.62
321.962	420.62
322.191	419.62
322.42	424.62
322.649	444.62
322.878	438.62
323.108	453.62
323.337	450.62
323.566	484.62
323.795	492.62
324.024	524.62
324.253	591.62
324.482	771.62
324.71	1171.62
324.939	1530.62
325.168	1316.62
325.397	738.62
325.626	555.62
325.855	488.62
326.084	472.62
326.313	485.62
326.542	493.62
326.77	519.62
326.999	581.62
327.228	732.62
327.457	1029.62
327.686	1165.62
327.914	800.62
328.143	597.62
328.372	566.62
328.6	545.62
328.829	479.62
329.058	534.62
329.287	529.62
329.515	540.62
329.744	500.62
329.972	474.62
330.201	508.62
330.43	557.62
330.658	540.62
330.887	553.62
331.115	547.62
331.344	501.62
331.572	469.62
331.801	486.62
332.03	483.62
332.258	476.62
332.486	478.62
332.715	490.62
332.943	487.62
333.172	500.62
333.4	503.62
333.629	511.62
333.857	519.62
334.085	523.62
334.314	545.62
334.542	550.62
334.771	546.62
334.999	523.62
335.227	515.62
335.455	480.62
335.684	493.62
335.912	491.62
336.14	478.62
336.369	481.62
336.597	480.62
336.825	460.62
337.053	488.62
337.281	471.62
337.51	473.62
337.738	460.62
337.966	444.62
338.194	485.62
338.422	478.62
338.65	457.62
338.878	446.62
339.106	447.62
339.334	452.62
339.562	465.62
339.79	460.62
340.018	437.62
340.246	446.62
340.474	448.62
340.702	426.62
340.93	441.62
341.158	441.62
341.386	445.62
341.614	443.62
341.842	429.62
342.07	448.62
342.298	441.62
342.526	429.62
342.754	449.62
342.981	423.62
343.209	447.62
343.437	470.62
343.665	461.62
343.893	458.62
344.12	469.62
344.348	448.62
344.576	460.62
344.804	461.62
345.031	444.62
345.259	451.62
345.487	437.62
345.714	439.62
345.942	444.62
346.17	437.62
346.397	429.62
346.625	441.62
346.853	408.62
347.08	433.62
347.308	442.62
347.535	432.62
347.763	430.62
347.99	432.62
348.218	429.62
348.445	419.62
348.673	435.62
348.9	408.62
349.128	420.62
349.355	422.62
349.583	418.62
349.81	416.62
350.037	412.62
350.265	422.62
350.492	419.62
350.72	426.62
350.947	401.62
351.174	415.62
351.402	435.62
351.629	440.62
351.856	411.62
352.083	411.62
352.311	436.62
352.538	440.62
352.765	429.62
352.992	409.62
353.22	441.62
353.447	418.62
353.674	407.62
353.901	391.62
354.128	407.62
354.355	405.62
354.583	398.62
354.81	397.62
355.037	412.62
355.264	398.62
355.491	399.62
355.718	405.62
355.945	401.62
356.172	387.62
356.399	384.62
356.626	421.62
356.853	381.62
357.08	363.62
357.307	386.62
357.534	416.62
357.761	395.62
357.988	409.62
358.215	401.62
358.441	401.62
358.668	414.62
358.895	388.62
359.122	387.62
359.349	390.62
359.576	419.62
359.802	435.62
360.029	427.62
360.256	413.62
360.483	411.62
360.709	420.62
360.936	407.62
361.163	429.62
361.39	413.62
361.616	408.62
361.843	430.62
362.07	417.62
362.296	417.62
362.523	415.62
362.749	407.62
362.976	399.62
363.203	401.62
363.429	393.62
363.656	391.62
363.882	385.62
364.109	402.62
364.335	375.62
364.562	387.62
364.788	404.62
365.015	397.62
365.241	389.62
365.468	391.62
365.694	409.62
365.92	401.62
366.147	406.62
366.373	387.62
366.599	400.62
366.826	391.62
367.052	388.62
367.278	386.62
367.505	389.62
367.731	405.62
367.957	401.62
368.184	402.62
368.41	391.62
368.636	406.62
368.862	422.62
369.089	409.62
369.315	392.62
369.541	382.62
369.767	392.62
369.993	385.62
370.219	398.62
370.445	393.62
370.672	392.62
370.898	395.62
371.124	406.62
371.35	373.62
371.576	410.62
371.802	405.62
372.028	395.62
372.254	411.62
372.48	383.62
372.706	393.62
372.932	403.62
373.158	409.62
373.384	392.62
373.61	425.62
373.835	423.62
374.061	411.62
374.287	400.62
374.513	411.62
374.739	419.62
374.965	414.62
375.191	421.62
375.416	409.62
375.642	399.62
375.868	399.62
376.094	396.62
376.319	396.62
376.545	396.62
376.771	383.62
376.997	401.62
377.222	381.62
377.448	402.62
377.674	419.62
377.899	400.62
378.125	382.62
378.35	393.62
378.576	399.62
378.802	379.62
379.027	395.62
379.253	405.62
379.478	390.62
379.704	396.62
379.929	383.62
380.155	394.62
380.38	389.62
380.606	389.62
380.831	379.62
381.057	386.62
381.282	383.62
381.507	395.62
381.733	394.62
381.958	386.62
382.184	398.62
382.409	395.62
382.634	404.62
382.86	417.62
383.085	412.62
383.31	403.62
383.535	415.62
383.761	412.62
383.986	391.62
384.211	405.62
384.436	409.62
384.662	424.62
384.887	432.62
385.112	414.62
385.337	411.62
385.562	423.62
385.787	431.62
386.013	443.62
386.238	439.62
386.463	456.62
386.688	449.62
386.913	449.62
387.138	436.62
387.363	428.62
387.588	412.62
387.813	417.62
388.038	436.62
388.263	439.62
388.488	430.62
388.713	435.62
388.938	421.62
389.163	423.62
389.387	419.62
389.612	412.62
389.837	408.62
390.062	399.62
390.287	429.62
390.512	429.62
390.736	429.62
390.961	436.62
391.186	430.62
391.411	438.62
391.636	440.62
391.86	446.62
392.085	428.62
392.31	440.62
392.534	453.62
392.759	439.62
392.984	433.62
393.208	432.62
393.433	427.62
393.658	447.62
393.882	409.62
394.107	420.62
394.331	409.62
394.556	417.62
394.78	433.62
395.005	453.62
395.229	440.62
395.454	443.62
395.678	444.62
395.903	448.62
396.127	474.62
396.352	458.62
396.576	452.62
396.801	439.62
397.025	434.62
397.249	454.62
397.474	440.62
397.698	462.62
397.922	460.62
398.147	513.62
398.371	476.62
398.595	478.62
398.82	483.62
399.044	493.62
399.268	504.62
399.492	555.62
399.717	557.62
399.941	604.62
400.165	601.62
400.389	590.62
400.613	526.62
400.837	515.62
401.062	489.62
401.286	495.62
401.51	497.62
401.734	478.62
401.958	492.62
402.182	479.62
402.406	499.62
402.63	489.62
402.854	493.62
403.078	505.62
403.302	492.62
403.526	518.62
403.75	519.62
403.974	504.62
404.198	492.62
404.422	491.62
404.645	512.62
404.869	527.62
405.093	548.62
405.317	569.62
405.541	581.62
405.765	534.62
405.988	526.62
406.212	535.62
406.436	527.62
406.66	539.62
406.883	554.62
407.107	558.62
407.331	587.62
407.555	635.62
407.778	634.62
408.002	584.62
408.226	563.62
408.449	540.62
408.673	553.62
408.896	573.62
409.12	587.62
409.344	548.62
409.567	515.62
409.791	532.62
410.014	501.62
410.238	503.62
410.461	507.62
410.685	497.62
410.908	507.62
411.132	501.62
411.355	552.62
411.578	533.62
411.802	499.62
412.025	470.62
412.249	495.62
412.472	495.62
412.695	550.62
412.919	551.62
413.142	517.62
413.365	496.62
413.589	468.62
413.812	486.62
414.035	465.62
414.258	482.62
414.482	478.62
414.705	451.62
414.928	469.62
415.151	470.62
415.374	461.62
415.597	463.62
415.821	463.62
416.044	482.62
416.267	469.62
416.49	449.62
416.713	456.62
416.936	453.62
417.159	464.62
417.382	480.62
417.605	461.62
417.828	477.62
418.051	505.62
418.274	472.62
418.497	465.62
418.72	461.62
418.943	445.62
419.166	488.62
419.389	511.62
419.611	501.62
419.834	488.62
420.057	502.62
420.28	484.62
420.503	477.62
420.726	451.62
420.948	493.62
421.171	533.62
421.394	531.62
421.617	490.62
421.839	509.62
422.062	471.62
422.285	491.62
422.507	526.62
422.73	576.62
422.953	558.62
423.175	514.62
423.398	509.62
423.621	493.62
423.843	512.62
424.066	507.62
424.288	504.62
424.511	505.62
424.733	554.62
424.956	589.62
425.178	588.62
425.401	600.62
425.623	596.62
425.846	517.62
426.068	496.62
426.291	467.62
426.513	499.62
426.735	497.62
426.958	508.62
427.18	575.62
427.402	664.62
427.625	734.62
427.847	627.62
428.069	543.62
428.292	517.62
428.514	489.62
428.736	455.62
428.958	473.62
429.181	444.62
429.403	452.62
429.625	451.62
429.847	471.62
430.069	541.62
430.292	550.62
430.514	451.62
430.736	454.62
430.958	441.62
431.18	443.62
431.402	453.62
431.624	442.62
431.846	442.62
432.068	428.62
432.29	442.62
432.512	454.62
432.734	445.62
432.956	432.62
433.178	455.62
433.4	435.62
433.622	452.62
433.844	426.62
434.066	430.62
434.287	446.62
434.509	456.62
434.731	440.62
434.953	460.62
435.175	477.62
435.397	480.62
435.618	481.62
435.84	506.62
436.062	581.62
436.284	631.62
436.505	522.62
436.727	490.62
436.949	466.62
437.17	457.62
437.392	464.62
437.614	439.62
437.835	465.62
438.057	567.62
438.278	631.62
438.5	604.62
438.721	663.62
438.943	621.62
439.165	544.62
439.386	480.62
439.608	472.62
439.829	482.62
440.05	493.62
440.272	512.62
440.493	517.62
440.715	475.62
440.936	448.62
441.158	460.62
441.379	468.62
441.6	475.62
441.822	481.62
442.043	513.62
442.264	585.62
442.486	594.62
442.707	533.62
442.928	490.62
443.149	504.62
443.371	503.62
443.592	557.62
443.813	600.62
444.034	650.62
444.255	581.62
444.476	500.62
444.698	525.62
444.919	483.62
445.14	615.62
445.361	553.62
445.582	521.62
445.803	545.62
446.024	653.62
446.245	632.62
446.466	575.62
446.687	519.62
446.908	464.62
447.129	458.62
447.35	458.62
447.571	451.62
447.792	439.62
448.013	428.62
448.234	479.62
448.455	489.62
448.675	559.62
448.896	644.62
449.117	547.62
449.338	529.62
449.559	631.62
449.779	685.62
450	549.62
450.221	481.62
450.442	432.62
450.662	429.62
450.883	438.62
451.104	439.62
451.324	427.62
451.545	425.62
451.766	407.62
451.986	392.62
452.207	397.62
452.428	404.62
452.648	409.62
452.869	401.62
453.089	402.62
453.31	407.62
453.53	401.62
453.751	394.62
453.971	375.62
454.192	393.62
454.412	406.62
454.633	394.62
454.853	395.62
455.073	381.62
455.294	417.62
455.514	446.62
455.734	435.62
455.955	394.62
456.175	371.62
456.395	365.62
456.616	373.62
456.836	380.62
457.056	367.62
457.276	372.62
457.497	387.62
457.717	373.62
457.937	382.62
458.157	398.62
458.377	388.62
458.598	422.62
458.818	453.62
459.038	461.62
459.258	518.62
459.478	447.62
459.698	415.62
459.918	442.62
460.138	431.62
460.358	453.62
460.578	432.62
460.798	445.62
461.018	451.62
461.238	443.62
461.458	435.62
461.678	440.62
461.898	457.62
462.118	448.62
462.338	453.62
462.558	485.62
462.777	464.62
462.997	469.62
463.217	499.62
463.437	495.62
463.657	500.62
463.876	493.62
464.096	502.62
464.316	511.62
464.536	481.62
464.755	501.62
464.975	479.62
465.195	482.62
465.414	524.62
465.634	455.62
465.854	448.62
466.073	432.62
466.293	444.62
466.512	419.62
466.732	423.62
466.951	421.62
467.171	400.62
467.391	414.62
467.61	418.62
467.829	397.62
468.049	408.62
468.268	390.62
468.488	416.62
468.707	406.62
468.927	399.62
469.146	409.62
469.365	413.62
469.585	402.62
469.804	420.62
470.023	411.62
470.243	403.62
470.462	432.62
470.681	421.62
470.901	429.62
471.12	411.62
471.339	419.62
471.558	385.62
471.777	432.62
471.997	414.62
472.216	419.62
472.435	431.62
472.654	415.62
472.873	407.62
473.092	417.62
473.311	419.62
473.53	438.62
473.749	415.62
473.968	457.62
474.187	551.62
474.406	543.62
474.625	454.62
474.844	430.62
475.063	412.62
475.282	424.62
475.501	410.62
475.72	416.62
475.939	435.62
476.158	428.62
476.377	437.62
476.596	434.62
476.814	433.62
477.033	437.62
477.252	434.62
477.471	439.62
477.69	432.62
477.908	427.62
478.127	469.62
478.346	462.62
478.564	492.62
478.783	475.62
479.002	488.62
479.22	475.62
479.439	478.62
479.658	473.62
479.876	508.62
480.095	495.62
480.313	517.62
480.532	503.62
480.751	519.62
480.969	508.62
481.188	522.62
481.406	558.62
481.624	496.62
481.843	507.62
482.061	492.62
482.28	495.62
482.498	467.62
482.717	467.62
482.935	468.62
483.153	477.62
483.372	482.62
483.59	475.62
483.808	486.62
484.027	495.62
484.245	476.62
484.463	489.62
484.681	483.62
484.9	493.62
485.118	473.62
485.336	500.62
485.554	491.62
485.772	499.62
485.99	486.62
486.209	484.62
486.427	518.62
486.645	507.62
486.863	497.62
487.081	513.62
487.299	517.62
487.517	507.62
487.735	506.62
487.953	487.62
488.171	491.62
488.389	523.62
488.607	517.62
488.825	490.62
489.043	506.62
489.261	514.62
489.479	500.62
489.696	473.62
489.914	503.62
490.132	497.62
490.35	523.62
490.568	542.62
490.786	538.62
491.003	532.62
491.221	549.62
491.439	554.62
491.657	555.62
491.874	559.62
492.092	576.62
492.31	556.62
492.527	562.62
492.745	585.62
492.963	581.62
493.18	580.62
493.398	584.62
493.615	573.62
493.833	572.62
494.05	590.62
494.268	563.62
494.485	595.62
494.703	590.62
494.92	587.62
495.138	578.62
495.355	588.62
495.573	595.62
495.79	560.62
496.008	600.62
496.225	612.62
496.442	614.62
496.66	607.62
496.877	602.62
497.094	639.62
497.312	623.62
497.529	597.62
497.746	623.62
497.963	640.62
498.181	661.62
498.398	651.62
498.615	677.62
498.832	684.62
499.049	696.62
499.267	709.62
499.484	774.62
499.701	775.62
499.918	825.62
500.135	873.62
500.352	909.62
500.569	927.62
500.786	938.62
501.003	904.62
501.22	881.62
501.437	841.62
501.654	785.62
501.871	771.62
502.088	737.62
