Data from 1964.PennyLincolnUp.Lamp.En5.5.200Scan.071719.P1._HRD10591_14-06-15-909.txt Node
Date: Thu Jul 18 14:06:15 EDT 2019
User: cochatt
Spectrometer: HR+D1059
Trigger mode: 1
Integration Time (sec): 1.000000E-1
Scans to average: 1
Electric dark correction enabled: true
Nonlinearity correction enabled: false
Boxcar width: 0
XAxis mode: Wavelengths
Number of Pixels in Spectrum: 2048
>>>>>Begin Spectral Data<<<<<
223.165	-10.25
223.4	-10.25
223.635	-10.25
223.869	-20.25
224.104	-19.25
224.338	5.75
224.573	-20.25
224.808	-27.25
225.042	-11.25
225.277	-0.25
225.511	5.75
225.746	13.75
225.98	-7.25
226.215	5.75
226.449	12.75
226.683	14.75
226.918	29.75
227.152	27.75
227.387	21.75
227.621	58.75
227.856	44.75
228.09	43.75
228.324	42.75
228.559	54.75
228.793	56.75
229.027	80.75
229.262	108.75
229.496	101.75
229.73	129.75
229.964	146.75
230.199	115.75
230.433	111.75
230.667	104.75
230.901	105.75
231.136	103.75
231.37	120.75
231.604	114.75
231.838	98.75
232.072	103.75
232.306	112.75
232.541	107.75
232.775	115.75
233.009	99.75
233.243	108.75
233.477	107.75
233.711	97.75
233.945	118.75
234.179	108.75
234.413	103.75
234.647	119.75
234.881	104.75
235.115	116.75
235.349	124.75
235.583	105.75
235.817	115.75
236.051	129.75
236.285	123.75
236.519	123.75
236.753	122.75
236.987	146.75
237.221	163.75
237.455	209.75
237.689	156.75
237.922	141.75
238.156	125.75
238.39	139.75
238.624	135.75
238.858	131.75
239.091	123.75
239.325	135.75
239.559	123.75
239.793	140.75
240.027	129.75
240.26	136.75
240.494	178.75
240.728	137.75
240.961	139.75
241.195	152.75
241.429	136.75
241.662	127.75
241.896	139.75
242.13	139.75
242.363	151.75
242.597	130.75
242.83	131.75
243.064	112.75
243.298	152.75
243.531	144.75
243.765	142.75
243.998	141.75
244.232	145.75
244.465	140.75
244.699	157.75
244.932	149.75
245.166	141.75
245.399	157.75
245.633	149.75
245.866	159.75
246.099	159.75
246.333	158.75
246.566	152.75
246.8	163.75
247.033	151.75
247.266	173.75
247.5	167.75
247.733	158.75
247.966	178.75
248.2	167.75
248.433	170.75
248.666	170.75
248.899	180.75
249.133	187.75
249.366	198.75
249.599	202.75
249.832	191.75
250.066	177.75
250.299	183.75
250.532	196.75
250.765	193.75
250.998	236.75
251.231	240.75
251.465	216.75
251.698	218.75
251.931	203.75
252.164	186.75
252.397	197.75
252.63	198.75
252.863	210.75
253.096	219.75
253.329	232.75
253.562	240.75
253.795	225.75
254.028	219.75
254.261	218.75
254.494	223.75
254.727	244.75
254.96	264.75
255.193	272.75
255.426	271.75
255.659	243.75
255.892	227.75
256.124	233.75
256.357	228.75
256.59	231.75
256.823	225.75
257.056	227.75
257.289	219.75
257.521	219.75
257.754	212.75
257.987	241.75
258.22	219.75
258.452	218.75
258.685	198.75
258.918	210.75
259.151	224.75
259.383	231.75
259.616	248.75
259.849	231.75
260.081	253.75
260.314	260.75
260.547	252.75
260.779	259.75
261.012	255.75
261.244	242.75
261.477	243.75
261.71	225.75
261.942	216.75
262.175	230.75
262.407	248.75
262.64	233.75
262.872	224.75
263.105	214.75
263.337	231.75
263.57	243.75
263.802	224.75
264.035	228.75
264.267	241.75
264.499	226.75
264.732	229.75
264.964	232.75
265.197	233.75
265.429	221.75
265.661	234.75
265.894	234.75
266.126	234.75
266.358	217.75
266.591	249.75
266.823	249.75
267.055	230.75
267.287	237.75
267.52	241.75
267.752	244.75
267.984	255.75
268.216	255.75
268.448	240.75
268.681	257.75
268.913	258.75
269.145	295.75
269.377	299.75
269.609	300.75
269.841	282.75
270.073	276.75
270.306	286.75
270.538	330.75
270.77	325.75
271.002	305.75
271.234	319.75
271.466	294.75
271.698	310.75
271.93	317.75
272.162	331.75
272.394	319.75
272.626	291.75
272.858	287.75
273.09	305.75
273.322	283.75
273.553	285.75
273.785	300.75
274.017	284.75
274.249	281.75
274.481	277.75
274.713	300.75
274.945	290.75
275.176	298.75
275.408	296.75
275.64	303.75
275.872	293.75
276.104	301.75
276.335	287.75
276.567	304.75
276.799	298.75
277.031	344.75
277.262	322.75
277.494	311.75
277.726	319.75
277.957	312.75
278.189	312.75
278.421	296.75
278.652	290.75
278.884	298.75
279.115	311.75
279.347	301.75
279.579	301.75
279.81	304.75
280.042	292.75
280.273	282.75
280.505	282.75
280.736	296.75
280.968	308.75
281.199	311.75
281.431	313.75
281.662	321.75
281.894	310.75
282.125	305.75
282.356	307.75
282.588	315.75
282.819	336.75
283.051	305.75
283.282	299.75
283.513	319.75
283.745	310.75
283.976	305.75
284.207	316.75
284.439	311.75
284.67	299.75
284.901	297.75
285.132	328.75
285.364	316.75
285.595	305.75
285.826	316.75
286.057	319.75
286.288	321.75
286.52	329.75
286.751	315.75
286.982	305.75
287.213	316.75
287.444	323.75
287.675	320.75
287.906	347.75
288.138	338.75
288.369	347.75
288.6	346.75
288.831	328.75
289.062	325.75
289.293	350.75
289.524	322.75
289.755	344.75
289.986	322.75
290.217	332.75
290.448	324.75
290.679	322.75
290.91	319.75
291.141	312.75
291.371	320.75
291.602	339.75
291.833	330.75
292.064	332.75
292.295	315.75
292.526	327.75
292.757	316.75
292.987	339.75
293.218	328.75
293.449	315.75
293.68	334.75
293.91	327.75
294.141	324.75
294.372	338.75
294.603	322.75
294.833	327.75
295.064	319.75
295.295	337.75
295.525	332.75
295.756	340.75
295.987	340.75
296.217	364.75
296.448	354.75
296.679	349.75
296.909	348.75
297.14	346.75
297.37	367.75
297.601	346.75
297.831	332.75
298.062	344.75
298.292	342.75
298.523	352.75
298.753	366.75
298.984	331.75
299.214	348.75
299.445	356.75
299.675	358.75
299.905	359.75
300.136	363.75
300.366	370.75
300.597	347.75
300.827	357.75
301.057	373.75
301.288	372.75
301.518	372.75
301.748	361.75
301.979	371.75
302.209	353.75
302.439	369.75
302.669	370.75
302.9	358.75
303.13	365.75
303.36	369.75
303.59	379.75
303.82	378.75
304.051	378.75
304.281	370.75
304.511	374.75
304.741	363.75
304.971	367.75
305.201	365.75
305.431	367.75
305.661	369.75
305.891	384.75
306.121	380.75
306.352	386.75
306.582	385.75
306.812	377.75
307.042	362.75
307.272	361.75
307.502	364.75
307.731	376.75
307.961	378.75
308.191	377.75
308.421	363.75
308.651	367.75
308.881	383.75
309.111	381.75
309.341	379.75
309.571	413.75
309.8	404.75
310.03	405.75
310.26	423.75
310.49	424.75
310.72	419.75
310.949	398.75
311.179	435.75
311.409	413.75
311.639	411.75
311.868	421.75
312.098	423.75
312.328	422.75
312.557	421.75
312.787	426.75
313.017	414.75
313.246	416.75
313.476	403.75
313.706	417.75
313.935	408.75
314.165	422.75
314.394	432.75
314.624	439.75
314.853	440.75
315.083	423.75
315.312	417.75
315.542	415.75
315.771	419.75
316.001	402.75
316.23	416.75
316.46	407.75
316.689	408.75
316.919	397.75
317.148	418.75
317.377	444.75
317.607	427.75
317.836	426.75
318.065	413.75
318.295	405.75
318.524	417.75
318.753	393.75
318.983	407.75
319.212	419.75
319.441	394.75
319.67	434.75
319.9	427.75
320.129	428.75
320.358	403.75
320.587	411.75
320.816	436.75
321.046	435.75
321.275	426.75
321.504	435.75
321.733	439.75
321.962	422.75
322.191	450.75
322.42	455.75
322.649	457.75
322.878	474.75
323.108	464.75
323.337	482.75
323.566	495.75
323.795	517.75
324.024	549.75
324.253	646.75
324.482	864.75
324.71	1274.75
324.939	1771.75
325.168	1451.75
325.397	817.75
325.626	601.75
325.855	518.75
326.084	497.75
326.313	502.75
326.542	515.75
326.77	532.75
326.999	634.75
327.228	817.75
327.457	1143.75
327.686	1321.75
327.914	888.75
328.143	651.75
328.372	572.75
328.6	573.75
328.829	538.75
329.058	567.75
329.287	549.75
329.515	547.75
329.744	517.75
329.972	510.75
330.201	529.75
330.43	567.75
330.658	579.75
330.887	589.75
331.115	579.75
331.344	529.75
331.572	518.75
331.801	513.75
332.03	499.75
332.258	485.75
332.486	479.75
332.715	477.75
332.943	474.75
333.172	519.75
333.4	513.75
333.629	532.75
333.857	515.75
334.085	539.75
334.314	553.75
334.542	551.75
334.771	579.75
334.999	533.75
335.227	517.75
335.455	537.75
335.684	495.75
335.912	494.75
336.14	483.75
336.369	489.75
336.597	508.75
336.825	477.75
337.053	468.75
337.281	477.75
337.51	488.75
337.738	475.75
337.966	466.75
338.194	458.75
338.422	471.75
338.65	467.75
338.878	472.75
339.106	463.75
339.334	462.75
339.562	485.75
339.79	458.75
340.018	448.75
340.246	460.75
340.474	481.75
340.702	460.75
340.93	453.75
341.158	458.75
341.386	453.75
341.614	473.75
341.842	464.75
342.07	467.75
342.298	443.75
342.526	454.75
342.754	457.75
342.981	440.75
343.209	438.75
343.437	441.75
343.665	473.75
343.893	472.75
344.12	496.75
344.348	480.75
344.576	485.75
344.804	463.75
345.031	479.75
345.259	465.75
345.487	448.75
345.714	458.75
345.942	451.75
346.17	447.75
346.397	465.75
346.625	430.75
346.853	461.75
347.08	435.75
347.308	434.75
347.535	440.75
347.763	443.75
347.99	440.75
348.218	448.75
348.445	468.75
348.673	402.75
348.9	432.75
349.128	428.75
349.355	427.75
349.583	404.75
349.81	425.75
350.037	428.75
350.265	400.75
350.492	434.75
350.72	449.75
350.947	421.75
351.174	431.75
351.402	441.75
351.629	436.75
351.856	422.75
352.083	409.75
352.311	428.75
352.538	431.75
352.765	435.75
352.992	436.75
353.22	440.75
353.447	418.75
353.674	416.75
353.901	436.75
354.128	415.75
354.355	412.75
354.583	402.75
354.81	426.75
355.037	410.75
355.264	401.75
355.491	409.75
355.718	413.75
355.945	390.75
356.172	418.75
356.399	408.75
356.626	413.75
356.853	410.75
357.08	410.75
357.307	406.75
357.534	407.75
357.761	421.75
357.988	420.75
358.215	410.75
358.441	424.75
358.668	401.75
358.895	414.75
359.122	403.75
359.349	433.75
359.576	421.75
359.802	456.75
360.029	448.75
360.256	455.75
360.483	422.75
360.709	444.75
360.936	424.75
361.163	409.75
361.39	418.75
361.616	431.75
361.843	409.75
362.07	415.75
362.296	410.75
362.523	409.75
362.749	431.75
362.976	434.75
363.203	406.75
363.429	410.75
363.656	378.75
363.882	404.75
364.109	400.75
364.335	390.75
364.562	416.75
364.788	398.75
365.015	410.75
365.241	400.75
365.468	402.75
365.694	406.75
365.92	401.75
366.147	411.75
366.373	394.75
366.599	388.75
366.826	387.75
367.052	396.75
367.278	392.75
367.505	394.75
367.731	410.75
367.957	388.75
368.184	396.75
368.41	407.75
368.636	405.75
368.862	427.75
369.089	408.75
369.315	419.75
369.541	388.75
369.767	393.75
369.993	392.75
370.219	393.75
370.445	407.75
370.672	401.75
370.898	395.75
371.124	395.75
371.35	399.75
371.576	415.75
371.802	395.75
372.028	405.75
372.254	395.75
372.48	393.75
372.706	379.75
372.932	405.75
373.158	432.75
373.384	395.75
373.61	411.75
373.835	407.75
374.061	407.75
374.287	433.75
374.513	400.75
374.739	390.75
374.965	418.75
375.191	404.75
375.416	406.75
375.642	432.75
375.868	414.75
376.094	387.75
376.319	398.75
376.545	402.75
376.771	418.75
376.997	402.75
377.222	407.75
377.448	391.75
377.674	384.75
377.899	409.75
378.125	411.75
378.35	391.75
378.576	388.75
378.802	407.75
379.027	391.75
379.253	393.75
379.478	421.75
379.704	397.75
379.929	411.75
380.155	394.75
380.38	403.75
380.606	419.75
380.831	398.75
381.057	401.75
381.282	394.75
381.507	394.75
381.733	398.75
381.958	411.75
382.184	423.75
382.409	419.75
382.634	403.75
382.86	401.75
383.085	414.75
383.31	421.75
383.535	428.75
383.761	417.75
383.986	423.75
384.211	416.75
384.436	435.75
384.662	416.75
384.887	429.75
385.112	429.75
385.337	444.75
385.562	441.75
385.787	448.75
386.013	452.75
386.238	449.75
386.463	429.75
386.688	455.75
386.913	435.75
387.138	432.75
387.363	433.75
387.588	424.75
387.813	424.75
388.038	405.75
388.263	438.75
388.488	429.75
388.713	420.75
388.938	438.75
389.163	441.75
389.387	442.75
389.612	433.75
389.837	414.75
390.062	447.75
390.287	416.75
390.512	417.75
390.736	425.75
390.961	438.75
391.186	448.75
391.411	438.75
391.636	443.75
391.86	453.75
392.085	447.75
392.31	454.75
392.534	427.75
392.759	441.75
392.984	455.75
393.208	436.75
393.433	435.75
393.658	423.75
393.882	428.75
394.107	437.75
394.331	439.75
394.556	441.75
394.78	423.75
395.005	429.75
395.229	442.75
395.454	442.75
395.678	461.75
395.903	459.75
396.127	480.75
396.352	467.75
396.576	463.75
396.801	433.75
397.025	441.75
397.249	444.75
397.474	472.75
397.698	465.75
397.922	467.75
398.147	464.75
398.371	481.75
398.595	472.75
398.82	473.75
399.044	509.75
399.268	533.75
399.492	572.75
399.717	583.75
399.941	609.75
400.165	617.75
400.389	616.75
400.613	556.75
400.837	515.75
401.062	506.75
401.286	492.75
401.51	501.75
401.734	477.75
401.958	489.75
402.182	499.75
402.406	493.75
402.63	512.75
402.854	509.75
403.078	495.75
403.302	509.75
403.526	500.75
403.75	515.75
403.974	531.75
404.198	508.75
404.422	499.75
404.645	531.75
404.869	536.75
405.093	535.75
405.317	588.75
405.541	570.75
405.765	528.75
405.988	543.75
406.212	531.75
406.436	538.75
406.66	553.75
406.883	553.75
407.107	569.75
407.331	615.75
407.555	614.75
407.778	643.75
408.002	618.75
408.226	571.75
408.449	544.75
408.673	539.75
408.896	581.75
409.12	600.75
409.344	586.75
409.567	547.75
409.791	513.75
410.014	514.75
410.238	488.75
410.461	527.75
410.685	499.75
410.908	512.75
411.132	556.75
411.355	554.75
411.578	545.75
411.802	524.75
412.025	524.75
412.249	507.75
412.472	544.75
412.695	580.75
412.919	556.75
413.142	515.75
413.365	494.75
413.589	511.75
413.812	496.75
414.035	487.75
414.258	472.75
414.482	471.75
414.705	473.75
414.928	496.75
415.151	465.75
415.374	477.75
415.597	473.75
415.821	439.75
416.044	452.75
416.267	480.75
416.49	471.75
416.713	477.75
416.936	472.75
417.159	449.75
417.382	472.75
417.605	463.75
417.828	489.75
418.051	500.75
418.274	481.75
418.497	473.75
418.72	466.75
418.943	468.75
419.166	483.75
419.389	520.75
419.611	497.75
419.834	515.75
420.057	495.75
420.28	519.75
420.503	497.75
420.726	484.75
420.948	491.75
421.171	529.75
421.394	525.75
421.617	492.75
421.839	485.75
422.062	499.75
422.285	484.75
422.507	546.75
422.73	591.75
422.953	576.75
423.175	517.75
423.398	517.75
423.621	497.75
423.843	519.75
424.066	508.75
424.288	509.75
424.511	519.75
424.733	584.75
424.956	625.75
425.178	563.75
425.401	591.75
425.623	608.75
425.846	557.75
426.068	523.75
426.291	521.75
426.513	512.75
426.735	522.75
426.958	532.75
427.18	618.75
427.402	692.75
427.625	747.75
427.847	666.75
428.069	588.75
428.292	534.75
428.514	498.75
428.736	476.75
428.958	453.75
429.181	461.75
429.403	441.75
429.625	465.75
429.847	503.75
430.069	547.75
430.292	534.75
430.514	501.75
430.736	442.75
430.958	451.75
431.18	444.75
431.402	451.75
431.624	463.75
431.846	440.75
432.068	440.75
432.29	448.75
432.512	443.75
432.734	441.75
432.956	443.75
433.178	441.75
433.4	468.75
433.622	446.75
433.844	446.75
434.066	474.75
434.287	449.75
434.509	468.75
434.731	468.75
434.953	443.75
435.175	468.75
435.397	499.75
435.618	506.75
435.84	522.75
436.062	623.75
436.284	646.75
436.505	544.75
436.727	501.75
436.949	471.75
437.17	468.75
437.392	479.75
437.614	486.75
437.835	496.75
438.057	579.75
438.278	646.75
438.5	663.75
438.721	690.75
438.943	665.75
439.165	539.75
439.386	509.75
439.608	498.75
439.829	497.75
440.05	527.75
440.272	530.75
440.493	536.75
440.715	495.75
440.936	472.75
441.158	474.75
441.379	465.75
441.6	491.75
441.822	489.75
442.043	543.75
442.264	606.75
442.486	629.75
442.707	547.75
442.928	506.75
443.149	539.75
443.371	532.75
443.592	560.75
443.813	660.75
444.034	667.75
444.255	569.75
444.476	539.75
444.698	531.75
444.919	518.75
445.14	619.75
445.361	563.75
445.582	528.75
445.803	586.75
446.024	659.75
446.245	657.75
446.466	584.75
446.687	523.75
446.908	498.75
447.129	463.75
447.35	466.75
447.571	459.75
447.792	449.75
448.013	467.75
448.234	472.75
448.455	518.75
448.675	589.75
448.896	684.75
449.117	582.75
449.338	571.75
449.559	628.75
449.779	712.75
450	595.75
450.221	491.75
450.442	481.75
450.662	446.75
450.883	434.75
451.104	443.75
451.324	428.75
451.545	415.75
451.766	412.75
451.986	419.75
452.207	407.75
452.428	387.75
452.648	417.75
452.869	403.75
453.089	419.75
453.31	437.75
453.53	420.75
453.751	412.75
453.971	391.75
454.192	420.75
454.412	417.75
454.633	406.75
454.853	402.75
455.073	404.75
455.294	442.75
455.514	482.75
455.734	466.75
455.955	411.75
456.175	402.75
456.395	391.75
456.616	380.75
456.836	375.75
457.056	348.75
457.276	383.75
457.497	395.75
457.717	372.75
457.937	405.75
458.157	411.75
458.377	405.75
458.598	436.75
458.818	456.75
459.038	514.75
459.258	520.75
459.478	453.75
459.698	446.75
459.918	445.75
460.138	441.75
460.358	432.75
460.578	451.75
460.798	452.75
461.018	452.75
461.238	455.75
461.458	463.75
461.678	451.75
461.898	486.75
462.118	453.75
462.338	472.75
462.558	475.75
462.777	491.75
462.997	467.75
463.217	499.75
463.437	517.75
463.657	506.75
463.876	500.75
464.096	482.75
464.316	476.75
464.536	485.75
464.755	484.75
464.975	490.75
465.195	505.75
465.414	525.75
465.634	469.75
465.854	459.75
466.073	449.75
466.293	397.75
466.512	409.75
466.732	413.75
466.951	439.75
467.171	440.75
467.391	413.75
467.61	447.75
467.829	417.75
468.049	420.75
468.268	429.75
468.488	418.75
468.707	417.75
468.927	413.75
469.146	406.75
469.365	401.75
469.585	423.75
469.804	426.75
470.023	421.75
470.243	428.75
470.462	398.75
470.681	429.75
470.901	434.75
471.12	425.75
471.339	406.75
471.558	426.75
471.777	408.75
471.997	426.75
472.216	416.75
472.435	438.75
472.654	449.75
472.873	429.75
473.092	403.75
473.311	405.75
473.53	423.75
473.749	417.75
473.968	468.75
474.187	561.75
474.406	536.75
474.625	482.75
474.844	441.75
475.063	416.75
475.282	420.75
475.501	419.75
475.72	424.75
475.939	443.75
476.158	432.75
476.377	426.75
476.596	424.75
476.814	426.75
477.033	437.75
477.252	457.75
477.471	461.75
477.69	450.75
477.908	449.75
478.127	445.75
478.346	467.75
478.564	482.75
478.783	478.75
479.002	475.75
479.22	493.75
479.439	473.75
479.658	501.75
479.876	509.75
480.095	501.75
480.313	518.75
480.532	531.75
480.751	526.75
480.969	522.75
481.188	568.75
481.406	602.75
481.624	547.75
481.843	504.75
482.061	489.75
482.28	484.75
482.498	476.75
482.717	480.75
482.935	486.75
483.153	491.75
483.372	488.75
483.59	497.75
483.808	490.75
484.027	489.75
484.245	499.75
484.463	483.75
484.681	499.75
484.9	513.75
485.118	492.75
485.336	483.75
485.554	509.75
485.772	511.75
485.99	500.75
486.209	511.75
486.427	513.75
486.645	532.75
486.863	525.75
487.081	502.75
487.299	511.75
487.517	512.75
487.735	523.75
487.953	508.75
488.171	523.75
488.389	529.75
488.607	511.75
488.825	520.75
489.043	537.75
489.261	529.75
489.479	516.75
489.696	523.75
489.914	536.75
490.132	515.75
490.35	545.75
490.568	553.75
490.786	536.75
491.003	550.75
491.221	551.75
491.439	569.75
491.657	586.75
491.874	572.75
492.092	574.75
492.31	575.75
492.527	583.75
492.745	606.75
492.963	571.75
493.18	604.75
493.398	581.75
493.615	610.75
493.833	596.75
494.05	614.75
494.268	611.75
494.485	611.75
494.703	603.75
494.92	608.75
495.138	585.75
495.355	601.75
495.573	602.75
495.79	604.75
496.008	601.75
496.225	613.75
496.442	623.75
496.66	600.75
496.877	569.75
497.094	611.75
497.312	618.75
497.529	613.75
497.746	638.75
497.963	667.75
498.181	663.75
498.398	698.75
498.615	688.75
498.832	711.75
499.049	723.75
499.267	745.75
499.484	770.75
499.701	795.75
499.918	844.75
500.135	882.75
500.352	913.75
500.569	939.75
500.786	925.75
501.003	915.75
501.22	900.75
501.437	847.75
501.654	785.75
501.871	800.75
502.088	742.75
