Data from 1964.PennyLincolnUp.Lamp.En5.5.200Scan.071719.P1._HRD10591_14-06-22-910.txt Node
Date: Thu Jul 18 14:06:22 EDT 2019
User: cochatt
Spectrometer: HR+D1059
Trigger mode: 1
Integration Time (sec): 1.000000E-1
Scans to average: 1
Electric dark correction enabled: true
Nonlinearity correction enabled: false
Boxcar width: 0
XAxis mode: Wavelengths
Number of Pixels in Spectrum: 2048
>>>>>Begin Spectral Data<<<<<
223.165	-9.94
223.4	-9.94
223.635	-9.94
223.869	-6.94
224.104	-7.94
224.338	-7.94
224.573	-11.94
224.808	-21.94
225.042	-25.94
225.277	-4.94
225.511	-10.94
225.746	11.06
225.98	2.06
226.215	4.06
226.449	17.06
226.683	14.06
226.918	30.06
227.152	30.06
227.387	18.06
227.621	39.06
227.856	36.06
228.09	28.06
228.324	40.06
228.559	55.06
228.793	66.06
229.027	81.06
229.262	97.06
229.496	110.06
229.73	113.06
229.964	134.06
230.199	101.06
230.433	105.06
230.667	110.06
230.901	103.06
231.136	114.06
231.37	96.06
231.604	115.06
231.838	104.06
232.072	104.06
232.306	120.06
232.541	106.06
232.775	114.06
233.009	111.06
233.243	113.06
233.477	108.06
233.711	110.06
233.945	97.06
234.179	118.06
234.413	115.06
234.647	121.06
234.881	116.06
235.115	115.06
235.349	108.06
235.583	112.06
235.817	109.06
236.051	120.06
236.285	130.06
236.519	131.06
236.753	122.06
236.987	144.06
237.221	165.06
237.455	205.06
237.689	177.06
237.922	140.06
238.156	144.06
238.39	133.06
238.624	99.06
238.858	118.06
239.091	112.06
239.325	121.06
239.559	134.06
239.793	119.06
240.027	148.06
240.26	135.06
240.494	147.06
240.728	128.06
240.961	153.06
241.195	146.06
241.429	134.06
241.662	141.06
241.896	139.06
242.13	142.06
242.363	143.06
242.597	136.06
242.83	142.06
243.064	151.06
243.298	136.06
243.531	136.06
243.765	145.06
243.998	141.06
244.232	146.06
244.465	154.06
244.699	145.06
244.932	142.06
245.166	156.06
245.399	150.06
245.633	141.06
245.866	148.06
246.099	151.06
246.333	154.06
246.566	162.06
246.8	156.06
247.033	150.06
247.266	160.06
247.5	155.06
247.733	173.06
247.966	168.06
248.2	164.06
248.433	169.06
248.666	180.06
248.899	175.06
249.133	200.06
249.366	193.06
249.599	197.06
249.832	187.06
250.066	197.06
250.299	192.06
250.532	216.06
250.765	196.06
250.998	228.06
251.231	242.06
251.465	229.06
251.698	207.06
251.931	204.06
252.164	193.06
252.397	196.06
252.63	185.06
252.863	202.06
253.096	211.06
253.329	220.06
253.562	215.06
253.795	227.06
254.028	220.06
254.261	205.06
254.494	228.06
254.727	241.06
254.96	279.06
255.193	271.06
255.426	240.06
255.659	250.06
255.892	240.06
256.124	251.06
256.357	234.06
256.59	240.06
256.823	228.06
257.056	202.06
257.289	225.06
257.521	212.06
257.754	210.06
257.987	203.06
258.22	215.06
258.452	228.06
258.685	222.06
258.918	229.06
259.151	227.06
259.383	229.06
259.616	227.06
259.849	232.06
260.081	250.06
260.314	242.06
260.547	257.06
260.779	249.06
261.012	220.06
261.244	246.06
261.477	222.06
261.71	219.06
261.942	224.06
262.175	232.06
262.407	228.06
262.64	216.06
262.872	228.06
263.105	232.06
263.337	230.06
263.57	255.06
263.802	227.06
264.035	236.06
264.267	229.06
264.499	217.06
264.732	237.06
264.964	234.06
265.197	231.06
265.429	220.06
265.661	234.06
265.894	231.06
266.126	237.06
266.358	239.06
266.591	233.06
266.823	235.06
267.055	241.06
267.287	246.06
267.52	264.06
267.752	259.06
267.984	244.06
268.216	248.06
268.448	262.06
268.681	230.06
268.913	277.06
269.145	279.06
269.377	299.06
269.609	284.06
269.841	280.06
270.073	295.06
270.306	315.06
270.538	313.06
270.77	317.06
271.002	312.06
271.234	297.06
271.466	309.06
271.698	327.06
271.93	313.06
272.162	330.06
272.394	324.06
272.626	307.06
272.858	314.06
273.09	292.06
273.322	293.06
273.553	299.06
273.785	288.06
274.017	269.06
274.249	283.06
274.481	279.06
274.713	293.06
274.945	298.06
275.176	282.06
275.408	291.06
275.64	285.06
275.872	279.06
276.104	262.06
276.335	292.06
276.567	282.06
276.799	324.06
277.031	314.06
277.262	339.06
277.494	323.06
277.726	329.06
277.957	308.06
278.189	284.06
278.421	296.06
278.652	302.06
278.884	302.06
279.115	265.06
279.347	295.06
279.579	297.06
279.81	293.06
280.042	289.06
280.273	285.06
280.505	308.06
280.736	291.06
280.968	295.06
281.199	315.06
281.431	298.06
281.662	288.06
281.894	310.06
282.125	304.06
282.356	311.06
282.588	337.06
282.819	326.06
283.051	313.06
283.282	296.06
283.513	323.06
283.745	320.06
283.976	332.06
284.207	300.06
284.439	324.06
284.67	321.06
284.901	308.06
285.132	323.06
285.364	314.06
285.595	328.06
285.826	311.06
286.057	331.06
286.288	323.06
286.52	297.06
286.751	314.06
286.982	305.06
287.213	310.06
287.444	320.06
287.675	334.06
287.906	336.06
288.138	334.06
288.369	333.06
288.6	328.06
288.831	317.06
289.062	320.06
289.293	332.06
289.524	322.06
289.755	347.06
289.986	316.06
290.217	333.06
290.448	313.06
290.679	319.06
290.91	343.06
291.141	328.06
291.371	330.06
291.602	324.06
291.833	339.06
292.064	327.06
292.295	310.06
292.526	311.06
292.757	326.06
292.987	340.06
293.218	317.06
293.449	333.06
293.68	327.06
293.91	332.06
294.141	327.06
294.372	328.06
294.603	317.06
294.833	350.06
295.064	344.06
295.295	328.06
295.525	341.06
295.756	338.06
295.987	345.06
296.217	361.06
296.448	378.06
296.679	338.06
296.909	332.06
297.14	345.06
297.37	342.06
297.601	358.06
297.831	347.06
298.062	348.06
298.292	364.06
298.523	348.06
298.753	347.06
298.984	335.06
299.214	336.06
299.445	337.06
299.675	344.06
299.905	352.06
300.136	358.06
300.366	369.06
300.597	362.06
300.827	350.06
301.057	362.06
301.288	369.06
301.518	354.06
301.748	373.06
301.979	364.06
302.209	347.06
302.439	358.06
302.669	377.06
302.9	364.06
303.13	365.06
303.36	376.06
303.59	381.06
303.82	379.06
304.051	355.06
304.281	360.06
304.511	370.06
304.741	374.06
304.971	362.06
305.201	368.06
305.431	356.06
305.661	363.06
305.891	370.06
306.121	368.06
306.352	379.06
306.582	384.06
306.812	372.06
307.042	391.06
307.272	377.06
307.502	374.06
307.731	386.06
307.961	358.06
308.191	371.06
308.421	372.06
308.651	380.06
308.881	348.06
309.111	366.06
309.341	387.06
309.571	404.06
309.8	399.06
310.03	390.06
310.26	413.06
310.49	416.06
310.72	421.06
310.949	414.06
311.179	412.06
311.409	421.06
311.639	407.06
311.868	404.06
312.098	413.06
312.328	417.06
312.557	420.06
312.787	436.06
313.017	435.06
313.246	420.06
313.476	417.06
313.706	438.06
313.935	427.06
314.165	414.06
314.394	416.06
314.624	421.06
314.853	435.06
315.083	421.06
315.312	400.06
315.542	414.06
315.771	404.06
316.001	410.06
316.23	414.06
316.46	413.06
316.689	433.06
316.919	432.06
317.148	413.06
317.377	420.06
317.607	437.06
317.836	421.06
318.065	415.06
318.295	415.06
318.524	413.06
318.753	425.06
318.983	398.06
319.212	421.06
319.441	437.06
319.67	426.06
319.9	409.06
320.129	430.06
320.358	427.06
320.587	417.06
320.816	417.06
321.046	428.06
321.275	441.06
321.504	442.06
321.733	425.06
321.962	452.06
322.191	445.06
322.42	449.06
322.649	455.06
322.878	470.06
323.108	470.06
323.337	488.06
323.566	489.06
323.795	536.06
324.024	539.06
324.253	636.06
324.482	900.06
324.71	1341.06
324.939	1783.06
325.168	1489.06
325.397	802.06
325.626	584.06
325.855	516.06
326.084	501.06
326.313	522.06
326.542	516.06
326.77	542.06
326.999	601.06
327.228	814.06
327.457	1169.06
327.686	1323.06
327.914	906.06
328.143	660.06
328.372	599.06
328.6	571.06
328.829	579.06
329.058	556.06
329.287	561.06
329.515	520.06
329.744	524.06
329.972	521.06
330.201	526.06
330.43	557.06
330.658	586.06
330.887	599.06
331.115	568.06
331.344	519.06
331.572	521.06
331.801	507.06
332.03	520.06
332.258	508.06
332.486	495.06
332.715	488.06
332.943	483.06
333.172	473.06
333.4	520.06
333.629	520.06
333.857	532.06
334.085	549.06
334.314	551.06
334.542	539.06
334.771	602.06
334.999	549.06
335.227	533.06
335.455	517.06
335.684	498.06
335.912	492.06
336.14	492.06
336.369	480.06
336.597	480.06
336.825	504.06
337.053	468.06
337.281	493.06
337.51	464.06
337.738	476.06
337.966	480.06
338.194	499.06
338.422	472.06
338.65	465.06
338.878	480.06
339.106	473.06
339.334	449.06
339.562	468.06
339.79	466.06
340.018	482.06
340.246	458.06
340.474	474.06
340.702	469.06
340.93	461.06
341.158	453.06
341.386	456.06
341.614	463.06
341.842	450.06
342.07	460.06
342.298	442.06
342.526	456.06
342.754	473.06
342.981	455.06
343.209	453.06
343.437	447.06
343.665	461.06
343.893	468.06
344.12	491.06
344.348	472.06
344.576	462.06
344.804	488.06
345.031	467.06
345.259	480.06
345.487	444.06
345.714	453.06
345.942	439.06
346.17	450.06
346.397	453.06
346.625	440.06
346.853	440.06
347.08	422.06
347.308	425.06
347.535	441.06
347.763	446.06
347.99	428.06
348.218	464.06
348.445	442.06
348.673	416.06
348.9	426.06
349.128	421.06
349.355	417.06
349.583	422.06
349.81	441.06
350.037	445.06
350.265	413.06
350.492	404.06
350.72	416.06
350.947	438.06
351.174	458.06
351.402	445.06
351.629	410.06
351.856	418.06
352.083	442.06
352.311	452.06
352.538	414.06
352.765	432.06
352.992	410.06
353.22	430.06
353.447	416.06
353.674	421.06
353.901	421.06
354.128	396.06
354.355	418.06
354.583	413.06
354.81	395.06
355.037	394.06
355.264	388.06
355.491	403.06
355.718	410.06
355.945	408.06
356.172	424.06
356.399	383.06
356.626	397.06
356.853	408.06
357.08	416.06
357.307	397.06
357.534	415.06
357.761	392.06
357.988	415.06
358.215	398.06
358.441	416.06
358.668	414.06
358.895	408.06
359.122	428.06
359.349	408.06
359.576	422.06
359.802	461.06
360.029	446.06
360.256	462.06
360.483	437.06
360.709	423.06
360.936	423.06
361.163	420.06
361.39	411.06
361.616	413.06
361.843	413.06
362.07	406.06
362.296	403.06
362.523	419.06
362.749	419.06
362.976	413.06
363.203	418.06
363.429	414.06
363.656	385.06
363.882	385.06
364.109	406.06
364.335	402.06
364.562	398.06
364.788	403.06
365.015	436.06
365.241	402.06
365.468	401.06
365.694	422.06
365.92	392.06
366.147	404.06
366.373	390.06
366.599	409.06
366.826	390.06
367.052	404.06
367.278	397.06
367.505	402.06
367.731	398.06
367.957	394.06
368.184	409.06
368.41	413.06
368.636	423.06
368.862	382.06
369.089	418.06
369.315	390.06
369.541	408.06
369.767	408.06
369.993	389.06
370.219	408.06
370.445	400.06
370.672	404.06
370.898	401.06
371.124	398.06
371.35	411.06
371.576	419.06
371.802	411.06
372.028	414.06
372.254	408.06
372.48	415.06
372.706	397.06
372.932	412.06
373.158	418.06
373.384	414.06
373.61	421.06
373.835	408.06
374.061	424.06
374.287	414.06
374.513	409.06
374.739	402.06
374.965	404.06
375.191	419.06
375.416	432.06
375.642	398.06
375.868	413.06
376.094	393.06
376.319	405.06
376.545	408.06
376.771	376.06
376.997	416.06
377.222	388.06
377.448	395.06
377.674	422.06
377.899	385.06
378.125	399.06
378.35	402.06
378.576	394.06
378.802	377.06
379.027	386.06
379.253	400.06
379.478	403.06
379.704	396.06
379.929	398.06
380.155	400.06
380.38	392.06
380.606	412.06
380.831	387.06
381.057	408.06
381.282	404.06
381.507	406.06
381.733	400.06
381.958	407.06
382.184	395.06
382.409	399.06
382.634	382.06
382.86	390.06
383.085	423.06
383.31	418.06
383.535	416.06
383.761	427.06
383.986	388.06
384.211	442.06
384.436	427.06
384.662	427.06
384.887	448.06
385.112	432.06
385.337	429.06
385.562	425.06
385.787	417.06
386.013	438.06
386.238	438.06
386.463	424.06
386.688	424.06
386.913	431.06
387.138	440.06
387.363	438.06
387.588	442.06
387.813	427.06
388.038	450.06
388.263	432.06
388.488	420.06
388.713	408.06
388.938	414.06
389.163	449.06
389.387	435.06
389.612	419.06
389.837	434.06
390.062	428.06
390.287	436.06
390.512	429.06
390.736	427.06
390.961	424.06
391.186	425.06
391.411	424.06
391.636	449.06
391.86	444.06
392.085	429.06
392.31	464.06
392.534	442.06
392.759	454.06
392.984	421.06
393.208	425.06
393.433	451.06
393.658	452.06
393.882	446.06
394.107	439.06
394.331	426.06
394.556	440.06
394.78	440.06
395.005	444.06
395.229	435.06
395.454	453.06
395.678	470.06
395.903	458.06
396.127	468.06
396.352	481.06
396.576	438.06
396.801	428.06
397.025	431.06
397.249	444.06
397.474	462.06
397.698	460.06
397.922	476.06
398.147	477.06
398.371	474.06
398.595	481.06
398.82	483.06
399.044	513.06
399.268	523.06
399.492	554.06
399.717	611.06
399.941	618.06
400.165	608.06
400.389	594.06
400.613	524.06
400.837	518.06
401.062	494.06
401.286	500.06
401.51	493.06
401.734	500.06
401.958	491.06
402.182	493.06
402.406	501.06
402.63	493.06
402.854	521.06
403.078	506.06
403.302	508.06
403.526	511.06
403.75	510.06
403.974	500.06
404.198	506.06
404.422	522.06
404.645	529.06
404.869	514.06
405.093	561.06
405.317	568.06
405.541	595.06
405.765	553.06
405.988	521.06
406.212	528.06
406.436	544.06
406.66	549.06
406.883	544.06
407.107	576.06
407.331	611.06
407.555	661.06
407.778	626.06
408.002	599.06
408.226	578.06
408.449	560.06
408.673	563.06
408.896	573.06
409.12	613.06
409.344	578.06
409.567	521.06
409.791	510.06
410.014	507.06
410.238	499.06
410.461	510.06
410.685	517.06
410.908	530.06
411.132	560.06
411.355	567.06
411.578	533.06
411.802	513.06
412.025	506.06
412.249	498.06
412.472	534.06
412.695	562.06
412.919	545.06
413.142	512.06
413.365	526.06
413.589	489.06
413.812	464.06
414.035	460.06
414.258	473.06
414.482	507.06
414.705	472.06
414.928	480.06
415.151	472.06
415.374	489.06
415.597	478.06
415.821	476.06
416.044	473.06
416.267	466.06
416.49	465.06
416.713	451.06
416.936	482.06
417.159	485.06
417.382	474.06
417.605	476.06
417.828	476.06
418.051	476.06
418.274	493.06
418.497	474.06
418.72	479.06
418.943	470.06
419.166	474.06
419.389	502.06
419.611	521.06
419.834	505.06
420.057	474.06
420.28	507.06
420.503	472.06
420.726	488.06
420.948	501.06
421.171	538.06
421.394	565.06
421.617	516.06
421.839	483.06
422.062	487.06
422.285	506.06
422.507	555.06
422.73	601.06
422.953	586.06
423.175	525.06
423.398	503.06
423.621	514.06
423.843	525.06
424.066	524.06
424.288	518.06
424.511	551.06
424.733	568.06
424.956	630.06
425.178	589.06
425.401	614.06
425.623	624.06
425.846	534.06
426.068	521.06
426.291	501.06
426.513	526.06
426.735	513.06
426.958	543.06
427.18	611.06
427.402	722.06
427.625	760.06
427.847	670.06
428.069	584.06
428.292	544.06
428.514	478.06
428.736	472.06
428.958	474.06
429.181	439.06
429.403	458.06
429.625	477.06
429.847	489.06
430.069	548.06
430.292	540.06
430.514	456.06
430.736	465.06
430.958	477.06
431.18	449.06
431.402	433.06
431.624	442.06
431.846	439.06
432.068	458.06
432.29	442.06
432.512	453.06
432.734	424.06
432.956	467.06
433.178	456.06
433.4	462.06
433.622	450.06
433.844	449.06
434.066	462.06
434.287	456.06
434.509	458.06
434.731	451.06
434.953	467.06
435.175	472.06
435.397	499.06
435.618	485.06
435.84	532.06
436.062	591.06
436.284	639.06
436.505	560.06
436.727	519.06
436.949	487.06
437.17	461.06
437.392	491.06
437.614	476.06
437.835	498.06
438.057	545.06
438.278	629.06
438.5	658.06
438.721	707.06
438.943	671.06
439.165	544.06
439.386	518.06
439.608	488.06
439.829	501.06
440.05	524.06
440.272	563.06
440.493	532.06
440.715	483.06
440.936	478.06
441.158	501.06
441.379	460.06
441.6	479.06
441.822	501.06
442.043	540.06
442.264	602.06
442.486	608.06
442.707	548.06
442.928	524.06
443.149	520.06
443.371	529.06
443.592	579.06
443.813	633.06
444.034	690.06
444.255	584.06
444.476	545.06
444.698	521.06
444.919	532.06
445.14	617.06
445.361	549.06
445.582	534.06
445.803	586.06
446.024	670.06
446.245	665.06
446.466	607.06
446.687	519.06
446.908	492.06
447.129	458.06
447.35	456.06
447.571	468.06
447.792	445.06
448.013	485.06
448.234	468.06
448.455	514.06
448.675	601.06
448.896	672.06
449.117	566.06
449.338	576.06
449.559	640.06
449.779	735.06
450	568.06
450.221	494.06
450.442	459.06
450.662	454.06
450.883	442.06
451.104	450.06
451.324	443.06
451.545	440.06
451.766	433.06
451.986	408.06
452.207	422.06
452.428	409.06
452.648	406.06
452.869	407.06
453.089	422.06
453.31	440.06
453.53	432.06
453.751	408.06
453.971	407.06
454.192	421.06
454.412	401.06
454.633	422.06
454.853	384.06
455.073	411.06
455.294	425.06
455.514	500.06
455.734	446.06
455.955	421.06
456.175	393.06
456.395	391.06
456.616	412.06
456.836	399.06
457.056	386.06
457.276	381.06
457.497	388.06
457.717	391.06
457.937	405.06
458.157	404.06
458.377	411.06
458.598	423.06
458.818	447.06
459.038	506.06
459.258	528.06
459.478	458.06
459.698	435.06
459.918	448.06
460.138	449.06
460.358	471.06
460.578	452.06
460.798	459.06
461.018	475.06
461.238	457.06
461.458	442.06
461.678	458.06
461.898	454.06
462.118	444.06
462.338	476.06
462.558	496.06
462.777	490.06
462.997	483.06
463.217	495.06
463.437	523.06
463.657	494.06
463.876	472.06
464.096	486.06
464.316	506.06
464.536	500.06
464.755	475.06
464.975	482.06
465.195	489.06
465.414	539.06
465.634	465.06
465.854	465.06
466.073	444.06
466.293	434.06
466.512	414.06
466.732	416.06
466.951	418.06
467.171	420.06
467.391	416.06
467.61	419.06
467.829	420.06
468.049	429.06
468.268	432.06
468.488	428.06
468.707	417.06
468.927	413.06
469.146	403.06
469.365	401.06
469.585	404.06
469.804	427.06
470.023	402.06
470.243	396.06
470.462	423.06
470.681	429.06
470.901	425.06
471.12	435.06
471.339	414.06
471.558	406.06
471.777	437.06
471.997	410.06
472.216	425.06
472.435	444.06
472.654	422.06
472.873	408.06
473.092	424.06
473.311	423.06
473.53	416.06
473.749	428.06
473.968	457.06
474.187	544.06
474.406	552.06
474.625	458.06
474.844	442.06
475.063	421.06
475.282	417.06
475.501	435.06
475.72	419.06
475.939	433.06
476.158	437.06
476.377	443.06
476.596	444.06
476.814	436.06
477.033	453.06
477.252	454.06
477.471	432.06
477.69	456.06
477.908	457.06
478.127	474.06
478.346	472.06
478.564	487.06
478.783	452.06
479.002	484.06
479.22	483.06
479.439	496.06
479.658	485.06
479.876	510.06
480.095	484.06
480.313	523.06
480.532	534.06
480.751	518.06
480.969	529.06
481.188	563.06
481.406	572.06
481.624	526.06
481.843	533.06
482.061	500.06
482.28	485.06
482.498	509.06
482.717	498.06
482.935	479.06
483.153	460.06
483.372	473.06
483.59	500.06
483.808	502.06
484.027	485.06
484.245	513.06
484.463	482.06
484.681	504.06
484.9	517.06
485.118	504.06
485.336	494.06
485.554	512.06
485.772	504.06
485.99	517.06
486.209	521.06
486.427	512.06
486.645	502.06
486.863	516.06
487.081	505.06
487.299	508.06
487.517	512.06
487.735	539.06
487.953	506.06
488.171	517.06
488.389	522.06
488.607	521.06
488.825	512.06
489.043	518.06
489.261	504.06
489.479	526.06
489.696	530.06
489.914	530.06
490.132	534.06
490.35	543.06
490.568	552.06
490.786	530.06
491.003	571.06
491.221	572.06
491.439	564.06
491.657	573.06
491.874	584.06
492.092	573.06
492.31	585.06
492.527	575.06
492.745	586.06
492.963	607.06
493.18	602.06
493.398	605.06
493.615	607.06
493.833	603.06
494.05	601.06
494.268	617.06
494.485	594.06
494.703	624.06
494.92	585.06
495.138	615.06
495.355	601.06
495.573	610.06
495.79	596.06
496.008	598.06
496.225	585.06
496.442	608.06
496.66	606.06
496.877	613.06
497.094	626.06
497.312	650.06
497.529	644.06
497.746	635.06
497.963	648.06
498.181	654.06
498.398	657.06
498.615	688.06
498.832	725.06
499.049	738.06
499.267	731.06
499.484	755.06
499.701	796.06
499.918	834.06
500.135	884.06
500.352	940.06
500.569	949.06
500.786	957.06
501.003	918.06
501.22	876.06
501.437	872.06
501.654	825.06
501.871	803.06
502.088	772.06
