Data from 1964.PennyLincolnUp.Lamp.En5.5.200Scan.071719.P1._HRD10591_14-05-49-911.txt Node
Date: Thu Jul 18 14:05:49 EDT 2019
User: cochatt
Spectrometer: HR+D1059
Trigger mode: 1
Integration Time (sec): 1.000000E-1
Scans to average: 1
Electric dark correction enabled: true
Nonlinearity correction enabled: false
Boxcar width: 0
XAxis mode: Wavelengths
Number of Pixels in Spectrum: 2048
>>>>>Begin Spectral Data<<<<<
223.165	-6.56
223.4	-6.56
223.635	-6.56
223.869	7.44
224.104	-17.56
224.338	-17.56
224.573	-16.56
224.808	-17.56
225.042	-17.56
225.277	-9.56
225.511	1.44
225.746	7.44
225.98	3.44
226.215	5.44
226.449	7.44
226.683	31.44
226.918	11.44
227.152	27.44
227.387	28.44
227.621	26.44
227.856	41.44
228.09	56.44
228.324	37.44
228.559	58.44
228.793	77.44
229.027	95.44
229.262	119.44
229.496	119.44
229.73	118.44
229.964	143.44
230.199	129.44
230.433	105.44
230.667	115.44
230.901	96.44
231.136	117.44
231.37	117.44
231.604	121.44
231.838	124.44
232.072	120.44
232.306	114.44
232.541	95.44
232.775	125.44
233.009	108.44
233.243	127.44
233.477	111.44
233.711	109.44
233.945	131.44
234.179	112.44
234.413	118.44
234.647	128.44
234.881	114.44
235.115	122.44
235.349	126.44
235.583	124.44
235.817	130.44
236.051	118.44
236.285	133.44
236.519	109.44
236.753	133.44
236.987	142.44
237.221	162.44
237.455	201.44
237.689	171.44
237.922	131.44
238.156	125.44
238.39	107.44
238.624	133.44
238.858	123.44
239.091	118.44
239.325	126.44
239.559	131.44
239.793	133.44
240.027	137.44
240.26	132.44
240.494	139.44
240.728	129.44
240.961	134.44
241.195	148.44
241.429	139.44
241.662	130.44
241.896	129.44
242.13	142.44
242.363	127.44
242.597	115.44
242.83	140.44
243.064	129.44
243.298	144.44
243.531	142.44
243.765	157.44
243.998	149.44
244.232	138.44
244.465	150.44
244.699	151.44
244.932	146.44
245.166	149.44
245.399	147.44
245.633	145.44
245.866	152.44
246.099	154.44
246.333	151.44
246.566	160.44
246.8	165.44
247.033	155.44
247.266	163.44
247.5	169.44
247.733	175.44
247.966	186.44
248.2	188.44
248.433	173.44
248.666	172.44
248.899	177.44
249.133	193.44
249.366	203.44
249.599	195.44
249.832	183.44
250.066	178.44
250.299	183.44
250.532	191.44
250.765	204.44
250.998	205.44
251.231	221.44
251.465	228.44
251.698	198.44
251.931	195.44
252.164	197.44
252.397	193.44
252.63	211.44
252.863	206.44
253.096	219.44
253.329	219.44
253.562	211.44
253.795	223.44
254.028	220.44
254.261	224.44
254.494	234.44
254.727	249.44
254.96	265.44
255.193	274.44
255.426	250.44
255.659	241.44
255.892	226.44
256.124	225.44
256.357	242.44
256.59	222.44
256.823	220.44
257.056	199.44
257.289	216.44
257.521	198.44
257.754	205.44
257.987	223.44
258.22	223.44
258.452	215.44
258.685	204.44
258.918	216.44
259.151	207.44
259.383	224.44
259.616	219.44
259.849	243.44
260.081	233.44
260.314	263.44
260.547	261.44
260.779	260.44
261.012	245.44
261.244	225.44
261.477	241.44
261.71	245.44
261.942	230.44
262.175	231.44
262.407	246.44
262.64	228.44
262.872	241.44
263.105	218.44
263.337	236.44
263.57	231.44
263.802	221.44
264.035	229.44
264.267	227.44
264.499	228.44
264.732	217.44
264.964	233.44
265.197	247.44
265.429	228.44
265.661	225.44
265.894	229.44
266.126	234.44
266.358	210.44
266.591	246.44
266.823	239.44
267.055	233.44
267.287	245.44
267.52	244.44
267.752	251.44
267.984	255.44
268.216	227.44
268.448	258.44
268.681	267.44
268.913	270.44
269.145	284.44
269.377	302.44
269.609	287.44
269.841	287.44
270.073	307.44
270.306	274.44
270.538	316.44
270.77	341.44
271.002	313.44
271.234	291.44
271.466	309.44
271.698	316.44
271.93	317.44
272.162	339.44
272.394	322.44
272.626	315.44
272.858	299.44
273.09	283.44
273.322	292.44
273.553	279.44
273.785	274.44
274.017	267.44
274.249	299.44
274.481	278.44
274.713	283.44
274.945	270.44
275.176	294.44
275.408	296.44
275.64	282.44
275.872	307.44
276.104	289.44
276.335	290.44
276.567	279.44
276.799	295.44
277.031	310.44
277.262	322.44
277.494	358.44
277.726	319.44
277.957	300.44
278.189	305.44
278.421	284.44
278.652	305.44
278.884	279.44
279.115	298.44
279.347	292.44
279.579	303.44
279.81	304.44
280.042	308.44
280.273	297.44
280.505	295.44
280.736	294.44
280.968	285.44
281.199	299.44
281.431	302.44
281.662	295.44
281.894	296.44
282.125	305.44
282.356	299.44
282.588	333.44
282.819	326.44
283.051	310.44
283.282	302.44
283.513	297.44
283.745	314.44
283.976	312.44
284.207	306.44
284.439	306.44
284.67	311.44
284.901	302.44
285.132	319.44
285.364	307.44
285.595	315.44
285.826	314.44
286.057	330.44
286.288	313.44
286.52	309.44
286.751	338.44
286.982	309.44
287.213	302.44
287.444	311.44
287.675	314.44
287.906	315.44
288.138	329.44
288.369	331.44
288.6	329.44
288.831	328.44
289.062	331.44
289.293	338.44
289.524	318.44
289.755	330.44
289.986	342.44
290.217	331.44
290.448	329.44
290.679	321.44
290.91	321.44
291.141	332.44
291.371	316.44
291.602	331.44
291.833	318.44
292.064	329.44
292.295	330.44
292.526	334.44
292.757	317.44
292.987	320.44
293.218	309.44
293.449	334.44
293.68	333.44
293.91	335.44
294.141	330.44
294.372	325.44
294.603	333.44
294.833	329.44
295.064	338.44
295.295	330.44
295.525	332.44
295.756	343.44
295.987	356.44
296.217	356.44
296.448	354.44
296.679	356.44
296.909	338.44
297.14	348.44
297.37	354.44
297.601	356.44
297.831	356.44
298.062	355.44
298.292	350.44
298.523	349.44
298.753	342.44
298.984	334.44
299.214	344.44
299.445	329.44
299.675	344.44
299.905	359.44
300.136	350.44
300.366	346.44
300.597	354.44
300.827	363.44
301.057	363.44
301.288	345.44
301.518	356.44
301.748	364.44
301.979	370.44
302.209	373.44
302.439	376.44
302.669	364.44
302.9	370.44
303.13	387.44
303.36	375.44
303.59	377.44
303.82	396.44
304.051	397.44
304.281	377.44
304.511	374.44
304.741	355.44
304.971	345.44
305.201	377.44
305.431	384.44
305.661	362.44
305.891	363.44
306.121	358.44
306.352	366.44
306.582	369.44
306.812	372.44
307.042	359.44
307.272	362.44
307.502	379.44
307.731	378.44
307.961	374.44
308.191	366.44
308.421	389.44
308.651	371.44
308.881	376.44
309.111	384.44
309.341	396.44
309.571	363.44
309.8	389.44
310.03	387.44
310.26	406.44
310.49	393.44
310.72	395.44
310.949	423.44
311.179	413.44
311.409	399.44
311.639	406.44
311.868	394.44
312.098	406.44
312.328	414.44
312.557	427.44
312.787	404.44
313.017	434.44
313.246	407.44
313.476	396.44
313.706	406.44
313.935	413.44
314.165	424.44
314.394	409.44
314.624	422.44
314.853	407.44
315.083	400.44
315.312	444.44
315.542	422.44
315.771	388.44
316.001	390.44
316.23	417.44
316.46	410.44
316.689	403.44
316.919	436.44
317.148	429.44
317.377	419.44
317.607	406.44
317.836	417.44
318.065	424.44
318.295	391.44
318.524	403.44
318.753	398.44
318.983	403.44
319.212	418.44
319.441	414.44
319.67	446.44
319.9	414.44
320.129	410.44
320.358	417.44
320.587	425.44
320.816	408.44
321.046	422.44
321.275	418.44
321.504	423.44
321.733	420.44
321.962	409.44
322.191	442.44
322.42	436.44
322.649	458.44
322.878	489.44
323.108	470.44
323.337	490.44
323.566	492.44
323.795	506.44
324.024	527.44
324.253	614.44
324.482	861.44
324.71	1238.44
324.939	1693.44
325.168	1420.44
325.397	781.44
325.626	556.44
325.855	503.44
326.084	517.44
326.313	506.44
326.542	494.44
326.77	535.44
326.999	605.44
327.228	772.44
327.457	1124.44
327.686	1266.44
327.914	889.44
328.143	620.44
328.372	582.44
328.6	572.44
328.829	546.44
329.058	542.44
329.287	522.44
329.515	515.44
329.744	497.44
329.972	507.44
330.201	540.44
330.43	545.44
330.658	569.44
330.887	575.44
331.115	549.44
331.344	505.44
331.572	507.44
331.801	513.44
332.03	502.44
332.258	501.44
332.486	477.44
332.715	476.44
332.943	482.44
333.172	508.44
333.4	526.44
333.629	508.44
333.857	523.44
334.085	532.44
334.314	541.44
334.542	539.44
334.771	575.44
334.999	537.44
335.227	511.44
335.455	505.44
335.684	483.44
335.912	498.44
336.14	497.44
336.369	488.44
336.597	494.44
336.825	484.44
337.053	484.44
337.281	476.44
337.51	461.44
337.738	489.44
337.966	482.44
338.194	475.44
338.422	457.44
338.65	473.44
338.878	467.44
339.106	470.44
339.334	462.44
339.562	480.44
339.79	460.44
340.018	473.44
340.246	473.44
340.474	458.44
340.702	465.44
340.93	446.44
341.158	451.44
341.386	441.44
341.614	461.44
341.842	473.44
342.07	441.44
342.298	452.44
342.526	447.44
342.754	453.44
342.981	444.44
343.209	435.44
343.437	471.44
343.665	450.44
343.893	463.44
344.12	480.44
344.348	480.44
344.576	475.44
344.804	478.44
345.031	459.44
345.259	471.44
345.487	467.44
345.714	460.44
345.942	436.44
346.17	456.44
346.397	443.44
346.625	445.44
346.853	443.44
347.08	443.44
347.308	423.44
347.535	432.44
347.763	442.44
347.99	433.44
348.218	469.44
348.445	456.44
348.673	445.44
348.9	404.44
349.128	426.44
349.355	420.44
349.583	435.44
349.81	415.44
350.037	446.44
350.265	421.44
350.492	399.44
350.72	430.44
350.947	411.44
351.174	418.44
351.402	444.44
351.629	419.44
351.856	430.44
352.083	430.44
352.311	427.44
352.538	439.44
352.765	433.44
352.992	421.44
353.22	427.44
353.447	429.44
353.674	405.44
353.901	418.44
354.128	404.44
354.355	410.44
354.583	418.44
354.81	412.44
355.037	417.44
355.264	405.44
355.491	407.44
355.718	412.44
355.945	399.44
356.172	388.44
356.399	390.44
356.626	408.44
356.853	403.44
357.08	391.44
357.307	391.44
357.534	421.44
357.761	403.44
357.988	410.44
358.215	418.44
358.441	398.44
358.668	405.44
358.895	407.44
359.122	407.44
359.349	409.44
359.576	425.44
359.802	417.44
360.029	421.44
360.256	440.44
360.483	433.44
360.709	427.44
360.936	424.44
361.163	394.44
361.39	413.44
361.616	409.44
361.843	383.44
362.07	425.44
362.296	426.44
362.523	409.44
362.749	400.44
362.976	422.44
363.203	406.44
363.429	395.44
363.656	401.44
363.882	406.44
364.109	397.44
364.335	409.44
364.562	406.44
364.788	404.44
365.015	394.44
365.241	401.44
365.468	402.44
365.694	397.44
365.92	397.44
366.147	388.44
366.373	402.44
366.599	390.44
366.826	400.44
367.052	395.44
367.278	396.44
367.505	413.44
367.731	408.44
367.957	400.44
368.184	412.44
368.41	408.44
368.636	409.44
368.862	419.44
369.089	426.44
369.315	412.44
369.541	383.44
369.767	398.44
369.993	401.44
370.219	415.44
370.445	405.44
370.672	400.44
370.898	410.44
371.124	392.44
371.35	398.44
371.576	398.44
371.802	407.44
372.028	409.44
372.254	402.44
372.48	389.44
372.706	408.44
372.932	400.44
373.158	437.44
373.384	433.44
373.61	422.44
373.835	400.44
374.061	388.44
374.287	418.44
374.513	408.44
374.739	410.44
374.965	414.44
375.191	393.44
375.416	392.44
375.642	405.44
375.868	396.44
376.094	419.44
376.319	410.44
376.545	393.44
376.771	390.44
376.997	400.44
377.222	407.44
377.448	391.44
377.674	404.44
377.899	394.44
378.125	378.44
378.35	417.44
378.576	397.44
378.802	391.44
379.027	416.44
379.253	385.44
379.478	403.44
379.704	409.44
379.929	383.44
380.155	406.44
380.38	391.44
380.606	422.44
380.831	382.44
381.057	427.44
381.282	374.44
381.507	390.44
381.733	383.44
381.958	398.44
382.184	391.44
382.409	396.44
382.634	405.44
382.86	387.44
383.085	409.44
383.31	403.44
383.535	397.44
383.761	426.44
383.986	417.44
384.211	418.44
384.436	421.44
384.662	425.44
384.887	422.44
385.112	441.44
385.337	421.44
385.562	423.44
385.787	432.44
386.013	429.44
386.238	443.44
386.463	435.44
386.688	423.44
386.913	426.44
387.138	434.44
387.363	429.44
387.588	445.44
387.813	446.44
388.038	415.44
388.263	420.44
388.488	411.44
388.713	428.44
388.938	425.44
389.163	430.44
389.387	441.44
389.612	419.44
389.837	433.44
390.062	437.44
390.287	444.44
390.512	417.44
390.736	414.44
390.961	417.44
391.186	426.44
391.411	454.44
391.636	448.44
391.86	448.44
392.085	451.44
392.31	431.44
392.534	438.44
392.759	452.44
392.984	452.44
393.208	457.44
393.433	443.44
393.658	436.44
393.882	428.44
394.107	433.44
394.331	444.44
394.556	424.44
394.78	423.44
395.005	424.44
395.229	464.44
395.454	439.44
395.678	444.44
395.903	474.44
396.127	478.44
396.352	462.44
396.576	462.44
396.801	445.44
397.025	448.44
397.249	462.44
397.474	473.44
397.698	446.44
397.922	463.44
398.147	459.44
398.371	486.44
398.595	481.44
398.82	506.44
399.044	494.44
399.268	515.44
399.492	555.44
399.717	588.44
399.941	606.44
400.165	601.44
400.389	594.44
400.613	539.44
400.837	529.44
401.062	512.44
401.286	514.44
401.51	498.44
401.734	483.44
401.958	491.44
402.182	485.44
402.406	515.44
402.63	494.44
402.854	499.44
403.078	497.44
403.302	514.44
403.526	534.44
403.75	498.44
403.974	509.44
404.198	532.44
404.422	532.44
404.645	527.44
404.869	531.44
405.093	563.44
405.317	565.44
405.541	592.44
405.765	554.44
405.988	552.44
406.212	559.44
406.436	531.44
406.66	560.44
406.883	522.44
407.107	550.44
407.331	608.44
407.555	664.44
407.778	644.44
408.002	622.44
408.226	572.44
408.449	527.44
408.673	545.44
408.896	559.44
409.12	616.44
409.344	557.44
409.567	531.44
409.791	524.44
410.014	489.44
410.238	497.44
410.461	489.44
410.685	496.44
410.908	511.44
411.132	523.44
411.355	550.44
411.578	549.44
411.802	518.44
412.025	503.44
412.249	511.44
412.472	516.44
412.695	568.44
412.919	544.44
413.142	530.44
413.365	502.44
413.589	492.44
413.812	463.44
414.035	481.44
414.258	486.44
414.482	463.44
414.705	483.44
414.928	458.44
415.151	477.44
415.374	464.44
415.597	471.44
415.821	462.44
416.044	469.44
416.267	448.44
416.49	466.44
416.713	473.44
416.936	458.44
417.159	462.44
417.382	440.44
417.605	471.44
417.828	484.44
418.051	486.44
418.274	466.44
418.497	463.44
418.72	478.44
418.943	480.44
419.166	499.44
419.389	515.44
419.611	513.44
419.834	493.44
420.057	503.44
420.28	474.44
420.503	475.44
420.726	485.44
420.948	502.44
421.171	524.44
421.394	543.44
421.617	502.44
421.839	478.44
422.062	476.44
422.285	483.44
422.507	548.44
422.73	601.44
422.953	582.44
423.175	506.44
423.398	516.44
423.621	503.44
423.843	498.44
424.066	505.44
424.288	519.44
424.511	540.44
424.733	582.44
424.956	631.44
425.178	590.44
425.401	613.44
425.623	602.44
425.846	535.44
426.068	539.44
426.291	496.44
426.513	501.44
426.735	511.44
426.958	527.44
427.18	616.44
427.402	698.44
427.625	789.44
427.847	645.44
428.069	584.44
428.292	508.44
428.514	499.44
428.736	461.44
428.958	479.44
429.181	447.44
429.403	462.44
429.625	475.44
429.847	499.44
430.069	544.44
430.292	533.44
430.514	486.44
430.736	459.44
430.958	440.44
431.18	447.44
431.402	437.44
431.624	441.44
431.846	425.44
432.068	459.44
432.29	461.44
432.512	438.44
432.734	440.44
432.956	437.44
433.178	426.44
433.4	455.44
433.622	468.44
433.844	447.44
434.066	445.44
434.287	450.44
434.509	430.44
434.731	420.44
434.953	467.44
435.175	460.44
435.397	509.44
435.618	494.44
435.84	525.44
436.062	608.44
436.284	630.44
436.505	551.44
436.727	515.44
436.949	476.44
437.17	467.44
437.392	476.44
437.614	480.44
437.835	474.44
438.057	550.44
438.278	634.44
438.5	643.44
438.721	685.44
438.943	630.44
439.165	537.44
439.386	497.44
439.608	480.44
439.829	474.44
440.05	492.44
440.272	546.44
440.493	520.44
440.715	484.44
440.936	475.44
441.158	459.44
441.379	478.44
441.6	457.44
441.822	507.44
442.043	523.44
442.264	605.44
442.486	620.44
442.707	553.44
442.928	503.44
443.149	518.44
443.371	533.44
443.592	553.44
443.813	625.44
444.034	667.44
444.255	583.44
444.476	521.44
444.698	507.44
444.919	518.44
445.14	653.44
445.361	565.44
445.582	517.44
445.803	571.44
446.024	646.44
446.245	625.44
446.466	583.44
446.687	534.44
446.908	486.44
447.129	469.44
447.35	474.44
447.571	454.44
447.792	452.44
448.013	433.44
448.234	453.44
448.455	494.44
448.675	584.44
448.896	677.44
449.117	572.44
449.338	560.44
449.559	631.44
449.779	725.44
450	586.44
450.221	474.44
450.442	449.44
450.662	445.44
450.883	446.44
451.104	418.44
451.324	430.44
451.545	413.44
451.766	422.44
451.986	405.44
452.207	406.44
452.428	406.44
452.648	409.44
452.869	400.44
453.089	395.44
453.31	397.44
453.53	407.44
453.751	396.44
453.971	402.44
454.192	395.44
454.412	402.44
454.633	385.44
454.853	393.44
455.073	386.44
455.294	437.44
455.514	463.44
455.734	461.44
455.955	387.44
456.175	371.44
456.395	380.44
456.616	382.44
456.836	387.44
457.056	397.44
457.276	379.44
457.497	388.44
457.717	400.44
457.937	397.44
458.157	389.44
458.377	405.44
458.598	417.44
458.818	457.44
459.038	501.44
459.258	538.44
459.478	469.44
459.698	442.44
459.918	431.44
460.138	446.44
460.358	463.44
460.578	455.44
460.798	470.44
461.018	446.44
461.238	452.44
461.458	438.44
461.678	435.44
461.898	453.44
462.118	456.44
462.338	462.44
462.558	467.44
462.777	485.44
462.997	489.44
463.217	516.44
463.437	507.44
463.657	490.44
463.876	490.44
464.096	492.44
464.316	481.44
464.536	479.44
464.755	494.44
464.975	500.44
465.195	486.44
465.414	517.44
465.634	475.44
465.854	443.44
466.073	434.44
466.293	426.44
466.512	409.44
466.732	412.44
466.951	426.44
467.171	416.44
467.391	422.44
467.61	415.44
467.829	417.44
468.049	433.44
468.268	431.44
468.488	428.44
468.707	421.44
468.927	393.44
469.146	417.44
469.365	398.44
469.585	410.44
469.804	425.44
470.023	417.44
470.243	437.44
470.462	427.44
470.681	418.44
470.901	437.44
471.12	424.44
471.339	423.44
471.558	433.44
471.777	423.44
471.997	390.44
472.216	413.44
472.435	442.44
472.654	430.44
472.873	425.44
473.092	407.44
473.311	406.44
473.53	429.44
473.749	429.44
473.968	461.44
474.187	554.44
474.406	529.44
474.625	464.44
474.844	445.44
475.063	427.44
475.282	435.44
475.501	436.44
475.72	440.44
475.939	421.44
476.158	445.44
476.377	418.44
476.596	442.44
476.814	444.44
477.033	442.44
477.252	453.44
477.471	437.44
477.69	439.44
477.908	455.44
478.127	455.44
478.346	457.44
478.564	478.44
478.783	471.44
479.002	483.44
479.22	486.44
479.439	484.44
479.658	500.44
479.876	507.44
480.095	511.44
480.313	524.44
480.532	527.44
480.751	507.44
480.969	530.44
481.188	566.44
481.406	602.44
481.624	527.44
481.843	494.44
482.061	489.44
482.28	491.44
482.498	471.44
482.717	489.44
482.935	481.44
483.153	471.44
483.372	484.44
483.59	481.44
483.808	469.44
484.027	488.44
484.245	494.44
484.463	486.44
484.681	511.44
484.9	497.44
485.118	486.44
485.336	508.44
485.554	512.44
485.772	496.44
485.99	501.44
486.209	515.44
486.427	505.44
486.645	505.44
486.863	517.44
487.081	520.44
487.299	509.44
487.517	526.44
487.735	526.44
487.953	518.44
488.171	500.44
488.389	523.44
488.607	522.44
488.825	517.44
489.043	535.44
489.261	514.44
489.479	522.44
489.696	510.44
489.914	523.44
490.132	535.44
490.35	533.44
490.568	564.44
490.786	537.44
491.003	553.44
491.221	563.44
491.439	544.44
491.657	561.44
491.874	565.44
492.092	558.44
492.31	581.44
492.527	571.44
492.745	596.44
492.963	594.44
493.18	592.44
493.398	613.44
493.615	611.44
493.833	573.44
494.05	588.44
494.268	589.44
494.485	588.44
494.703	579.44
494.92	598.44
495.138	594.44
495.355	616.44
495.573	626.44
495.79	601.44
496.008	596.44
496.225	618.44
496.442	605.44
496.66	599.44
496.877	583.44
497.094	616.44
497.312	609.44
497.529	633.44
497.746	631.44
497.963	655.44
498.181	662.44
498.398	649.44
498.615	689.44
498.832	699.44
499.049	717.44
499.267	729.44
499.484	785.44
499.701	794.44
499.918	814.44
500.135	895.44
500.352	899.44
500.569	936.44
500.786	936.44
501.003	923.44
501.22	882.44
501.437	846.44
501.654	833.44
501.871	798.44
502.088	770.44
