Data from 1964.PennyLincolnUp.Lamp.En5.5.200Scan.071719.P1._HRD10591_14-03-26-908.txt Node
Date: Thu Jul 18 14:03:26 EDT 2019
User: cochatt
Spectrometer: HR+D1059
Trigger mode: 1
Integration Time (sec): 1.000000E-1
Scans to average: 1
Electric dark correction enabled: true
Nonlinearity correction enabled: false
Boxcar width: 0
XAxis mode: Wavelengths
Number of Pixels in Spectrum: 2048
>>>>>Begin Spectral Data<<<<<
223.165	-12.69
223.4	-12.69
223.635	-12.69
223.869	-14.69
224.104	-17.69
224.338	-7.69
224.573	-16.69
224.808	-9.69
225.042	-13.69
225.277	-8.69
225.511	4.31
225.746	-4.69
225.98	8.31
226.215	21.31
226.449	17.31
226.683	12.31
226.918	20.31
227.152	22.31
227.387	31.31
227.621	31.31
227.856	35.31
228.09	22.31
228.324	51.31
228.559	37.31
228.793	61.31
229.027	91.31
229.262	87.31
229.496	95.31
229.73	121.31
229.964	129.31
230.199	104.31
230.433	87.31
230.667	92.31
230.901	102.31
231.136	111.31
231.37	111.31
231.604	107.31
231.838	106.31
232.072	96.31
232.306	117.31
232.541	103.31
232.775	107.31
233.009	126.31
233.243	95.31
233.477	112.31
233.711	117.31
233.945	115.31
234.179	113.31
234.413	128.31
234.647	116.31
234.881	107.31
235.115	117.31
235.349	120.31
235.583	125.31
235.817	127.31
236.051	122.31
236.285	100.31
236.519	119.31
236.753	117.31
236.987	129.31
237.221	129.31
237.455	152.31
237.689	131.31
237.922	135.31
238.156	145.31
238.39	133.31
238.624	127.31
238.858	109.31
239.091	117.31
239.325	118.31
239.559	113.31
239.793	112.31
240.027	118.31
240.26	129.31
240.494	143.31
240.728	123.31
240.961	121.31
241.195	144.31
241.429	121.31
241.662	128.31
241.896	128.31
242.13	119.31
242.363	136.31
242.597	131.31
242.83	131.31
243.064	143.31
243.298	131.31
243.531	123.31
243.765	134.31
243.998	129.31
244.232	125.31
244.465	132.31
244.699	138.31
244.932	143.31
245.166	141.31
245.399	139.31
245.633	140.31
245.866	151.31
246.099	147.31
246.333	152.31
246.566	149.31
246.8	129.31
247.033	158.31
247.266	138.31
247.5	149.31
247.733	164.31
247.966	173.31
248.2	160.31
248.433	168.31
248.666	163.31
248.899	173.31
249.133	172.31
249.366	180.31
249.599	172.31
249.832	168.31
250.066	169.31
250.299	166.31
250.532	172.31
250.765	165.31
250.998	205.31
251.231	196.31
251.465	177.31
251.698	191.31
251.931	188.31
252.164	197.31
252.397	188.31
252.63	187.31
252.863	185.31
253.096	207.31
253.329	193.31
253.562	203.31
253.795	200.31
254.028	195.31
254.261	199.31
254.494	215.31
254.727	237.31
254.96	237.31
255.193	231.31
255.426	228.31
255.659	203.31
255.892	218.31
256.124	226.31
256.357	224.31
256.59	220.31
256.823	210.31
257.056	190.31
257.289	215.31
257.521	193.31
257.754	200.31
257.987	196.31
258.22	199.31
258.452	208.31
258.685	186.31
258.918	213.31
259.151	201.31
259.383	203.31
259.616	213.31
259.849	220.31
260.081	230.31
260.314	224.31
260.547	239.31
260.779	238.31
261.012	228.31
261.244	198.31
261.477	218.31
261.71	217.31
261.942	205.31
262.175	217.31
262.407	197.31
262.64	186.31
262.872	192.31
263.105	204.31
263.337	207.31
263.57	209.31
263.802	203.31
264.035	221.31
264.267	222.31
264.499	212.31
264.732	227.31
264.964	217.31
265.197	214.31
265.429	215.31
265.661	208.31
265.894	206.31
266.126	205.31
266.358	214.31
266.591	216.31
266.823	218.31
267.055	240.31
267.287	227.31
267.52	217.31
267.752	210.31
267.984	253.31
268.216	225.31
268.448	254.31
268.681	235.31
268.913	232.31
269.145	228.31
269.377	252.31
269.609	253.31
269.841	248.31
270.073	257.31
270.306	272.31
270.538	277.31
270.77	288.31
271.002	281.31
271.234	269.31
271.466	277.31
271.698	267.31
271.93	278.31
272.162	267.31
272.394	300.31
272.626	279.31
272.858	265.31
273.09	265.31
273.322	274.31
273.553	253.31
273.785	255.31
274.017	255.31
274.249	267.31
274.481	279.31
274.713	272.31
274.945	272.31
275.176	239.31
275.408	261.31
275.64	258.31
275.872	269.31
276.104	268.31
276.335	243.31
276.567	266.31
276.799	285.31
277.031	277.31
277.262	315.31
277.494	287.31
277.726	280.31
277.957	286.31
278.189	281.31
278.421	276.31
278.652	280.31
278.884	253.31
279.115	273.31
279.347	266.31
279.579	281.31
279.81	285.31
280.042	277.31
280.273	271.31
280.505	279.31
280.736	282.31
280.968	258.31
281.199	267.31
281.431	273.31
281.662	268.31
281.894	248.31
282.125	278.31
282.356	294.31
282.588	310.31
282.819	287.31
283.051	279.31
283.282	285.31
283.513	272.31
283.745	278.31
283.976	289.31
284.207	273.31
284.439	288.31
284.67	288.31
284.901	303.31
285.132	293.31
285.364	286.31
285.595	287.31
285.826	286.31
286.057	293.31
286.288	298.31
286.52	287.31
286.751	290.31
286.982	293.31
287.213	296.31
287.444	274.31
287.675	295.31
287.906	304.31
288.138	297.31
288.369	303.31
288.6	318.31
288.831	299.31
289.062	307.31
289.293	276.31
289.524	305.31
289.755	300.31
289.986	300.31
290.217	308.31
290.448	299.31
290.679	307.31
290.91	307.31
291.141	324.31
291.371	309.31
291.602	295.31
291.833	311.31
292.064	284.31
292.295	298.31
292.526	301.31
292.757	305.31
292.987	299.31
293.218	291.31
293.449	324.31
293.68	324.31
293.91	325.31
294.141	313.31
294.372	312.31
294.603	312.31
294.833	303.31
295.064	302.31
295.295	324.31
295.525	300.31
295.756	315.31
295.987	304.31
296.217	316.31
296.448	327.31
296.679	319.31
296.909	305.31
297.14	313.31
297.37	336.31
297.601	320.31
297.831	320.31
298.062	313.31
298.292	319.31
298.523	330.31
298.753	315.31
298.984	333.31
299.214	324.31
299.445	309.31
299.675	323.31
299.905	336.31
300.136	311.31
300.366	324.31
300.597	309.31
300.827	337.31
301.057	342.31
301.288	346.31
301.518	336.31
301.748	338.31
301.979	330.31
302.209	340.31
302.439	329.31
302.669	344.31
302.9	338.31
303.13	330.31
303.36	348.31
303.59	329.31
303.82	333.31
304.051	358.31
304.281	355.31
304.511	339.31
304.741	346.31
304.971	326.31
305.201	345.31
305.431	338.31
305.661	363.31
305.891	357.31
306.121	348.31
306.352	348.31
306.582	350.31
306.812	343.31
307.042	337.31
307.272	354.31
307.502	335.31
307.731	345.31
307.961	341.31
308.191	333.31
308.421	340.31
308.651	343.31
308.881	344.31
309.111	342.31
309.341	351.31
309.571	345.31
309.8	367.31
310.03	364.31
310.26	360.31
310.49	366.31
310.72	359.31
310.949	360.31
311.179	372.31
311.409	347.31
311.639	358.31
311.868	359.31
312.098	372.31
312.328	375.31
312.557	377.31
312.787	364.31
313.017	388.31
313.246	366.31
313.476	377.31
313.706	373.31
313.935	372.31
314.165	397.31
314.394	381.31
314.624	383.31
314.853	366.31
315.083	364.31
315.312	401.31
315.542	413.31
315.771	391.31
316.001	394.31
316.23	379.31
316.46	375.31
316.689	379.31
316.919	364.31
317.148	389.31
317.377	401.31
317.607	391.31
317.836	373.31
318.065	385.31
318.295	372.31
318.524	381.31
318.753	362.31
318.983	362.31
319.212	383.31
319.441	384.31
319.67	399.31
319.9	401.31
320.129	373.31
320.358	367.31
320.587	378.31
320.816	378.31
321.046	379.31
321.275	384.31
321.504	398.31
321.733	388.31
321.962	393.31
322.191	391.31
322.42	409.31
322.649	406.31
322.878	438.31
323.108	402.31
323.337	412.31
323.566	421.31
323.795	429.31
324.024	449.31
324.253	532.31
324.482	701.31
324.71	987.31
324.939	1364.31
325.168	1174.31
325.397	635.31
325.626	494.31
325.855	462.31
326.084	431.31
326.313	430.31
326.542	419.31
326.77	441.31
326.999	506.31
327.228	657.31
327.457	899.31
327.686	1064.31
327.914	714.31
328.143	529.31
328.372	484.31
328.6	468.31
328.829	465.31
329.058	461.31
329.287	480.31
329.515	462.31
329.744	453.31
329.972	461.31
330.201	444.31
330.43	485.31
330.658	477.31
330.887	470.31
331.115	460.31
331.344	445.31
331.572	460.31
331.801	440.31
332.03	437.31
332.258	442.31
332.486	455.31
332.715	439.31
332.943	438.31
333.172	448.31
333.4	456.31
333.629	464.31
333.857	474.31
334.085	487.31
334.314	485.31
334.542	464.31
334.771	485.31
334.999	461.31
335.227	459.31
335.455	454.31
335.684	441.31
335.912	447.31
336.14	455.31
336.369	447.31
336.597	447.31
336.825	461.31
337.053	428.31
337.281	432.31
337.51	447.31
337.738	432.31
337.966	422.31
338.194	442.31
338.422	446.31
338.65	435.31
338.878	410.31
339.106	411.31
339.334	454.31
339.562	420.31
339.79	423.31
340.018	405.31
340.246	406.31
340.474	418.31
340.702	421.31
340.93	405.31
341.158	424.31
341.386	435.31
341.614	408.31
341.842	413.31
342.07	423.31
342.298	408.31
342.526	433.31
342.754	405.31
342.981	425.31
343.209	424.31
343.437	420.31
343.665	413.31
343.893	444.31
344.12	445.31
344.348	443.31
344.576	437.31
344.804	416.31
345.031	432.31
345.259	425.31
345.487	421.31
345.714	406.31
345.942	422.31
346.17	401.31
346.397	402.31
346.625	397.31
346.853	376.31
347.08	383.31
347.308	412.31
347.535	372.31
347.763	374.31
347.99	406.31
348.218	407.31
348.445	404.31
348.673	409.31
348.9	393.31
349.128	392.31
349.355	394.31
349.583	410.31
349.81	404.31
350.037	400.31
350.265	399.31
350.492	381.31
350.72	384.31
350.947	394.31
351.174	403.31
351.402	374.31
351.629	385.31
351.856	391.31
352.083	390.31
352.311	384.31
352.538	392.31
352.765	395.31
352.992	382.31
353.22	373.31
353.447	377.31
353.674	380.31
353.901	369.31
354.128	371.31
354.355	363.31
354.583	391.31
354.81	388.31
355.037	381.31
355.264	366.31
355.491	380.31
355.718	371.31
355.945	390.31
356.172	375.31
356.399	404.31
356.626	376.31
356.853	381.31
357.08	402.31
357.307	387.31
357.534	382.31
357.761	371.31
357.988	381.31
358.215	361.31
358.441	375.31
358.668	364.31
358.895	383.31
359.122	367.31
359.349	383.31
359.576	399.31
359.802	406.31
360.029	408.31
360.256	418.31
360.483	402.31
360.709	399.31
360.936	382.31
361.163	383.31
361.39	380.31
361.616	376.31
361.843	384.31
362.07	385.31
362.296	354.31
362.523	371.31
362.749	367.31
362.976	391.31
363.203	382.31
363.429	357.31
363.656	366.31
363.882	363.31
364.109	404.31
364.335	381.31
364.562	381.31
364.788	371.31
365.015	381.31
365.241	394.31
365.468	377.31
365.694	381.31
365.92	391.31
366.147	366.31
366.373	360.31
366.599	346.31
366.826	360.31
367.052	361.31
367.278	379.31
367.505	354.31
367.731	368.31
367.957	358.31
368.184	375.31
368.41	383.31
368.636	382.31
368.862	384.31
369.089	375.31
369.315	373.31
369.541	363.31
369.767	393.31
369.993	352.31
370.219	364.31
370.445	370.31
370.672	368.31
370.898	389.31
371.124	373.31
371.35	391.31
371.576	382.31
371.802	364.31
372.028	384.31
372.254	397.31
372.48	380.31
372.706	391.31
372.932	391.31
373.158	375.31
373.384	385.31
373.61	382.31
373.835	395.31
374.061	385.31
374.287	397.31
374.513	378.31
374.739	394.31
374.965	392.31
375.191	392.31
375.416	402.31
375.642	374.31
375.868	397.31
376.094	362.31
376.319	367.31
376.545	381.31
376.771	395.31
376.997	381.31
377.222	379.31
377.448	385.31
377.674	369.31
377.899	383.31
378.125	379.31
378.35	365.31
378.576	373.31
378.802	361.31
379.027	377.31
379.253	355.31
379.478	381.31
379.704	351.31
379.929	375.31
380.155	375.31
380.38	372.31
380.606	366.31
380.831	359.31
381.057	387.31
381.282	399.31
381.507	367.31
381.733	372.31
381.958	391.31
382.184	419.31
382.409	392.31
382.634	373.31
382.86	374.31
383.085	382.31
383.31	392.31
383.535	392.31
383.761	397.31
383.986	389.31
384.211	391.31
384.436	387.31
384.662	415.31
384.887	409.31
385.112	400.31
385.337	401.31
385.562	413.31
385.787	390.31
386.013	424.31
386.238	441.31
386.463	406.31
386.688	419.31
386.913	428.31
387.138	421.31
387.363	405.31
387.588	407.31
387.813	412.31
388.038	414.31
388.263	409.31
388.488	423.31
388.713	397.31
388.938	393.31
389.163	415.31
389.387	421.31
389.612	407.31
389.837	402.31
390.062	407.31
390.287	399.31
390.512	410.31
390.736	405.31
390.961	408.31
391.186	405.31
391.411	408.31
391.636	408.31
391.86	422.31
392.085	414.31
392.31	418.31
392.534	406.31
392.759	407.31
392.984	416.31
393.208	422.31
393.433	443.31
393.658	438.31
393.882	425.31
394.107	399.31
394.331	387.31
394.556	398.31
394.78	403.31
395.005	430.31
395.229	407.31
395.454	430.31
395.678	407.31
395.903	436.31
396.127	444.31
396.352	456.31
396.576	435.31
396.801	437.31
397.025	430.31
397.249	419.31
397.474	431.31
397.698	448.31
397.922	453.31
398.147	459.31
398.371	450.31
398.595	459.31
398.82	448.31
399.044	461.31
399.268	502.31
399.492	512.31
399.717	552.31
399.941	570.31
400.165	567.31
400.389	551.31
400.613	514.31
400.837	485.31
401.062	458.31
401.286	491.31
401.51	460.31
401.734	456.31
401.958	468.31
402.182	463.31
402.406	474.31
402.63	456.31
402.854	482.31
403.078	464.31
403.302	464.31
403.526	498.31
403.75	480.31
403.974	481.31
404.198	447.31
404.422	469.31
404.645	480.31
404.869	475.31
405.093	504.31
405.317	535.31
405.541	539.31
405.765	522.31
405.988	515.31
406.212	480.31
406.436	502.31
406.66	500.31
406.883	495.31
407.107	505.31
407.331	559.31
407.555	608.31
407.778	601.31
408.002	549.31
408.226	505.31
408.449	495.31
408.673	486.31
408.896	494.31
409.12	546.31
409.344	511.31
409.567	467.31
409.791	471.31
410.014	462.31
410.238	455.31
410.461	466.31
410.685	486.31
410.908	472.31
411.132	493.31
411.355	522.31
411.578	504.31
411.802	487.31
412.025	475.31
412.249	475.31
412.472	493.31
412.695	490.31
412.919	506.31
413.142	452.31
413.365	454.31
413.589	451.31
413.812	429.31
414.035	435.31
414.258	451.31
414.482	463.31
414.705	448.31
414.928	440.31
415.151	453.31
415.374	461.31
415.597	453.31
415.821	439.31
416.044	413.31
416.267	446.31
416.49	453.31
416.713	458.31
416.936	442.31
417.159	432.31
417.382	447.31
417.605	428.31
417.828	432.31
418.051	456.31
418.274	465.31
418.497	419.31
418.72	443.31
418.943	446.31
419.166	432.31
419.389	455.31
419.611	488.31
419.834	478.31
420.057	457.31
420.28	451.31
420.503	427.31
420.726	429.31
420.948	445.31
421.171	480.31
421.394	483.31
421.617	458.31
421.839	445.31
422.062	464.31
422.285	459.31
422.507	493.31
422.73	533.31
422.953	545.31
423.175	462.31
423.398	467.31
423.621	447.31
423.843	478.31
424.066	469.31
424.288	475.31
424.511	461.31
424.733	511.31
424.956	556.31
425.178	520.31
425.401	545.31
425.623	537.31
425.846	491.31
426.068	454.31
426.291	462.31
426.513	466.31
426.735	476.31
426.958	482.31
427.18	557.31
427.402	621.31
427.625	662.31
427.847	569.31
428.069	504.31
428.292	470.31
428.514	448.31
428.736	428.31
428.958	442.31
429.181	427.31
429.403	426.31
429.625	424.31
429.847	453.31
430.069	499.31
430.292	484.31
430.514	416.31
430.736	429.31
430.958	419.31
431.18	419.31
431.402	425.31
431.624	409.31
431.846	413.31
432.068	400.31
432.29	413.31
432.512	428.31
432.734	404.31
432.956	425.31
433.178	414.31
433.4	419.31
433.622	403.31
433.844	436.31
434.066	409.31
434.287	396.31
434.509	426.31
434.731	430.31
434.953	414.31
435.175	419.31
435.397	462.31
435.618	454.31
435.84	475.31
436.062	544.31
436.284	575.31
436.505	490.31
436.727	450.31
436.949	426.31
437.17	427.31
437.392	414.31
437.614	410.31
437.835	444.31
438.057	499.31
438.278	564.31
438.5	549.31
438.721	607.31
438.943	589.31
439.165	502.31
439.386	464.31
439.608	451.31
439.829	451.31
440.05	460.31
440.272	496.31
440.493	445.31
440.715	439.31
440.936	439.31
441.158	421.31
441.379	429.31
441.6	440.31
441.822	457.31
442.043	470.31
442.264	530.31
442.486	547.31
442.707	486.31
442.928	473.31
443.149	476.31
443.371	471.31
443.592	497.31
443.813	591.31
444.034	588.31
444.255	499.31
444.476	481.31
444.698	470.31
444.919	453.31
445.14	591.31
445.361	488.31
445.582	467.31
445.803	511.31
446.024	554.31
446.245	592.31
446.466	517.31
446.687	463.31
446.908	423.31
447.129	428.31
447.35	437.31
447.571	431.31
447.792	410.31
448.013	405.31
448.234	416.31
448.455	443.31
448.675	541.31
448.896	599.31
449.117	499.31
449.338	493.31
449.559	567.31
449.779	612.31
450	499.31
450.221	432.31
450.442	393.31
450.662	396.31
450.883	392.31
451.104	391.31
451.324	395.31
451.545	387.31
451.766	379.31
451.986	382.31
452.207	382.31
452.428	376.31
452.648	388.31
452.869	373.31
453.089	386.31
453.31	377.31
453.53	378.31
453.751	373.31
453.971	359.31
454.192	367.31
454.412	385.31
454.633	360.31
454.853	356.31
455.073	364.31
455.294	391.31
455.514	397.31
455.734	398.31
455.955	368.31
456.175	349.31
456.395	346.31
456.616	358.31
456.836	367.31
457.056	361.31
457.276	363.31
457.497	359.31
457.717	353.31
457.937	365.31
458.157	359.31
458.377	381.31
458.598	387.31
458.818	411.31
459.038	453.31
459.258	439.31
459.478	421.31
459.698	429.31
459.918	416.31
460.138	410.31
460.358	412.31
460.578	426.31
460.798	431.31
461.018	421.31
461.238	438.31
461.458	419.31
461.678	393.31
461.898	431.31
462.118	442.31
462.338	459.31
462.558	453.31
462.777	446.31
462.997	456.31
463.217	471.31
463.437	485.31
463.657	472.31
463.876	480.31
464.096	473.31
464.316	443.31
464.536	459.31
464.755	464.31
464.975	429.31
465.195	462.31
465.414	473.31
465.634	429.31
465.854	402.31
466.073	387.31
466.293	406.31
466.512	391.31
466.732	395.31
466.951	402.31
467.171	409.31
467.391	396.31
467.61	377.31
467.829	388.31
468.049	377.31
468.268	391.31
468.488	385.31
468.707	391.31
468.927	377.31
469.146	397.31
469.365	386.31
469.585	364.31
469.804	382.31
470.023	387.31
470.243	380.31
470.462	403.31
470.681	393.31
470.901	397.31
471.12	383.31
471.339	395.31
471.558	389.31
471.777	387.31
471.997	395.31
472.216	393.31
472.435	425.31
472.654	413.31
472.873	402.31
473.092	379.31
473.311	379.31
473.53	371.31
473.749	415.31
473.968	429.31
474.187	473.31
474.406	494.31
474.625	436.31
474.844	412.31
475.063	389.31
475.282	411.31
475.501	381.31
475.72	390.31
475.939	403.31
476.158	400.31
476.377	383.31
476.596	415.31
476.814	399.31
477.033	416.31
477.252	416.31
477.471	435.31
477.69	404.31
477.908	433.31
478.127	434.31
478.346	439.31
478.564	453.31
478.783	434.31
479.002	460.31
479.22	452.31
479.439	437.31
479.658	468.31
479.876	459.31
480.095	479.31
480.313	507.31
480.532	467.31
480.751	467.31
480.969	491.31
481.188	499.31
481.406	512.31
481.624	489.31
481.843	469.31
482.061	449.31
482.28	461.31
482.498	469.31
482.717	469.31
482.935	447.31
483.153	456.31
483.372	441.31
483.59	452.31
483.808	451.31
484.027	444.31
484.245	452.31
484.463	443.31
484.681	474.31
484.9	472.31
485.118	472.31
485.336	474.31
485.554	459.31
485.772	460.31
485.99	452.31
486.209	479.31
486.427	483.31
486.645	465.31
486.863	511.31
487.081	464.31
487.299	468.31
487.517	484.31
487.735	452.31
487.953	470.31
488.171	475.31
488.389	468.31
488.607	474.31
488.825	471.31
489.043	468.31
489.261	473.31
489.479	470.31
489.696	493.31
489.914	511.31
490.132	491.31
490.35	504.31
490.568	513.31
490.786	491.31
491.003	508.31
491.221	511.31
491.439	518.31
491.657	503.31
491.874	521.31
492.092	535.31
492.31	511.31
492.527	537.31
492.745	537.31
492.963	502.31
493.18	523.31
493.398	542.31
493.615	521.31
493.833	534.31
494.05	537.31
494.268	525.31
494.485	527.31
494.703	548.31
494.92	536.31
495.138	547.31
495.355	574.31
495.573	567.31
495.79	542.31
496.008	573.31
496.225	543.31
496.442	581.31
496.66	536.31
496.877	551.31
497.094	564.31
497.312	593.31
497.529	558.31
497.746	567.31
497.963	581.31
498.181	607.31
498.398	599.31
498.615	627.31
498.832	650.31
499.049	669.31
499.267	707.31
499.484	706.31
499.701	762.31
499.918	778.31
500.135	834.31
500.352	854.31
500.569	873.31
500.786	898.31
501.003	867.31
501.22	823.31
501.437	802.31
501.654	723.31
501.871	740.31
502.088	698.31
