Data from 1964.PennyLincolnUp.Lamp.En5.5.200Scan.071719.P1._HRD10591_14-06-38-909.txt Node
Date: Thu Jul 18 14:06:38 EDT 2019
User: cochatt
Spectrometer: HR+D1059
Trigger mode: 1
Integration Time (sec): 1.000000E-1
Scans to average: 1
Electric dark correction enabled: true
Nonlinearity correction enabled: false
Boxcar width: 0
XAxis mode: Wavelengths
Number of Pixels in Spectrum: 2048
>>>>>Begin Spectral Data<<<<<
223.165	-3.19
223.4	-3.19
223.635	-3.19
223.869	-6.19
224.104	-14.19
224.338	-20.19
224.573	-24.19
224.808	-21.19
225.042	-9.19
225.277	-4.19
225.511	-11.19
225.746	3.81
225.98	3.81
226.215	8.81
226.449	16.81
226.683	24.81
226.918	23.81
227.152	31.81
227.387	35.81
227.621	38.81
227.856	49.81
228.09	42.81
228.324	40.81
228.559	55.81
228.793	69.81
229.027	97.81
229.262	103.81
229.496	124.81
229.73	117.81
229.964	138.81
230.199	98.81
230.433	115.81
230.667	112.81
230.901	122.81
231.136	108.81
231.37	101.81
231.604	112.81
231.838	116.81
232.072	105.81
232.306	104.81
232.541	107.81
232.775	126.81
233.009	114.81
233.243	115.81
233.477	122.81
233.711	109.81
233.945	108.81
234.179	109.81
234.413	101.81
234.647	113.81
234.881	119.81
235.115	106.81
235.349	120.81
235.583	122.81
235.817	118.81
236.051	117.81
236.285	114.81
236.519	119.81
236.753	138.81
236.987	141.81
237.221	171.81
237.455	200.81
237.689	167.81
237.922	129.81
238.156	108.81
238.39	126.81
238.624	132.81
238.858	128.81
239.091	127.81
239.325	125.81
239.559	123.81
239.793	120.81
240.027	125.81
240.26	130.81
240.494	158.81
240.728	144.81
240.961	135.81
241.195	152.81
241.429	149.81
241.662	124.81
241.896	135.81
242.13	130.81
242.363	128.81
242.597	132.81
242.83	139.81
243.064	150.81
243.298	138.81
243.531	130.81
243.765	147.81
243.998	153.81
244.232	137.81
244.465	146.81
244.699	141.81
244.932	158.81
245.166	150.81
245.399	140.81
245.633	135.81
245.866	146.81
246.099	156.81
246.333	152.81
246.566	156.81
246.8	154.81
247.033	156.81
247.266	161.81
247.5	159.81
247.733	166.81
247.966	181.81
248.2	171.81
248.433	184.81
248.666	179.81
248.899	183.81
249.133	202.81
249.366	193.81
249.599	203.81
249.832	192.81
250.066	184.81
250.299	180.81
250.532	192.81
250.765	203.81
250.998	226.81
251.231	221.81
251.465	210.81
251.698	205.81
251.931	189.81
252.164	205.81
252.397	194.81
252.63	209.81
252.863	210.81
253.096	208.81
253.329	217.81
253.562	215.81
253.795	227.81
254.028	219.81
254.261	222.81
254.494	223.81
254.727	248.81
254.96	264.81
255.193	250.81
255.426	250.81
255.659	224.81
255.892	230.81
256.124	226.81
256.357	231.81
256.59	236.81
256.823	232.81
257.056	223.81
257.289	217.81
257.521	220.81
257.754	225.81
257.987	219.81
258.22	218.81
258.452	221.81
258.685	233.81
258.918	220.81
259.151	222.81
259.383	233.81
259.616	219.81
259.849	247.81
260.081	236.81
260.314	248.81
260.547	268.81
260.779	257.81
261.012	261.81
261.244	235.81
261.477	234.81
261.71	212.81
261.942	229.81
262.175	232.81
262.407	215.81
262.64	222.81
262.872	229.81
263.105	207.81
263.337	232.81
263.57	214.81
263.802	227.81
264.035	234.81
264.267	229.81
264.499	222.81
264.732	221.81
264.964	224.81
265.197	238.81
265.429	233.81
265.661	222.81
265.894	217.81
266.126	224.81
266.358	227.81
266.591	243.81
266.823	241.81
267.055	256.81
267.287	246.81
267.52	236.81
267.752	246.81
267.984	246.81
268.216	230.81
268.448	260.81
268.681	261.81
268.913	252.81
269.145	284.81
269.377	274.81
269.609	291.81
269.841	279.81
270.073	292.81
270.306	297.81
270.538	323.81
270.77	312.81
271.002	318.81
271.234	297.81
271.466	317.81
271.698	323.81
271.93	363.81
272.162	325.81
272.394	323.81
272.626	304.81
272.858	290.81
273.09	297.81
273.322	277.81
273.553	293.81
273.785	282.81
274.017	286.81
274.249	294.81
274.481	278.81
274.713	299.81
274.945	285.81
275.176	295.81
275.408	267.81
275.64	280.81
275.872	298.81
276.104	277.81
276.335	295.81
276.567	309.81
276.799	282.81
277.031	320.81
277.262	342.81
277.494	324.81
277.726	316.81
277.957	337.81
278.189	305.81
278.421	299.81
278.652	298.81
278.884	290.81
279.115	288.81
279.347	310.81
279.579	293.81
279.81	305.81
280.042	284.81
280.273	292.81
280.505	301.81
280.736	297.81
280.968	295.81
281.199	303.81
281.431	310.81
281.662	302.81
281.894	294.81
282.125	306.81
282.356	305.81
282.588	317.81
282.819	307.81
283.051	320.81
283.282	305.81
283.513	295.81
283.745	314.81
283.976	317.81
284.207	325.81
284.439	302.81
284.67	318.81
284.901	332.81
285.132	318.81
285.364	323.81
285.595	308.81
285.826	308.81
286.057	337.81
286.288	298.81
286.52	320.81
286.751	311.81
286.982	309.81
287.213	320.81
287.444	321.81
287.675	338.81
287.906	332.81
288.138	325.81
288.369	340.81
288.6	334.81
288.831	322.81
289.062	339.81
289.293	312.81
289.524	326.81
289.755	339.81
289.986	341.81
290.217	324.81
290.448	315.81
290.679	305.81
290.91	331.81
291.141	324.81
291.371	321.81
291.602	302.81
291.833	327.81
292.064	334.81
292.295	322.81
292.526	316.81
292.757	314.81
292.987	323.81
293.218	316.81
293.449	342.81
293.68	327.81
293.91	319.81
294.141	314.81
294.372	330.81
294.603	324.81
294.833	323.81
295.064	334.81
295.295	327.81
295.525	332.81
295.756	334.81
295.987	340.81
296.217	351.81
296.448	352.81
296.679	330.81
296.909	338.81
297.14	343.81
297.37	357.81
297.601	332.81
297.831	339.81
298.062	309.81
298.292	343.81
298.523	362.81
298.753	366.81
298.984	347.81
299.214	334.81
299.445	340.81
299.675	339.81
299.905	355.81
300.136	352.81
300.366	348.81
300.597	348.81
300.827	343.81
301.057	379.81
301.288	373.81
301.518	364.81
301.748	363.81
301.979	360.81
302.209	360.81
302.439	349.81
302.669	365.81
302.9	357.81
303.13	368.81
303.36	370.81
303.59	360.81
303.82	374.81
304.051	366.81
304.281	383.81
304.511	352.81
304.741	363.81
304.971	374.81
305.201	371.81
305.431	362.81
305.661	363.81
305.891	362.81
306.121	363.81
306.352	361.81
306.582	369.81
306.812	384.81
307.042	359.81
307.272	356.81
307.502	374.81
307.731	363.81
307.961	372.81
308.191	348.81
308.421	378.81
308.651	374.81
308.881	392.81
309.111	357.81
309.341	379.81
309.571	372.81
309.8	381.81
310.03	387.81
310.26	414.81
310.49	397.81
310.72	408.81
310.949	408.81
311.179	416.81
311.409	418.81
311.639	420.81
311.868	397.81
312.098	398.81
312.328	423.81
312.557	424.81
312.787	408.81
313.017	440.81
313.246	410.81
313.476	410.81
313.706	390.81
313.935	430.81
314.165	415.81
314.394	432.81
314.624	422.81
314.853	424.81
315.083	412.81
315.312	410.81
315.542	399.81
315.771	401.81
316.001	398.81
316.23	401.81
316.46	423.81
316.689	409.81
316.919	404.81
317.148	422.81
317.377	441.81
317.607	414.81
317.836	418.81
318.065	414.81
318.295	421.81
318.524	396.81
318.753	418.81
318.983	378.81
319.212	408.81
319.441	421.81
319.67	412.81
319.9	409.81
320.129	415.81
320.358	428.81
320.587	413.81
320.816	424.81
321.046	428.81
321.275	425.81
321.504	417.81
321.733	428.81
321.962	444.81
322.191	432.81
322.42	465.81
322.649	464.81
322.878	445.81
323.108	462.81
323.337	458.81
323.566	486.81
323.795	529.81
324.024	569.81
324.253	646.81
324.482	857.81
324.71	1282.81
324.939	1764.81
325.168	1472.81
325.397	801.81
325.626	582.81
325.855	514.81
326.084	505.81
326.313	487.81
326.542	488.81
326.77	547.81
326.999	613.81
327.228	836.81
327.457	1164.81
327.686	1336.81
327.914	904.81
328.143	641.81
328.372	572.81
328.6	571.81
328.829	509.81
329.058	538.81
329.287	553.81
329.515	527.81
329.744	507.81
329.972	514.81
330.201	541.81
330.43	560.81
330.658	578.81
330.887	601.81
331.115	568.81
331.344	515.81
331.572	496.81
331.801	483.81
332.03	493.81
332.258	496.81
332.486	485.81
332.715	485.81
332.943	472.81
333.172	490.81
333.4	513.81
333.629	509.81
333.857	525.81
334.085	538.81
334.314	531.81
334.542	536.81
334.771	605.81
334.999	544.81
335.227	507.81
335.455	512.81
335.684	496.81
335.912	494.81
336.14	480.81
336.369	489.81
336.597	490.81
336.825	485.81
337.053	460.81
337.281	484.81
337.51	449.81
337.738	454.81
337.966	454.81
338.194	467.81
338.422	476.81
338.65	452.81
338.878	451.81
339.106	453.81
339.334	463.81
339.562	445.81
339.79	474.81
340.018	461.81
340.246	453.81
340.474	453.81
340.702	455.81
340.93	450.81
341.158	460.81
341.386	466.81
341.614	453.81
341.842	459.81
342.07	428.81
342.298	447.81
342.526	463.81
342.754	441.81
342.981	434.81
343.209	443.81
343.437	461.81
343.665	459.81
343.893	488.81
344.12	475.81
344.348	486.81
344.576	480.81
344.804	475.81
345.031	457.81
345.259	464.81
345.487	454.81
345.714	458.81
345.942	447.81
346.17	438.81
346.397	426.81
346.625	432.81
346.853	444.81
347.08	429.81
347.308	437.81
347.535	459.81
347.763	435.81
347.99	429.81
348.218	435.81
348.445	438.81
348.673	446.81
348.9	426.81
349.128	401.81
349.355	423.81
349.583	385.81
349.81	405.81
350.037	424.81
350.265	424.81
350.492	430.81
350.72	420.81
350.947	437.81
351.174	428.81
351.402	433.81
351.629	432.81
351.856	424.81
352.083	445.81
352.311	426.81
352.538	419.81
352.765	420.81
352.992	421.81
353.22	405.81
353.447	418.81
353.674	400.81
353.901	407.81
354.128	419.81
354.355	427.81
354.583	394.81
354.81	416.81
355.037	395.81
355.264	397.81
355.491	401.81
355.718	379.81
355.945	396.81
356.172	399.81
356.399	405.81
356.626	401.81
356.853	407.81
357.08	415.81
357.307	392.81
357.534	412.81
357.761	395.81
357.988	420.81
358.215	423.81
358.441	402.81
358.668	413.81
358.895	406.81
359.122	406.81
359.349	403.81
359.576	431.81
359.802	419.81
360.029	440.81
360.256	444.81
360.483	439.81
360.709	444.81
360.936	417.81
361.163	421.81
361.39	416.81
361.616	405.81
361.843	403.81
362.07	414.81
362.296	408.81
362.523	425.81
362.749	409.81
362.976	394.81
363.203	408.81
363.429	422.81
363.656	400.81
363.882	397.81
364.109	395.81
364.335	396.81
364.562	405.81
364.788	405.81
365.015	411.81
365.241	418.81
365.468	412.81
365.694	423.81
365.92	397.81
366.147	399.81
366.373	402.81
366.599	415.81
366.826	399.81
367.052	411.81
367.278	397.81
367.505	391.81
367.731	422.81
367.957	396.81
368.184	393.81
368.41	418.81
368.636	418.81
368.862	401.81
369.089	409.81
369.315	400.81
369.541	406.81
369.767	389.81
369.993	403.81
370.219	407.81
370.445	376.81
370.672	376.81
370.898	395.81
371.124	413.81
371.35	419.81
371.576	392.81
371.802	412.81
372.028	414.81
372.254	397.81
372.48	422.81
372.706	399.81
372.932	405.81
373.158	390.81
373.384	397.81
373.61	407.81
373.835	404.81
374.061	384.81
374.287	399.81
374.513	411.81
374.739	412.81
374.965	422.81
375.191	406.81
375.416	421.81
375.642	422.81
375.868	406.81
376.094	416.81
376.319	407.81
376.545	392.81
376.771	382.81
376.997	399.81
377.222	386.81
377.448	401.81
377.674	384.81
377.899	399.81
378.125	395.81
378.35	402.81
378.576	386.81
378.802	380.81
379.027	392.81
379.253	382.81
379.478	386.81
379.704	398.81
379.929	404.81
380.155	405.81
380.38	384.81
380.606	392.81
380.831	386.81
381.057	412.81
381.282	406.81
381.507	426.81
381.733	389.81
381.958	399.81
382.184	391.81
382.409	394.81
382.634	405.81
382.86	395.81
383.085	388.81
383.31	401.81
383.535	403.81
383.761	399.81
383.986	412.81
384.211	414.81
384.436	429.81
384.662	433.81
384.887	433.81
385.112	416.81
385.337	432.81
385.562	422.81
385.787	441.81
386.013	450.81
386.238	448.81
386.463	437.81
386.688	450.81
386.913	435.81
387.138	422.81
387.363	418.81
387.588	427.81
387.813	438.81
388.038	435.81
388.263	433.81
388.488	434.81
388.713	433.81
388.938	421.81
389.163	415.81
389.387	426.81
389.612	428.81
389.837	428.81
390.062	422.81
390.287	433.81
390.512	419.81
390.736	428.81
390.961	428.81
391.186	423.81
391.411	437.81
391.636	438.81
391.86	449.81
392.085	458.81
392.31	447.81
392.534	453.81
392.759	473.81
392.984	432.81
393.208	454.81
393.433	429.81
393.658	414.81
393.882	416.81
394.107	420.81
394.331	405.81
394.556	411.81
394.78	408.81
395.005	430.81
395.229	428.81
395.454	457.81
395.678	444.81
395.903	458.81
396.127	467.81
396.352	476.81
396.576	468.81
396.801	452.81
397.025	437.81
397.249	468.81
397.474	444.81
397.698	446.81
397.922	489.81
398.147	473.81
398.371	484.81
398.595	456.81
398.82	492.81
399.044	512.81
399.268	540.81
399.492	550.81
399.717	581.81
399.941	602.81
400.165	604.81
400.389	608.81
400.613	576.81
400.837	533.81
401.062	508.81
401.286	480.81
401.51	482.81
401.734	466.81
401.958	485.81
402.182	490.81
402.406	510.81
402.63	469.81
402.854	497.81
403.078	511.81
403.302	501.81
403.526	510.81
403.75	493.81
403.974	492.81
404.198	507.81
404.422	472.81
404.645	521.81
404.869	521.81
405.093	554.81
405.317	566.81
405.541	585.81
405.765	544.81
405.988	520.81
406.212	529.81
406.436	534.81
406.66	540.81
406.883	539.81
407.107	584.81
407.331	580.81
407.555	669.81
407.778	634.81
408.002	594.81
408.226	553.81
408.449	545.81
408.673	571.81
408.896	585.81
409.12	582.81
409.344	568.81
409.567	521.81
409.791	477.81
410.014	504.81
410.238	512.81
410.461	505.81
410.685	522.81
410.908	512.81
411.132	543.81
411.355	565.81
411.578	568.81
411.802	523.81
412.025	500.81
412.249	504.81
412.472	535.81
412.695	556.81
412.919	551.81
413.142	482.81
413.365	513.81
413.589	489.81
413.812	463.81
414.035	486.81
414.258	477.81
414.482	473.81
414.705	470.81
414.928	461.81
415.151	470.81
415.374	463.81
415.597	468.81
415.821	462.81
416.044	485.81
416.267	475.81
416.49	437.81
416.713	446.81
416.936	468.81
417.159	454.81
417.382	456.81
417.605	452.81
417.828	477.81
418.051	486.81
418.274	474.81
418.497	480.81
418.72	460.81
418.943	483.81
419.166	470.81
419.389	515.81
419.611	516.81
419.834	530.81
420.057	499.81
420.28	482.81
420.503	478.81
420.726	481.81
420.948	504.81
421.171	527.81
421.394	552.81
421.617	500.81
421.839	488.81
422.062	473.81
422.285	492.81
422.507	533.81
422.73	584.81
422.953	574.81
423.175	520.81
423.398	513.81
423.621	493.81
423.843	526.81
424.066	534.81
424.288	524.81
424.511	554.81
424.733	569.81
424.956	628.81
425.178	604.81
425.401	600.81
425.623	605.81
425.846	530.81
426.068	508.81
426.291	474.81
426.513	482.81
426.735	503.81
426.958	562.81
427.18	582.81
427.402	680.81
427.625	756.81
427.847	662.81
428.069	587.81
428.292	530.81
428.514	494.81
428.736	454.81
428.958	472.81
429.181	464.81
429.403	467.81
429.625	474.81
429.847	498.81
430.069	544.81
430.292	549.81
430.514	484.81
430.736	459.81
430.958	462.81
431.18	454.81
431.402	440.81
431.624	442.81
431.846	436.81
432.068	433.81
432.29	428.81
432.512	445.81
432.734	461.81
432.956	467.81
433.178	457.81
433.4	448.81
433.622	463.81
433.844	463.81
434.066	441.81
434.287	441.81
434.509	445.81
434.731	454.81
434.953	460.81
435.175	476.81
435.397	491.81
435.618	500.81
435.84	543.81
436.062	591.81
436.284	643.81
436.505	539.81
436.727	486.81
436.949	462.81
437.17	446.81
437.392	453.81
437.614	453.81
437.835	506.81
438.057	582.81
438.278	626.81
438.5	619.81
438.721	677.81
438.943	665.81
439.165	533.81
439.386	515.81
439.608	507.81
439.829	488.81
440.05	498.81
440.272	547.81
440.493	506.81
440.715	470.81
440.936	467.81
441.158	464.81
441.379	489.81
441.6	490.81
441.822	499.81
442.043	518.81
442.264	588.81
442.486	611.81
442.707	536.81
442.928	503.81
443.149	489.81
443.371	501.81
443.592	545.81
443.813	626.81
444.034	666.81
444.255	580.81
444.476	538.81
444.698	528.81
444.919	523.81
445.14	601.81
445.361	532.81
445.582	533.81
445.803	598.81
446.024	637.81
446.245	662.81
446.466	609.81
446.687	520.81
446.908	465.81
447.129	464.81
447.35	458.81
447.571	448.81
447.792	430.81
448.013	445.81
448.234	481.81
448.455	499.81
448.675	602.81
448.896	664.81
449.117	574.81
449.338	540.81
449.559	649.81
449.779	742.81
450	579.81
450.221	480.81
450.442	446.81
450.662	432.81
450.883	436.81
451.104	428.81
451.324	435.81
451.545	437.81
451.766	415.81
451.986	414.81
452.207	402.81
452.428	377.81
452.648	406.81
452.869	420.81
453.089	420.81
453.31	428.81
453.53	410.81
453.751	408.81
453.971	405.81
454.192	401.81
454.412	411.81
454.633	392.81
454.853	382.81
455.073	396.81
455.294	423.81
455.514	489.81
455.734	467.81
455.955	409.81
456.175	376.81
456.395	387.81
456.616	394.81
456.836	398.81
457.056	397.81
457.276	377.81
457.497	361.81
457.717	374.81
457.937	377.81
458.157	397.81
458.377	384.81
458.598	422.81
458.818	446.81
459.038	509.81
459.258	525.81
459.478	453.81
459.698	443.81
459.918	440.81
460.138	445.81
460.358	458.81
460.578	438.81
460.798	449.81
461.018	436.81
461.238	442.81
461.458	437.81
461.678	447.81
461.898	471.81
462.118	459.81
462.338	475.81
462.558	448.81
462.777	473.81
462.997	501.81
463.217	509.81
463.437	504.81
463.657	496.81
463.876	495.81
464.096	498.81
464.316	491.81
464.536	489.81
464.755	474.81
464.975	483.81
465.195	485.81
465.414	526.81
465.634	466.81
465.854	448.81
466.073	443.81
466.293	432.81
466.512	419.81
466.732	417.81
466.951	412.81
467.171	405.81
467.391	401.81
467.61	422.81
467.829	404.81
468.049	402.81
468.268	417.81
468.488	423.81
468.707	395.81
468.927	417.81
469.146	406.81
469.365	408.81
469.585	393.81
469.804	406.81
470.023	420.81
470.243	415.81
470.462	403.81
470.681	434.81
470.901	428.81
471.12	429.81
471.339	411.81
471.558	427.81
471.777	413.81
471.997	386.81
472.216	416.81
472.435	449.81
472.654	432.81
472.873	441.81
473.092	432.81
473.311	410.81
473.53	411.81
473.749	414.81
473.968	458.81
474.187	532.81
474.406	541.81
474.625	472.81
474.844	423.81
475.063	403.81
475.282	421.81
475.501	426.81
475.72	423.81
475.939	425.81
476.158	417.81
476.377	433.81
476.596	455.81
476.814	433.81
477.033	430.81
477.252	446.81
477.471	438.81
477.69	459.81
477.908	456.81
478.127	433.81
478.346	470.81
478.564	455.81
478.783	461.81
479.002	487.81
479.22	485.81
479.439	481.81
479.658	486.81
479.876	524.81
480.095	508.81
480.313	512.81
480.532	523.81
480.751	524.81
480.969	535.81
481.188	558.81
481.406	590.81
481.624	509.81
481.843	508.81
482.061	490.81
482.28	508.81
482.498	482.81
482.717	474.81
482.935	477.81
483.153	467.81
483.372	481.81
483.59	467.81
483.808	489.81
484.027	489.81
484.245	497.81
484.463	474.81
484.681	465.81
484.9	491.81
485.118	478.81
485.336	503.81
485.554	493.81
485.772	497.81
485.99	496.81
486.209	476.81
486.427	507.81
486.645	504.81
486.863	513.81
487.081	529.81
487.299	517.81
487.517	534.81
487.735	524.81
487.953	490.81
488.171	494.81
488.389	524.81
488.607	525.81
488.825	493.81
489.043	500.81
489.261	527.81
489.479	529.81
489.696	504.81
489.914	529.81
490.132	544.81
490.35	529.81
490.568	527.81
490.786	538.81
491.003	557.81
491.221	556.81
491.439	562.81
491.657	553.81
491.874	583.81
492.092	569.81
492.31	594.81
492.527	594.81
492.745	588.81
492.963	583.81
493.18	586.81
493.398	599.81
493.615	597.81
493.833	586.81
494.05	583.81
494.268	594.81
494.485	599.81
494.703	609.81
494.92	605.81
495.138	602.81
495.355	606.81
495.573	589.81
495.79	592.81
496.008	589.81
496.225	583.81
496.442	605.81
496.66	615.81
496.877	594.81
497.094	620.81
497.312	610.81
497.529	606.81
497.746	631.81
497.963	653.81
498.181	646.81
498.398	658.81
498.615	684.81
498.832	715.81
499.049	717.81
499.267	752.81
499.484	754.81
499.701	820.81
499.918	814.81
500.135	840.81
500.352	907.81
500.569	925.81
500.786	943.81
501.003	914.81
501.22	902.81
501.437	854.81
501.654	804.81
501.871	788.81
502.088	773.81
