Data from 1964.PennyLincolnUp.Lamp.En5.5.200Scan.071719.P1._HRD10591_14-05-34-909.txt Node
Date: Thu Jul 18 14:05:34 EDT 2019
User: cochatt
Spectrometer: HR+D1059
Trigger mode: 1
Integration Time (sec): 1.000000E-1
Scans to average: 1
Electric dark correction enabled: true
Nonlinearity correction enabled: false
Boxcar width: 0
XAxis mode: Wavelengths
Number of Pixels in Spectrum: 2048
>>>>>Begin Spectral Data<<<<<
223.165	-13.81
223.4	-13.81
223.635	-13.81
223.869	-15.81
224.104	-18.81
224.338	-17.81
224.573	-24.81
224.808	-22.81
225.042	-10.81
225.277	0.19
225.511	-12.81
225.746	8.19
225.98	11.19
226.215	18.19
226.449	13.19
226.683	29.19
226.918	25.19
227.152	32.19
227.387	40.19
227.621	48.19
227.856	36.19
228.09	56.19
228.324	41.19
228.559	68.19
228.793	67.19
229.027	81.19
229.262	104.19
229.496	112.19
229.73	132.19
229.964	128.19
230.199	127.19
230.433	112.19
230.667	101.19
230.901	102.19
231.136	99.19
231.37	108.19
231.604	112.19
231.838	110.19
232.072	101.19
232.306	113.19
232.541	114.19
232.775	112.19
233.009	117.19
233.243	121.19
233.477	122.19
233.711	104.19
233.945	131.19
234.179	124.19
234.413	115.19
234.647	127.19
234.881	126.19
235.115	118.19
235.349	112.19
235.583	137.19
235.817	124.19
236.051	116.19
236.285	119.19
236.519	115.19
236.753	123.19
236.987	127.19
237.221	166.19
237.455	195.19
237.689	173.19
237.922	142.19
238.156	132.19
238.39	131.19
238.624	133.19
238.858	134.19
239.091	111.19
239.325	131.19
239.559	136.19
239.793	123.19
240.027	118.19
240.26	125.19
240.494	144.19
240.728	133.19
240.961	137.19
241.195	146.19
241.429	150.19
241.662	126.19
241.896	129.19
242.13	132.19
242.363	147.19
242.597	134.19
242.83	143.19
243.064	135.19
243.298	150.19
243.531	137.19
243.765	148.19
243.998	139.19
244.232	131.19
244.465	137.19
244.699	146.19
244.932	160.19
245.166	135.19
245.399	165.19
245.633	153.19
245.866	143.19
246.099	152.19
246.333	158.19
246.566	160.19
246.8	153.19
247.033	157.19
247.266	144.19
247.5	153.19
247.733	173.19
247.966	156.19
248.2	171.19
248.433	156.19
248.666	185.19
248.899	186.19
249.133	198.19
249.366	222.19
249.599	186.19
249.832	173.19
250.066	183.19
250.299	192.19
250.532	193.19
250.765	226.19
250.998	222.19
251.231	239.19
251.465	208.19
251.698	216.19
251.931	191.19
252.164	213.19
252.397	202.19
252.63	198.19
252.863	202.19
253.096	230.19
253.329	220.19
253.562	214.19
253.795	232.19
254.028	223.19
254.261	214.19
254.494	220.19
254.727	259.19
254.96	283.19
255.193	269.19
255.426	264.19
255.659	249.19
255.892	228.19
256.124	246.19
256.357	227.19
256.59	235.19
256.823	223.19
257.056	219.19
257.289	216.19
257.521	223.19
257.754	197.19
257.987	231.19
258.22	214.19
258.452	215.19
258.685	205.19
258.918	217.19
259.151	228.19
259.383	229.19
259.616	232.19
259.849	265.19
260.081	224.19
260.314	262.19
260.547	250.19
260.779	240.19
261.012	239.19
261.244	243.19
261.477	243.19
261.71	224.19
261.942	225.19
262.175	239.19
262.407	245.19
262.64	221.19
262.872	244.19
263.105	235.19
263.337	231.19
263.57	213.19
263.802	250.19
264.035	237.19
264.267	223.19
264.499	214.19
264.732	232.19
264.964	238.19
265.197	233.19
265.429	239.19
265.661	231.19
265.894	247.19
266.126	247.19
266.358	222.19
266.591	235.19
266.823	243.19
267.055	218.19
267.287	246.19
267.52	248.19
267.752	252.19
267.984	236.19
268.216	254.19
268.448	253.19
268.681	253.19
268.913	255.19
269.145	285.19
269.377	296.19
269.609	302.19
269.841	275.19
270.073	253.19
270.306	297.19
270.538	335.19
270.77	315.19
271.002	311.19
271.234	320.19
271.466	313.19
271.698	317.19
271.93	330.19
272.162	337.19
272.394	343.19
272.626	311.19
272.858	317.19
273.09	295.19
273.322	299.19
273.553	296.19
273.785	263.19
274.017	290.19
274.249	286.19
274.481	291.19
274.713	294.19
274.945	286.19
275.176	302.19
275.408	293.19
275.64	286.19
275.872	284.19
276.104	300.19
276.335	286.19
276.567	296.19
276.799	315.19
277.031	297.19
277.262	333.19
277.494	340.19
277.726	319.19
277.957	307.19
278.189	301.19
278.421	283.19
278.652	311.19
278.884	293.19
279.115	295.19
279.347	308.19
279.579	302.19
279.81	297.19
280.042	303.19
280.273	284.19
280.505	298.19
280.736	307.19
280.968	287.19
281.199	290.19
281.431	311.19
281.662	292.19
281.894	289.19
282.125	286.19
282.356	323.19
282.588	317.19
282.819	323.19
283.051	307.19
283.282	308.19
283.513	322.19
283.745	326.19
283.976	304.19
284.207	329.19
284.439	317.19
284.67	327.19
284.901	324.19
285.132	303.19
285.364	318.19
285.595	288.19
285.826	321.19
286.057	341.19
286.288	329.19
286.52	305.19
286.751	320.19
286.982	326.19
287.213	312.19
287.444	331.19
287.675	324.19
287.906	324.19
288.138	318.19
288.369	349.19
288.6	324.19
288.831	328.19
289.062	340.19
289.293	350.19
289.524	337.19
289.755	333.19
289.986	318.19
290.217	359.19
290.448	339.19
290.679	326.19
290.91	329.19
291.141	315.19
291.371	335.19
291.602	334.19
291.833	347.19
292.064	326.19
292.295	323.19
292.526	328.19
292.757	338.19
292.987	330.19
293.218	329.19
293.449	335.19
293.68	348.19
293.91	327.19
294.141	336.19
294.372	346.19
294.603	310.19
294.833	346.19
295.064	327.19
295.295	340.19
295.525	336.19
295.756	334.19
295.987	337.19
296.217	365.19
296.448	359.19
296.679	350.19
296.909	340.19
297.14	348.19
297.37	364.19
297.601	342.19
297.831	337.19
298.062	329.19
298.292	339.19
298.523	362.19
298.753	342.19
298.984	367.19
299.214	357.19
299.445	352.19
299.675	384.19
299.905	343.19
300.136	335.19
300.366	355.19
300.597	352.19
300.827	357.19
301.057	372.19
301.288	374.19
301.518	359.19
301.748	361.19
301.979	368.19
302.209	357.19
302.439	371.19
302.669	363.19
302.9	347.19
303.13	350.19
303.36	364.19
303.59	373.19
303.82	391.19
304.051	375.19
304.281	354.19
304.511	378.19
304.741	356.19
304.971	361.19
305.201	383.19
305.431	371.19
305.661	385.19
305.891	361.19
306.121	343.19
306.352	384.19
306.582	378.19
306.812	365.19
307.042	383.19
307.272	387.19
307.502	382.19
307.731	387.19
307.961	380.19
308.191	381.19
308.421	367.19
308.651	364.19
308.881	382.19
309.111	387.19
309.341	364.19
309.571	399.19
309.8	381.19
310.03	389.19
310.26	383.19
310.49	391.19
310.72	407.19
310.949	401.19
311.179	414.19
311.409	414.19
311.639	409.19
311.868	407.19
312.098	383.19
312.328	427.19
312.557	402.19
312.787	420.19
313.017	436.19
313.246	412.19
313.476	409.19
313.706	421.19
313.935	396.19
314.165	416.19
314.394	414.19
314.624	407.19
314.853	410.19
315.083	415.19
315.312	428.19
315.542	409.19
315.771	405.19
316.001	429.19
316.23	400.19
316.46	417.19
316.689	415.19
316.919	413.19
317.148	428.19
317.377	420.19
317.607	419.19
317.836	417.19
318.065	425.19
318.295	410.19
318.524	416.19
318.753	437.19
318.983	405.19
319.212	411.19
319.441	416.19
319.67	423.19
319.9	423.19
320.129	430.19
320.358	413.19
320.587	432.19
320.816	432.19
321.046	439.19
321.275	427.19
321.504	421.19
321.733	435.19
321.962	451.19
322.191	455.19
322.42	432.19
322.649	441.19
322.878	439.19
323.108	481.19
323.337	479.19
323.566	491.19
323.795	522.19
324.024	551.19
324.253	646.19
324.482	841.19
324.71	1207.19
324.939	1679.19
325.168	1398.19
325.397	768.19
325.626	569.19
325.855	500.19
326.084	468.19
326.313	496.19
326.542	489.19
326.77	508.19
326.999	589.19
327.228	789.19
327.457	1127.19
327.686	1227.19
327.914	876.19
328.143	635.19
328.372	576.19
328.6	547.19
328.829	525.19
329.058	528.19
329.287	564.19
329.515	541.19
329.744	501.19
329.972	529.19
330.201	539.19
330.43	537.19
330.658	559.19
330.887	565.19
331.115	554.19
331.344	525.19
331.572	499.19
331.801	512.19
332.03	493.19
332.258	495.19
332.486	491.19
332.715	495.19
332.943	520.19
333.172	476.19
333.4	523.19
333.629	504.19
333.857	528.19
334.085	535.19
334.314	534.19
334.542	583.19
334.771	570.19
334.999	533.19
335.227	534.19
335.455	529.19
335.684	487.19
335.912	477.19
336.14	495.19
336.369	489.19
336.597	493.19
336.825	497.19
337.053	471.19
337.281	488.19
337.51	494.19
337.738	484.19
337.966	476.19
338.194	496.19
338.422	493.19
338.65	475.19
338.878	461.19
339.106	463.19
339.334	490.19
339.562	469.19
339.79	453.19
340.018	476.19
340.246	444.19
340.474	457.19
340.702	458.19
340.93	447.19
341.158	468.19
341.386	443.19
341.614	455.19
341.842	449.19
342.07	458.19
342.298	454.19
342.526	434.19
342.754	450.19
342.981	438.19
343.209	460.19
343.437	457.19
343.665	478.19
343.893	473.19
344.12	488.19
344.348	478.19
344.576	468.19
344.804	487.19
345.031	472.19
345.259	468.19
345.487	444.19
345.714	473.19
345.942	450.19
346.17	426.19
346.397	426.19
346.625	451.19
346.853	441.19
347.08	438.19
347.308	442.19
347.535	445.19
347.763	448.19
347.99	443.19
348.218	447.19
348.445	442.19
348.673	431.19
348.9	420.19
349.128	401.19
349.355	439.19
349.583	396.19
349.81	427.19
350.037	427.19
350.265	388.19
350.492	413.19
350.72	421.19
350.947	423.19
351.174	423.19
351.402	439.19
351.629	429.19
351.856	435.19
352.083	425.19
352.311	445.19
352.538	423.19
352.765	419.19
352.992	431.19
353.22	427.19
353.447	410.19
353.674	413.19
353.901	424.19
354.128	407.19
354.355	404.19
354.583	439.19
354.81	420.19
355.037	414.19
355.264	418.19
355.491	400.19
355.718	389.19
355.945	396.19
356.172	392.19
356.399	409.19
356.626	411.19
356.853	406.19
357.08	405.19
357.307	408.19
357.534	387.19
357.761	396.19
357.988	410.19
358.215	406.19
358.441	411.19
358.668	395.19
358.895	400.19
359.122	424.19
359.349	419.19
359.576	428.19
359.802	441.19
360.029	463.19
360.256	428.19
360.483	443.19
360.709	415.19
360.936	419.19
361.163	412.19
361.39	442.19
361.616	423.19
361.843	452.19
362.07	411.19
362.296	426.19
362.523	424.19
362.749	413.19
362.976	404.19
363.203	410.19
363.429	383.19
363.656	404.19
363.882	389.19
364.109	393.19
364.335	403.19
364.562	384.19
364.788	391.19
365.015	416.19
365.241	394.19
365.468	410.19
365.694	420.19
365.92	394.19
366.147	396.19
366.373	390.19
366.599	392.19
366.826	414.19
367.052	394.19
367.278	404.19
367.505	384.19
367.731	404.19
367.957	393.19
368.184	399.19
368.41	387.19
368.636	400.19
368.862	412.19
369.089	420.19
369.315	411.19
369.541	387.19
369.767	396.19
369.993	397.19
370.219	384.19
370.445	418.19
370.672	399.19
370.898	382.19
371.124	400.19
371.35	401.19
371.576	407.19
371.802	416.19
372.028	413.19
372.254	405.19
372.48	412.19
372.706	410.19
372.932	397.19
373.158	402.19
373.384	441.19
373.61	413.19
373.835	402.19
374.061	423.19
374.287	418.19
374.513	393.19
374.739	413.19
374.965	414.19
375.191	425.19
375.416	419.19
375.642	422.19
375.868	411.19
376.094	417.19
376.319	393.19
376.545	424.19
376.771	408.19
376.997	405.19
377.222	391.19
377.448	392.19
377.674	394.19
377.899	409.19
378.125	394.19
378.35	394.19
378.576	392.19
378.802	382.19
379.027	397.19
379.253	395.19
379.478	384.19
379.704	380.19
379.929	399.19
380.155	380.19
380.38	413.19
380.606	415.19
380.831	389.19
381.057	410.19
381.282	411.19
381.507	385.19
381.733	401.19
381.958	393.19
382.184	387.19
382.409	394.19
382.634	413.19
382.86	405.19
383.085	397.19
383.31	403.19
383.535	395.19
383.761	394.19
383.986	409.19
384.211	427.19
384.436	419.19
384.662	414.19
384.887	443.19
385.112	420.19
385.337	437.19
385.562	447.19
385.787	438.19
386.013	447.19
386.238	455.19
386.463	473.19
386.688	447.19
386.913	429.19
387.138	431.19
387.363	430.19
387.588	436.19
387.813	448.19
388.038	417.19
388.263	416.19
388.488	463.19
388.713	419.19
388.938	446.19
389.163	407.19
389.387	444.19
389.612	422.19
389.837	428.19
390.062	446.19
390.287	438.19
390.512	439.19
390.736	430.19
390.961	425.19
391.186	446.19
391.411	431.19
391.636	432.19
391.86	468.19
392.085	444.19
392.31	457.19
392.534	460.19
392.759	442.19
392.984	439.19
393.208	436.19
393.433	439.19
393.658	442.19
393.882	440.19
394.107	431.19
394.331	435.19
394.556	430.19
394.78	433.19
395.005	434.19
395.229	453.19
395.454	459.19
395.678	452.19
395.903	460.19
396.127	476.19
396.352	474.19
396.576	440.19
396.801	471.19
397.025	456.19
397.249	477.19
397.474	463.19
397.698	455.19
397.922	474.19
398.147	480.19
398.371	476.19
398.595	501.19
398.82	492.19
399.044	502.19
399.268	542.19
399.492	560.19
399.717	589.19
399.941	631.19
400.165	627.19
400.389	613.19
400.613	559.19
400.837	515.19
401.062	505.19
401.286	504.19
401.51	496.19
401.734	504.19
401.958	496.19
402.182	474.19
402.406	496.19
402.63	493.19
402.854	492.19
403.078	500.19
403.302	516.19
403.526	518.19
403.75	511.19
403.974	516.19
404.198	507.19
404.422	507.19
404.645	502.19
404.869	529.19
405.093	540.19
405.317	559.19
405.541	587.19
405.765	560.19
405.988	524.19
406.212	533.19
406.436	550.19
406.66	548.19
406.883	545.19
407.107	574.19
407.331	577.19
407.555	663.19
407.778	648.19
408.002	585.19
408.226	542.19
408.449	555.19
408.673	555.19
408.896	562.19
409.12	614.19
409.344	582.19
409.567	529.19
409.791	533.19
410.014	511.19
410.238	492.19
410.461	513.19
410.685	505.19
410.908	517.19
411.132	537.19
411.355	565.19
411.578	563.19
411.802	519.19
412.025	524.19
412.249	486.19
412.472	567.19
412.695	552.19
412.919	541.19
413.142	524.19
413.365	512.19
413.589	506.19
413.812	480.19
414.035	483.19
414.258	473.19
414.482	470.19
414.705	466.19
414.928	472.19
415.151	482.19
415.374	472.19
415.597	465.19
415.821	461.19
416.044	481.19
416.267	483.19
416.49	474.19
416.713	475.19
416.936	483.19
417.159	472.19
417.382	464.19
417.605	452.19
417.828	497.19
418.051	495.19
418.274	482.19
418.497	452.19
418.72	461.19
418.943	454.19
419.166	494.19
419.389	502.19
419.611	501.19
419.834	512.19
420.057	499.19
420.28	505.19
420.503	494.19
420.726	493.19
420.948	492.19
421.171	523.19
421.394	542.19
421.617	501.19
421.839	481.19
422.062	479.19
422.285	488.19
422.507	555.19
422.73	604.19
422.953	578.19
423.175	507.19
423.398	511.19
423.621	507.19
423.843	536.19
424.066	540.19
424.288	520.19
424.511	533.19
424.733	540.19
424.956	638.19
425.178	628.19
425.401	601.19
425.623	628.19
425.846	555.19
426.068	499.19
426.291	484.19
426.513	513.19
426.735	527.19
426.958	550.19
427.18	615.19
427.402	721.19
427.625	770.19
427.847	653.19
428.069	572.19
428.292	545.19
428.514	496.19
428.736	460.19
428.958	470.19
429.181	468.19
429.403	465.19
429.625	467.19
429.847	484.19
430.069	551.19
430.292	569.19
430.514	488.19
430.736	467.19
430.958	457.19
431.18	431.19
431.402	435.19
431.624	442.19
431.846	432.19
432.068	449.19
432.29	448.19
432.512	435.19
432.734	455.19
432.956	432.19
433.178	456.19
433.4	464.19
433.622	448.19
433.844	463.19
434.066	442.19
434.287	441.19
434.509	458.19
434.731	468.19
434.953	471.19
435.175	476.19
435.397	473.19
435.618	494.19
435.84	532.19
436.062	607.19
436.284	634.19
436.505	559.19
436.727	490.19
436.949	483.19
437.17	453.19
437.392	499.19
437.614	464.19
437.835	475.19
438.057	548.19
438.278	633.19
438.5	647.19
438.721	722.19
438.943	666.19
439.165	537.19
439.386	537.19
439.608	489.19
439.829	480.19
440.05	532.19
440.272	555.19
440.493	502.19
440.715	475.19
440.936	477.19
441.158	459.19
441.379	476.19
441.6	494.19
441.822	488.19
442.043	532.19
442.264	597.19
442.486	599.19
442.707	545.19
442.928	504.19
443.149	505.19
443.371	536.19
443.592	587.19
443.813	633.19
444.034	685.19
444.255	550.19
444.476	535.19
444.698	505.19
444.919	513.19
445.14	593.19
445.361	567.19
445.582	544.19
445.803	579.19
446.024	623.19
446.245	648.19
446.466	596.19
446.687	521.19
446.908	487.19
447.129	478.19
447.35	462.19
447.571	459.19
447.792	444.19
448.013	455.19
448.234	483.19
448.455	476.19
448.675	593.19
448.896	685.19
449.117	578.19
449.338	558.19
449.559	620.19
449.779	720.19
450	576.19
450.221	486.19
450.442	476.19
450.662	431.19
450.883	425.19
451.104	438.19
451.324	421.19
451.545	420.19
451.766	431.19
451.986	419.19
452.207	408.19
452.428	401.19
452.648	403.19
452.869	402.19
453.089	419.19
453.31	415.19
453.53	412.19
453.751	398.19
453.971	407.19
454.192	401.19
454.412	433.19
454.633	405.19
454.853	410.19
455.073	394.19
455.294	415.19
455.514	461.19
455.734	447.19
455.955	411.19
456.175	401.19
456.395	407.19
456.616	386.19
456.836	384.19
457.056	396.19
457.276	391.19
457.497	396.19
457.717	386.19
457.937	400.19
458.157	391.19
458.377	411.19
458.598	419.19
458.818	438.19
459.038	489.19
459.258	529.19
459.478	472.19
459.698	451.19
459.918	444.19
460.138	447.19
460.358	441.19
460.578	460.19
460.798	464.19
461.018	477.19
461.238	464.19
461.458	446.19
461.678	428.19
461.898	455.19
462.118	460.19
462.338	461.19
462.558	481.19
462.777	469.19
462.997	498.19
463.217	510.19
463.437	514.19
463.657	516.19
463.876	494.19
464.096	511.19
464.316	483.19
464.536	488.19
464.755	512.19
464.975	490.19
465.195	495.19
465.414	524.19
465.634	480.19
465.854	425.19
466.073	427.19
466.293	432.19
466.512	428.19
466.732	427.19
466.951	424.19
467.171	408.19
467.391	407.19
467.61	419.19
467.829	428.19
468.049	462.19
468.268	428.19
468.488	400.19
468.707	413.19
468.927	396.19
469.146	423.19
469.365	416.19
469.585	412.19
469.804	413.19
470.023	415.19
470.243	416.19
470.462	432.19
470.681	420.19
470.901	432.19
471.12	435.19
471.339	431.19
471.558	429.19
471.777	442.19
471.997	431.19
472.216	446.19
472.435	460.19
472.654	438.19
472.873	429.19
473.092	424.19
473.311	413.19
473.53	443.19
473.749	427.19
473.968	449.19
474.187	556.19
474.406	583.19
474.625	448.19
474.844	433.19
475.063	429.19
475.282	444.19
475.501	447.19
475.72	422.19
475.939	424.19
476.158	448.19
476.377	435.19
476.596	440.19
476.814	437.19
477.033	428.19
477.252	455.19
477.471	455.19
477.69	421.19
477.908	468.19
478.127	451.19
478.346	479.19
478.564	463.19
478.783	475.19
479.002	478.19
479.22	488.19
479.439	501.19
479.658	507.19
479.876	506.19
480.095	526.19
480.313	528.19
480.532	520.19
480.751	501.19
480.969	544.19
481.188	563.19
481.406	564.19
481.624	524.19
481.843	502.19
482.061	502.19
482.28	484.19
482.498	492.19
482.717	488.19
482.935	480.19
483.153	472.19
483.372	490.19
483.59	496.19
483.808	499.19
484.027	483.19
484.245	493.19
484.463	471.19
484.681	515.19
484.9	500.19
485.118	493.19
485.336	491.19
485.554	491.19
485.772	506.19
485.99	495.19
486.209	510.19
486.427	497.19
486.645	495.19
486.863	511.19
487.081	509.19
487.299	511.19
487.517	522.19
487.735	501.19
487.953	520.19
488.171	528.19
488.389	521.19
488.607	525.19
488.825	517.19
489.043	500.19
489.261	555.19
489.479	508.19
489.696	518.19
489.914	533.19
490.132	532.19
490.35	555.19
490.568	556.19
490.786	539.19
491.003	565.19
491.221	561.19
491.439	586.19
491.657	559.19
491.874	574.19
492.092	581.19
492.31	592.19
492.527	581.19
492.745	576.19
492.963	578.19
493.18	597.19
493.398	589.19
493.615	612.19
493.833	613.19
494.05	618.19
494.268	603.19
494.485	612.19
494.703	591.19
494.92	590.19
495.138	595.19
495.355	613.19
495.573	606.19
495.79	600.19
496.008	611.19
496.225	618.19
496.442	574.19
496.66	607.19
496.877	625.19
497.094	593.19
497.312	613.19
497.529	645.19
497.746	641.19
497.963	622.19
498.181	654.19
498.398	651.19
498.615	698.19
498.832	708.19
499.049	741.19
499.267	747.19
499.484	776.19
499.701	808.19
499.918	849.19
500.135	880.19
500.352	913.19
500.569	941.19
500.786	941.19
501.003	933.19
501.22	904.19
501.437	856.19
501.654	815.19
501.871	815.19
