Data from 1964.PennyLincolnUp.Lamp.En5.5.200Scan.071719.P1._HRD10591_14-05-32-909.txt Node
Date: Thu Jul 18 14:05:32 EDT 2019
User: cochatt
Spectrometer: HR+D1059
Trigger mode: 1
Integration Time (sec): 1.000000E-1
Scans to average: 1
Electric dark correction enabled: true
Nonlinearity correction enabled: false
Boxcar width: 0
XAxis mode: Wavelengths
Number of Pixels in Spectrum: 2048
>>>>>Begin Spectral Data<<<<<
223.165	-20.25
223.4	-20.25
223.635	-20.25
223.869	-18.25
224.104	-13.25
224.338	-12.25
224.573	-12.25
224.808	0.75
225.042	-5.25
225.277	-20.25
225.511	-9.25
225.746	15.75
225.98	5.75
226.215	7.75
226.449	10.75
226.683	14.75
226.918	26.75
227.152	28.75
227.387	35.75
227.621	47.75
227.856	35.75
228.09	50.75
228.324	40.75
228.559	66.75
228.793	63.75
229.027	97.75
229.262	98.75
229.496	114.75
229.73	108.75
229.964	118.75
230.199	121.75
230.433	95.75
230.667	96.75
230.901	116.75
231.136	112.75
231.37	103.75
231.604	100.75
231.838	112.75
232.072	98.75
232.306	110.75
232.541	107.75
232.775	116.75
233.009	135.75
233.243	118.75
233.477	107.75
233.711	107.75
233.945	114.75
234.179	119.75
234.413	111.75
234.647	115.75
234.881	114.75
235.115	115.75
235.349	96.75
235.583	116.75
235.817	133.75
236.051	131.75
236.285	115.75
236.519	109.75
236.753	119.75
236.987	151.75
237.221	165.75
237.455	230.75
237.689	162.75
237.922	122.75
238.156	135.75
238.39	125.75
238.624	122.75
238.858	129.75
239.091	131.75
239.325	116.75
239.559	101.75
239.793	137.75
240.027	127.75
240.26	120.75
240.494	151.75
240.728	148.75
240.961	139.75
241.195	151.75
241.429	136.75
241.662	136.75
241.896	133.75
242.13	135.75
242.363	127.75
242.597	125.75
242.83	133.75
243.064	136.75
243.298	134.75
243.531	140.75
243.765	136.75
243.998	134.75
244.232	137.75
244.465	140.75
244.699	139.75
244.932	151.75
245.166	153.75
245.399	145.75
245.633	147.75
245.866	151.75
246.099	151.75
246.333	148.75
246.566	151.75
246.8	152.75
247.033	144.75
247.266	158.75
247.5	155.75
247.733	156.75
247.966	171.75
248.2	166.75
248.433	159.75
248.666	164.75
248.899	162.75
249.133	194.75
249.366	187.75
249.599	172.75
249.832	167.75
250.066	176.75
250.299	191.75
250.532	188.75
250.765	189.75
250.998	207.75
251.231	212.75
251.465	219.75
251.698	207.75
251.931	192.75
252.164	205.75
252.397	208.75
252.63	188.75
252.863	192.75
253.096	214.75
253.329	219.75
253.562	208.75
253.795	215.75
254.028	217.75
254.261	217.75
254.494	211.75
254.727	235.75
254.96	243.75
255.193	258.75
255.426	236.75
255.659	230.75
255.892	240.75
256.124	225.75
256.357	247.75
256.59	215.75
256.823	206.75
257.056	228.75
257.289	218.75
257.521	211.75
257.754	225.75
257.987	193.75
258.22	219.75
258.452	209.75
258.685	219.75
258.918	221.75
259.151	223.75
259.383	224.75
259.616	240.75
259.849	231.75
260.081	239.75
260.314	245.75
260.547	240.75
260.779	232.75
261.012	243.75
261.244	244.75
261.477	235.75
261.71	220.75
261.942	226.75
262.175	249.75
262.407	219.75
262.64	221.75
262.872	209.75
263.105	227.75
263.337	221.75
263.57	220.75
263.802	218.75
264.035	226.75
264.267	213.75
264.499	221.75
264.732	225.75
264.964	218.75
265.197	240.75
265.429	235.75
265.661	235.75
265.894	226.75
266.126	232.75
266.358	221.75
266.591	227.75
266.823	247.75
267.055	224.75
267.287	218.75
267.52	236.75
267.752	236.75
267.984	246.75
268.216	248.75
268.448	251.75
268.681	252.75
268.913	270.75
269.145	264.75
269.377	265.75
269.609	285.75
269.841	258.75
270.073	284.75
270.306	293.75
270.538	309.75
270.77	303.75
271.002	307.75
271.234	289.75
271.466	290.75
271.698	329.75
271.93	307.75
272.162	307.75
272.394	296.75
272.626	311.75
272.858	299.75
273.09	294.75
273.322	279.75
273.553	278.75
273.785	261.75
274.017	279.75
274.249	299.75
274.481	270.75
274.713	281.75
274.945	282.75
275.176	277.75
275.408	273.75
275.64	280.75
275.872	282.75
276.104	263.75
276.335	286.75
276.567	299.75
276.799	289.75
277.031	294.75
277.262	322.75
277.494	334.75
277.726	323.75
277.957	313.75
278.189	283.75
278.421	279.75
278.652	288.75
278.884	288.75
279.115	283.75
279.347	283.75
279.579	305.75
279.81	298.75
280.042	281.75
280.273	293.75
280.505	292.75
280.736	293.75
280.968	290.75
281.199	300.75
281.431	289.75
281.662	297.75
281.894	308.75
282.125	287.75
282.356	295.75
282.588	320.75
282.819	303.75
283.051	311.75
283.282	320.75
283.513	308.75
283.745	310.75
283.976	294.75
284.207	304.75
284.439	312.75
284.67	321.75
284.901	308.75
285.132	335.75
285.364	303.75
285.595	308.75
285.826	314.75
286.057	303.75
286.288	291.75
286.52	307.75
286.751	321.75
286.982	309.75
287.213	313.75
287.444	312.75
287.675	304.75
287.906	332.75
288.138	328.75
288.369	303.75
288.6	337.75
288.831	331.75
289.062	337.75
289.293	317.75
289.524	317.75
289.755	326.75
289.986	312.75
290.217	324.75
290.448	311.75
290.679	342.75
290.91	326.75
291.141	335.75
291.371	315.75
291.602	320.75
291.833	317.75
292.064	327.75
292.295	323.75
292.526	317.75
292.757	314.75
292.987	317.75
293.218	305.75
293.449	301.75
293.68	313.75
293.91	335.75
294.141	332.75
294.372	327.75
294.603	336.75
294.833	321.75
295.064	328.75
295.295	323.75
295.525	342.75
295.756	349.75
295.987	328.75
296.217	331.75
296.448	361.75
296.679	328.75
296.909	306.75
297.14	329.75
297.37	336.75
297.601	338.75
297.831	344.75
298.062	350.75
298.292	354.75
298.523	343.75
298.753	338.75
298.984	343.75
299.214	348.75
299.445	337.75
299.675	338.75
299.905	345.75
300.136	357.75
300.366	344.75
300.597	342.75
300.827	372.75
301.057	357.75
301.288	354.75
301.518	337.75
301.748	349.75
301.979	357.75
302.209	374.75
302.439	368.75
302.669	352.75
302.9	361.75
303.13	351.75
303.36	350.75
303.59	371.75
303.82	383.75
304.051	365.75
304.281	377.75
304.511	351.75
304.741	373.75
304.971	353.75
305.201	337.75
305.431	347.75
305.661	365.75
305.891	343.75
306.121	352.75
306.352	353.75
306.582	362.75
306.812	349.75
307.042	377.75
307.272	375.75
307.502	354.75
307.731	364.75
307.961	359.75
308.191	381.75
308.421	367.75
308.651	374.75
308.881	356.75
309.111	381.75
309.341	385.75
309.571	375.75
309.8	368.75
310.03	382.75
310.26	400.75
310.49	385.75
310.72	381.75
310.949	408.75
311.179	397.75
311.409	373.75
311.639	386.75
311.868	412.75
312.098	398.75
312.328	399.75
312.557	417.75
312.787	406.75
313.017	423.75
313.246	390.75
313.476	401.75
313.706	403.75
313.935	408.75
314.165	402.75
314.394	431.75
314.624	422.75
314.853	404.75
315.083	405.75
315.312	411.75
315.542	400.75
315.771	410.75
316.001	403.75
316.23	397.75
316.46	402.75
316.689	402.75
316.919	418.75
317.148	425.75
317.377	420.75
317.607	402.75
317.836	392.75
318.065	402.75
318.295	417.75
318.524	396.75
318.753	411.75
318.983	423.75
319.212	416.75
319.441	397.75
319.67	403.75
319.9	391.75
320.129	387.75
320.358	402.75
320.587	401.75
320.816	427.75
321.046	436.75
321.275	412.75
321.504	417.75
321.733	442.75
321.962	409.75
322.191	442.75
322.42	416.75
322.649	431.75
322.878	424.75
323.108	448.75
323.337	457.75
323.566	464.75
323.795	480.75
324.024	529.75
324.253	601.75
324.482	834.75
324.71	1201.75
324.939	1608.75
325.168	1364.75
325.397	776.75
325.626	564.75
325.855	488.75
326.084	481.75
326.313	474.75
326.542	482.75
326.77	533.75
326.999	599.75
327.228	757.75
327.457	1077.75
327.686	1224.75
327.914	833.75
328.143	607.75
328.372	542.75
328.6	547.75
328.829	538.75
329.058	537.75
329.287	542.75
329.515	531.75
329.744	478.75
329.972	505.75
330.201	530.75
330.43	547.75
330.658	548.75
330.887	567.75
331.115	545.75
331.344	496.75
331.572	482.75
331.801	501.75
332.03	486.75
332.258	490.75
332.486	463.75
332.715	473.75
332.943	467.75
333.172	499.75
333.4	480.75
333.629	503.75
333.857	502.75
334.085	524.75
334.314	530.75
334.542	564.75
334.771	546.75
334.999	524.75
335.227	511.75
335.455	481.75
335.684	471.75
335.912	464.75
336.14	481.75
336.369	485.75
336.597	476.75
336.825	482.75
337.053	458.75
337.281	446.75
337.51	461.75
337.738	469.75
337.966	480.75
338.194	462.75
338.422	466.75
338.65	472.75
338.878	476.75
339.106	470.75
339.334	452.75
339.562	459.75
339.79	450.75
340.018	456.75
340.246	476.75
340.474	452.75
340.702	446.75
340.93	424.75
341.158	454.75
341.386	433.75
341.614	451.75
341.842	433.75
342.07	440.75
342.298	442.75
342.526	439.75
342.754	436.75
342.981	439.75
343.209	439.75
343.437	457.75
343.665	461.75
343.893	458.75
344.12	481.75
344.348	468.75
344.576	468.75
344.804	452.75
345.031	450.75
345.259	441.75
345.487	460.75
345.714	434.75
345.942	440.75
346.17	444.75
346.397	427.75
346.625	447.75
346.853	412.75
347.08	427.75
347.308	422.75
347.535	418.75
347.763	442.75
347.99	441.75
348.218	448.75
348.445	421.75
348.673	417.75
348.9	431.75
349.128	411.75
349.355	412.75
349.583	420.75
349.81	398.75
350.037	406.75
350.265	405.75
350.492	413.75
350.72	404.75
350.947	416.75
351.174	432.75
351.402	435.75
351.629	428.75
351.856	415.75
352.083	403.75
352.311	433.75
352.538	401.75
352.765	438.75
352.992	421.75
353.22	387.75
353.447	424.75
353.674	410.75
353.901	411.75
354.128	413.75
354.355	403.75
354.583	397.75
354.81	398.75
355.037	413.75
355.264	386.75
355.491	393.75
355.718	385.75
355.945	409.75
356.172	403.75
356.399	383.75
356.626	416.75
356.853	408.75
357.08	372.75
357.307	392.75
357.534	396.75
357.761	402.75
357.988	400.75
358.215	405.75
358.441	406.75
358.668	395.75
358.895	404.75
359.122	399.75
359.349	396.75
359.576	421.75
359.802	416.75
360.029	433.75
360.256	425.75
360.483	431.75
360.709	402.75
360.936	397.75
361.163	416.75
361.39	415.75
361.616	386.75
361.843	404.75
362.07	403.75
362.296	417.75
362.523	415.75
362.749	414.75
362.976	394.75
363.203	418.75
363.429	404.75
363.656	401.75
363.882	389.75
364.109	402.75
364.335	397.75
364.562	410.75
364.788	389.75
365.015	407.75
365.241	393.75
365.468	411.75
365.694	387.75
365.92	394.75
366.147	400.75
366.373	377.75
366.599	390.75
366.826	391.75
367.052	397.75
367.278	400.75
367.505	400.75
367.731	379.75
367.957	408.75
368.184	383.75
368.41	397.75
368.636	405.75
368.862	414.75
369.089	407.75
369.315	403.75
369.541	391.75
369.767	401.75
369.993	407.75
370.219	394.75
370.445	404.75
370.672	394.75
370.898	410.75
371.124	401.75
371.35	387.75
371.576	392.75
371.802	392.75
372.028	388.75
372.254	422.75
372.48	401.75
372.706	402.75
372.932	417.75
373.158	399.75
373.384	399.75
373.61	391.75
373.835	385.75
374.061	388.75
374.287	407.75
374.513	379.75
374.739	415.75
374.965	398.75
375.191	395.75
375.416	390.75
375.642	408.75
375.868	405.75
376.094	387.75
376.319	409.75
376.545	397.75
376.771	381.75
376.997	389.75
377.222	369.75
377.448	392.75
377.674	398.75
377.899	374.75
378.125	402.75
378.35	378.75
378.576	383.75
378.802	394.75
379.027	391.75
379.253	390.75
379.478	380.75
379.704	401.75
379.929	400.75
380.155	363.75
380.38	383.75
380.606	383.75
380.831	395.75
381.057	385.75
381.282	389.75
381.507	416.75
381.733	389.75
381.958	393.75
382.184	409.75
382.409	420.75
382.634	411.75
382.86	397.75
383.085	416.75
383.31	420.75
383.535	397.75
383.761	402.75
383.986	416.75
384.211	450.75
384.436	410.75
384.662	428.75
384.887	421.75
385.112	427.75
385.337	436.75
385.562	424.75
385.787	450.75
386.013	424.75
386.238	421.75
386.463	446.75
386.688	447.75
386.913	422.75
387.138	440.75
387.363	423.75
387.588	414.75
387.813	423.75
388.038	424.75
388.263	422.75
388.488	431.75
388.713	423.75
388.938	445.75
389.163	421.75
389.387	403.75
389.612	420.75
389.837	456.75
390.062	424.75
390.287	409.75
390.512	418.75
390.736	425.75
390.961	442.75
391.186	435.75
391.411	439.75
391.636	423.75
391.86	439.75
392.085	437.75
392.31	457.75
392.534	443.75
392.759	406.75
392.984	438.75
393.208	432.75
393.433	441.75
393.658	435.75
393.882	437.75
394.107	433.75
394.331	433.75
394.556	450.75
394.78	431.75
395.005	444.75
395.229	428.75
395.454	456.75
395.678	466.75
395.903	460.75
396.127	454.75
396.352	444.75
396.576	458.75
396.801	431.75
397.025	439.75
397.249	458.75
397.474	447.75
397.698	445.75
397.922	479.75
398.147	453.75
398.371	469.75
398.595	492.75
398.82	474.75
399.044	479.75
399.268	545.75
399.492	568.75
399.717	599.75
399.941	617.75
400.165	609.75
400.389	570.75
400.613	529.75
400.837	513.75
401.062	512.75
401.286	511.75
401.51	511.75
401.734	483.75
401.958	461.75
402.182	469.75
402.406	484.75
402.63	495.75
402.854	497.75
403.078	479.75
403.302	487.75
403.526	505.75
403.75	513.75
403.974	499.75
404.198	499.75
404.422	519.75
404.645	516.75
404.869	509.75
405.093	535.75
405.317	568.75
405.541	601.75
405.765	551.75
405.988	513.75
406.212	521.75
406.436	514.75
406.66	543.75
406.883	522.75
407.107	549.75
407.331	601.75
407.555	652.75
407.778	653.75
408.002	585.75
408.226	552.75
408.449	554.75
408.673	528.75
408.896	570.75
409.12	589.75
409.344	546.75
409.567	506.75
409.791	500.75
410.014	516.75
410.238	491.75
410.461	484.75
410.685	495.75
410.908	507.75
411.132	528.75
411.355	548.75
411.578	524.75
411.802	493.75
412.025	476.75
412.249	508.75
412.472	523.75
412.695	544.75
412.919	545.75
413.142	503.75
413.365	484.75
413.589	504.75
413.812	479.75
414.035	478.75
414.258	465.75
414.482	455.75
414.705	451.75
414.928	476.75
415.151	438.75
415.374	463.75
415.597	475.75
415.821	456.75
416.044	477.75
416.267	482.75
416.49	453.75
416.713	458.75
416.936	476.75
417.159	445.75
417.382	466.75
417.605	474.75
417.828	468.75
418.051	488.75
418.274	503.75
418.497	461.75
418.72	484.75
418.943	456.75
419.166	478.75
419.389	491.75
419.611	479.75
419.834	490.75
420.057	490.75
420.28	470.75
420.503	476.75
420.726	460.75
420.948	499.75
421.171	520.75
421.394	550.75
421.617	505.75
421.839	488.75
422.062	486.75
422.285	487.75
422.507	523.75
422.73	588.75
422.953	537.75
423.175	493.75
423.398	499.75
423.621	487.75
423.843	484.75
424.066	523.75
424.288	522.75
424.511	528.75
424.733	556.75
424.956	606.75
425.178	576.75
425.401	568.75
425.623	604.75
425.846	522.75
426.068	482.75
426.291	483.75
426.513	500.75
426.735	487.75
426.958	541.75
427.18	602.75
427.402	693.75
427.625	728.75
427.847	628.75
428.069	556.75
428.292	530.75
428.514	485.75
428.736	463.75
428.958	488.75
429.181	465.75
429.403	443.75
429.625	488.75
429.847	483.75
430.069	525.75
430.292	562.75
430.514	456.75
430.736	458.75
430.958	463.75
431.18	432.75
431.402	436.75
431.624	435.75
431.846	418.75
432.068	435.75
432.29	425.75
432.512	424.75
432.734	444.75
432.956	453.75
433.178	450.75
433.4	446.75
433.622	433.75
433.844	436.75
434.066	437.75
434.287	442.75
434.509	435.75
434.731	443.75
434.953	446.75
435.175	474.75
435.397	488.75
435.618	510.75
435.84	530.75
436.062	585.75
436.284	661.75
436.505	519.75
436.727	468.75
436.949	464.75
437.17	449.75
437.392	459.75
437.614	476.75
437.835	484.75
438.057	541.75
438.278	618.75
438.5	619.75
438.721	695.75
438.943	631.75
439.165	530.75
439.386	500.75
439.608	486.75
439.829	508.75
440.05	515.75
440.272	543.75
440.493	498.75
440.715	472.75
440.936	458.75
441.158	449.75
441.379	465.75
441.6	492.75
441.822	486.75
442.043	504.75
442.264	588.75
442.486	619.75
442.707	512.75
442.928	484.75
443.149	489.75
443.371	528.75
443.592	556.75
443.813	643.75
444.034	640.75
444.255	567.75
444.476	523.75
444.698	518.75
444.919	530.75
445.14	587.75
445.361	548.75
445.582	513.75
445.803	567.75
446.024	618.75
446.245	621.75
446.466	575.75
446.687	502.75
446.908	475.75
447.129	451.75
447.35	452.75
447.571	429.75
447.792	428.75
448.013	445.75
448.234	461.75
448.455	466.75
448.675	581.75
448.896	657.75
449.117	577.75
449.338	540.75
449.559	641.75
449.779	701.75
450	580.75
450.221	475.75
450.442	452.75
450.662	427.75
450.883	409.75
451.104	434.75
451.324	441.75
451.545	409.75
451.766	412.75
451.986	394.75
452.207	402.75
452.428	393.75
452.648	431.75
452.869	387.75
453.089	407.75
453.31	418.75
453.53	405.75
453.751	423.75
453.971	397.75
454.192	410.75
454.412	392.75
454.633	407.75
454.853	391.75
455.073	412.75
455.294	401.75
455.514	444.75
455.734	458.75
455.955	390.75
456.175	394.75
456.395	385.75
456.616	388.75
456.836	365.75
457.056	389.75
457.276	368.75
457.497	376.75
457.717	356.75
457.937	380.75
458.157	403.75
458.377	399.75
458.598	388.75
458.818	454.75
459.038	485.75
459.258	494.75
459.478	465.75
459.698	425.75
459.918	442.75
460.138	439.75
460.358	445.75
460.578	456.75
460.798	437.75
461.018	427.75
461.238	458.75
461.458	435.75
461.678	447.75
461.898	453.75
462.118	420.75
462.338	464.75
462.558	457.75
462.777	458.75
462.997	472.75
463.217	499.75
463.437	525.75
463.657	496.75
463.876	496.75
464.096	483.75
464.316	486.75
464.536	471.75
464.755	459.75
464.975	481.75
465.195	491.75
465.414	509.75
465.634	458.75
465.854	426.75
466.073	452.75
466.293	435.75
466.512	416.75
466.732	395.75
466.951	387.75
467.171	397.75
467.391	410.75
467.61	419.75
467.829	429.75
468.049	431.75
468.268	405.75
468.488	425.75
468.707	407.75
468.927	400.75
469.146	386.75
469.365	383.75
469.585	412.75
469.804	387.75
470.023	400.75
470.243	405.75
470.462	410.75
470.681	437.75
470.901	408.75
471.12	423.75
471.339	412.75
471.558	424.75
471.777	417.75
471.997	417.75
472.216	406.75
472.435	419.75
472.654	420.75
472.873	419.75
473.092	397.75
473.311	409.75
473.53	404.75
473.749	424.75
473.968	443.75
474.187	527.75
474.406	549.75
474.625	457.75
474.844	424.75
475.063	415.75
475.282	405.75
475.501	419.75
475.72	404.75
475.939	412.75
476.158	434.75
476.377	432.75
476.596	419.75
476.814	424.75
477.033	434.75
477.252	447.75
477.471	427.75
477.69	424.75
477.908	466.75
478.127	460.75
478.346	468.75
478.564	452.75
478.783	467.75
479.002	489.75
479.22	461.75
479.439	460.75
479.658	488.75
479.876	484.75
480.095	507.75
480.313	532.75
480.532	532.75
480.751	484.75
480.969	518.75
481.188	554.75
481.406	574.75
481.624	521.75
481.843	501.75
482.061	474.75
482.28	498.75
482.498	483.75
482.717	465.75
482.935	477.75
483.153	483.75
483.372	487.75
483.59	482.75
483.808	464.75
484.027	481.75
484.245	492.75
484.463	479.75
484.681	483.75
484.9	499.75
485.118	499.75
485.336	492.75
485.554	491.75
485.772	476.75
485.99	497.75
486.209	475.75
486.427	513.75
486.645	530.75
486.863	496.75
487.081	515.75
487.299	530.75
487.517	512.75
487.735	492.75
487.953	506.75
488.171	503.75
488.389	504.75
488.607	522.75
488.825	521.75
489.043	512.75
489.261	493.75
489.479	508.75
489.696	501.75
489.914	521.75
490.132	535.75
490.35	535.75
490.568	504.75
490.786	551.75
491.003	543.75
491.221	547.75
491.439	573.75
491.657	566.75
491.874	562.75
492.092	579.75
492.31	579.75
492.527	570.75
492.745	579.75
492.963	565.75
493.18	588.75
493.398	584.75
493.615	594.75
493.833	582.75
494.05	580.75
494.268	575.75
494.485	594.75
494.703	587.75
494.92	593.75
495.138	587.75
495.355	599.75
495.573	586.75
495.79	596.75
496.008	589.75
496.225	597.75
496.442	595.75
496.66	577.75
496.877	617.75
497.094	615.75
497.312	585.75
497.529	621.75
497.746	631.75
497.963	628.75
498.181	639.75
498.398	665.75
498.615	675.75
498.832	686.75
499.049	695.75
499.267	726.75
499.484	749.75
499.701	773.75
499.918	819.75
500.135	851.75
500.352	924.75
500.569	928.75
500.786	927.75
501.003	906.75
501.22	902.75
501.437	827.75
501.654	817.75
501.871	795.75
502.088	757.75
