Data from 1964.PennyLincolnUp.Lamp.En5.5.200Scan.071719.P1._HRD10591_14-06-20-910.txt Node
Date: Thu Jul 18 14:06:20 EDT 2019
User: cochatt
Spectrometer: HR+D1059
Trigger mode: 1
Integration Time (sec): 1.000000E-1
Scans to average: 1
Electric dark correction enabled: true
Nonlinearity correction enabled: false
Boxcar width: 0
XAxis mode: Wavelengths
Number of Pixels in Spectrum: 2048
>>>>>Begin Spectral Data<<<<<
223.165	-14.88
223.4	-14.88
223.635	-14.88
223.869	-24.88
224.104	-16.88
224.338	2.12
224.573	-11.88
224.808	-11.88
225.042	-12.88
225.277	-4.88
225.511	-10.88
225.746	0.12
225.98	7.12
226.215	9.12
226.449	15.12
226.683	29.12
226.918	19.12
227.152	27.12
227.387	37.12
227.621	40.12
227.856	40.12
228.09	52.12
228.324	50.12
228.559	31.12
228.793	59.12
229.027	102.12
229.262	106.12
229.496	101.12
229.73	119.12
229.964	134.12
230.199	110.12
230.433	98.12
230.667	118.12
230.901	111.12
231.136	111.12
231.37	121.12
231.604	101.12
231.838	99.12
232.072	105.12
232.306	107.12
232.541	124.12
232.775	114.12
233.009	113.12
233.243	108.12
233.477	117.12
233.711	122.12
233.945	120.12
234.179	130.12
234.413	120.12
234.647	99.12
234.881	126.12
235.115	125.12
235.349	120.12
235.583	141.12
235.817	100.12
236.051	119.12
236.285	130.12
236.519	126.12
236.753	124.12
236.987	139.12
237.221	174.12
237.455	195.12
237.689	172.12
237.922	128.12
238.156	136.12
238.39	130.12
238.624	126.12
238.858	130.12
239.091	107.12
239.325	134.12
239.559	124.12
239.793	125.12
240.027	137.12
240.26	145.12
240.494	134.12
240.728	145.12
240.961	138.12
241.195	127.12
241.429	143.12
241.662	153.12
241.896	128.12
242.13	128.12
242.363	143.12
242.597	140.12
242.83	137.12
243.064	128.12
243.298	127.12
243.531	134.12
243.765	156.12
243.998	156.12
244.232	131.12
244.465	143.12
244.699	139.12
244.932	145.12
245.166	141.12
245.399	154.12
245.633	155.12
245.866	148.12
246.099	139.12
246.333	130.12
246.566	150.12
246.8	144.12
247.033	153.12
247.266	158.12
247.5	157.12
247.733	174.12
247.966	174.12
248.2	161.12
248.433	178.12
248.666	170.12
248.899	176.12
249.133	191.12
249.366	203.12
249.599	192.12
249.832	183.12
250.066	191.12
250.299	182.12
250.532	187.12
250.765	192.12
250.998	221.12
251.231	208.12
251.465	200.12
251.698	195.12
251.931	196.12
252.164	198.12
252.397	200.12
252.63	203.12
252.863	207.12
253.096	206.12
253.329	223.12
253.562	224.12
253.795	211.12
254.028	227.12
254.261	210.12
254.494	218.12
254.727	247.12
254.96	260.12
255.193	247.12
255.426	261.12
255.659	235.12
255.892	238.12
256.124	239.12
256.357	233.12
256.59	217.12
256.823	221.12
257.056	214.12
257.289	231.12
257.521	219.12
257.754	206.12
257.987	225.12
258.22	205.12
258.452	222.12
258.685	201.12
258.918	214.12
259.151	213.12
259.383	206.12
259.616	218.12
259.849	261.12
260.081	242.12
260.314	261.12
260.547	258.12
260.779	246.12
261.012	252.12
261.244	236.12
261.477	237.12
261.71	233.12
261.942	231.12
262.175	215.12
262.407	229.12
262.64	218.12
262.872	228.12
263.105	210.12
263.337	229.12
263.57	221.12
263.802	216.12
264.035	238.12
264.267	232.12
264.499	214.12
264.732	237.12
264.964	227.12
265.197	228.12
265.429	221.12
265.661	234.12
265.894	214.12
266.126	245.12
266.358	246.12
266.591	238.12
266.823	247.12
267.055	260.12
267.287	251.12
267.52	232.12
267.752	243.12
267.984	233.12
268.216	242.12
268.448	255.12
268.681	253.12
268.913	246.12
269.145	264.12
269.377	286.12
269.609	278.12
269.841	288.12
270.073	282.12
270.306	309.12
270.538	318.12
270.77	317.12
271.002	309.12
271.234	296.12
271.466	293.12
271.698	300.12
271.93	331.12
272.162	302.12
272.394	307.12
272.626	295.12
272.858	288.12
273.09	268.12
273.322	291.12
273.553	302.12
273.785	276.12
274.017	282.12
274.249	294.12
274.481	273.12
274.713	279.12
274.945	290.12
275.176	278.12
275.408	270.12
275.64	275.12
275.872	283.12
276.104	283.12
276.335	283.12
276.567	278.12
276.799	287.12
277.031	320.12
277.262	316.12
277.494	328.12
277.726	308.12
277.957	314.12
278.189	301.12
278.421	305.12
278.652	300.12
278.884	322.12
279.115	296.12
279.347	296.12
279.579	292.12
279.81	293.12
280.042	294.12
280.273	292.12
280.505	293.12
280.736	282.12
280.968	295.12
281.199	302.12
281.431	302.12
281.662	304.12
281.894	287.12
282.125	299.12
282.356	307.12
282.588	316.12
282.819	303.12
283.051	310.12
283.282	298.12
283.513	322.12
283.745	295.12
283.976	303.12
284.207	319.12
284.439	333.12
284.67	315.12
284.901	301.12
285.132	309.12
285.364	311.12
285.595	307.12
285.826	310.12
286.057	294.12
286.288	322.12
286.52	334.12
286.751	324.12
286.982	315.12
287.213	328.12
287.444	317.12
287.675	308.12
287.906	320.12
288.138	337.12
288.369	331.12
288.6	323.12
288.831	338.12
289.062	336.12
289.293	330.12
289.524	340.12
289.755	312.12
289.986	340.12
290.217	300.12
290.448	328.12
290.679	320.12
290.91	325.12
291.141	312.12
291.371	327.12
291.602	324.12
291.833	318.12
292.064	346.12
292.295	317.12
292.526	314.12
292.757	307.12
292.987	332.12
293.218	327.12
293.449	310.12
293.68	318.12
293.91	331.12
294.141	341.12
294.372	324.12
294.603	335.12
294.833	345.12
295.064	328.12
295.295	314.12
295.525	324.12
295.756	324.12
295.987	337.12
296.217	344.12
296.448	350.12
296.679	351.12
296.909	330.12
297.14	358.12
297.37	345.12
297.601	328.12
297.831	360.12
298.062	346.12
298.292	347.12
298.523	345.12
298.753	334.12
298.984	346.12
299.214	355.12
299.445	334.12
299.675	336.12
299.905	351.12
300.136	360.12
300.366	342.12
300.597	348.12
300.827	347.12
301.057	372.12
301.288	360.12
301.518	361.12
301.748	355.12
301.979	355.12
302.209	364.12
302.439	367.12
302.669	375.12
302.9	356.12
303.13	379.12
303.36	378.12
303.59	370.12
303.82	377.12
304.051	378.12
304.281	364.12
304.511	360.12
304.741	371.12
304.971	351.12
305.201	364.12
305.431	368.12
305.661	344.12
305.891	365.12
306.121	342.12
306.352	374.12
306.582	381.12
306.812	375.12
307.042	350.12
307.272	366.12
307.502	358.12
307.731	371.12
307.961	392.12
308.191	368.12
308.421	390.12
308.651	363.12
308.881	379.12
309.111	380.12
309.341	387.12
309.571	385.12
309.8	368.12
310.03	400.12
310.26	381.12
310.49	408.12
310.72	401.12
310.949	387.12
311.179	414.12
311.409	400.12
311.639	395.12
311.868	408.12
312.098	421.12
312.328	401.12
312.557	428.12
312.787	432.12
313.017	415.12
313.246	409.12
313.476	392.12
313.706	401.12
313.935	418.12
314.165	420.12
314.394	427.12
314.624	414.12
314.853	410.12
315.083	413.12
315.312	392.12
315.542	418.12
315.771	386.12
316.001	404.12
316.23	427.12
316.46	423.12
316.689	399.12
316.919	417.12
317.148	406.12
317.377	412.12
317.607	398.12
317.836	434.12
318.065	411.12
318.295	384.12
318.524	423.12
318.753	401.12
318.983	420.12
319.212	410.12
319.441	394.12
319.67	433.12
319.9	396.12
320.129	398.12
320.358	406.12
320.587	425.12
320.816	392.12
321.046	429.12
321.275	428.12
321.504	420.12
321.733	424.12
321.962	418.12
322.191	430.12
322.42	432.12
322.649	458.12
322.878	428.12
323.108	462.12
323.337	478.12
323.566	488.12
323.795	520.12
324.024	574.12
324.253	614.12
324.482	835.12
324.71	1233.12
324.939	1704.12
325.168	1428.12
325.397	781.12
325.626	537.12
325.855	512.12
326.084	518.12
326.313	480.12
326.542	500.12
326.77	528.12
326.999	616.12
327.228	766.12
327.457	1119.12
327.686	1278.12
327.914	841.12
328.143	618.12
328.372	567.12
328.6	560.12
328.829	541.12
329.058	547.12
329.287	536.12
329.515	542.12
329.744	512.12
329.972	502.12
330.201	529.12
330.43	564.12
330.658	581.12
330.887	584.12
331.115	564.12
331.344	512.12
331.572	488.12
331.801	524.12
332.03	499.12
332.258	483.12
332.486	479.12
332.715	477.12
332.943	495.12
333.172	501.12
333.4	503.12
333.629	518.12
333.857	517.12
334.085	519.12
334.314	559.12
334.542	568.12
334.771	578.12
334.999	544.12
335.227	518.12
335.455	483.12
335.684	493.12
335.912	498.12
336.14	468.12
336.369	471.12
336.597	491.12
336.825	481.12
337.053	474.12
337.281	465.12
337.51	463.12
337.738	447.12
337.966	480.12
338.194	469.12
338.422	474.12
338.65	466.12
338.878	471.12
339.106	446.12
339.334	449.12
339.562	467.12
339.79	445.12
340.018	459.12
340.246	473.12
340.474	457.12
340.702	437.12
340.93	473.12
341.158	452.12
341.386	443.12
341.614	431.12
341.842	435.12
342.07	440.12
342.298	458.12
342.526	432.12
342.754	410.12
342.981	455.12
343.209	442.12
343.437	445.12
343.665	465.12
343.893	483.12
344.12	462.12
344.348	476.12
344.576	498.12
344.804	463.12
345.031	466.12
345.259	437.12
345.487	428.12
345.714	465.12
345.942	446.12
346.17	430.12
346.397	416.12
346.625	430.12
346.853	431.12
347.08	411.12
347.308	436.12
347.535	450.12
347.763	436.12
347.99	428.12
348.218	423.12
348.445	440.12
348.673	437.12
348.9	419.12
349.128	428.12
349.355	408.12
349.583	410.12
349.81	418.12
350.037	422.12
350.265	415.12
350.492	429.12
350.72	431.12
350.947	430.12
351.174	423.12
351.402	426.12
351.629	421.12
351.856	443.12
352.083	426.12
352.311	426.12
352.538	413.12
352.765	418.12
352.992	398.12
353.22	423.12
353.447	423.12
353.674	419.12
353.901	410.12
354.128	399.12
354.355	422.12
354.583	417.12
354.81	403.12
355.037	418.12
355.264	404.12
355.491	400.12
355.718	398.12
355.945	398.12
356.172	403.12
356.399	398.12
356.626	406.12
356.853	416.12
357.08	419.12
357.307	410.12
357.534	413.12
357.761	390.12
357.988	413.12
358.215	402.12
358.441	391.12
358.668	403.12
358.895	392.12
359.122	402.12
359.349	389.12
359.576	392.12
359.802	434.12
360.029	430.12
360.256	445.12
360.483	434.12
360.709	421.12
360.936	413.12
361.163	394.12
361.39	405.12
361.616	422.12
361.843	409.12
362.07	411.12
362.296	421.12
362.523	411.12
362.749	414.12
362.976	399.12
363.203	412.12
363.429	390.12
363.656	397.12
363.882	395.12
364.109	390.12
364.335	397.12
364.562	406.12
364.788	403.12
365.015	402.12
365.241	382.12
365.468	394.12
365.694	410.12
365.92	394.12
366.147	396.12
366.373	398.12
366.599	412.12
366.826	400.12
367.052	376.12
367.278	406.12
367.505	392.12
367.731	397.12
367.957	372.12
368.184	392.12
368.41	407.12
368.636	388.12
368.862	388.12
369.089	411.12
369.315	419.12
369.541	390.12
369.767	390.12
369.993	400.12
370.219	406.12
370.445	386.12
370.672	371.12
370.898	400.12
371.124	385.12
371.35	400.12
371.576	372.12
371.802	398.12
372.028	403.12
372.254	393.12
372.48	393.12
372.706	409.12
372.932	395.12
373.158	406.12
373.384	414.12
373.61	402.12
373.835	411.12
374.061	381.12
374.287	411.12
374.513	394.12
374.739	404.12
374.965	400.12
375.191	407.12
375.416	418.12
375.642	422.12
375.868	423.12
376.094	413.12
376.319	405.12
376.545	390.12
376.771	381.12
376.997	401.12
377.222	403.12
377.448	406.12
377.674	394.12
377.899	374.12
378.125	398.12
378.35	394.12
378.576	378.12
378.802	381.12
379.027	381.12
379.253	395.12
379.478	376.12
379.704	386.12
379.929	383.12
380.155	395.12
380.38	400.12
380.606	402.12
380.831	390.12
381.057	398.12
381.282	412.12
381.507	399.12
381.733	390.12
381.958	400.12
382.184	410.12
382.409	404.12
382.634	406.12
382.86	412.12
383.085	420.12
383.31	420.12
383.535	409.12
383.761	423.12
383.986	414.12
384.211	424.12
384.436	418.12
384.662	429.12
384.887	431.12
385.112	430.12
385.337	437.12
385.562	422.12
385.787	418.12
386.013	445.12
386.238	451.12
386.463	454.12
386.688	421.12
386.913	428.12
387.138	448.12
387.363	438.12
387.588	428.12
387.813	438.12
388.038	418.12
388.263	426.12
388.488	435.12
388.713	442.12
388.938	438.12
389.163	445.12
389.387	426.12
389.612	418.12
389.837	430.12
390.062	442.12
390.287	422.12
390.512	422.12
390.736	432.12
390.961	451.12
391.186	436.12
391.411	441.12
391.636	441.12
391.86	439.12
392.085	454.12
392.31	443.12
392.534	442.12
392.759	458.12
392.984	441.12
393.208	447.12
393.433	449.12
393.658	442.12
393.882	439.12
394.107	430.12
394.331	420.12
394.556	416.12
394.78	427.12
395.005	463.12
395.229	440.12
395.454	456.12
395.678	455.12
395.903	438.12
396.127	440.12
396.352	467.12
396.576	449.12
396.801	443.12
397.025	444.12
397.249	472.12
397.474	462.12
397.698	474.12
397.922	466.12
398.147	489.12
398.371	468.12
398.595	483.12
398.82	483.12
399.044	499.12
399.268	523.12
399.492	559.12
399.717	630.12
399.941	620.12
400.165	612.12
400.389	616.12
400.613	552.12
400.837	520.12
401.062	502.12
401.286	478.12
401.51	508.12
401.734	462.12
401.958	490.12
402.182	502.12
402.406	495.12
402.63	494.12
402.854	515.12
403.078	496.12
403.302	510.12
403.526	488.12
403.75	487.12
403.974	505.12
404.198	507.12
404.422	515.12
404.645	519.12
404.869	520.12
405.093	548.12
405.317	578.12
405.541	600.12
405.765	532.12
405.988	518.12
406.212	522.12
406.436	532.12
406.66	540.12
406.883	541.12
407.107	611.12
407.331	599.12
407.555	665.12
407.778	632.12
408.002	584.12
408.226	540.12
408.449	558.12
408.673	542.12
408.896	551.12
409.12	600.12
409.344	549.12
409.567	524.12
409.791	512.12
410.014	488.12
410.238	480.12
410.461	496.12
410.685	504.12
410.908	488.12
411.132	519.12
411.355	580.12
411.578	543.12
411.802	508.12
412.025	482.12
412.249	524.12
412.472	516.12
412.695	563.12
412.919	542.12
413.142	510.12
413.365	499.12
413.589	494.12
413.812	482.12
414.035	462.12
414.258	458.12
414.482	479.12
414.705	469.12
414.928	458.12
415.151	462.12
415.374	446.12
415.597	458.12
415.821	479.12
416.044	452.12
416.267	462.12
416.49	464.12
416.713	446.12
416.936	468.12
417.159	466.12
417.382	468.12
417.605	480.12
417.828	485.12
418.051	490.12
418.274	492.12
418.497	467.12
418.72	471.12
418.943	466.12
419.166	471.12
419.389	500.12
419.611	498.12
419.834	499.12
420.057	486.12
420.28	512.12
420.503	486.12
420.726	465.12
420.948	477.12
421.171	501.12
421.394	528.12
421.617	488.12
421.839	490.12
422.062	486.12
422.285	479.12
422.507	535.12
422.73	585.12
422.953	560.12
423.175	513.12
423.398	503.12
423.621	476.12
423.843	525.12
424.066	518.12
424.288	522.12
424.511	527.12
424.733	566.12
424.956	606.12
425.178	580.12
425.401	596.12
425.623	609.12
425.846	532.12
426.068	521.12
426.291	499.12
426.513	480.12
426.735	489.12
426.958	542.12
427.18	571.12
427.402	670.12
427.625	726.12
427.847	616.12
428.069	562.12
428.292	525.12
428.514	502.12
428.736	474.12
428.958	479.12
429.181	444.12
429.403	451.12
429.625	471.12
429.847	493.12
430.069	566.12
430.292	505.12
430.514	456.12
430.736	458.12
430.958	458.12
431.18	460.12
431.402	436.12
431.624	450.12
431.846	427.12
432.068	438.12
432.29	458.12
432.512	437.12
432.734	458.12
432.956	431.12
433.178	463.12
433.4	454.12
433.622	442.12
433.844	447.12
434.066	440.12
434.287	432.12
434.509	429.12
434.731	438.12
434.953	467.12
435.175	479.12
435.397	478.12
435.618	498.12
435.84	508.12
436.062	578.12
436.284	649.12
436.505	534.12
436.727	485.12
436.949	470.12
437.17	464.12
437.392	444.12
437.614	483.12
437.835	518.12
438.057	544.12
438.278	632.12
438.5	626.12
438.721	670.12
438.943	677.12
439.165	542.12
439.386	504.12
439.608	476.12
439.829	485.12
440.05	496.12
440.272	523.12
440.493	503.12
440.715	487.12
440.936	467.12
441.158	454.12
441.379	463.12
441.6	492.12
441.822	494.12
442.043	534.12
442.264	584.12
442.486	607.12
442.707	513.12
442.928	503.12
443.149	490.12
443.371	509.12
443.592	566.12
443.813	624.12
444.034	693.12
444.255	574.12
444.476	536.12
444.698	532.12
444.919	487.12
445.14	596.12
445.361	543.12
445.582	536.12
445.803	551.12
446.024	660.12
446.245	671.12
446.466	589.12
446.687	498.12
446.908	495.12
447.129	468.12
447.35	438.12
447.571	448.12
447.792	446.12
448.013	423.12
448.234	464.12
448.455	513.12
448.675	606.12
448.896	683.12
449.117	563.12
449.338	536.12
449.559	638.12
449.779	703.12
450	567.12
450.221	478.12
450.442	450.12
450.662	417.12
450.883	431.12
451.104	442.12
451.324	441.12
451.545	432.12
451.766	431.12
451.986	383.12
452.207	417.12
452.428	393.12
452.648	383.12
452.869	388.12
453.089	392.12
453.31	416.12
453.53	407.12
453.751	402.12
453.971	378.12
454.192	403.12
454.412	389.12
454.633	392.12
454.853	399.12
455.073	404.12
455.294	423.12
455.514	482.12
455.734	454.12
455.955	412.12
456.175	388.12
456.395	392.12
456.616	386.12
456.836	395.12
457.056	362.12
457.276	378.12
457.497	392.12
457.717	379.12
457.937	386.12
458.157	379.12
458.377	396.12
458.598	403.12
458.818	440.12
459.038	508.12
459.258	515.12
459.478	462.12
459.698	434.12
459.918	424.12
460.138	434.12
460.358	418.12
460.578	456.12
460.798	442.12
461.018	446.12
461.238	471.12
461.458	463.12
461.678	440.12
461.898	456.12
462.118	441.12
462.338	455.12
462.558	459.12
462.777	495.12
462.997	487.12
463.217	499.12
463.437	508.12
463.657	495.12
463.876	484.12
464.096	494.12
464.316	489.12
464.536	479.12
464.755	484.12
464.975	475.12
465.195	492.12
465.414	500.12
465.634	463.12
465.854	459.12
466.073	432.12
466.293	442.12
466.512	428.12
466.732	410.12
466.951	408.12
467.171	395.12
467.391	426.12
467.61	408.12
467.829	434.12
468.049	406.12
468.268	410.12
468.488	407.12
468.707	413.12
468.927	413.12
469.146	383.12
469.365	384.12
469.585	415.12
469.804	422.12
470.023	416.12
470.243	401.12
470.462	406.12
470.681	431.12
470.901	430.12
471.12	416.12
471.339	427.12
471.558	418.12
471.777	429.12
471.997	411.12
472.216	413.12
472.435	450.12
472.654	419.12
472.873	431.12
473.092	405.12
473.311	414.12
473.53	423.12
473.749	416.12
473.968	438.12
474.187	534.12
474.406	544.12
474.625	479.12
474.844	436.12
475.063	438.12
475.282	418.12
475.501	423.12
475.72	420.12
475.939	430.12
476.158	420.12
476.377	440.12
476.596	426.12
476.814	422.12
477.033	431.12
477.252	446.12
477.471	439.12
477.69	446.12
477.908	458.12
478.127	431.12
478.346	458.12
478.564	464.12
478.783	479.12
479.002	472.12
479.22	495.12
479.439	486.12
479.658	484.12
479.876	504.12
480.095	498.12
480.313	537.12
480.532	525.12
480.751	521.12
480.969	535.12
481.188	561.12
481.406	555.12
481.624	527.12
481.843	509.12
482.061	487.12
482.28	452.12
482.498	498.12
482.717	482.12
482.935	487.12
483.153	471.12
483.372	480.12
483.59	493.12
483.808	490.12
484.027	477.12
484.245	471.12
484.463	475.12
484.681	494.12
484.9	504.12
485.118	489.12
485.336	488.12
485.554	487.12
485.772	509.12
485.99	503.12
486.209	496.12
486.427	485.12
486.645	500.12
486.863	506.12
487.081	495.12
487.299	502.12
487.517	487.12
487.735	516.12
487.953	505.12
488.171	495.12
488.389	518.12
488.607	514.12
488.825	502.12
489.043	518.12
489.261	513.12
489.479	526.12
489.696	546.12
489.914	504.12
490.132	530.12
490.35	531.12
490.568	511.12
490.786	522.12
491.003	544.12
491.221	571.12
491.439	559.12
491.657	546.12
491.874	567.12
492.092	578.12
492.31	590.12
492.527	571.12
492.745	579.12
492.963	560.12
493.18	583.12
493.398	568.12
493.615	574.12
493.833	603.12
494.05	601.12
494.268	595.12
494.485	588.12
494.703	597.12
494.92	587.12
495.138	598.12
495.355	586.12
495.573	594.12
495.79	599.12
496.008	598.12
496.225	581.12
496.442	626.12
496.66	610.12
496.877	604.12
497.094	601.12
497.312	610.12
497.529	634.12
497.746	626.12
497.963	635.12
498.181	655.12
498.398	671.12
498.615	663.12
498.832	677.12
499.049	699.12
499.267	719.12
499.484	758.12
499.701	798.12
499.918	810.12
500.135	856.12
500.352	920.12
500.569	919.12
500.786	921.12
501.003	882.12
501.22	872.12
501.437	834.12
501.654	836.12
501.871	786.12
