Data from 1964.PennyLincolnUp.Lamp.En5.5.200Scan.071719.P1._HRD10591_14-05-24-910.txt Node
Date: Thu Jul 18 14:05:24 EDT 2019
User: cochatt
Spectrometer: HR+D1059
Trigger mode: 1
Integration Time (sec): 1.000000E-1
Scans to average: 1
Electric dark correction enabled: true
Nonlinearity correction enabled: false
Boxcar width: 0
XAxis mode: Wavelengths
Number of Pixels in Spectrum: 2048
>>>>>Begin Spectral Data<<<<<
223.165	-14.56
223.4	-14.56
223.635	-14.56
223.869	-12.56
224.104	-16.56
224.338	-18.56
224.573	-19.56
224.808	-16.56
225.042	-25.56
225.277	-10.56
225.511	-5.56
225.746	8.44
225.98	7.44
226.215	20.44
226.449	27.44
226.683	17.44
226.918	36.44
227.152	22.44
227.387	24.44
227.621	35.44
227.856	42.44
228.09	43.44
228.324	58.44
228.559	47.44
228.793	67.44
229.027	72.44
229.262	93.44
229.496	96.44
229.73	109.44
229.964	136.44
230.199	107.44
230.433	109.44
230.667	115.44
230.901	100.44
231.136	101.44
231.37	106.44
231.604	103.44
231.838	115.44
232.072	111.44
232.306	118.44
232.541	113.44
232.775	110.44
233.009	105.44
233.243	116.44
233.477	102.44
233.711	120.44
233.945	115.44
234.179	116.44
234.413	117.44
234.647	124.44
234.881	130.44
235.115	115.44
235.349	117.44
235.583	124.44
235.817	115.44
236.051	121.44
236.285	115.44
236.519	124.44
236.753	119.44
236.987	144.44
237.221	155.44
237.455	208.44
237.689	166.44
237.922	131.44
238.156	127.44
238.39	122.44
238.624	126.44
238.858	133.44
239.091	116.44
239.325	115.44
239.559	125.44
239.793	122.44
240.027	129.44
240.26	137.44
240.494	159.44
240.728	139.44
240.961	139.44
241.195	148.44
241.429	133.44
241.662	141.44
241.896	119.44
242.13	134.44
242.363	130.44
242.597	130.44
242.83	141.44
243.064	147.44
243.298	144.44
243.531	133.44
243.765	135.44
243.998	148.44
244.232	128.44
244.465	153.44
244.699	148.44
244.932	156.44
245.166	161.44
245.399	159.44
245.633	154.44
245.866	166.44
246.099	148.44
246.333	158.44
246.566	150.44
246.8	151.44
247.033	162.44
247.266	150.44
247.5	159.44
247.733	177.44
247.966	179.44
248.2	173.44
248.433	173.44
248.666	165.44
248.899	182.44
249.133	198.44
249.366	193.44
249.599	180.44
249.832	183.44
250.066	188.44
250.299	179.44
250.532	180.44
250.765	199.44
250.998	222.44
251.231	234.44
251.465	201.44
251.698	207.44
251.931	198.44
252.164	194.44
252.397	190.44
252.63	207.44
252.863	205.44
253.096	210.44
253.329	228.44
253.562	219.44
253.795	221.44
254.028	217.44
254.261	207.44
254.494	216.44
254.727	254.44
254.96	262.44
255.193	264.44
255.426	254.44
255.659	238.44
255.892	225.44
256.124	225.44
256.357	243.44
256.59	242.44
256.823	214.44
257.056	219.44
257.289	227.44
257.521	208.44
257.754	229.44
257.987	209.44
258.22	214.44
258.452	217.44
258.685	210.44
258.918	209.44
259.151	220.44
259.383	226.44
259.616	239.44
259.849	205.44
260.081	234.44
260.314	265.44
260.547	273.44
260.779	255.44
261.012	246.44
261.244	232.44
261.477	259.44
261.71	235.44
261.942	237.44
262.175	222.44
262.407	240.44
262.64	213.44
262.872	225.44
263.105	231.44
263.337	216.44
263.57	237.44
263.802	225.44
264.035	214.44
264.267	236.44
264.499	224.44
264.732	246.44
264.964	234.44
265.197	224.44
265.429	232.44
265.661	234.44
265.894	240.44
266.126	240.44
266.358	236.44
266.591	232.44
266.823	246.44
267.055	218.44
267.287	236.44
267.52	238.44
267.752	227.44
267.984	235.44
268.216	245.44
268.448	229.44
268.681	234.44
268.913	263.44
269.145	262.44
269.377	276.44
269.609	299.44
269.841	280.44
270.073	281.44
270.306	308.44
270.538	294.44
270.77	330.44
271.002	313.44
271.234	293.44
271.466	299.44
271.698	322.44
271.93	312.44
272.162	324.44
272.394	304.44
272.626	291.44
272.858	291.44
273.09	298.44
273.322	285.44
273.553	281.44
273.785	284.44
274.017	283.44
274.249	296.44
274.481	267.44
274.713	286.44
274.945	289.44
275.176	276.44
275.408	302.44
275.64	297.44
275.872	283.44
276.104	278.44
276.335	281.44
276.567	286.44
276.799	297.44
277.031	325.44
277.262	339.44
277.494	337.44
277.726	331.44
277.957	297.44
278.189	299.44
278.421	298.44
278.652	299.44
278.884	314.44
279.115	285.44
279.347	282.44
279.579	303.44
279.81	292.44
280.042	302.44
280.273	307.44
280.505	312.44
280.736	288.44
280.968	277.44
281.199	290.44
281.431	289.44
281.662	309.44
281.894	298.44
282.125	305.44
282.356	309.44
282.588	321.44
282.819	329.44
283.051	305.44
283.282	285.44
283.513	313.44
283.745	307.44
283.976	317.44
284.207	296.44
284.439	326.44
284.67	326.44
284.901	319.44
285.132	308.44
285.364	313.44
285.595	308.44
285.826	317.44
286.057	316.44
286.288	296.44
286.52	293.44
286.751	316.44
286.982	301.44
287.213	330.44
287.444	313.44
287.675	305.44
287.906	318.44
288.138	319.44
288.369	319.44
288.6	326.44
288.831	334.44
289.062	302.44
289.293	308.44
289.524	313.44
289.755	327.44
289.986	338.44
290.217	330.44
290.448	321.44
290.679	323.44
290.91	331.44
291.141	326.44
291.371	351.44
291.602	316.44
291.833	337.44
292.064	324.44
292.295	324.44
292.526	349.44
292.757	332.44
292.987	320.44
293.218	300.44
293.449	330.44
293.68	324.44
293.91	328.44
294.141	343.44
294.372	325.44
294.603	333.44
294.833	331.44
295.064	343.44
295.295	321.44
295.525	321.44
295.756	334.44
295.987	356.44
296.217	344.44
296.448	356.44
296.679	343.44
296.909	345.44
297.14	331.44
297.37	349.44
297.601	341.44
297.831	351.44
298.062	344.44
298.292	347.44
298.523	341.44
298.753	328.44
298.984	343.44
299.214	355.44
299.445	370.44
299.675	333.44
299.905	343.44
300.136	339.44
300.366	361.44
300.597	349.44
300.827	346.44
301.057	346.44
301.288	355.44
301.518	361.44
301.748	351.44
301.979	366.44
302.209	359.44
302.439	362.44
302.669	362.44
302.9	356.44
303.13	362.44
303.36	371.44
303.59	364.44
303.82	381.44
304.051	381.44
304.281	373.44
304.511	359.44
304.741	385.44
304.971	369.44
305.201	371.44
305.431	365.44
305.661	373.44
305.891	353.44
306.121	350.44
306.352	377.44
306.582	355.44
306.812	362.44
307.042	359.44
307.272	362.44
307.502	377.44
307.731	353.44
307.961	377.44
308.191	378.44
308.421	402.44
308.651	372.44
308.881	378.44
309.111	382.44
309.341	374.44
309.571	373.44
309.8	397.44
310.03	388.44
310.26	374.44
310.49	383.44
310.72	420.44
310.949	409.44
311.179	409.44
311.409	418.44
311.639	394.44
311.868	396.44
312.098	420.44
312.328	408.44
312.557	433.44
312.787	435.44
313.017	435.44
313.246	419.44
313.476	403.44
313.706	424.44
313.935	402.44
314.165	394.44
314.394	405.44
314.624	417.44
314.853	407.44
315.083	418.44
315.312	411.44
315.542	419.44
315.771	402.44
316.001	407.44
316.23	416.44
316.46	403.44
316.689	418.44
316.919	408.44
317.148	420.44
317.377	435.44
317.607	404.44
317.836	423.44
318.065	407.44
318.295	409.44
318.524	411.44
318.753	390.44
318.983	415.44
319.212	397.44
319.441	408.44
319.67	406.44
319.9	417.44
320.129	412.44
320.358	408.44
320.587	422.44
320.816	395.44
321.046	411.44
321.275	444.44
321.504	418.44
321.733	417.44
321.962	419.44
322.191	431.44
322.42	443.44
322.649	462.44
322.878	452.44
323.108	471.44
323.337	463.44
323.566	488.44
323.795	495.44
324.024	529.44
324.253	631.44
324.482	835.44
324.71	1236.44
324.939	1621.44
325.168	1376.44
325.397	765.44
325.626	567.44
325.855	484.44
326.084	465.44
326.313	477.44
326.542	490.44
326.77	538.44
326.999	595.44
327.228	762.44
327.457	1053.44
327.686	1218.44
327.914	855.44
328.143	625.44
328.372	561.44
328.6	535.44
328.829	511.44
329.058	520.44
329.287	537.44
329.515	506.44
329.744	491.44
329.972	498.44
330.201	515.44
330.43	529.44
330.658	538.44
330.887	531.44
331.115	538.44
331.344	514.44
331.572	511.44
331.801	498.44
332.03	498.44
332.258	486.44
332.486	484.44
332.715	460.44
332.943	479.44
333.172	481.44
333.4	492.44
333.629	517.44
333.857	528.44
334.085	506.44
334.314	555.44
334.542	551.44
334.771	569.44
334.999	541.44
335.227	523.44
335.455	508.44
335.684	501.44
335.912	487.44
336.14	481.44
336.369	475.44
336.597	485.44
336.825	486.44
337.053	459.44
337.281	491.44
337.51	482.44
337.738	484.44
337.966	466.44
338.194	465.44
338.422	448.44
338.65	464.44
338.878	466.44
339.106	459.44
339.334	469.44
339.562	464.44
339.79	445.44
340.018	472.44
340.246	437.44
340.474	451.44
340.702	467.44
340.93	449.44
341.158	476.44
341.386	466.44
341.614	436.44
341.842	459.44
342.07	444.44
342.298	443.44
342.526	428.44
342.754	454.44
342.981	431.44
343.209	446.44
343.437	465.44
343.665	454.44
343.893	460.44
344.12	486.44
344.348	478.44
344.576	461.44
344.804	460.44
345.031	464.44
345.259	461.44
345.487	461.44
345.714	439.44
345.942	431.44
346.17	446.44
346.397	427.44
346.625	433.44
346.853	451.44
347.08	395.44
347.308	424.44
347.535	423.44
347.763	450.44
347.99	430.44
348.218	429.44
348.445	446.44
348.673	406.44
348.9	455.44
349.128	426.44
349.355	424.44
349.583	411.44
349.81	425.44
350.037	408.44
350.265	421.44
350.492	433.44
350.72	426.44
350.947	398.44
351.174	414.44
351.402	413.44
351.629	419.44
351.856	408.44
352.083	433.44
352.311	442.44
352.538	417.44
352.765	410.44
352.992	420.44
353.22	425.44
353.447	420.44
353.674	405.44
353.901	411.44
354.128	401.44
354.355	422.44
354.583	385.44
354.81	392.44
355.037	398.44
355.264	393.44
355.491	393.44
355.718	419.44
355.945	425.44
356.172	400.44
356.399	411.44
356.626	402.44
356.853	385.44
357.08	403.44
357.307	413.44
357.534	417.44
357.761	393.44
357.988	398.44
358.215	408.44
358.441	402.44
358.668	411.44
358.895	405.44
359.122	391.44
359.349	400.44
359.576	421.44
359.802	417.44
360.029	451.44
360.256	421.44
360.483	415.44
360.709	405.44
360.936	401.44
361.163	409.44
361.39	398.44
361.616	382.44
361.843	422.44
362.07	419.44
362.296	416.44
362.523	411.44
362.749	388.44
362.976	407.44
363.203	423.44
363.429	396.44
363.656	413.44
363.882	398.44
364.109	409.44
364.335	398.44
364.562	403.44
364.788	398.44
365.015	422.44
365.241	389.44
365.468	401.44
365.694	420.44
365.92	380.44
366.147	404.44
366.373	406.44
366.599	395.44
366.826	383.44
367.052	384.44
367.278	406.44
367.505	427.44
367.731	389.44
367.957	387.44
368.184	397.44
368.41	416.44
368.636	413.44
368.862	411.44
369.089	414.44
369.315	386.44
369.541	409.44
369.767	406.44
369.993	417.44
370.219	403.44
370.445	414.44
370.672	397.44
370.898	405.44
371.124	427.44
371.35	400.44
371.576	406.44
371.802	379.44
372.028	417.44
372.254	395.44
372.48	385.44
372.706	395.44
372.932	396.44
373.158	412.44
373.384	433.44
373.61	413.44
373.835	404.44
374.061	405.44
374.287	400.44
374.513	412.44
374.739	397.44
374.965	428.44
375.191	410.44
375.416	415.44
375.642	412.44
375.868	391.44
376.094	397.44
376.319	393.44
376.545	396.44
376.771	381.44
376.997	387.44
377.222	381.44
377.448	392.44
377.674	398.44
377.899	383.44
378.125	405.44
378.35	399.44
378.576	383.44
378.802	372.44
379.027	396.44
379.253	405.44
379.478	399.44
379.704	385.44
379.929	409.44
380.155	403.44
380.38	394.44
380.606	395.44
380.831	403.44
381.057	394.44
381.282	394.44
381.507	387.44
381.733	392.44
381.958	397.44
382.184	394.44
382.409	398.44
382.634	392.44
382.86	419.44
383.085	379.44
383.31	403.44
383.535	414.44
383.761	411.44
383.986	413.44
384.211	420.44
384.436	426.44
384.662	426.44
384.887	435.44
385.112	403.44
385.337	426.44
385.562	425.44
385.787	414.44
386.013	444.44
386.238	417.44
386.463	413.44
386.688	422.44
386.913	422.44
387.138	437.44
387.363	419.44
387.588	438.44
387.813	423.44
388.038	449.44
388.263	437.44
388.488	405.44
388.713	444.44
388.938	429.44
389.163	437.44
389.387	430.44
389.612	443.44
389.837	435.44
390.062	416.44
390.287	435.44
390.512	424.44
390.736	402.44
390.961	430.44
391.186	417.44
391.411	444.44
391.636	434.44
391.86	429.44
392.085	453.44
392.31	445.44
392.534	455.44
392.759	431.44
392.984	419.44
393.208	440.44
393.433	437.44
393.658	435.44
393.882	440.44
394.107	425.44
394.331	430.44
394.556	427.44
394.78	442.44
395.005	462.44
395.229	441.44
395.454	442.44
395.678	439.44
395.903	460.44
396.127	452.44
396.352	471.44
396.576	446.44
396.801	447.44
397.025	447.44
397.249	459.44
397.474	444.44
397.698	469.44
397.922	472.44
398.147	467.44
398.371	490.44
398.595	488.44
398.82	499.44
399.044	510.44
399.268	549.44
399.492	557.44
399.717	575.44
399.941	613.44
400.165	625.44
400.389	585.44
400.613	557.44
400.837	516.44
401.062	519.44
401.286	475.44
401.51	499.44
401.734	497.44
401.958	493.44
402.182	490.44
402.406	499.44
402.63	507.44
402.854	501.44
403.078	517.44
403.302	497.44
403.526	520.44
403.75	519.44
403.974	528.44
404.198	491.44
404.422	513.44
404.645	501.44
404.869	527.44
405.093	547.44
405.317	579.44
405.541	605.44
405.765	533.44
405.988	527.44
406.212	541.44
406.436	562.44
406.66	534.44
406.883	537.44
407.107	576.44
407.331	571.44
407.555	653.44
407.778	634.44
408.002	614.44
408.226	553.44
408.449	554.44
408.673	554.44
408.896	574.44
409.12	605.44
409.344	563.44
409.567	507.44
409.791	494.44
410.014	484.44
410.238	485.44
410.461	514.44
410.685	490.44
410.908	506.44
411.132	525.44
411.355	567.44
411.578	546.44
411.802	525.44
412.025	492.44
412.249	516.44
412.472	500.44
412.695	557.44
412.919	554.44
413.142	507.44
413.365	492.44
413.589	486.44
413.812	481.44
414.035	470.44
414.258	474.44
414.482	490.44
414.705	458.44
414.928	459.44
415.151	475.44
415.374	455.44
415.597	483.44
415.821	488.44
416.044	467.44
416.267	489.44
416.49	449.44
416.713	470.44
416.936	478.44
417.159	470.44
417.382	477.44
417.605	472.44
417.828	484.44
418.051	471.44
418.274	470.44
418.497	474.44
418.72	456.44
418.943	486.44
419.166	478.44
419.389	534.44
419.611	514.44
419.834	499.44
420.057	484.44
420.28	505.44
420.503	509.44
420.726	490.44
420.948	500.44
421.171	517.44
421.394	539.44
421.617	501.44
421.839	501.44
422.062	483.44
422.285	483.44
422.507	530.44
422.73	581.44
422.953	576.44
423.175	505.44
423.398	491.44
423.621	479.44
423.843	506.44
424.066	513.44
424.288	501.44
424.511	517.44
424.733	561.44
424.956	612.44
425.178	578.44
425.401	595.44
425.623	593.44
425.846	524.44
426.068	508.44
426.291	485.44
426.513	502.44
426.735	519.44
426.958	516.44
427.18	579.44
427.402	671.44
427.625	726.44
427.847	643.44
428.069	577.44
428.292	515.44
428.514	474.44
428.736	477.44
428.958	467.44
429.181	473.44
429.403	450.44
429.625	460.44
429.847	501.44
430.069	542.44
430.292	518.44
430.514	464.44
430.736	457.44
430.958	461.44
431.18	446.44
431.402	423.44
431.624	430.44
431.846	422.44
432.068	446.44
432.29	428.44
432.512	443.44
432.734	470.44
432.956	438.44
433.178	450.44
433.4	435.44
433.622	451.44
433.844	435.44
434.066	444.44
434.287	441.44
434.509	457.44
434.731	459.44
434.953	461.44
435.175	457.44
435.397	493.44
435.618	514.44
435.84	531.44
436.062	590.44
436.284	641.44
436.505	549.44
436.727	498.44
436.949	482.44
437.17	460.44
437.392	436.44
437.614	449.44
437.835	491.44
438.057	556.44
438.278	614.44
438.5	607.44
438.721	689.44
438.943	650.44
439.165	538.44
439.386	475.44
439.608	474.44
439.829	459.44
440.05	512.44
440.272	530.44
440.493	515.44
440.715	471.44
440.936	459.44
441.158	466.44
441.379	479.44
441.6	491.44
441.822	492.44
442.043	530.44
442.264	587.44
442.486	597.44
442.707	530.44
442.928	501.44
443.149	508.44
443.371	513.44
443.592	549.44
443.813	600.44
444.034	652.44
444.255	580.44
444.476	545.44
444.698	532.44
444.919	517.44
445.14	586.44
445.361	553.44
445.582	523.44
445.803	573.44
446.024	602.44
446.245	633.44
446.466	568.44
446.687	509.44
446.908	468.44
447.129	458.44
447.35	459.44
447.571	455.44
447.792	438.44
448.013	450.44
448.234	475.44
448.455	494.44
448.675	573.44
448.896	650.44
449.117	572.44
449.338	540.44
449.559	626.44
449.779	686.44
450	559.44
450.221	481.44
450.442	447.44
450.662	448.44
450.883	419.44
451.104	451.44
451.324	439.44
451.545	430.44
451.766	418.44
451.986	439.44
452.207	411.44
452.428	412.44
452.648	414.44
452.869	407.44
453.089	412.44
453.31	416.44
453.53	414.44
453.751	389.44
453.971	400.44
454.192	403.44
454.412	392.44
454.633	394.44
454.853	384.44
455.073	379.44
455.294	398.44
455.514	462.44
455.734	446.44
455.955	405.44
456.175	387.44
456.395	380.44
456.616	379.44
456.836	390.44
457.056	381.44
457.276	376.44
457.497	374.44
457.717	373.44
457.937	365.44
458.157	398.44
458.377	399.44
458.598	415.44
458.818	452.44
459.038	485.44
459.258	497.44
459.478	437.44
459.698	443.44
459.918	447.44
460.138	463.44
460.358	454.44
460.578	455.44
460.798	447.44
461.018	447.44
461.238	451.44
461.458	449.44
461.678	445.44
461.898	453.44
462.118	462.44
462.338	463.44
462.558	471.44
462.777	460.44
462.997	486.44
463.217	501.44
463.437	510.44
463.657	491.44
463.876	477.44
464.096	485.44
464.316	487.44
464.536	482.44
464.755	513.44
464.975	478.44
465.195	474.44
465.414	523.44
465.634	485.44
465.854	450.44
466.073	430.44
466.293	434.44
466.512	432.44
466.732	412.44
466.951	410.44
467.171	411.44
467.391	434.44
467.61	395.44
467.829	434.44
468.049	423.44
468.268	411.44
468.488	415.44
468.707	419.44
468.927	413.44
469.146	389.44
469.365	404.44
469.585	417.44
469.804	416.44
470.023	430.44
470.243	405.44
470.462	435.44
470.681	436.44
470.901	427.44
471.12	429.44
471.339	426.44
471.558	423.44
471.777	415.44
471.997	421.44
472.216	392.44
472.435	426.44
472.654	424.44
472.873	407.44
473.092	417.44
473.311	424.44
473.53	426.44
473.749	416.44
473.968	467.44
474.187	541.44
474.406	537.44
474.625	441.44
474.844	434.44
475.063	427.44
475.282	416.44
475.501	417.44
475.72	435.44
475.939	436.44
476.158	428.44
476.377	434.44
476.596	441.44
476.814	412.44
477.033	417.44
477.252	440.44
477.471	445.44
477.69	442.44
477.908	462.44
478.127	453.44
478.346	474.44
478.564	472.44
478.783	468.44
479.002	462.44
479.22	483.44
479.439	475.44
479.658	508.44
479.876	501.44
480.095	506.44
480.313	537.44
480.532	507.44
480.751	517.44
480.969	532.44
481.188	574.44
481.406	578.44
481.624	514.44
481.843	495.44
482.061	515.44
482.28	489.44
482.498	483.44
482.717	486.44
482.935	498.44
483.153	481.44
483.372	502.44
483.59	484.44
483.808	484.44
484.027	468.44
484.245	487.44
484.463	476.44
484.681	507.44
484.9	491.44
485.118	505.44
485.336	481.44
485.554	489.44
485.772	512.44
485.99	482.44
486.209	493.44
486.427	493.44
486.645	508.44
486.863	512.44
487.081	505.44
487.299	529.44
487.517	498.44
487.735	509.44
487.953	495.44
488.171	494.44
488.389	492.44
488.607	499.44
488.825	511.44
489.043	495.44
489.261	521.44
489.479	523.44
489.696	511.44
489.914	501.44
490.132	538.44
490.35	539.44
490.568	553.44
490.786	553.44
491.003	542.44
491.221	561.44
491.439	558.44
491.657	557.44
491.874	562.44
492.092	573.44
492.31	545.44
492.527	575.44
492.745	599.44
492.963	576.44
493.18	586.44
493.398	603.44
493.615	588.44
493.833	581.44
494.05	573.44
494.268	566.44
494.485	601.44
494.703	584.44
494.92	596.44
495.138	619.44
495.355	606.44
495.573	599.44
495.79	597.44
496.008	593.44
496.225	601.44
496.442	600.44
496.66	611.44
496.877	614.44
497.094	589.44
497.312	634.44
497.529	637.44
497.746	642.44
497.963	624.44
498.181	651.44
498.398	669.44
498.615	649.44
498.832	700.44
499.049	733.44
499.267	708.44
499.484	777.44
499.701	777.44
499.918	838.44
500.135	877.44
500.352	919.44
500.569	941.44
500.786	930.44
501.003	885.44
501.22	873.44
501.437	829.44
501.654	807.44
501.871	780.44
