Data from 1964.PennyLincolnUp.Lamp.En5.5.200Scan.071719.P1._HRD10591_14-03-53-909.txt Node
Date: Thu Jul 18 14:03:53 EDT 2019
User: cochatt
Spectrometer: HR+D1059
Trigger mode: 1
Integration Time (sec): 1.000000E-1
Scans to average: 1
Electric dark correction enabled: true
Nonlinearity correction enabled: false
Boxcar width: 0
XAxis mode: Wavelengths
Number of Pixels in Spectrum: 2048
>>>>>Begin Spectral Data<<<<<
223.165	-11.69
223.4	-11.69
223.635	-11.69
223.869	-19.69
224.104	-20.69
224.338	-0.69
224.573	-16.69
224.808	-11.69
225.042	-0.69
225.277	-0.69
225.511	-2.69
225.746	11.31
225.98	-6.69
226.215	8.31
226.449	11.31
226.683	8.31
226.918	36.31
227.152	16.31
227.387	35.31
227.621	49.31
227.856	41.31
228.09	49.31
228.324	59.31
228.559	51.31
228.793	54.31
229.027	87.31
229.262	92.31
229.496	103.31
229.73	107.31
229.964	113.31
230.199	115.31
230.433	92.31
230.667	93.31
230.901	103.31
231.136	92.31
231.37	101.31
231.604	96.31
231.838	99.31
232.072	100.31
232.306	115.31
232.541	104.31
232.775	107.31
233.009	113.31
233.243	111.31
233.477	112.31
233.711	107.31
233.945	113.31
234.179	114.31
234.413	109.31
234.647	102.31
234.881	105.31
235.115	111.31
235.349	112.31
235.583	119.31
235.817	119.31
236.051	115.31
236.285	120.31
236.519	116.31
236.753	100.31
236.987	130.31
237.221	145.31
237.455	179.31
237.689	147.31
237.922	131.31
238.156	111.31
238.39	120.31
238.624	111.31
238.858	100.31
239.091	119.31
239.325	113.31
239.559	117.31
239.793	101.31
240.027	126.31
240.26	125.31
240.494	148.31
240.728	140.31
240.961	147.31
241.195	138.31
241.429	133.31
241.662	123.31
241.896	111.31
242.13	117.31
242.363	112.31
242.597	133.31
242.83	122.31
243.064	130.31
243.298	131.31
243.531	143.31
243.765	133.31
243.998	128.31
244.232	137.31
244.465	127.31
244.699	155.31
244.932	138.31
245.166	142.31
245.399	156.31
245.633	149.31
245.866	141.31
246.099	140.31
246.333	149.31
246.566	140.31
246.8	147.31
247.033	135.31
247.266	155.31
247.5	157.31
247.733	170.31
247.966	162.31
248.2	153.31
248.433	153.31
248.666	168.31
248.899	172.31
249.133	185.31
249.366	194.31
249.599	179.31
249.832	159.31
250.066	168.31
250.299	179.31
250.532	179.31
250.765	194.31
250.998	188.31
251.231	210.31
251.465	190.31
251.698	182.31
251.931	188.31
252.164	161.31
252.397	191.31
252.63	175.31
252.863	191.31
253.096	203.31
253.329	207.31
253.562	207.31
253.795	199.31
254.028	191.31
254.261	209.31
254.494	212.31
254.727	224.31
254.96	228.31
255.193	242.31
255.426	219.31
255.659	213.31
255.892	209.31
256.124	214.31
256.357	225.31
256.59	213.31
256.823	213.31
257.056	205.31
257.289	201.31
257.521	210.31
257.754	209.31
257.987	187.31
258.22	207.31
258.452	213.31
258.685	202.31
258.918	191.31
259.151	196.31
259.383	185.31
259.616	211.31
259.849	222.31
260.081	231.31
260.314	227.31
260.547	232.31
260.779	237.31
261.012	223.31
261.244	216.31
261.477	222.31
261.71	214.31
261.942	227.31
262.175	209.31
262.407	196.31
262.64	222.31
262.872	204.31
263.105	227.31
263.337	215.31
263.57	207.31
263.802	223.31
264.035	211.31
264.267	211.31
264.499	211.31
264.732	195.31
264.964	213.31
265.197	215.31
265.429	215.31
265.661	209.31
265.894	216.31
266.126	239.31
266.358	225.31
266.591	208.31
266.823	221.31
267.055	234.31
267.287	226.31
267.52	223.31
267.752	200.31
267.984	207.31
268.216	231.31
268.448	244.31
268.681	231.31
268.913	246.31
269.145	266.31
269.377	248.31
269.609	248.31
269.841	258.31
270.073	255.31
270.306	275.31
270.538	291.31
270.77	283.31
271.002	291.31
271.234	276.31
271.466	278.31
271.698	287.31
271.93	281.31
272.162	288.31
272.394	289.31
272.626	274.31
272.858	275.31
273.09	278.31
273.322	270.31
273.553	266.31
273.785	265.31
274.017	276.31
274.249	260.31
274.481	270.31
274.713	279.31
274.945	267.31
275.176	261.31
275.408	267.31
275.64	280.31
275.872	270.31
276.104	283.31
276.335	281.31
276.567	269.31
276.799	280.31
277.031	293.31
277.262	291.31
277.494	285.31
277.726	287.31
277.957	283.31
278.189	278.31
278.421	273.31
278.652	279.31
278.884	263.31
279.115	262.31
279.347	284.31
279.579	275.31
279.81	296.31
280.042	264.31
280.273	282.31
280.505	267.31
280.736	275.31
280.968	272.31
281.199	278.31
281.431	287.31
281.662	266.31
281.894	271.31
282.125	273.31
282.356	294.31
282.588	287.31
282.819	291.31
283.051	288.31
283.282	289.31
283.513	266.31
283.745	295.31
283.976	290.31
284.207	297.31
284.439	289.31
284.67	301.31
284.901	283.31
285.132	318.31
285.364	284.31
285.595	280.31
285.826	292.31
286.057	290.31
286.288	319.31
286.52	298.31
286.751	290.31
286.982	299.31
287.213	294.31
287.444	287.31
287.675	321.31
287.906	307.31
288.138	313.31
288.369	325.31
288.6	335.31
288.831	315.31
289.062	322.31
289.293	305.31
289.524	285.31
289.755	298.31
289.986	309.31
290.217	285.31
290.448	316.31
290.679	321.31
290.91	310.31
291.141	298.31
291.371	303.31
291.602	311.31
291.833	295.31
292.064	304.31
292.295	312.31
292.526	312.31
292.757	317.31
292.987	314.31
293.218	306.31
293.449	307.31
293.68	310.31
293.91	304.31
294.141	290.31
294.372	293.31
294.603	305.31
294.833	297.31
295.064	307.31
295.295	324.31
295.525	330.31
295.756	325.31
295.987	311.31
296.217	308.31
296.448	321.31
296.679	315.31
296.909	319.31
297.14	315.31
297.37	331.31
297.601	313.31
297.831	333.31
298.062	320.31
298.292	315.31
298.523	322.31
298.753	325.31
298.984	344.31
299.214	332.31
299.445	333.31
299.675	340.31
299.905	332.31
300.136	321.31
300.366	332.31
300.597	330.31
300.827	332.31
301.057	354.31
301.288	347.31
301.518	352.31
301.748	340.31
301.979	356.31
302.209	372.31
302.439	338.31
302.669	327.31
302.9	324.31
303.13	336.31
303.36	357.31
303.59	336.31
303.82	362.31
304.051	347.31
304.281	361.31
304.511	336.31
304.741	334.31
304.971	352.31
305.201	356.31
305.431	349.31
305.661	333.31
305.891	348.31
306.121	340.31
306.352	330.31
306.582	343.31
306.812	329.31
307.042	351.31
307.272	339.31
307.502	345.31
307.731	346.31
307.961	337.31
308.191	353.31
308.421	363.31
308.651	349.31
308.881	350.31
309.111	345.31
309.341	365.31
309.571	364.31
309.8	356.31
310.03	368.31
310.26	375.31
310.49	353.31
310.72	385.31
310.949	375.31
311.179	388.31
311.409	380.31
311.639	373.31
311.868	341.31
312.098	359.31
312.328	401.31
312.557	397.31
312.787	384.31
313.017	385.31
313.246	383.31
313.476	384.31
313.706	386.31
313.935	393.31
314.165	384.31
314.394	372.31
314.624	401.31
314.853	380.31
315.083	387.31
315.312	395.31
315.542	367.31
315.771	367.31
316.001	376.31
316.23	397.31
316.46	376.31
316.689	383.31
316.919	391.31
317.148	389.31
317.377	382.31
317.607	398.31
317.836	382.31
318.065	385.31
318.295	378.31
318.524	361.31
318.753	391.31
318.983	378.31
319.212	384.31
319.441	379.31
319.67	378.31
319.9	365.31
320.129	389.31
320.358	403.31
320.587	383.31
320.816	377.31
321.046	385.31
321.275	408.31
321.504	400.31
321.733	404.31
321.962	380.31
322.191	402.31
322.42	410.31
322.649	411.31
322.878	408.31
323.108	427.31
323.337	421.31
323.566	443.31
323.795	477.31
324.024	503.31
324.253	532.31
324.482	687.31
324.71	1025.31
324.939	1365.31
325.168	1142.31
325.397	641.31
325.626	486.31
325.855	461.31
326.084	451.31
326.313	436.31
326.542	421.31
326.77	484.31
326.999	537.31
327.228	684.31
327.457	932.31
327.686	1058.31
327.914	747.31
328.143	536.31
328.372	500.31
328.6	496.31
328.829	459.31
329.058	483.31
329.287	484.31
329.515	504.31
329.744	451.31
329.972	449.31
330.201	483.31
330.43	487.31
330.658	508.31
330.887	513.31
331.115	489.31
331.344	483.31
331.572	475.31
331.801	449.31
332.03	462.31
332.258	475.31
332.486	443.31
332.715	455.31
332.943	439.31
333.172	458.31
333.4	472.31
333.629	491.31
333.857	483.31
334.085	476.31
334.314	500.31
334.542	533.31
334.771	508.31
334.999	496.31
335.227	480.31
335.455	451.31
335.684	437.31
335.912	450.31
336.14	465.31
336.369	453.31
336.597	461.31
336.825	436.31
337.053	456.31
337.281	458.31
337.51	426.31
337.738	437.31
337.966	433.31
338.194	443.31
338.422	440.31
338.65	443.31
338.878	447.31
339.106	440.31
339.334	445.31
339.562	417.31
339.79	439.31
340.018	425.31
340.246	412.31
340.474	437.31
340.702	439.31
340.93	421.31
341.158	420.31
341.386	415.31
341.614	430.31
341.842	423.31
342.07	417.31
342.298	433.31
342.526	397.31
342.754	411.31
342.981	401.31
343.209	424.31
343.437	431.31
343.665	429.31
343.893	437.31
344.12	447.31
344.348	461.31
344.576	450.31
344.804	436.31
345.031	427.31
345.259	431.31
345.487	419.31
345.714	408.31
345.942	424.31
346.17	398.31
346.397	403.31
346.625	416.31
346.853	417.31
347.08	391.31
347.308	406.31
347.535	416.31
347.763	407.31
347.99	401.31
348.218	417.31
348.445	405.31
348.673	401.31
348.9	402.31
349.128	404.31
349.355	396.31
349.583	394.31
349.81	403.31
350.037	377.31
350.265	404.31
350.492	388.31
350.72	388.31
350.947	397.31
351.174	392.31
351.402	401.31
351.629	379.31
351.856	405.31
352.083	407.31
352.311	392.31
352.538	388.31
352.765	388.31
352.992	395.31
353.22	407.31
353.447	375.31
353.674	387.31
353.901	387.31
354.128	382.31
354.355	392.31
354.583	385.31
354.81	389.31
355.037	396.31
355.264	396.31
355.491	398.31
355.718	379.31
355.945	399.31
356.172	390.31
356.399	364.31
356.626	386.31
356.853	378.31
357.08	371.31
357.307	356.31
357.534	362.31
357.761	371.31
357.988	357.31
358.215	392.31
358.441	400.31
358.668	376.31
358.895	385.31
359.122	368.31
359.349	397.31
359.576	389.31
359.802	410.31
360.029	398.31
360.256	414.31
360.483	405.31
360.709	405.31
360.936	397.31
361.163	385.31
361.39	402.31
361.616	391.31
361.843	390.31
362.07	391.31
362.296	388.31
362.523	367.31
362.749	397.31
362.976	384.31
363.203	384.31
363.429	379.31
363.656	388.31
363.882	365.31
364.109	366.31
364.335	342.31
364.562	384.31
364.788	386.31
365.015	392.31
365.241	385.31
365.468	379.31
365.694	380.31
365.92	375.31
366.147	389.31
366.373	365.31
366.599	383.31
366.826	359.31
367.052	376.31
367.278	361.31
367.505	375.31
367.731	389.31
367.957	372.31
368.184	383.31
368.41	379.31
368.636	383.31
368.862	372.31
369.089	398.31
369.315	384.31
369.541	381.31
369.767	359.31
369.993	366.31
370.219	380.31
370.445	363.31
370.672	359.31
370.898	381.31
371.124	366.31
371.35	389.31
371.576	404.31
371.802	389.31
372.028	364.31
372.254	377.31
372.48	394.31
372.706	387.31
372.932	397.31
373.158	409.31
373.384	389.31
373.61	399.31
373.835	383.31
374.061	394.31
374.287	378.31
374.513	386.31
374.739	381.31
374.965	383.31
375.191	401.31
375.416	388.31
375.642	369.31
375.868	375.31
376.094	386.31
376.319	393.31
376.545	379.31
376.771	372.31
376.997	382.31
377.222	361.31
377.448	367.31
377.674	375.31
377.899	373.31
378.125	380.31
378.35	380.31
378.576	390.31
378.802	363.31
379.027	383.31
379.253	359.31
379.478	383.31
379.704	370.31
379.929	375.31
380.155	361.31
380.38	376.31
380.606	377.31
380.831	373.31
381.057	377.31
381.282	375.31
381.507	381.31
381.733	383.31
381.958	368.31
382.184	389.31
382.409	374.31
382.634	391.31
382.86	374.31
383.085	364.31
383.31	381.31
383.535	401.31
383.761	390.31
383.986	423.31
384.211	394.31
384.436	397.31
384.662	407.31
384.887	415.31
385.112	398.31
385.337	412.31
385.562	412.31
385.787	393.31
386.013	417.31
386.238	441.31
386.463	418.31
386.688	408.31
386.913	421.31
387.138	415.31
387.363	406.31
387.588	407.31
387.813	398.31
388.038	409.31
388.263	402.31
388.488	403.31
388.713	407.31
388.938	421.31
389.163	417.31
389.387	428.31
389.612	399.31
389.837	409.31
390.062	427.31
390.287	407.31
390.512	423.31
390.736	400.31
390.961	401.31
391.186	407.31
391.411	396.31
391.636	396.31
391.86	442.31
392.085	436.31
392.31	436.31
392.534	426.31
392.759	416.31
392.984	393.31
393.208	404.31
393.433	412.31
393.658	421.31
393.882	392.31
394.107	409.31
394.331	415.31
394.556	436.31
394.78	396.31
395.005	429.31
395.229	433.31
395.454	431.31
395.678	438.31
395.903	440.31
396.127	436.31
396.352	450.31
396.576	432.31
396.801	425.31
397.025	427.31
397.249	440.31
397.474	409.31
397.698	435.31
397.922	453.31
398.147	466.31
398.371	461.31
398.595	467.31
398.82	479.31
399.044	487.31
399.268	485.31
399.492	515.31
399.717	546.31
399.941	580.31
400.165	578.31
400.389	579.31
400.613	533.31
400.837	475.31
401.062	497.31
401.286	470.31
401.51	477.31
401.734	428.31
401.958	468.31
402.182	465.31
402.406	468.31
402.63	458.31
402.854	476.31
403.078	460.31
403.302	489.31
403.526	483.31
403.75	472.31
403.974	473.31
404.198	477.31
404.422	486.31
404.645	457.31
404.869	479.31
405.093	515.31
405.317	548.31
405.541	571.31
405.765	502.31
405.988	516.31
406.212	492.31
406.436	498.31
406.66	516.31
406.883	513.31
407.107	518.31
407.331	563.31
407.555	588.31
407.778	583.31
408.002	587.31
408.226	542.31
408.449	531.31
408.673	507.31
408.896	536.31
409.12	564.31
409.344	527.31
409.567	497.31
409.791	469.31
410.014	487.31
410.238	495.31
410.461	468.31
410.685	476.31
410.908	483.31
411.132	512.31
411.355	525.31
411.578	520.31
411.802	488.31
412.025	470.31
412.249	475.31
412.472	501.31
412.695	501.31
412.919	533.31
413.142	480.31
413.365	462.31
413.589	471.31
413.812	459.31
414.035	446.31
414.258	452.31
414.482	445.31
414.705	439.31
414.928	442.31
415.151	441.31
415.374	452.31
415.597	457.31
415.821	463.31
416.044	439.31
416.267	434.31
416.49	435.31
416.713	428.31
416.936	431.31
417.159	435.31
417.382	443.31
417.605	439.31
417.828	462.31
418.051	443.31
418.274	459.31
418.497	452.31
418.72	455.31
418.943	455.31
419.166	466.31
419.389	488.31
419.611	477.31
419.834	469.31
420.057	464.31
420.28	458.31
420.503	445.31
420.726	465.31
420.948	447.31
421.171	474.31
421.394	497.31
421.617	470.31
421.839	437.31
422.062	433.31
422.285	457.31
422.507	491.31
422.73	535.31
422.953	547.31
423.175	495.31
423.398	456.31
423.621	458.31
423.843	471.31
424.066	485.31
424.288	490.31
424.511	473.31
424.733	541.31
424.956	568.31
425.178	563.31
425.401	544.31
425.623	568.31
425.846	506.31
426.068	453.31
426.291	458.31
426.513	450.31
426.735	448.31
426.958	517.31
427.18	538.31
427.402	621.31
427.625	670.31
427.847	577.31
428.069	518.31
428.292	469.31
428.514	427.31
428.736	439.31
428.958	444.31
429.181	425.31
429.403	437.31
429.625	444.31
429.847	458.31
430.069	505.31
430.292	480.31
430.514	447.31
430.736	440.31
430.958	437.31
431.18	403.31
431.402	406.31
431.624	404.31
431.846	422.31
432.068	421.31
432.29	417.31
432.512	428.31
432.734	437.31
432.956	411.31
433.178	435.31
433.4	419.31
433.622	424.31
433.844	416.31
434.066	446.31
434.287	429.31
434.509	423.31
434.731	433.31
434.953	437.31
435.175	443.31
435.397	447.31
435.618	471.31
435.84	500.31
436.062	549.31
436.284	582.31
436.505	505.31
436.727	477.31
436.949	449.31
437.17	438.31
437.392	421.31
437.614	447.31
437.835	460.31
438.057	505.31
438.278	580.31
438.5	559.31
438.721	631.31
438.943	623.31
439.165	506.31
439.386	468.31
439.608	471.31
439.829	446.31
440.05	472.31
440.272	503.31
440.493	453.31
440.715	433.31
440.936	443.31
441.158	428.31
441.379	409.31
441.6	421.31
441.822	456.31
442.043	488.31
442.264	545.31
442.486	558.31
442.707	480.31
442.928	465.31
443.149	456.31
443.371	495.31
443.592	519.31
443.813	583.31
444.034	613.31
444.255	519.31
444.476	495.31
444.698	487.31
444.919	492.31
445.14	572.31
445.361	508.31
445.582	496.31
445.803	523.31
446.024	597.31
446.245	597.31
446.466	534.31
446.687	471.31
446.908	455.31
447.129	448.31
447.35	415.31
447.571	414.31
447.792	411.31
448.013	434.31
448.234	426.31
448.455	445.31
448.675	541.31
448.896	610.31
449.117	513.31
449.338	524.31
449.559	584.31
449.779	644.31
450	517.31
450.221	423.31
450.442	412.31
450.662	412.31
450.883	411.31
451.104	412.31
451.324	409.31
451.545	396.31
451.766	388.31
451.986	374.31
452.207	395.31
452.428	379.31
452.648	391.31
452.869	376.31
453.089	375.31
453.31	367.31
453.53	390.31
453.751	365.31
453.971	383.31
454.192	371.31
454.412	382.31
454.633	382.31
454.853	359.31
455.073	378.31
455.294	388.31
455.514	422.31
455.734	426.31
455.955	375.31
456.175	375.31
456.395	378.31
456.616	339.31
456.836	356.31
457.056	373.31
457.276	354.31
457.497	347.31
457.717	364.31
457.937	376.31
458.157	371.31
458.377	375.31
458.598	381.31
458.818	406.31
459.038	453.31
459.258	469.31
459.478	432.31
459.698	407.31
459.918	413.31
460.138	407.31
460.358	414.31
460.578	440.31
460.798	449.31
461.018	440.31
461.238	431.31
461.458	429.31
461.678	417.31
461.898	434.31
462.118	429.31
462.338	463.31
462.558	476.31
462.777	448.31
462.997	472.31
463.217	476.31
463.437	480.31
463.657	478.31
463.876	456.31
464.096	465.31
464.316	469.31
464.536	450.31
464.755	459.31
464.975	449.31
465.195	454.31
465.414	477.31
465.634	468.31
465.854	409.31
466.073	396.31
466.293	387.31
466.512	420.31
466.732	387.31
466.951	390.31
467.171	408.31
467.391	388.31
467.61	402.31
467.829	388.31
468.049	392.31
468.268	380.31
468.488	373.31
468.707	373.31
468.927	380.31
469.146	370.31
469.365	388.31
469.585	385.31
469.804	396.31
470.023	382.31
470.243	413.31
470.462	401.31
470.681	393.31
470.901	413.31
471.12	418.31
471.339	395.31
471.558	403.31
471.777	387.31
471.997	380.31
472.216	367.31
472.435	413.31
472.654	407.31
472.873	377.31
473.092	391.31
473.311	396.31
473.53	374.31
473.749	406.31
473.968	407.31
474.187	485.31
474.406	484.31
474.625	412.31
474.844	418.31
475.063	373.31
475.282	390.31
475.501	389.31
475.72	401.31
475.939	401.31
476.158	370.31
476.377	397.31
476.596	411.31
476.814	413.31
477.033	416.31
477.252	432.31
477.471	434.31
477.69	424.31
477.908	431.31
478.127	423.31
478.346	420.31
478.564	436.31
478.783	443.31
479.002	463.31
479.22	463.31
479.439	450.31
479.658	476.31
479.876	452.31
480.095	469.31
480.313	507.31
480.532	487.31
480.751	484.31
480.969	482.31
481.188	531.31
481.406	531.31
481.624	473.31
481.843	465.31
482.061	463.31
482.28	451.31
482.498	463.31
482.717	449.31
482.935	461.31
483.153	458.31
483.372	456.31
483.59	485.31
483.808	442.31
484.027	449.31
484.245	457.31
484.463	455.31
484.681	462.31
484.9	463.31
485.118	458.31
485.336	472.31
485.554	478.31
485.772	474.31
485.99	481.31
486.209	473.31
486.427	471.31
486.645	474.31
486.863	485.31
487.081	479.31
487.299	462.31
487.517	477.31
487.735	474.31
487.953	477.31
488.171	462.31
488.389	486.31
488.607	482.31
488.825	464.31
489.043	489.31
489.261	488.31
489.479	497.31
489.696	490.31
489.914	491.31
490.132	502.31
490.35	498.31
490.568	503.31
490.786	492.31
491.003	511.31
491.221	508.31
491.439	514.31
491.657	502.31
491.874	541.31
492.092	544.31
492.31	541.31
492.527	557.31
492.745	564.31
492.963	528.31
493.18	530.31
493.398	536.31
493.615	550.31
493.833	558.31
494.05	538.31
494.268	579.31
494.485	535.31
494.703	566.31
494.92	550.31
495.138	565.31
495.355	561.31
495.573	552.31
495.79	567.31
496.008	537.31
496.225	582.31
496.442	567.31
496.66	551.31
496.877	569.31
497.094	573.31
497.312	573.31
497.529	581.31
497.746	606.31
497.963	600.31
498.181	644.31
498.398	629.31
498.615	637.31
498.832	668.31
499.049	703.31
499.267	721.31
499.484	736.31
499.701	757.31
499.918	787.31
500.135	840.31
500.352	859.31
500.569	879.31
500.786	896.31
501.003	864.31
501.22	838.31
501.437	808.31
501.654	756.31
501.871	728.31
502.088	731.31
