Data from 1964.PennyLincolnUp.Lamp.En5.5.200Scan.071719.P1._HRD10591_14-03-21-908.txt Node
Date: Thu Jul 18 14:03:21 EDT 2019
User: cochatt
Spectrometer: HR+D1059
Trigger mode: 1
Integration Time (sec): 1.000000E-1
Scans to average: 1
Electric dark correction enabled: true
Nonlinearity correction enabled: false
Boxcar width: 0
XAxis mode: Wavelengths
Number of Pixels in Spectrum: 2048
>>>>>Begin Spectral Data<<<<<
223.165	-14.56
223.4	-14.56
223.635	-14.56
223.869	-10.56
224.104	-12.56
224.338	-14.56
224.573	-5.56
224.808	-18.56
225.042	3.44
225.277	2.44
225.511	-8.56
225.746	1.44
225.98	5.44
226.215	6.44
226.449	12.44
226.683	10.44
226.918	10.44
227.152	32.44
227.387	28.44
227.621	29.44
227.856	34.44
228.09	37.44
228.324	42.44
228.559	57.44
228.793	58.44
229.027	69.44
229.262	94.44
229.496	92.44
229.73	113.44
229.964	123.44
230.199	97.44
230.433	99.44
230.667	89.44
230.901	93.44
231.136	85.44
231.37	94.44
231.604	92.44
231.838	97.44
232.072	117.44
232.306	103.44
232.541	95.44
232.775	101.44
233.009	113.44
233.243	102.44
233.477	97.44
233.711	104.44
233.945	118.44
234.179	107.44
234.413	115.44
234.647	113.44
234.881	107.44
235.115	115.44
235.349	126.44
235.583	100.44
235.817	107.44
236.051	110.44
236.285	119.44
236.519	129.44
236.753	134.44
236.987	126.44
237.221	140.44
237.455	173.44
237.689	143.44
237.922	127.44
238.156	124.44
238.39	131.44
238.624	110.44
238.858	114.44
239.091	120.44
239.325	124.44
239.559	107.44
239.793	117.44
240.027	111.44
240.26	130.44
240.494	131.44
240.728	139.44
240.961	127.44
241.195	142.44
241.429	129.44
241.662	124.44
241.896	127.44
242.13	129.44
242.363	116.44
242.597	151.44
242.83	123.44
243.064	138.44
243.298	132.44
243.531	130.44
243.765	129.44
243.998	134.44
244.232	131.44
244.465	134.44
244.699	137.44
244.932	129.44
245.166	132.44
245.399	131.44
245.633	134.44
245.866	131.44
246.099	143.44
246.333	139.44
246.566	137.44
246.8	132.44
247.033	134.44
247.266	144.44
247.5	144.44
247.733	154.44
247.966	170.44
248.2	176.44
248.433	165.44
248.666	162.44
248.899	170.44
249.133	180.44
249.366	165.44
249.599	177.44
249.832	178.44
250.066	167.44
250.299	161.44
250.532	185.44
250.765	171.44
250.998	190.44
251.231	191.44
251.465	193.44
251.698	178.44
251.931	167.44
252.164	166.44
252.397	180.44
252.63	192.44
252.863	186.44
253.096	179.44
253.329	191.44
253.562	182.44
253.795	199.44
254.028	202.44
254.261	204.44
254.494	197.44
254.727	216.44
254.96	223.44
255.193	225.44
255.426	227.44
255.659	198.44
255.892	217.44
256.124	198.44
256.357	226.44
256.59	193.44
256.823	196.44
257.056	188.44
257.289	188.44
257.521	200.44
257.754	199.44
257.987	188.44
258.22	197.44
258.452	177.44
258.685	183.44
258.918	183.44
259.151	207.44
259.383	207.44
259.616	206.44
259.849	203.44
260.081	239.44
260.314	233.44
260.547	226.44
260.779	215.44
261.012	204.44
261.244	220.44
261.477	210.44
261.71	214.44
261.942	219.44
262.175	221.44
262.407	225.44
262.64	199.44
262.872	213.44
263.105	202.44
263.337	217.44
263.57	219.44
263.802	201.44
264.035	200.44
264.267	224.44
264.499	195.44
264.732	230.44
264.964	214.44
265.197	209.44
265.429	212.44
265.661	218.44
265.894	208.44
266.126	211.44
266.358	206.44
266.591	206.44
266.823	224.44
267.055	218.44
267.287	222.44
267.52	223.44
267.752	207.44
267.984	217.44
268.216	219.44
268.448	223.44
268.681	226.44
268.913	243.44
269.145	263.44
269.377	261.44
269.609	250.44
269.841	241.44
270.073	241.44
270.306	261.44
270.538	289.44
270.77	282.44
271.002	281.44
271.234	290.44
271.466	278.44
271.698	266.44
271.93	291.44
272.162	277.44
272.394	280.44
272.626	283.44
272.858	281.44
273.09	279.44
273.322	265.44
273.553	247.44
273.785	249.44
274.017	259.44
274.249	258.44
274.481	262.44
274.713	253.44
274.945	280.44
275.176	259.44
275.408	271.44
275.64	242.44
275.872	270.44
276.104	253.44
276.335	253.44
276.567	297.44
276.799	287.44
277.031	288.44
277.262	294.44
277.494	288.44
277.726	295.44
277.957	287.44
278.189	278.44
278.421	269.44
278.652	285.44
278.884	270.44
279.115	268.44
279.347	286.44
279.579	337.44
279.81	372.44
280.042	344.44
280.273	316.44
280.505	335.44
280.736	307.44
280.968	281.44
281.199	282.44
281.431	273.44
281.662	277.44
281.894	283.44
282.125	291.44
282.356	288.44
282.588	298.44
282.819	305.44
283.051	275.44
283.282	281.44
283.513	271.44
283.745	286.44
283.976	290.44
284.207	296.44
284.439	282.44
284.67	283.44
284.901	284.44
285.132	295.44
285.364	292.44
285.595	313.44
285.826	287.44
286.057	296.44
286.288	276.44
286.52	280.44
286.751	311.44
286.982	293.44
287.213	277.44
287.444	284.44
287.675	313.44
287.906	314.44
288.138	305.44
288.369	307.44
288.6	320.44
288.831	309.44
289.062	292.44
289.293	305.44
289.524	303.44
289.755	319.44
289.986	322.44
290.217	301.44
290.448	285.44
290.679	297.44
290.91	298.44
291.141	304.44
291.371	289.44
291.602	296.44
291.833	289.44
292.064	304.44
292.295	311.44
292.526	305.44
292.757	295.44
292.987	308.44
293.218	278.44
293.449	306.44
293.68	305.44
293.91	296.44
294.141	308.44
294.372	315.44
294.603	295.44
294.833	299.44
295.064	309.44
295.295	299.44
295.525	309.44
295.756	294.44
295.987	336.44
296.217	311.44
296.448	342.44
296.679	318.44
296.909	314.44
297.14	327.44
297.37	314.44
297.601	301.44
297.831	309.44
298.062	311.44
298.292	298.44
298.523	318.44
298.753	324.44
298.984	325.44
299.214	326.44
299.445	298.44
299.675	317.44
299.905	330.44
300.136	327.44
300.366	315.44
300.597	334.44
300.827	312.44
301.057	337.44
301.288	338.44
301.518	337.44
301.748	329.44
301.979	331.44
302.209	341.44
302.439	337.44
302.669	349.44
302.9	343.44
303.13	331.44
303.36	331.44
303.59	342.44
303.82	360.44
304.051	338.44
304.281	319.44
304.511	328.44
304.741	314.44
304.971	337.44
305.201	329.44
305.431	357.44
305.661	356.44
305.891	356.44
306.121	342.44
306.352	331.44
306.582	327.44
306.812	343.44
307.042	347.44
307.272	341.44
307.502	335.44
307.731	342.44
307.961	341.44
308.191	323.44
308.421	322.44
308.651	349.44
308.881	317.44
309.111	344.44
309.341	352.44
309.571	359.44
309.8	369.44
310.03	391.44
310.26	375.44
310.49	362.44
310.72	367.44
310.949	388.44
311.179	381.44
311.409	384.44
311.639	367.44
311.868	359.44
312.098	364.44
312.328	377.44
312.557	378.44
312.787	393.44
313.017	400.44
313.246	403.44
313.476	381.44
313.706	369.44
313.935	386.44
314.165	389.44
314.394	399.44
314.624	392.44
314.853	388.44
315.083	389.44
315.312	366.44
315.542	371.44
315.771	387.44
316.001	400.44
316.23	387.44
316.46	366.44
316.689	383.44
316.919	383.44
317.148	388.44
317.377	383.44
317.607	371.44
317.836	371.44
318.065	381.44
318.295	413.44
318.524	392.44
318.753	377.44
318.983	389.44
319.212	390.44
319.441	398.44
319.67	402.44
319.9	383.44
320.129	389.44
320.358	385.44
320.587	388.44
320.816	386.44
321.046	389.44
321.275	387.44
321.504	386.44
321.733	393.44
321.962	398.44
322.191	400.44
322.42	413.44
322.649	412.44
322.878	439.44
323.108	440.44
323.337	458.44
323.566	478.44
323.795	521.44
324.024	535.44
324.253	676.44
324.482	952.44
324.71	1478.44
324.939	2169.44
325.168	1787.44
325.397	861.44
325.626	589.44
325.855	501.44
326.084	475.44
326.313	467.44
326.542	491.44
326.77	529.44
326.999	626.44
327.228	886.44
327.457	1317.44
327.686	1594.44
327.914	1000.44
328.143	664.44
328.372	608.44
328.6	550.44
328.829	513.44
329.058	515.44
329.287	530.44
329.515	500.44
329.744	469.44
329.972	490.44
330.201	509.44
330.43	513.44
330.658	540.44
330.887	561.44
331.115	530.44
331.344	499.44
331.572	473.44
331.801	447.44
332.03	474.44
332.258	459.44
332.486	468.44
332.715	438.44
332.943	451.44
333.172	476.44
333.4	471.44
333.629	445.44
333.857	473.44
334.085	498.44
334.314	511.44
334.542	550.44
334.771	545.44
334.999	498.44
335.227	478.44
335.455	468.44
335.684	470.44
335.912	456.44
336.14	451.44
336.369	446.44
336.597	441.44
336.825	428.44
337.053	429.44
337.281	440.44
337.51	462.44
337.738	426.44
337.966	435.44
338.194	451.44
338.422	440.44
338.65	427.44
338.878	454.44
339.106	436.44
339.334	409.44
339.562	424.44
339.79	435.44
340.018	416.44
340.246	409.44
340.474	402.44
340.702	443.44
340.93	424.44
341.158	429.44
341.386	435.44
341.614	424.44
341.842	431.44
342.07	427.44
342.298	405.44
342.526	413.44
342.754	408.44
342.981	411.44
343.209	399.44
343.437	423.44
343.665	415.44
343.893	431.44
344.12	443.44
344.348	425.44
344.576	451.44
344.804	443.44
345.031	434.44
345.259	447.44
345.487	434.44
345.714	413.44
345.942	436.44
346.17	424.44
346.397	387.44
346.625	404.44
346.853	389.44
347.08	377.44
347.308	406.44
347.535	399.44
347.763	423.44
347.99	399.44
348.218	414.44
348.445	410.44
348.673	403.44
348.9	409.44
349.128	403.44
349.355	399.44
349.583	379.44
349.81	391.44
350.037	383.44
350.265	377.44
350.492	397.44
350.72	405.44
350.947	387.44
351.174	411.44
351.402	431.44
351.629	419.44
351.856	403.44
352.083	407.44
352.311	396.44
352.538	413.44
352.765	445.44
352.992	406.44
353.22	389.44
353.447	390.44
353.674	407.44
353.901	386.44
354.128	379.44
354.355	391.44
354.583	367.44
354.81	382.44
355.037	385.44
355.264	373.44
355.491	376.44
355.718	367.44
355.945	376.44
356.172	364.44
356.399	369.44
356.626	371.44
356.853	382.44
357.08	378.44
357.307	394.44
357.534	369.44
357.761	372.44
357.988	367.44
358.215	371.44
358.441	373.44
358.668	365.44
358.895	398.44
359.122	402.44
359.349	396.44
359.576	378.44
359.802	399.44
360.029	406.44
360.256	422.44
360.483	430.44
360.709	407.44
360.936	394.44
361.163	393.44
361.39	404.44
361.616	386.44
361.843	385.44
362.07	397.44
362.296	385.44
362.523	379.44
362.749	377.44
362.976	379.44
363.203	374.44
363.429	369.44
363.656	397.44
363.882	384.44
364.109	383.44
364.335	375.44
364.562	369.44
364.788	387.44
365.015	389.44
365.241	398.44
365.468	393.44
365.694	398.44
365.92	386.44
366.147	383.44
366.373	375.44
366.599	368.44
366.826	362.44
367.052	377.44
367.278	337.44
367.505	357.44
367.731	361.44
367.957	365.44
368.184	361.44
368.41	379.44
368.636	385.44
368.862	394.44
369.089	393.44
369.315	373.44
369.541	369.44
369.767	366.44
369.993	378.44
370.219	359.44
370.445	356.44
370.672	397.44
370.898	352.44
371.124	380.44
371.35	377.44
371.576	375.44
371.802	373.44
372.028	375.44
372.254	376.44
372.48	372.44
372.706	381.44
372.932	373.44
373.158	385.44
373.384	407.44
373.61	385.44
373.835	373.44
374.061	374.44
374.287	378.44
374.513	398.44
374.739	381.44
374.965	399.44
375.191	372.44
375.416	388.44
375.642	380.44
375.868	403.44
376.094	381.44
376.319	373.44
376.545	384.44
376.771	375.44
376.997	371.44
377.222	353.44
377.448	367.44
377.674	383.44
377.899	350.44
378.125	353.44
378.35	372.44
378.576	379.44
378.802	394.44
379.027	353.44
379.253	355.44
379.478	374.44
379.704	362.44
379.929	375.44
380.155	359.44
380.38	385.44
380.606	381.44
380.831	377.44
381.057	383.44
381.282	385.44
381.507	376.44
381.733	378.44
381.958	369.44
382.184	382.44
382.409	376.44
382.634	385.44
382.86	403.44
383.085	384.44
383.31	393.44
383.535	405.44
383.761	397.44
383.986	394.44
384.211	406.44
384.436	419.44
384.662	401.44
384.887	421.44
385.112	403.44
385.337	419.44
385.562	419.44
385.787	395.44
386.013	450.44
386.238	451.44
386.463	426.44
386.688	427.44
386.913	432.44
387.138	417.44
387.363	407.44
387.588	407.44
387.813	402.44
388.038	394.44
388.263	412.44
388.488	435.44
388.713	424.44
388.938	419.44
389.163	423.44
389.387	406.44
389.612	399.44
389.837	401.44
390.062	397.44
390.287	397.44
390.512	398.44
390.736	378.44
390.961	407.44
391.186	376.44
391.411	411.44
391.636	411.44
391.86	408.44
392.085	425.44
392.31	437.44
392.534	436.44
392.759	421.44
392.984	449.44
393.208	483.44
393.433	603.44
393.658	635.44
393.882	451.44
394.107	423.44
394.331	418.44
394.556	401.44
394.78	395.44
395.005	417.44
395.229	414.44
395.454	423.44
395.678	414.44
395.903	422.44
396.127	443.44
396.352	441.44
396.576	435.44
396.801	473.44
397.025	558.44
397.249	497.44
397.474	441.44
397.698	437.44
397.922	448.44
398.147	442.44
398.371	467.44
398.595	448.44
398.82	467.44
399.044	460.44
399.268	495.44
399.492	519.44
399.717	542.44
399.941	571.44
400.165	562.44
400.389	555.44
400.613	498.44
400.837	498.44
401.062	468.44
401.286	482.44
401.51	471.44
401.734	486.44
401.958	460.44
402.182	485.44
402.406	447.44
402.63	471.44
402.854	452.44
403.078	472.44
403.302	476.44
403.526	469.44
403.75	467.44
403.974	469.44
404.198	446.44
404.422	475.44
404.645	485.44
404.869	477.44
405.093	534.44
405.317	512.44
405.541	554.44
405.765	499.44
405.988	488.44
406.212	513.44
406.436	511.44
406.66	522.44
406.883	516.44
407.107	521.44
407.331	567.44
407.555	613.44
407.778	627.44
408.002	567.44
408.226	498.44
408.449	518.44
408.673	529.44
408.896	527.44
409.12	538.44
409.344	534.44
409.567	504.44
409.791	494.44
410.014	475.44
410.238	453.44
410.461	474.44
410.685	484.44
410.908	490.44
411.132	514.44
411.355	536.44
411.578	504.44
411.802	466.44
412.025	458.44
412.249	473.44
412.472	501.44
412.695	521.44
412.919	521.44
413.142	509.44
413.365	472.44
413.589	447.44
413.812	457.44
414.035	462.44
414.258	431.44
414.482	467.44
414.705	439.44
414.928	439.44
415.151	426.44
415.374	429.44
415.597	442.44
415.821	454.44
416.044	429.44
416.267	448.44
416.49	440.44
416.713	436.44
416.936	427.44
417.159	426.44
417.382	423.44
417.605	423.44
417.828	454.44
418.051	450.44
418.274	444.44
418.497	437.44
418.72	426.44
418.943	435.44
419.166	440.44
419.389	464.44
419.611	456.44
419.834	449.44
420.057	470.44
420.28	455.44
420.503	444.44
420.726	426.44
420.948	447.44
421.171	495.44
421.394	491.44
421.617	449.44
421.839	453.44
422.062	464.44
422.285	457.44
422.507	499.44
422.73	589.44
422.953	600.44
423.175	482.44
423.398	462.44
423.621	471.44
423.843	462.44
424.066	474.44
424.288	474.44
424.511	473.44
424.733	525.44
424.956	569.44
425.178	547.44
425.401	563.44
425.623	585.44
425.846	484.44
426.068	482.44
426.291	462.44
426.513	459.44
426.735	477.44
426.958	480.44
427.18	541.44
427.402	639.44
427.625	712.44
427.847	591.44
428.069	562.44
428.292	512.44
428.514	466.44
428.736	459.44
428.958	430.44
429.181	427.44
429.403	405.44
429.625	423.44
429.847	467.44
430.069	509.44
430.292	493.44
430.514	422.44
430.736	426.44
430.958	424.44
431.18	420.44
431.402	409.44
431.624	388.44
431.846	399.44
432.068	412.44
432.29	432.44
432.512	423.44
432.734	428.44
432.956	426.44
433.178	441.44
433.4	411.44
433.622	414.44
433.844	411.44
434.066	423.44
434.287	420.44
434.509	400.44
434.731	422.44
434.953	440.44
435.175	449.44
435.397	463.44
435.618	471.44
435.84	503.44
436.062	559.44
436.284	603.44
436.505	510.44
436.727	475.44
436.949	446.44
437.17	421.44
437.392	429.44
437.614	440.44
437.835	465.44
438.057	544.44
438.278	587.44
438.5	588.44
438.721	651.44
438.943	622.44
439.165	497.44
439.386	454.44
439.608	462.44
439.829	479.44
440.05	482.44
440.272	535.44
440.493	505.44
440.715	449.44
440.936	437.44
441.158	449.44
441.379	431.44
441.6	449.44
441.822	470.44
442.043	487.44
442.264	562.44
442.486	577.44
442.707	491.44
442.928	466.44
443.149	470.44
443.371	485.44
443.592	530.44
443.813	588.44
444.034	611.44
444.255	531.44
444.476	481.44
444.698	470.44
444.919	456.44
445.14	573.44
445.361	541.44
445.582	495.44
445.803	553.44
446.024	607.44
446.245	616.44
446.466	569.44
446.687	471.44
446.908	468.44
447.129	433.44
447.35	413.44
447.571	434.44
447.792	397.44
448.013	434.44
448.234	418.44
448.455	459.44
448.675	565.44
448.896	651.44
449.117	537.44
449.338	511.44
449.559	578.44
449.779	655.44
450	536.44
450.221	449.44
450.442	423.44
450.662	411.44
450.883	420.44
451.104	436.44
451.324	405.44
451.545	402.44
451.766	379.44
451.986	387.44
452.207	400.44
452.428	386.44
452.648	373.44
452.869	390.44
453.089	375.44
453.31	396.44
453.53	369.44
453.751	366.44
453.971	391.44
454.192	383.44
454.412	374.44
454.633	382.44
454.853	375.44
455.073	362.44
455.294	385.44
455.514	449.44
455.734	435.44
455.955	385.44
456.175	359.44
456.395	345.44
456.616	361.44
456.836	363.44
457.056	364.44
457.276	365.44
457.497	373.44
457.717	376.44
457.937	365.44
458.157	360.44
458.377	385.44
458.598	389.44
458.818	428.44
459.038	486.44
459.258	505.44
459.478	462.44
459.698	401.44
459.918	383.44
460.138	394.44
460.358	419.44
460.578	420.44
460.798	435.44
461.018	437.44
461.238	430.44
461.458	417.44
461.678	435.44
461.898	427.44
462.118	431.44
462.338	436.44
462.558	435.44
462.777	453.44
462.997	467.44
463.217	462.44
463.437	469.44
463.657	463.44
463.876	460.44
464.096	461.44
464.316	472.44
464.536	451.44
464.755	452.44
464.975	443.44
465.195	465.44
465.414	527.44
465.634	469.44
465.854	437.44
466.073	420.44
466.293	427.44
466.512	413.44
466.732	400.44
466.951	407.44
467.171	405.44
467.391	398.44
467.61	388.44
467.829	409.44
468.049	403.44
468.268	415.44
468.488	389.44
468.707	386.44
468.927	386.44
469.146	378.44
469.365	410.44
469.585	403.44
469.804	411.44
470.023	424.44
470.243	401.44
470.462	407.44
470.681	415.44
470.901	420.44
471.12	410.44
471.339	396.44
471.558	399.44
471.777	407.44
471.997	392.44
472.216	396.44
472.435	438.44
472.654	416.44
472.873	403.44
473.092	396.44
473.311	396.44
473.53	396.44
473.749	404.44
473.968	426.44
474.187	501.44
474.406	506.44
474.625	442.44
474.844	409.44
475.063	402.44
475.282	389.44
475.501	391.44
475.72	412.44
475.939	401.44
476.158	415.44
476.377	416.44
476.596	396.44
476.814	433.44
477.033	429.44
477.252	406.44
477.471	434.44
477.69	426.44
477.908	429.44
478.127	432.44
478.346	448.44
478.564	434.44
478.783	459.44
479.002	464.44
479.22	487.44
479.439	488.44
479.658	483.44
479.876	485.44
480.095	502.44
480.313	521.44
480.532	497.44
480.751	498.44
480.969	490.44
481.188	536.44
481.406	577.44
481.624	519.44
481.843	488.44
482.061	480.44
482.28	459.44
482.498	463.44
482.717	440.44
482.935	449.44
483.153	478.44
483.372	477.44
483.59	478.44
483.808	470.44
484.027	464.44
484.245	471.44
484.463	490.44
484.681	485.44
484.9	487.44
485.118	465.44
485.336	468.44
485.554	473.44
485.772	472.44
485.99	481.44
486.209	497.44
486.427	488.44
486.645	508.44
486.863	513.44
487.081	522.44
487.299	502.44
487.517	482.44
487.735	501.44
487.953	495.44
488.171	500.44
488.389	483.44
488.607	484.44
488.825	491.44
489.043	490.44
489.261	482.44
489.479	474.44
489.696	477.44
489.914	494.44
490.132	498.44
490.35	521.44
490.568	502.44
490.786	512.44
491.003	501.44
491.221	504.44
491.439	541.44
491.657	523.44
491.874	541.44
492.092	527.44
492.31	545.44
492.527	549.44
492.745	499.44
492.963	527.44
493.18	538.44
493.398	558.44
493.615	555.44
493.833	553.44
494.05	561.44
494.268	561.44
494.485	546.44
494.703	553.44
494.92	567.44
495.138	546.44
495.355	547.44
495.573	563.44
495.79	541.44
496.008	569.44
496.225	577.44
496.442	565.44
496.66	566.44
496.877	555.44
497.094	555.44
497.312	562.44
497.529	595.44
497.746	570.44
497.963	593.44
498.181	623.44
498.398	633.44
498.615	646.44
498.832	663.44
499.049	681.44
499.267	693.44
499.484	723.44
499.701	773.44
499.918	798.44
500.135	826.44
500.352	871.44
500.569	868.44
500.786	879.44
501.003	865.44
501.22	833.44
501.437	771.44
501.654	757.44
501.871	713.44
502.088	707.44
