Data from 1964.PennyLincolnUp.Lamp.En5.5.200Scan.071719.P1._HRD10591_14-05-44-909.txt Node
Date: Thu Jul 18 14:05:44 EDT 2019
User: cochatt
Spectrometer: HR+D1059
Trigger mode: 1
Integration Time (sec): 1.000000E-1
Scans to average: 1
Electric dark correction enabled: true
Nonlinearity correction enabled: false
Boxcar width: 0
XAxis mode: Wavelengths
Number of Pixels in Spectrum: 2048
>>>>>Begin Spectral Data<<<<<
223.165	-9.81
223.4	-9.81
223.635	-9.81
223.869	-10.81
224.104	-21.81
224.338	-10.81
224.573	-24.81
224.808	-18.81
225.042	-18.81
225.277	1.19
225.511	-0.81
225.746	8.19
225.98	-1.81
226.215	12.19
226.449	18.19
226.683	32.19
226.918	18.19
227.152	28.19
227.387	42.19
227.621	31.19
227.856	37.19
228.09	35.19
228.324	59.19
228.559	49.19
228.793	69.19
229.027	93.19
229.262	96.19
229.496	106.19
229.73	113.19
229.964	124.19
230.199	131.19
230.433	115.19
230.667	120.19
230.901	111.19
231.136	119.19
231.37	103.19
231.604	110.19
231.838	117.19
232.072	118.19
232.306	110.19
232.541	115.19
232.775	117.19
233.009	113.19
233.243	130.19
233.477	114.19
233.711	114.19
233.945	113.19
234.179	125.19
234.413	127.19
234.647	131.19
234.881	119.19
235.115	114.19
235.349	115.19
235.583	125.19
235.817	127.19
236.051	114.19
236.285	126.19
236.519	131.19
236.753	131.19
236.987	146.19
237.221	172.19
237.455	206.19
237.689	167.19
237.922	154.19
238.156	130.19
238.39	133.19
238.624	123.19
238.858	129.19
239.091	138.19
239.325	147.19
239.559	132.19
239.793	146.19
240.027	152.19
240.26	153.19
240.494	161.19
240.728	141.19
240.961	142.19
241.195	139.19
241.429	147.19
241.662	145.19
241.896	127.19
242.13	138.19
242.363	139.19
242.597	147.19
242.83	148.19
243.064	124.19
243.298	153.19
243.531	145.19
243.765	150.19
243.998	150.19
244.232	146.19
244.465	158.19
244.699	161.19
244.932	154.19
245.166	160.19
245.399	142.19
245.633	158.19
245.866	158.19
246.099	164.19
246.333	166.19
246.566	135.19
246.8	166.19
247.033	177.19
247.266	178.19
247.5	190.19
247.733	169.19
247.966	163.19
248.2	175.19
248.433	176.19
248.666	179.19
248.899	189.19
249.133	206.19
249.366	195.19
249.599	211.19
249.832	192.19
250.066	208.19
250.299	193.19
250.532	202.19
250.765	218.19
250.998	231.19
251.231	233.19
251.465	210.19
251.698	227.19
251.931	208.19
252.164	187.19
252.397	209.19
252.63	216.19
252.863	216.19
253.096	214.19
253.329	233.19
253.562	221.19
253.795	215.19
254.028	221.19
254.261	210.19
254.494	230.19
254.727	255.19
254.96	256.19
255.193	274.19
255.426	249.19
255.659	239.19
255.892	254.19
256.124	251.19
256.357	260.19
256.59	246.19
256.823	230.19
257.056	215.19
257.289	230.19
257.521	211.19
257.754	211.19
257.987	225.19
258.22	229.19
258.452	232.19
258.685	228.19
258.918	219.19
259.151	232.19
259.383	228.19
259.616	228.19
259.849	242.19
260.081	263.19
260.314	247.19
260.547	252.19
260.779	255.19
261.012	253.19
261.244	233.19
261.477	235.19
261.71	250.19
261.942	233.19
262.175	239.19
262.407	246.19
262.64	230.19
262.872	245.19
263.105	228.19
263.337	230.19
263.57	227.19
263.802	233.19
264.035	224.19
264.267	240.19
264.499	238.19
264.732	229.19
264.964	232.19
265.197	237.19
265.429	240.19
265.661	226.19
265.894	248.19
266.126	239.19
266.358	238.19
266.591	231.19
266.823	249.19
267.055	240.19
267.287	247.19
267.52	258.19
267.752	266.19
267.984	250.19
268.216	238.19
268.448	246.19
268.681	250.19
268.913	251.19
269.145	283.19
269.377	314.19
269.609	289.19
269.841	284.19
270.073	298.19
270.306	336.19
270.538	338.19
270.77	320.19
271.002	320.19
271.234	312.19
271.466	315.19
271.698	330.19
271.93	338.19
272.162	313.19
272.394	336.19
272.626	329.19
272.858	297.19
273.09	304.19
273.322	273.19
273.553	293.19
273.785	273.19
274.017	283.19
274.249	299.19
274.481	286.19
274.713	302.19
274.945	280.19
275.176	311.19
275.408	279.19
275.64	297.19
275.872	297.19
276.104	304.19
276.335	290.19
276.567	306.19
276.799	319.19
277.031	321.19
277.262	330.19
277.494	332.19
277.726	334.19
277.957	303.19
278.189	313.19
278.421	324.19
278.652	297.19
278.884	304.19
279.115	290.19
279.347	317.19
279.579	293.19
279.81	293.19
280.042	307.19
280.273	315.19
280.505	305.19
280.736	293.19
280.968	303.19
281.199	299.19
281.431	304.19
281.662	287.19
281.894	311.19
282.125	304.19
282.356	316.19
282.588	316.19
282.819	325.19
283.051	311.19
283.282	309.19
283.513	322.19
283.745	322.19
283.976	315.19
284.207	320.19
284.439	329.19
284.67	319.19
284.901	302.19
285.132	306.19
285.364	305.19
285.595	309.19
285.826	319.19
286.057	313.19
286.288	331.19
286.52	323.19
286.751	318.19
286.982	308.19
287.213	310.19
287.444	318.19
287.675	335.19
287.906	343.19
288.138	321.19
288.369	347.19
288.6	345.19
288.831	330.19
289.062	349.19
289.293	328.19
289.524	331.19
289.755	333.19
289.986	342.19
290.217	358.19
290.448	350.19
290.679	319.19
290.91	334.19
291.141	326.19
291.371	335.19
291.602	352.19
291.833	317.19
292.064	334.19
292.295	355.19
292.526	334.19
292.757	338.19
292.987	338.19
293.218	316.19
293.449	349.19
293.68	322.19
293.91	313.19
294.141	329.19
294.372	323.19
294.603	347.19
294.833	312.19
295.064	335.19
295.295	343.19
295.525	339.19
295.756	346.19
295.987	352.19
296.217	351.19
296.448	357.19
296.679	340.19
296.909	348.19
297.14	349.19
297.37	330.19
297.601	352.19
297.831	351.19
298.062	344.19
298.292	352.19
298.523	343.19
298.753	347.19
298.984	340.19
299.214	349.19
299.445	349.19
299.675	345.19
299.905	346.19
300.136	351.19
300.366	353.19
300.597	353.19
300.827	371.19
301.057	383.19
301.288	377.19
301.518	373.19
301.748	367.19
301.979	371.19
302.209	369.19
302.439	350.19
302.669	354.19
302.9	374.19
303.13	379.19
303.36	376.19
303.59	389.19
303.82	394.19
304.051	363.19
304.281	383.19
304.511	376.19
304.741	380.19
304.971	376.19
305.201	377.19
305.431	373.19
305.661	378.19
305.891	376.19
306.121	387.19
306.352	366.19
306.582	379.19
306.812	375.19
307.042	364.19
307.272	391.19
307.502	371.19
307.731	388.19
307.961	359.19
308.191	359.19
308.421	387.19
308.651	361.19
308.881	367.19
309.111	379.19
309.341	383.19
309.571	376.19
309.8	404.19
310.03	394.19
310.26	397.19
310.49	409.19
310.72	408.19
310.949	402.19
311.179	429.19
311.409	393.19
311.639	437.19
311.868	409.19
312.098	404.19
312.328	427.19
312.557	429.19
312.787	426.19
313.017	439.19
313.246	422.19
313.476	422.19
313.706	397.19
313.935	429.19
314.165	421.19
314.394	426.19
314.624	425.19
314.853	415.19
315.083	421.19
315.312	413.19
315.542	433.19
315.771	401.19
316.001	414.19
316.23	401.19
316.46	402.19
316.689	426.19
316.919	434.19
317.148	438.19
317.377	422.19
317.607	452.19
317.836	424.19
318.065	418.19
318.295	411.19
318.524	414.19
318.753	422.19
318.983	423.19
319.212	416.19
319.441	425.19
319.67	426.19
319.9	401.19
320.129	423.19
320.358	406.19
320.587	417.19
320.816	422.19
321.046	427.19
321.275	433.19
321.504	441.19
321.733	442.19
321.962	444.19
322.191	428.19
322.42	433.19
322.649	461.19
322.878	455.19
323.108	458.19
323.337	482.19
323.566	489.19
323.795	521.19
324.024	558.19
324.253	617.19
324.482	835.19
324.71	1267.19
324.939	1658.19
325.168	1433.19
325.397	786.19
325.626	585.19
325.855	540.19
326.084	504.19
326.313	505.19
326.542	502.19
326.77	533.19
326.999	602.19
327.228	781.19
327.457	1101.19
327.686	1304.19
327.914	896.19
328.143	647.19
328.372	595.19
328.6	526.19
328.829	533.19
329.058	541.19
329.287	560.19
329.515	529.19
329.744	496.19
329.972	531.19
330.201	547.19
330.43	561.19
330.658	581.19
330.887	578.19
331.115	558.19
331.344	536.19
331.572	515.19
331.801	497.19
332.03	517.19
332.258	504.19
332.486	505.19
332.715	497.19
332.943	496.19
333.172	477.19
333.4	509.19
333.629	519.19
333.857	534.19
334.085	543.19
334.314	549.19
334.542	578.19
334.771	552.19
334.999	537.19
335.227	535.19
335.455	509.19
335.684	498.19
335.912	510.19
336.14	496.19
336.369	479.19
336.597	495.19
336.825	498.19
337.053	487.19
337.281	486.19
337.51	476.19
337.738	502.19
337.966	496.19
338.194	475.19
338.422	479.19
338.65	450.19
338.878	462.19
339.106	494.19
339.334	468.19
339.562	459.19
339.79	458.19
340.018	472.19
340.246	486.19
340.474	475.19
340.702	479.19
340.93	449.19
341.158	467.19
341.386	454.19
341.614	470.19
341.842	470.19
342.07	454.19
342.298	458.19
342.526	456.19
342.754	463.19
342.981	446.19
343.209	434.19
343.437	466.19
343.665	478.19
343.893	485.19
344.12	496.19
344.348	495.19
344.576	497.19
344.804	455.19
345.031	472.19
345.259	479.19
345.487	477.19
345.714	463.19
345.942	441.19
346.17	430.19
346.397	443.19
346.625	443.19
346.853	442.19
347.08	429.19
347.308	430.19
347.535	446.19
347.763	444.19
347.99	451.19
348.218	441.19
348.445	455.19
348.673	443.19
348.9	426.19
349.128	441.19
349.355	417.19
349.583	427.19
349.81	429.19
350.037	408.19
350.265	438.19
350.492	412.19
350.72	443.19
350.947	448.19
351.174	443.19
351.402	432.19
351.629	433.19
351.856	416.19
352.083	428.19
352.311	453.19
352.538	415.19
352.765	423.19
352.992	423.19
353.22	407.19
353.447	431.19
353.674	419.19
353.901	438.19
354.128	413.19
354.355	419.19
354.583	409.19
354.81	410.19
355.037	413.19
355.264	421.19
355.491	414.19
355.718	414.19
355.945	414.19
356.172	407.19
356.399	417.19
356.626	396.19
356.853	411.19
357.08	428.19
357.307	403.19
357.534	404.19
357.761	396.19
357.988	406.19
358.215	417.19
358.441	407.19
358.668	419.19
358.895	421.19
359.122	413.19
359.349	411.19
359.576	414.19
359.802	443.19
360.029	444.19
360.256	454.19
360.483	428.19
360.709	415.19
360.936	419.19
361.163	432.19
361.39	421.19
361.616	392.19
361.843	415.19
362.07	409.19
362.296	427.19
362.523	427.19
362.749	439.19
362.976	403.19
363.203	418.19
363.429	402.19
363.656	387.19
363.882	410.19
364.109	390.19
364.335	408.19
364.562	398.19
364.788	399.19
365.015	413.19
365.241	411.19
365.468	409.19
365.694	404.19
365.92	413.19
366.147	424.19
366.373	411.19
366.599	408.19
366.826	399.19
367.052	393.19
367.278	413.19
367.505	403.19
367.731	403.19
367.957	407.19
368.184	409.19
368.41	405.19
368.636	418.19
368.862	423.19
369.089	443.19
369.315	408.19
369.541	403.19
369.767	421.19
369.993	408.19
370.219	403.19
370.445	413.19
370.672	381.19
370.898	419.19
371.124	415.19
371.35	410.19
371.576	404.19
371.802	415.19
372.028	409.19
372.254	403.19
372.48	407.19
372.706	411.19
372.932	422.19
373.158	419.19
373.384	419.19
373.61	417.19
373.835	410.19
374.061	387.19
374.287	415.19
374.513	424.19
374.739	431.19
374.965	421.19
375.191	418.19
375.416	427.19
375.642	429.19
375.868	417.19
376.094	404.19
376.319	414.19
376.545	421.19
376.771	410.19
376.997	398.19
377.222	406.19
377.448	404.19
377.674	412.19
377.899	398.19
378.125	414.19
378.35	400.19
378.576	400.19
378.802	404.19
379.027	406.19
379.253	402.19
379.478	409.19
379.704	384.19
379.929	401.19
380.155	389.19
380.38	395.19
380.606	409.19
380.831	412.19
381.057	415.19
381.282	376.19
381.507	410.19
381.733	400.19
381.958	386.19
382.184	405.19
382.409	411.19
382.634	435.19
382.86	404.19
383.085	449.19
383.31	424.19
383.535	426.19
383.761	418.19
383.986	430.19
384.211	420.19
384.436	440.19
384.662	425.19
384.887	442.19
385.112	434.19
385.337	439.19
385.562	431.19
385.787	434.19
386.013	446.19
386.238	445.19
386.463	457.19
386.688	451.19
386.913	453.19
387.138	443.19
387.363	438.19
387.588	438.19
387.813	445.19
388.038	444.19
388.263	451.19
388.488	443.19
388.713	449.19
388.938	446.19
389.163	430.19
389.387	438.19
389.612	418.19
389.837	442.19
390.062	445.19
390.287	419.19
390.512	422.19
390.736	434.19
390.961	424.19
391.186	468.19
391.411	420.19
391.636	454.19
391.86	455.19
392.085	471.19
392.31	459.19
392.534	451.19
392.759	438.19
392.984	457.19
393.208	441.19
393.433	448.19
393.658	445.19
393.882	458.19
394.107	437.19
394.331	440.19
394.556	449.19
394.78	449.19
395.005	453.19
395.229	440.19
395.454	466.19
395.678	461.19
395.903	441.19
396.127	471.19
396.352	490.19
396.576	476.19
396.801	458.19
397.025	455.19
397.249	445.19
397.474	455.19
397.698	456.19
397.922	463.19
398.147	480.19
398.371	484.19
398.595	488.19
398.82	485.19
399.044	525.19
399.268	553.19
399.492	545.19
399.717	594.19
399.941	603.19
400.165	629.19
400.389	620.19
400.613	579.19
400.837	522.19
401.062	530.19
401.286	517.19
401.51	517.19
401.734	500.19
401.958	489.19
402.182	496.19
402.406	506.19
402.63	515.19
402.854	511.19
403.078	521.19
403.302	489.19
403.526	513.19
403.75	525.19
403.974	521.19
404.198	511.19
404.422	506.19
404.645	531.19
404.869	527.19
405.093	544.19
405.317	569.19
405.541	609.19
405.765	544.19
405.988	543.19
406.212	538.19
406.436	538.19
406.66	568.19
406.883	568.19
407.107	550.19
407.331	593.19
407.555	665.19
407.778	643.19
408.002	611.19
408.226	588.19
408.449	546.19
408.673	553.19
408.896	573.19
409.12	640.19
409.344	591.19
409.567	516.19
409.791	543.19
410.014	516.19
410.238	501.19
410.461	498.19
410.685	507.19
410.908	511.19
411.132	568.19
411.355	579.19
411.578	534.19
411.802	517.19
412.025	471.19
412.249	509.19
412.472	517.19
412.695	552.19
412.919	537.19
413.142	522.19
413.365	491.19
413.589	513.19
413.812	488.19
414.035	490.19
414.258	481.19
414.482	498.19
414.705	489.19
414.928	478.19
415.151	486.19
415.374	493.19
415.597	487.19
415.821	473.19
416.044	486.19
416.267	479.19
416.49	481.19
416.713	469.19
416.936	464.19
417.159	456.19
417.382	482.19
417.605	460.19
417.828	503.19
418.051	515.19
418.274	499.19
418.497	479.19
418.72	490.19
418.943	481.19
419.166	501.19
419.389	501.19
419.611	496.19
419.834	490.19
420.057	505.19
420.28	503.19
420.503	484.19
420.726	509.19
420.948	504.19
421.171	525.19
421.394	545.19
421.617	494.19
421.839	497.19
422.062	491.19
422.285	503.19
422.507	548.19
422.73	601.19
422.953	583.19
423.175	540.19
423.398	523.19
423.621	496.19
423.843	523.19
424.066	531.19
424.288	506.19
424.511	541.19
424.733	562.19
424.956	637.19
425.178	612.19
425.401	577.19
425.623	597.19
425.846	538.19
426.068	513.19
426.291	517.19
426.513	518.19
426.735	515.19
426.958	531.19
427.18	591.19
427.402	711.19
427.625	762.19
427.847	629.19
428.069	607.19
428.292	518.19
428.514	501.19
428.736	482.19
428.958	487.19
429.181	496.19
429.403	477.19
429.625	503.19
429.847	514.19
430.069	543.19
430.292	558.19
430.514	489.19
430.736	458.19
430.958	463.19
431.18	444.19
431.402	457.19
431.624	463.19
431.846	457.19
432.068	449.19
432.29	444.19
432.512	433.19
432.734	474.19
432.956	468.19
433.178	486.19
433.4	460.19
433.622	451.19
433.844	463.19
434.066	473.19
434.287	441.19
434.509	460.19
434.731	485.19
434.953	485.19
435.175	481.19
435.397	496.19
435.618	492.19
435.84	531.19
436.062	612.19
436.284	655.19
436.505	541.19
436.727	516.19
436.949	462.19
437.17	466.19
437.392	453.19
437.614	473.19
437.835	487.19
438.057	563.19
438.278	634.19
438.5	645.19
438.721	684.19
438.943	668.19
439.165	546.19
439.386	496.19
439.608	502.19
439.829	503.19
440.05	501.19
440.272	554.19
440.493	527.19
440.715	507.19
440.936	486.19
441.158	487.19
441.379	476.19
441.6	498.19
441.822	491.19
442.043	535.19
442.264	623.19
442.486	613.19
442.707	520.19
442.928	504.19
443.149	529.19
443.371	515.19
443.592	587.19
443.813	649.19
444.034	684.19
444.255	578.19
444.476	545.19
444.698	523.19
444.919	515.19
445.14	601.19
445.361	558.19
445.582	550.19
445.803	572.19
446.024	633.19
446.245	684.19
446.466	609.19
446.687	524.19
446.908	497.19
447.129	464.19
447.35	449.19
447.571	486.19
447.792	453.19
448.013	459.19
448.234	454.19
448.455	521.19
448.675	599.19
448.896	665.19
449.117	583.19
449.338	565.19
449.559	649.19
449.779	705.19
450	596.19
450.221	492.19
450.442	471.19
450.662	441.19
450.883	439.19
451.104	440.19
451.324	434.19
451.545	429.19
451.766	422.19
451.986	406.19
452.207	404.19
452.428	415.19
452.648	412.19
452.869	410.19
453.089	398.19
453.31	409.19
453.53	428.19
453.751	414.19
453.971	407.19
454.192	425.19
454.412	423.19
454.633	426.19
454.853	396.19
455.073	402.19
455.294	433.19
455.514	474.19
455.734	468.19
455.955	426.19
456.175	393.19
456.395	394.19
456.616	383.19
456.836	395.19
457.056	409.19
457.276	377.19
457.497	399.19
457.717	409.19
457.937	405.19
458.157	401.19
458.377	383.19
458.598	431.19
458.818	450.19
459.038	513.19
459.258	522.19
459.478	474.19
459.698	438.19
459.918	434.19
460.138	446.19
460.358	455.19
460.578	450.19
460.798	461.19
461.018	437.19
461.238	454.19
461.458	454.19
461.678	468.19
461.898	457.19
462.118	449.19
462.338	495.19
462.558	486.19
462.777	487.19
462.997	508.19
463.217	505.19
463.437	510.19
463.657	499.19
463.876	493.19
464.096	477.19
464.316	488.19
464.536	490.19
464.755	486.19
464.975	486.19
465.195	488.19
465.414	525.19
465.634	484.19
465.854	452.19
466.073	445.19
466.293	455.19
466.512	443.19
466.732	418.19
466.951	418.19
467.171	423.19
467.391	427.19
467.61	432.19
467.829	433.19
468.049	443.19
468.268	437.19
468.488	411.19
468.707	403.19
468.927	415.19
469.146	393.19
469.365	410.19
469.585	417.19
469.804	424.19
470.023	437.19
470.243	428.19
470.462	423.19
470.681	438.19
470.901	464.19
471.12	449.19
471.339	437.19
471.558	431.19
471.777	442.19
471.997	412.19
472.216	422.19
472.435	436.19
472.654	453.19
472.873	423.19
473.092	419.19
473.311	421.19
473.53	425.19
473.749	447.19
473.968	475.19
474.187	540.19
474.406	555.19
474.625	475.19
474.844	459.19
475.063	441.19
475.282	426.19
475.501	451.19
475.72	432.19
475.939	442.19
476.158	442.19
476.377	457.19
476.596	446.19
476.814	421.19
477.033	431.19
477.252	437.19
477.471	451.19
477.69	464.19
477.908	472.19
478.127	454.19
478.346	458.19
478.564	480.19
478.783	512.19
479.002	494.19
479.22	523.19
479.439	512.19
479.658	494.19
479.876	518.19
480.095	522.19
480.313	545.19
480.532	532.19
480.751	519.19
480.969	527.19
481.188	585.19
481.406	593.19
481.624	529.19
481.843	514.19
482.061	504.19
482.28	487.19
482.498	494.19
482.717	505.19
482.935	497.19
483.153	480.19
483.372	484.19
483.59	511.19
483.808	489.19
484.027	489.19
484.245	492.19
484.463	498.19
484.681	489.19
484.9	485.19
485.118	493.19
485.336	501.19
485.554	503.19
485.772	518.19
485.99	530.19
486.209	504.19
486.427	476.19
486.645	535.19
486.863	519.19
487.081	518.19
487.299	495.19
487.517	519.19
487.735	538.19
487.953	521.19
488.171	515.19
488.389	528.19
488.607	508.19
488.825	523.19
489.043	542.19
489.261	529.19
489.479	531.19
489.696	537.19
489.914	540.19
490.132	535.19
490.35	555.19
490.568	536.19
490.786	544.19
491.003	582.19
491.221	562.19
491.439	588.19
491.657	606.19
491.874	601.19
492.092	591.19
492.31	580.19
492.527	607.19
492.745	592.19
492.963	590.19
493.18	585.19
493.398	589.19
493.615	609.19
493.833	580.19
494.05	609.19
494.268	597.19
494.485	636.19
494.703	598.19
494.92	607.19
495.138	605.19
495.355	605.19
495.573	593.19
495.79	609.19
496.008	601.19
496.225	600.19
496.442	609.19
496.66	603.19
496.877	625.19
497.094	630.19
497.312	629.19
497.529	634.19
497.746	647.19
497.963	666.19
498.181	685.19
498.398	665.19
498.615	687.19
498.832	722.19
499.049	742.19
499.267	743.19
499.484	805.19
499.701	841.19
499.918	827.19
500.135	889.19
500.352	945.19
500.569	923.19
500.786	966.19
501.003	940.19
501.22	913.19
501.437	849.19
501.654	817.19
501.871	795.19
