Data from 1964.PennyLincolnUp.Lamp.En5.5.200Scan.071719.P1._HRD10591_14-03-39-908.txt Node
Date: Thu Jul 18 14:03:39 EDT 2019
User: cochatt
Spectrometer: HR+D1059
Trigger mode: 1
Integration Time (sec): 1.000000E-1
Scans to average: 1
Electric dark correction enabled: true
Nonlinearity correction enabled: false
Boxcar width: 0
XAxis mode: Wavelengths
Number of Pixels in Spectrum: 2048
>>>>>Begin Spectral Data<<<<<
223.165	-17.56
223.4	-17.56
223.635	-17.56
223.869	-10.56
224.104	-20.56
224.338	-19.56
224.573	-13.56
224.808	-12.56
225.042	0.44
225.277	-12.56
225.511	7.44
225.746	2.44
225.98	6.44
226.215	2.44
226.449	15.44
226.683	14.44
226.918	36.44
227.152	21.44
227.387	37.44
227.621	27.44
227.856	38.44
228.09	46.44
228.324	45.44
228.559	45.44
228.793	65.44
229.027	95.44
229.262	94.44
229.496	101.44
229.73	97.44
229.964	113.44
230.199	100.44
230.433	100.44
230.667	92.44
230.901	97.44
231.136	122.44
231.37	105.44
231.604	97.44
231.838	101.44
232.072	112.44
232.306	108.44
232.541	105.44
232.775	110.44
233.009	101.44
233.243	116.44
233.477	100.44
233.711	116.44
233.945	104.44
234.179	120.44
234.413	134.44
234.647	99.44
234.881	113.44
235.115	114.44
235.349	127.44
235.583	117.44
235.817	116.44
236.051	113.44
236.285	105.44
236.519	104.44
236.753	128.44
236.987	122.44
237.221	128.44
237.455	181.44
237.689	154.44
237.922	118.44
238.156	125.44
238.39	131.44
238.624	120.44
238.858	121.44
239.091	136.44
239.325	113.44
239.559	108.44
239.793	118.44
240.027	115.44
240.26	143.44
240.494	129.44
240.728	127.44
240.961	125.44
241.195	122.44
241.429	116.44
241.662	118.44
241.896	114.44
242.13	108.44
242.363	136.44
242.597	135.44
242.83	125.44
243.064	130.44
243.298	121.44
243.531	121.44
243.765	112.44
243.998	142.44
244.232	130.44
244.465	129.44
244.699	128.44
244.932	121.44
245.166	149.44
245.399	149.44
245.633	131.44
245.866	148.44
246.099	142.44
246.333	138.44
246.566	143.44
246.8	138.44
247.033	145.44
247.266	150.44
247.5	149.44
247.733	170.44
247.966	163.44
248.2	146.44
248.433	152.44
248.666	148.44
248.899	168.44
249.133	174.44
249.366	163.44
249.599	156.44
249.832	164.44
250.066	169.44
250.299	166.44
250.532	163.44
250.765	160.44
250.998	206.44
251.231	176.44
251.465	184.44
251.698	184.44
251.931	165.44
252.164	180.44
252.397	184.44
252.63	192.44
252.863	200.44
253.096	193.44
253.329	202.44
253.562	214.44
253.795	186.44
254.028	209.44
254.261	188.44
254.494	193.44
254.727	228.44
254.96	246.44
255.193	228.44
255.426	207.44
255.659	198.44
255.892	204.44
256.124	220.44
256.357	206.44
256.59	213.44
256.823	212.44
257.056	210.44
257.289	202.44
257.521	210.44
257.754	190.44
257.987	199.44
258.22	194.44
258.452	202.44
258.685	203.44
258.918	204.44
259.151	204.44
259.383	213.44
259.616	209.44
259.849	214.44
260.081	223.44
260.314	228.44
260.547	227.44
260.779	214.44
261.012	198.44
261.244	222.44
261.477	205.44
261.71	200.44
261.942	196.44
262.175	226.44
262.407	205.44
262.64	190.44
262.872	198.44
263.105	206.44
263.337	207.44
263.57	192.44
263.802	211.44
264.035	200.44
264.267	202.44
264.499	204.44
264.732	209.44
264.964	199.44
265.197	216.44
265.429	200.44
265.661	188.44
265.894	203.44
266.126	221.44
266.358	216.44
266.591	215.44
266.823	226.44
267.055	226.44
267.287	213.44
267.52	202.44
267.752	216.44
267.984	219.44
268.216	229.44
268.448	220.44
268.681	222.44
268.913	217.44
269.145	228.44
269.377	249.44
269.609	256.44
269.841	249.44
270.073	280.44
270.306	272.44
270.538	290.44
270.77	276.44
271.002	273.44
271.234	281.44
271.466	261.44
271.698	293.44
271.93	281.44
272.162	292.44
272.394	285.44
272.626	280.44
272.858	266.44
273.09	265.44
273.322	269.44
273.553	254.44
273.785	252.44
274.017	251.44
274.249	270.44
274.481	262.44
274.713	251.44
274.945	275.44
275.176	247.44
275.408	262.44
275.64	260.44
275.872	268.44
276.104	263.44
276.335	261.44
276.567	268.44
276.799	284.44
277.031	288.44
277.262	295.44
277.494	305.44
277.726	289.44
277.957	272.44
278.189	274.44
278.421	273.44
278.652	281.44
278.884	277.44
279.115	259.44
279.347	266.44
279.579	252.44
279.81	267.44
280.042	286.44
280.273	277.44
280.505	265.44
280.736	272.44
280.968	278.44
281.199	249.44
281.431	289.44
281.662	281.44
281.894	282.44
282.125	280.44
282.356	308.44
282.588	288.44
282.819	291.44
283.051	293.44
283.282	283.44
283.513	285.44
283.745	313.44
283.976	282.44
284.207	295.44
284.439	279.44
284.67	284.44
284.901	278.44
285.132	294.44
285.364	284.44
285.595	270.44
285.826	287.44
286.057	284.44
286.288	300.44
286.52	281.44
286.751	281.44
286.982	294.44
287.213	278.44
287.444	279.44
287.675	311.44
287.906	297.44
288.138	297.44
288.369	312.44
288.6	306.44
288.831	307.44
289.062	322.44
289.293	302.44
289.524	296.44
289.755	295.44
289.986	296.44
290.217	291.44
290.448	288.44
290.679	304.44
290.91	297.44
291.141	286.44
291.371	304.44
291.602	290.44
291.833	310.44
292.064	291.44
292.295	310.44
292.526	306.44
292.757	305.44
292.987	291.44
293.218	322.44
293.449	291.44
293.68	320.44
293.91	296.44
294.141	308.44
294.372	304.44
294.603	305.44
294.833	311.44
295.064	307.44
295.295	306.44
295.525	307.44
295.756	297.44
295.987	313.44
296.217	320.44
296.448	318.44
296.679	326.44
296.909	296.44
297.14	297.44
297.37	316.44
297.601	320.44
297.831	301.44
298.062	301.44
298.292	293.44
298.523	318.44
298.753	326.44
298.984	314.44
299.214	297.44
299.445	320.44
299.675	320.44
299.905	311.44
300.136	306.44
300.366	323.44
300.597	322.44
300.827	320.44
301.057	339.44
301.288	339.44
301.518	333.44
301.748	321.44
301.979	338.44
302.209	337.44
302.439	337.44
302.669	348.44
302.9	345.44
303.13	333.44
303.36	340.44
303.59	331.44
303.82	342.44
304.051	354.44
304.281	350.44
304.511	337.44
304.741	329.44
304.971	346.44
305.201	342.44
305.431	352.44
305.661	332.44
305.891	330.44
306.121	349.44
306.352	349.44
306.582	352.44
306.812	316.44
307.042	340.44
307.272	331.44
307.502	347.44
307.731	317.44
307.961	340.44
308.191	351.44
308.421	348.44
308.651	349.44
308.881	349.44
309.111	344.44
309.341	349.44
309.571	339.44
309.8	344.44
310.03	350.44
310.26	364.44
310.49	353.44
310.72	367.44
310.949	369.44
311.179	377.44
311.409	378.44
311.639	364.44
311.868	362.44
312.098	368.44
312.328	355.44
312.557	384.44
312.787	378.44
313.017	372.44
313.246	381.44
313.476	360.44
313.706	368.44
313.935	388.44
314.165	361.44
314.394	386.44
314.624	363.44
314.853	374.44
315.083	355.44
315.312	379.44
315.542	380.44
315.771	364.44
316.001	356.44
316.23	372.44
316.46	344.44
316.689	382.44
316.919	372.44
317.148	370.44
317.377	391.44
317.607	372.44
317.836	376.44
318.065	363.44
318.295	378.44
318.524	366.44
318.753	384.44
318.983	368.44
319.212	363.44
319.441	388.44
319.67	376.44
319.9	369.44
320.129	398.44
320.358	368.44
320.587	378.44
320.816	383.44
321.046	376.44
321.275	374.44
321.504	365.44
321.733	376.44
321.962	388.44
322.191	401.44
322.42	394.44
322.649	398.44
322.878	422.44
323.108	408.44
323.337	410.44
323.566	425.44
323.795	432.44
324.024	475.44
324.253	538.44
324.482	679.44
324.71	990.44
324.939	1355.44
325.168	1116.44
325.397	633.44
325.626	484.44
325.855	449.44
326.084	445.44
326.313	439.44
326.542	443.44
326.77	439.44
326.999	508.44
327.228	645.44
327.457	907.44
327.686	1009.44
327.914	735.44
328.143	502.44
328.372	450.44
328.6	459.44
328.829	462.44
329.058	459.44
329.287	450.44
329.515	449.44
329.744	449.44
329.972	468.44
330.201	449.44
330.43	466.44
330.658	474.44
330.887	472.44
331.115	489.44
331.344	455.44
331.572	434.44
331.801	433.44
332.03	440.44
332.258	447.44
332.486	444.44
332.715	440.44
332.943	419.44
333.172	439.44
333.4	452.44
333.629	455.44
333.857	470.44
334.085	476.44
334.314	474.44
334.542	493.44
334.771	512.44
334.999	482.44
335.227	455.44
335.455	426.44
335.684	449.44
335.912	445.44
336.14	449.44
336.369	420.44
336.597	434.44
336.825	448.44
337.053	426.44
337.281	430.44
337.51	427.44
337.738	421.44
337.966	421.44
338.194	436.44
338.422	410.44
338.65	441.44
338.878	422.44
339.106	431.44
339.334	448.44
339.562	420.44
339.79	405.44
340.018	384.44
340.246	424.44
340.474	404.44
340.702	420.44
340.93	407.44
341.158	401.44
341.386	409.44
341.614	411.44
341.842	408.44
342.07	419.44
342.298	422.44
342.526	393.44
342.754	403.44
342.981	388.44
343.209	404.44
343.437	413.44
343.665	435.44
343.893	407.44
344.12	439.44
344.348	432.44
344.576	439.44
344.804	427.44
345.031	399.44
345.259	422.44
345.487	411.44
345.714	406.44
345.942	426.44
346.17	401.44
346.397	398.44
346.625	410.44
346.853	388.44
347.08	416.44
347.308	399.44
347.535	405.44
347.763	396.44
347.99	396.44
348.218	398.44
348.445	392.44
348.673	393.44
348.9	409.44
349.128	384.44
349.355	396.44
349.583	369.44
349.81	376.44
350.037	395.44
350.265	382.44
350.492	373.44
350.72	369.44
350.947	378.44
351.174	371.44
351.402	377.44
351.629	393.44
351.856	385.44
352.083	395.44
352.311	380.44
352.538	398.44
352.765	393.44
352.992	393.44
353.22	401.44
353.447	376.44
353.674	361.44
353.901	380.44
354.128	376.44
354.355	357.44
354.583	378.44
354.81	396.44
355.037	374.44
355.264	370.44
355.491	371.44
355.718	368.44
355.945	370.44
356.172	356.44
356.399	374.44
356.626	350.44
356.853	364.44
357.08	372.44
357.307	368.44
357.534	367.44
357.761	374.44
357.988	378.44
358.215	366.44
358.441	360.44
358.668	360.44
358.895	389.44
359.122	357.44
359.349	362.44
359.576	382.44
359.802	384.44
360.029	388.44
360.256	408.44
360.483	395.44
360.709	386.44
360.936	392.44
361.163	398.44
361.39	371.44
361.616	378.44
361.843	378.44
362.07	381.44
362.296	356.44
362.523	371.44
362.749	372.44
362.976	380.44
363.203	369.44
363.429	375.44
363.656	341.44
363.882	357.44
364.109	363.44
364.335	393.44
364.562	390.44
364.788	376.44
365.015	392.44
365.241	378.44
365.468	333.44
365.694	378.44
365.92	373.44
366.147	364.44
366.373	360.44
366.599	353.44
366.826	353.44
367.052	357.44
367.278	362.44
367.505	364.44
367.731	378.44
367.957	365.44
368.184	358.44
368.41	353.44
368.636	374.44
368.862	386.44
369.089	365.44
369.315	372.44
369.541	383.44
369.767	380.44
369.993	369.44
370.219	371.44
370.445	394.44
370.672	363.44
370.898	361.44
371.124	376.44
371.35	364.44
371.576	376.44
371.802	356.44
372.028	360.44
372.254	367.44
372.48	376.44
372.706	369.44
372.932	373.44
373.158	372.44
373.384	381.44
373.61	377.44
373.835	370.44
374.061	374.44
374.287	379.44
374.513	375.44
374.739	381.44
374.965	375.44
375.191	377.44
375.416	361.44
375.642	380.44
375.868	382.44
376.094	369.44
376.319	361.44
376.545	379.44
376.771	354.44
376.997	372.44
377.222	370.44
377.448	382.44
377.674	348.44
377.899	370.44
378.125	372.44
378.35	356.44
378.576	369.44
378.802	357.44
379.027	386.44
379.253	348.44
379.478	357.44
379.704	377.44
379.929	360.44
380.155	358.44
380.38	358.44
380.606	373.44
380.831	378.44
381.057	380.44
381.282	346.44
381.507	368.44
381.733	368.44
381.958	356.44
382.184	361.44
382.409	380.44
382.634	386.44
382.86	368.44
383.085	377.44
383.31	397.44
383.535	386.44
383.761	384.44
383.986	395.44
384.211	403.44
384.436	389.44
384.662	406.44
384.887	389.44
385.112	396.44
385.337	397.44
385.562	374.44
385.787	385.44
386.013	409.44
386.238	416.44
386.463	404.44
386.688	388.44
386.913	380.44
387.138	392.44
387.363	395.44
387.588	386.44
387.813	408.44
388.038	418.44
388.263	391.44
388.488	400.44
388.713	385.44
388.938	390.44
389.163	409.44
389.387	398.44
389.612	410.44
389.837	398.44
390.062	410.44
390.287	404.44
390.512	396.44
390.736	391.44
390.961	391.44
391.186	410.44
391.411	387.44
391.636	412.44
391.86	409.44
392.085	412.44
392.31	427.44
392.534	422.44
392.759	395.44
392.984	404.44
393.208	408.44
393.433	411.44
393.658	410.44
393.882	405.44
394.107	416.44
394.331	391.44
394.556	404.44
394.78	393.44
395.005	424.44
395.229	412.44
395.454	409.44
395.678	454.44
395.903	429.44
396.127	439.44
396.352	430.44
396.576	424.44
396.801	417.44
397.025	424.44
397.249	436.44
397.474	418.44
397.698	418.44
397.922	443.44
398.147	436.44
398.371	444.44
398.595	450.44
398.82	441.44
399.044	450.44
399.268	480.44
399.492	516.44
399.717	547.44
399.941	564.44
400.165	570.44
400.389	536.44
400.613	519.44
400.837	474.44
401.062	460.44
401.286	472.44
401.51	468.44
401.734	460.44
401.958	446.44
402.182	447.44
402.406	443.44
402.63	440.44
402.854	461.44
403.078	446.44
403.302	475.44
403.526	457.44
403.75	468.44
403.974	469.44
404.198	465.44
404.422	460.44
404.645	466.44
404.869	460.44
405.093	484.44
405.317	551.44
405.541	548.44
405.765	519.44
405.988	487.44
406.212	493.44
406.436	476.44
406.66	493.44
406.883	488.44
407.107	498.44
407.331	532.44
407.555	579.44
407.778	598.44
408.002	536.44
408.226	504.44
408.449	506.44
408.673	474.44
408.896	513.44
409.12	528.44
409.344	510.44
409.567	477.44
409.791	462.44
410.014	459.44
410.238	455.44
410.461	448.44
410.685	462.44
410.908	446.44
411.132	489.44
411.355	491.44
411.578	484.44
411.802	464.44
412.025	476.44
412.249	467.44
412.472	470.44
412.695	505.44
412.919	492.44
413.142	452.44
413.365	468.44
413.589	454.44
413.812	435.44
414.035	444.44
414.258	441.44
414.482	447.44
414.705	435.44
414.928	434.44
415.151	453.44
415.374	403.44
415.597	436.44
415.821	429.44
416.044	429.44
416.267	438.44
416.49	427.44
416.713	391.44
416.936	406.44
417.159	416.44
417.382	448.44
417.605	426.44
417.828	419.44
418.051	427.44
418.274	424.44
418.497	437.44
418.72	446.44
418.943	420.44
419.166	440.44
419.389	469.44
419.611	459.44
419.834	467.44
420.057	468.44
420.28	443.44
420.503	443.44
420.726	468.44
420.948	462.44
421.171	492.44
421.394	496.44
421.617	468.44
421.839	447.44
422.062	435.44
422.285	461.44
422.507	513.44
422.73	541.44
422.953	514.44
423.175	462.44
423.398	470.44
423.621	454.44
423.843	467.44
424.066	463.44
424.288	470.44
424.511	473.44
424.733	512.44
424.956	557.44
425.178	549.44
425.401	531.44
425.623	542.44
425.846	477.44
426.068	483.44
426.291	451.44
426.513	433.44
426.735	438.44
426.958	481.44
427.18	526.44
427.402	616.44
427.625	666.44
427.847	580.44
428.069	538.44
428.292	485.44
428.514	421.44
428.736	444.44
428.958	412.44
429.181	389.44
429.403	394.44
429.625	413.44
429.847	464.44
430.069	477.44
430.292	485.44
430.514	418.44
430.736	438.44
430.958	428.44
431.18	405.44
431.402	404.44
431.624	401.44
431.846	419.44
432.068	408.44
432.29	410.44
432.512	401.44
432.734	417.44
432.956	403.44
433.178	428.44
433.4	420.44
433.622	424.44
433.844	421.44
434.066	404.44
434.287	402.44
434.509	429.44
434.731	417.44
434.953	429.44
435.175	426.44
435.397	451.44
435.618	450.44
435.84	479.44
436.062	551.44
436.284	586.44
436.505	487.44
436.727	461.44
436.949	422.44
437.17	406.44
437.392	416.44
437.614	437.44
437.835	422.44
438.057	510.44
438.278	579.44
438.5	566.44
438.721	615.44
438.943	605.44
439.165	484.44
439.386	427.44
439.608	441.44
439.829	446.44
440.05	454.44
440.272	490.44
440.493	456.44
440.715	410.44
440.936	422.44
441.158	424.44
441.379	426.44
441.6	419.44
441.822	435.44
442.043	472.44
442.264	508.44
442.486	564.44
442.707	470.44
442.928	453.44
443.149	420.44
443.371	469.44
443.592	491.44
443.813	562.44
444.034	592.44
444.255	499.44
444.476	471.44
444.698	448.44
444.919	468.44
445.14	596.44
445.361	514.44
445.582	476.44
445.803	504.44
446.024	548.44
446.245	557.44
446.466	490.44
446.687	471.44
446.908	458.44
447.129	418.44
447.35	419.44
447.571	397.44
447.792	400.44
448.013	410.44
448.234	416.44
448.455	437.44
448.675	520.44
448.896	592.44
449.117	520.44
449.338	506.44
449.559	582.44
449.779	604.44
450	493.44
450.221	441.44
450.442	400.44
450.662	391.44
450.883	394.44
451.104	389.44
451.324	397.44
451.545	390.44
451.766	371.44
451.986	352.44
452.207	376.44
452.428	353.44
452.648	372.44
452.869	358.44
453.089	384.44
453.31	365.44
453.53	384.44
453.751	376.44
453.971	357.44
454.192	370.44
454.412	365.44
454.633	363.44
454.853	352.44
455.073	348.44
455.294	405.44
455.514	426.44
455.734	404.44
455.955	373.44
456.175	373.44
456.395	341.44
456.616	343.44
456.836	358.44
457.056	360.44
457.276	352.44
457.497	341.44
457.717	358.44
457.937	345.44
458.157	362.44
458.377	376.44
458.598	372.44
458.818	384.44
459.038	422.44
459.258	461.44
459.478	419.44
459.698	379.44
459.918	379.44
460.138	399.44
460.358	430.44
460.578	413.44
460.798	412.44
461.018	404.44
461.238	425.44
461.458	419.44
461.678	425.44
461.898	441.44
462.118	418.44
462.338	429.44
462.558	430.44
462.777	447.44
462.997	449.44
463.217	448.44
463.437	462.44
463.657	461.44
463.876	459.44
464.096	460.44
464.316	439.44
464.536	441.44
464.755	444.44
464.975	427.44
465.195	429.44
465.414	467.44
465.634	422.44
465.854	424.44
466.073	402.44
466.293	406.44
466.512	378.44
466.732	403.44
466.951	393.44
467.171	369.44
467.391	379.44
467.61	396.44
467.829	386.44
468.049	383.44
468.268	384.44
468.488	376.44
468.707	375.44
468.927	358.44
469.146	373.44
469.365	374.44
469.585	384.44
469.804	370.44
470.023	394.44
470.243	379.44
470.462	362.44
470.681	388.44
470.901	383.44
471.12	372.44
471.339	394.44
471.558	394.44
471.777	385.44
471.997	366.44
472.216	383.44
472.435	402.44
472.654	406.44
472.873	365.44
473.092	375.44
473.311	380.44
473.53	378.44
473.749	390.44
473.968	412.44
474.187	474.44
474.406	467.44
474.625	407.44
474.844	414.44
475.063	369.44
475.282	377.44
475.501	387.44
475.72	404.44
475.939	392.44
476.158	400.44
476.377	394.44
476.596	403.44
476.814	390.44
477.033	411.44
477.252	388.44
477.471	403.44
477.69	427.44
477.908	408.44
478.127	426.44
478.346	431.44
478.564	424.44
478.783	419.44
479.002	425.44
479.22	426.44
479.439	461.44
479.658	441.44
479.876	462.44
480.095	470.44
480.313	471.44
480.532	446.44
480.751	474.44
480.969	444.44
481.188	501.44
481.406	487.44
481.624	444.44
481.843	449.44
482.061	452.44
482.28	435.44
482.498	456.44
482.717	446.44
482.935	447.44
483.153	444.44
483.372	441.44
483.59	440.44
483.808	442.44
484.027	445.44
484.245	440.44
484.463	429.44
484.681	468.44
484.9	473.44
485.118	464.44
485.336	462.44
485.554	438.44
485.772	470.44
485.99	439.44
486.209	477.44
486.427	454.44
486.645	452.44
486.863	478.44
487.081	466.44
487.299	474.44
487.517	462.44
487.735	478.44
487.953	462.44
488.171	486.44
488.389	464.44
488.607	470.44
488.825	465.44
489.043	467.44
489.261	463.44
489.479	472.44
489.696	472.44
489.914	455.44
490.132	472.44
490.35	478.44
490.568	464.44
490.786	498.44
491.003	503.44
491.221	483.44
491.439	520.44
491.657	510.44
491.874	526.44
492.092	518.44
492.31	501.44
492.527	502.44
492.745	494.44
492.963	528.44
493.18	520.44
493.398	531.44
493.615	525.44
493.833	538.44
494.05	529.44
494.268	533.44
494.485	525.44
494.703	545.44
494.92	554.44
495.138	529.44
495.355	550.44
495.573	549.44
495.79	543.44
496.008	540.44
496.225	515.44
496.442	540.44
496.66	526.44
496.877	547.44
497.094	558.44
497.312	569.44
497.529	580.44
497.746	587.44
497.963	593.44
498.181	602.44
498.398	596.44
498.615	607.44
498.832	660.44
499.049	650.44
499.267	658.44
499.484	679.44
499.701	742.44
499.918	738.44
500.135	811.44
500.352	856.44
500.569	874.44
500.786	875.44
501.003	826.44
501.22	801.44
501.437	773.44
501.654	746.44
501.871	714.44
502.088	679.44
