Data from 1964.PennyLincolnUp.Lamp.En5.5.200Scan.071719.P1._HRD10591_14-04-44-909.txt Node
Date: Thu Jul 18 14:04:44 EDT 2019
User: cochatt
Spectrometer: HR+D1059
Trigger mode: 1
Integration Time (sec): 1.000000E-1
Scans to average: 1
Electric dark correction enabled: true
Nonlinearity correction enabled: false
Boxcar width: 0
XAxis mode: Wavelengths
Number of Pixels in Spectrum: 2048
>>>>>Begin Spectral Data<<<<<
223.165	-15.94
223.4	-15.94
223.635	-15.94
223.869	-9.94
224.104	-24.94
224.338	-7.94
224.573	-14.94
224.808	-16.94
225.042	-5.94
225.277	-12.94
225.511	3.06
225.746	2.06
225.98	7.06
226.215	21.06
226.449	18.06
226.683	12.06
226.918	16.06
227.152	30.06
227.387	27.06
227.621	46.06
227.856	42.06
228.09	58.06
228.324	47.06
228.559	56.06
228.793	62.06
229.027	92.06
229.262	83.06
229.496	96.06
229.73	112.06
229.964	121.06
230.199	99.06
230.433	101.06
230.667	86.06
230.901	104.06
231.136	104.06
231.37	98.06
231.604	105.06
231.838	110.06
232.072	103.06
232.306	102.06
232.541	108.06
232.775	106.06
233.009	110.06
233.243	109.06
233.477	102.06
233.711	111.06
233.945	107.06
234.179	105.06
234.413	118.06
234.647	96.06
234.881	101.06
235.115	92.06
235.349	114.06
235.583	115.06
235.817	108.06
236.051	106.06
236.285	107.06
236.519	107.06
236.753	118.06
236.987	128.06
237.221	152.06
237.455	197.06
237.689	168.06
237.922	124.06
238.156	134.06
238.39	124.06
238.624	106.06
238.858	120.06
239.091	126.06
239.325	136.06
239.559	122.06
239.793	121.06
240.027	117.06
240.26	119.06
240.494	147.06
240.728	134.06
240.961	143.06
241.195	134.06
241.429	133.06
241.662	127.06
241.896	122.06
242.13	130.06
242.363	139.06
242.597	139.06
242.83	136.06
243.064	138.06
243.298	128.06
243.531	124.06
243.765	148.06
243.998	134.06
244.232	128.06
244.465	134.06
244.699	135.06
244.932	135.06
245.166	153.06
245.399	141.06
245.633	133.06
245.866	140.06
246.099	138.06
246.333	135.06
246.566	142.06
246.8	163.06
247.033	162.06
247.266	161.06
247.5	156.06
247.733	171.06
247.966	169.06
248.2	159.06
248.433	174.06
248.666	165.06
248.899	170.06
249.133	174.06
249.366	176.06
249.599	175.06
249.832	182.06
250.066	162.06
250.299	180.06
250.532	187.06
250.765	187.06
250.998	198.06
251.231	199.06
251.465	206.06
251.698	180.06
251.931	190.06
252.164	201.06
252.397	200.06
252.63	177.06
252.863	196.06
253.096	207.06
253.329	214.06
253.562	215.06
253.795	210.06
254.028	201.06
254.261	199.06
254.494	218.06
254.727	240.06
254.96	244.06
255.193	250.06
255.426	229.06
255.659	206.06
255.892	207.06
256.124	212.06
256.357	220.06
256.59	226.06
256.823	204.06
257.056	217.06
257.289	214.06
257.521	220.06
257.754	211.06
257.987	199.06
258.22	209.06
258.452	192.06
258.685	193.06
258.918	225.06
259.151	212.06
259.383	218.06
259.616	212.06
259.849	219.06
260.081	228.06
260.314	253.06
260.547	243.06
260.779	256.06
261.012	233.06
261.244	218.06
261.477	228.06
261.71	212.06
261.942	204.06
262.175	225.06
262.407	212.06
262.64	205.06
262.872	207.06
263.105	213.06
263.337	209.06
263.57	222.06
263.802	215.06
264.035	203.06
264.267	221.06
264.499	202.06
264.732	209.06
264.964	225.06
265.197	221.06
265.429	217.06
265.661	235.06
265.894	217.06
266.126	203.06
266.358	214.06
266.591	243.06
266.823	219.06
267.055	233.06
267.287	230.06
267.52	228.06
267.752	215.06
267.984	229.06
268.216	228.06
268.448	265.06
268.681	242.06
268.913	258.06
269.145	254.06
269.377	246.06
269.609	272.06
269.841	242.06
270.073	260.06
270.306	283.06
270.538	298.06
270.77	294.06
271.002	273.06
271.234	274.06
271.466	285.06
271.698	296.06
271.93	302.06
272.162	282.06
272.394	300.06
272.626	283.06
272.858	271.06
273.09	303.06
273.322	267.06
273.553	262.06
273.785	275.06
274.017	262.06
274.249	276.06
274.481	264.06
274.713	254.06
274.945	274.06
275.176	275.06
275.408	259.06
275.64	292.06
275.872	265.06
276.104	272.06
276.335	268.06
276.567	266.06
276.799	270.06
277.031	298.06
277.262	317.06
277.494	326.06
277.726	316.06
277.957	282.06
278.189	302.06
278.421	282.06
278.652	280.06
278.884	266.06
279.115	287.06
279.347	277.06
279.579	283.06
279.81	261.06
280.042	264.06
280.273	283.06
280.505	292.06
280.736	269.06
280.968	285.06
281.199	287.06
281.431	274.06
281.662	269.06
281.894	276.06
282.125	274.06
282.356	283.06
282.588	287.06
282.819	299.06
283.051	288.06
283.282	277.06
283.513	292.06
283.745	281.06
283.976	304.06
284.207	312.06
284.439	309.06
284.67	308.06
284.901	295.06
285.132	293.06
285.364	306.06
285.595	304.06
285.826	287.06
286.057	289.06
286.288	279.06
286.52	284.06
286.751	312.06
286.982	298.06
287.213	296.06
287.444	314.06
287.675	323.06
287.906	317.06
288.138	321.06
288.369	328.06
288.6	328.06
288.831	305.06
289.062	298.06
289.293	321.06
289.524	318.06
289.755	291.06
289.986	307.06
290.217	302.06
290.448	322.06
290.679	306.06
290.91	302.06
291.141	300.06
291.371	318.06
291.602	314.06
291.833	306.06
292.064	320.06
292.295	316.06
292.526	326.06
292.757	322.06
292.987	304.06
293.218	308.06
293.449	320.06
293.68	316.06
293.91	304.06
294.141	317.06
294.372	322.06
294.603	288.06
294.833	327.06
295.064	304.06
295.295	323.06
295.525	328.06
295.756	323.06
295.987	319.06
296.217	320.06
296.448	335.06
296.679	305.06
296.909	323.06
297.14	331.06
297.37	329.06
297.601	340.06
297.831	329.06
298.062	307.06
298.292	322.06
298.523	318.06
298.753	315.06
298.984	337.06
299.214	329.06
299.445	335.06
299.675	339.06
299.905	345.06
300.136	316.06
300.366	327.06
300.597	333.06
300.827	352.06
301.057	341.06
301.288	336.06
301.518	353.06
301.748	369.06
301.979	340.06
302.209	326.06
302.439	350.06
302.669	351.06
302.9	359.06
303.13	332.06
303.36	348.06
303.59	353.06
303.82	345.06
304.051	356.06
304.281	367.06
304.511	335.06
304.741	355.06
304.971	332.06
305.201	356.06
305.431	331.06
305.661	362.06
305.891	355.06
306.121	332.06
306.352	339.06
306.582	376.06
306.812	363.06
307.042	355.06
307.272	359.06
307.502	335.06
307.731	363.06
307.961	368.06
308.191	376.06
308.421	367.06
308.651	368.06
308.881	369.06
309.111	334.06
309.341	345.06
309.571	371.06
309.8	366.06
310.03	370.06
310.26	372.06
310.49	374.06
310.72	386.06
310.949	378.06
311.179	393.06
311.409	356.06
311.639	356.06
311.868	381.06
312.098	384.06
312.328	396.06
312.557	380.06
312.787	381.06
313.017	388.06
313.246	376.06
313.476	375.06
313.706	387.06
313.935	412.06
314.165	414.06
314.394	421.06
314.624	387.06
314.853	402.06
315.083	368.06
315.312	360.06
315.542	386.06
315.771	377.06
316.001	381.06
316.23	378.06
316.46	377.06
316.689	378.06
316.919	390.06
317.148	402.06
317.377	416.06
317.607	395.06
317.836	383.06
318.065	405.06
318.295	380.06
318.524	386.06
318.753	395.06
318.983	384.06
319.212	360.06
319.441	416.06
319.67	386.06
319.9	406.06
320.129	386.06
320.358	409.06
320.587	395.06
320.816	405.06
321.046	412.06
321.275	381.06
321.504	419.06
321.733	414.06
321.962	410.06
322.191	411.06
322.42	418.06
322.649	410.06
322.878	430.06
323.108	433.06
323.337	437.06
323.566	455.06
323.795	457.06
324.024	515.06
324.253	571.06
324.482	792.06
324.71	1112.06
324.939	1494.06
325.168	1224.06
325.397	706.06
325.626	528.06
325.855	490.06
326.084	456.06
326.313	452.06
326.542	470.06
326.77	505.06
326.999	562.06
327.228	728.06
327.457	969.06
327.686	1118.06
327.914	779.06
328.143	584.06
328.372	539.06
328.6	502.06
328.829	468.06
329.058	502.06
329.287	487.06
329.515	498.06
329.744	470.06
329.972	487.06
330.201	495.06
330.43	496.06
330.658	535.06
330.887	533.06
331.115	508.06
331.344	496.06
331.572	472.06
331.801	455.06
332.03	442.06
332.258	468.06
332.486	475.06
332.715	467.06
332.943	461.06
333.172	466.06
333.4	467.06
333.629	489.06
333.857	482.06
334.085	534.06
334.314	546.06
334.542	528.06
334.771	528.06
334.999	512.06
335.227	482.06
335.455	463.06
335.684	488.06
335.912	492.06
336.14	458.06
336.369	471.06
336.597	485.06
336.825	468.06
337.053	472.06
337.281	453.06
337.51	428.06
337.738	444.06
337.966	449.06
338.194	462.06
338.422	467.06
338.65	463.06
338.878	448.06
339.106	427.06
339.334	441.06
339.562	427.06
339.79	436.06
340.018	441.06
340.246	464.06
340.474	432.06
340.702	438.06
340.93	442.06
341.158	440.06
341.386	401.06
341.614	420.06
341.842	423.06
342.07	429.06
342.298	432.06
342.526	430.06
342.754	435.06
342.981	412.06
343.209	398.06
343.437	425.06
343.665	436.06
343.893	454.06
344.12	448.06
344.348	455.06
344.576	455.06
344.804	448.06
345.031	440.06
345.259	435.06
345.487	428.06
345.714	427.06
345.942	436.06
346.17	406.06
346.397	426.06
346.625	412.06
346.853	410.06
347.08	404.06
347.308	415.06
347.535	402.06
347.763	414.06
347.99	426.06
348.218	422.06
348.445	417.06
348.673	435.06
348.9	403.06
349.128	406.06
349.355	386.06
349.583	403.06
349.81	389.06
350.037	402.06
350.265	381.06
350.492	394.06
350.72	402.06
350.947	393.06
351.174	394.06
351.402	413.06
351.629	397.06
351.856	406.06
352.083	406.06
352.311	414.06
352.538	406.06
352.765	411.06
352.992	401.06
353.22	380.06
353.447	419.06
353.674	394.06
353.901	403.06
354.128	380.06
354.355	378.06
354.583	377.06
354.81	359.06
355.037	380.06
355.264	386.06
355.491	370.06
355.718	394.06
355.945	388.06
356.172	383.06
356.399	392.06
356.626	404.06
356.853	397.06
357.08	393.06
357.307	372.06
357.534	386.06
357.761	374.06
357.988	375.06
358.215	395.06
358.441	395.06
358.668	389.06
358.895	387.06
359.122	391.06
359.349	401.06
359.576	396.06
359.802	390.06
360.029	437.06
360.256	416.06
360.483	416.06
360.709	390.06
360.936	399.06
361.163	379.06
361.39	398.06
361.616	390.06
361.843	389.06
362.07	411.06
362.296	399.06
362.523	399.06
362.749	397.06
362.976	380.06
363.203	389.06
363.429	392.06
363.656	395.06
363.882	377.06
364.109	388.06
364.335	384.06
364.562	376.06
364.788	388.06
365.015	376.06
365.241	389.06
365.468	372.06
365.694	384.06
365.92	376.06
366.147	372.06
366.373	382.06
366.599	380.06
366.826	382.06
367.052	375.06
367.278	392.06
367.505	372.06
367.731	361.06
367.957	396.06
368.184	382.06
368.41	381.06
368.636	384.06
368.862	397.06
369.089	395.06
369.315	373.06
369.541	382.06
369.767	379.06
369.993	381.06
370.219	376.06
370.445	376.06
370.672	388.06
370.898	377.06
371.124	387.06
371.35	368.06
371.576	394.06
371.802	373.06
372.028	391.06
372.254	383.06
372.48	389.06
372.706	375.06
372.932	406.06
373.158	405.06
373.384	392.06
373.61	376.06
373.835	391.06
374.061	388.06
374.287	400.06
374.513	389.06
374.739	400.06
374.965	402.06
375.191	380.06
375.416	400.06
375.642	380.06
375.868	392.06
376.094	392.06
376.319	400.06
376.545	390.06
376.771	376.06
376.997	388.06
377.222	395.06
377.448	374.06
377.674	379.06
377.899	356.06
378.125	368.06
378.35	378.06
378.576	382.06
378.802	366.06
379.027	374.06
379.253	387.06
379.478	374.06
379.704	376.06
379.929	395.06
380.155	383.06
380.38	371.06
380.606	384.06
380.831	371.06
381.057	387.06
381.282	380.06
381.507	376.06
381.733	378.06
381.958	380.06
382.184	377.06
382.409	378.06
382.634	397.06
382.86	376.06
383.085	385.06
383.31	377.06
383.535	384.06
383.761	418.06
383.986	411.06
384.211	415.06
384.436	388.06
384.662	426.06
384.887	424.06
385.112	394.06
385.337	411.06
385.562	418.06
385.787	413.06
386.013	428.06
386.238	435.06
386.463	414.06
386.688	400.06
386.913	393.06
387.138	417.06
387.363	417.06
387.588	403.06
387.813	405.06
388.038	425.06
388.263	409.06
388.488	427.06
388.713	393.06
388.938	412.06
389.163	419.06
389.387	415.06
389.612	407.06
389.837	406.06
390.062	425.06
390.287	417.06
390.512	403.06
390.736	398.06
390.961	426.06
391.186	440.06
391.411	430.06
391.636	446.06
391.86	442.06
392.085	408.06
392.31	427.06
392.534	424.06
392.759	457.06
392.984	427.06
393.208	428.06
393.433	403.06
393.658	399.06
393.882	415.06
394.107	398.06
394.331	426.06
394.556	423.06
394.78	424.06
395.005	414.06
395.229	424.06
395.454	415.06
395.678	436.06
395.903	436.06
396.127	443.06
396.352	442.06
396.576	434.06
396.801	439.06
397.025	440.06
397.249	448.06
397.474	442.06
397.698	444.06
397.922	461.06
398.147	458.06
398.371	456.06
398.595	440.06
398.82	472.06
399.044	480.06
399.268	507.06
399.492	531.06
399.717	564.06
399.941	567.06
400.165	590.06
400.389	567.06
400.613	534.06
400.837	497.06
401.062	498.06
401.286	506.06
401.51	467.06
401.734	472.06
401.958	483.06
402.182	491.06
402.406	466.06
402.63	482.06
402.854	455.06
403.078	491.06
403.302	478.06
403.526	491.06
403.75	497.06
403.974	490.06
404.198	487.06
404.422	491.06
404.645	499.06
404.869	516.06
405.093	529.06
405.317	560.06
405.541	574.06
405.765	530.06
405.988	498.06
406.212	499.06
406.436	495.06
406.66	526.06
406.883	495.06
407.107	542.06
407.331	571.06
407.555	624.06
407.778	604.06
408.002	563.06
408.226	541.06
408.449	529.06
408.673	518.06
408.896	534.06
409.12	575.06
409.344	522.06
409.567	487.06
409.791	478.06
410.014	488.06
410.238	474.06
410.461	477.06
410.685	471.06
410.908	491.06
411.132	495.06
411.355	514.06
411.578	529.06
411.802	481.06
412.025	472.06
412.249	485.06
412.472	486.06
412.695	531.06
412.919	525.06
413.142	477.06
413.365	455.06
413.589	473.06
413.812	463.06
414.035	467.06
414.258	453.06
414.482	460.06
414.705	440.06
414.928	451.06
415.151	465.06
415.374	438.06
415.597	446.06
415.821	453.06
416.044	453.06
416.267	454.06
416.49	439.06
416.713	431.06
416.936	446.06
417.159	438.06
417.382	441.06
417.605	448.06
417.828	451.06
418.051	462.06
418.274	449.06
418.497	464.06
418.72	450.06
418.943	434.06
419.166	482.06
419.389	465.06
419.611	478.06
419.834	473.06
420.057	482.06
420.28	464.06
420.503	441.06
420.726	454.06
420.948	450.06
421.171	513.06
421.394	522.06
421.617	504.06
421.839	470.06
422.062	474.06
422.285	465.06
422.507	518.06
422.73	557.06
422.953	530.06
423.175	508.06
423.398	491.06
423.621	496.06
423.843	493.06
424.066	468.06
424.288	470.06
424.511	469.06
424.733	520.06
424.956	602.06
425.178	570.06
425.401	573.06
425.623	584.06
425.846	515.06
426.068	491.06
426.291	483.06
426.513	480.06
426.735	465.06
426.958	504.06
427.18	562.06
427.402	657.06
427.625	694.06
427.847	571.06
428.069	538.06
428.292	487.06
428.514	462.06
428.736	458.06
428.958	447.06
429.181	432.06
429.403	441.06
429.625	455.06
429.847	456.06
430.069	532.06
430.292	504.06
430.514	469.06
430.736	448.06
430.958	422.06
431.18	423.06
431.402	414.06
431.624	403.06
431.846	401.06
432.068	427.06
432.29	436.06
432.512	425.06
432.734	422.06
432.956	431.06
433.178	422.06
433.4	442.06
433.622	423.06
433.844	419.06
434.066	441.06
434.287	422.06
434.509	407.06
434.731	448.06
434.953	454.06
435.175	451.06
435.397	462.06
435.618	480.06
435.84	487.06
436.062	568.06
436.284	602.06
436.505	523.06
436.727	468.06
436.949	454.06
437.17	437.06
437.392	433.06
437.614	444.06
437.835	466.06
438.057	502.06
438.278	578.06
438.5	582.06
438.721	650.06
438.943	611.06
439.165	506.06
439.386	468.06
439.608	463.06
439.829	461.06
440.05	471.06
440.272	539.06
440.493	472.06
440.715	434.06
440.936	442.06
441.158	446.06
441.379	425.06
441.6	431.06
441.822	468.06
442.043	488.06
442.264	561.06
442.486	573.06
442.707	499.06
442.928	457.06
443.149	470.06
443.371	465.06
443.592	525.06
443.813	571.06
444.034	631.06
444.255	560.06
444.476	520.06
444.698	480.06
444.919	480.06
445.14	620.06
445.361	538.06
445.582	514.06
445.803	535.06
446.024	592.06
446.245	620.06
446.466	552.06
446.687	504.06
446.908	444.06
447.129	421.06
447.35	438.06
447.571	448.06
447.792	436.06
448.013	416.06
448.234	446.06
448.455	457.06
448.675	574.06
448.896	596.06
449.117	550.06
449.338	524.06
449.559	598.06
449.779	668.06
450	525.06
450.221	452.06
450.442	434.06
450.662	409.06
450.883	414.06
451.104	417.06
451.324	417.06
451.545	410.06
451.766	363.06
451.986	386.06
452.207	368.06
452.428	367.06
452.648	381.06
452.869	388.06
453.089	395.06
453.31	392.06
453.53	382.06
453.751	370.06
453.971	394.06
454.192	402.06
454.412	367.06
454.633	382.06
454.853	363.06
455.073	378.06
455.294	380.06
455.514	436.06
455.734	430.06
455.955	379.06
456.175	355.06
456.395	390.06
456.616	362.06
456.836	374.06
457.056	366.06
457.276	359.06
457.497	359.06
457.717	357.06
457.937	361.06
458.157	386.06
458.377	394.06
458.598	390.06
458.818	423.06
459.038	465.06
459.258	476.06
459.478	430.06
459.698	409.06
459.918	403.06
460.138	414.06
460.358	432.06
460.578	435.06
460.798	436.06
461.018	434.06
461.238	418.06
461.458	430.06
461.678	438.06
461.898	429.06
462.118	457.06
462.338	444.06
462.558	459.06
462.777	470.06
462.997	474.06
463.217	503.06
463.437	471.06
463.657	457.06
463.876	460.06
464.096	464.06
464.316	457.06
464.536	494.06
464.755	486.06
464.975	465.06
465.195	466.06
465.414	479.06
465.634	470.06
465.854	416.06
466.073	408.06
466.293	413.06
466.512	412.06
466.732	388.06
466.951	393.06
467.171	404.06
467.391	382.06
467.61	423.06
467.829	399.06
468.049	406.06
468.268	394.06
468.488	390.06
468.707	391.06
468.927	374.06
469.146	399.06
469.365	370.06
469.585	392.06
469.804	396.06
470.023	388.06
470.243	374.06
470.462	412.06
470.681	423.06
470.901	424.06
471.12	392.06
471.339	413.06
471.558	405.06
471.777	409.06
471.997	410.06
472.216	383.06
472.435	419.06
472.654	402.06
472.873	405.06
473.092	406.06
473.311	405.06
473.53	400.06
473.749	411.06
473.968	450.06
474.187	482.06
474.406	506.06
474.625	422.06
474.844	422.06
475.063	403.06
475.282	375.06
475.501	405.06
475.72	388.06
475.939	412.06
476.158	407.06
476.377	399.06
476.596	405.06
476.814	430.06
477.033	420.06
477.252	446.06
477.471	408.06
477.69	419.06
477.908	444.06
478.127	448.06
478.346	452.06
478.564	436.06
478.783	464.06
479.002	441.06
479.22	456.06
479.439	473.06
479.658	460.06
479.876	486.06
480.095	467.06
480.313	499.06
480.532	489.06
480.751	490.06
480.969	485.06
481.188	545.06
481.406	515.06
481.624	497.06
481.843	474.06
482.061	469.06
482.28	450.06
482.498	464.06
482.717	434.06
482.935	457.06
483.153	462.06
483.372	470.06
483.59	458.06
483.808	480.06
484.027	476.06
484.245	484.06
484.463	456.06
484.681	461.06
484.9	462.06
485.118	487.06
485.336	454.06
485.554	472.06
485.772	484.06
485.99	454.06
486.209	470.06
486.427	484.06
486.645	480.06
486.863	512.06
487.081	512.06
487.299	481.06
487.517	485.06
487.735	460.06
487.953	479.06
488.171	490.06
488.389	498.06
488.607	497.06
488.825	497.06
489.043	484.06
489.261	502.06
489.479	494.06
489.696	488.06
489.914	480.06
490.132	503.06
490.35	496.06
490.568	504.06
490.786	495.06
491.003	509.06
491.221	522.06
491.439	518.06
491.657	556.06
491.874	536.06
492.092	537.06
492.31	550.06
492.527	536.06
492.745	561.06
492.963	568.06
493.18	567.06
493.398	567.06
493.615	570.06
493.833	562.06
494.05	548.06
494.268	556.06
494.485	561.06
494.703	563.06
494.92	575.06
495.138	544.06
495.355	560.06
495.573	536.06
495.79	564.06
496.008	576.06
496.225	545.06
496.442	589.06
496.66	587.06
496.877	591.06
497.094	587.06
497.312	595.06
497.529	560.06
497.746	599.06
497.963	617.06
498.181	616.06
498.398	638.06
498.615	647.06
498.832	662.06
499.049	698.06
499.267	705.06
499.484	746.06
499.701	758.06
499.918	795.06
500.135	837.06
500.352	892.06
500.569	908.06
500.786	880.06
501.003	881.06
501.22	841.06
501.437	829.06
501.654	776.06
501.871	744.06
502.088	711.06
