Data from 1964.PennyLincolnUp.Lamp.En5.5.200Scan.071719.P1._HRD10591_14-06-10-909.txt Node
Date: Thu Jul 18 14:06:10 EDT 2019
User: cochatt
Spectrometer: HR+D1059
Trigger mode: 1
Integration Time (sec): 1.000000E-1
Scans to average: 1
Electric dark correction enabled: true
Nonlinearity correction enabled: false
Boxcar width: 0
XAxis mode: Wavelengths
Number of Pixels in Spectrum: 2048
>>>>>Begin Spectral Data<<<<<
223.165	-21.56
223.4	-21.56
223.635	-21.56
223.869	-7.56
224.104	-11.56
224.338	-27.56
224.573	-27.56
224.808	-3.56
225.042	-1.56
225.277	2.44
225.511	-0.56
225.746	-2.56
225.98	-5.56
226.215	27.44
226.449	17.44
226.683	22.44
226.918	15.44
227.152	24.44
227.387	33.44
227.621	31.44
227.856	59.44
228.09	52.44
228.324	53.44
228.559	67.44
228.793	72.44
229.027	92.44
229.262	96.44
229.496	94.44
229.73	116.44
229.964	137.44
230.199	123.44
230.433	99.44
230.667	112.44
230.901	123.44
231.136	104.44
231.37	100.44
231.604	98.44
231.838	99.44
232.072	106.44
232.306	105.44
232.541	102.44
232.775	106.44
233.009	115.44
233.243	108.44
233.477	117.44
233.711	108.44
233.945	116.44
234.179	107.44
234.413	113.44
234.647	117.44
234.881	111.44
235.115	125.44
235.349	109.44
235.583	119.44
235.817	123.44
236.051	111.44
236.285	137.44
236.519	128.44
236.753	120.44
236.987	134.44
237.221	153.44
237.455	208.44
237.689	159.44
237.922	130.44
238.156	131.44
238.39	129.44
238.624	136.44
238.858	101.44
239.091	121.44
239.325	123.44
239.559	131.44
239.793	118.44
240.027	120.44
240.26	141.44
240.494	135.44
240.728	143.44
240.961	130.44
241.195	145.44
241.429	134.44
241.662	142.44
241.896	134.44
242.13	123.44
242.363	138.44
242.597	139.44
242.83	134.44
243.064	145.44
243.298	137.44
243.531	135.44
243.765	132.44
243.998	131.44
244.232	135.44
244.465	141.44
244.699	143.44
244.932	147.44
245.166	152.44
245.399	145.44
245.633	144.44
245.866	136.44
246.099	141.44
246.333	154.44
246.566	155.44
246.8	162.44
247.033	159.44
247.266	160.44
247.5	156.44
247.733	167.44
247.966	176.44
248.2	166.44
248.433	175.44
248.666	173.44
248.899	190.44
249.133	195.44
249.366	208.44
249.599	181.44
249.832	191.44
250.066	193.44
250.299	185.44
250.532	202.44
250.765	200.44
250.998	209.44
251.231	206.44
251.465	225.44
251.698	223.44
251.931	213.44
252.164	211.44
252.397	208.44
252.63	199.44
252.863	202.44
253.096	213.44
253.329	216.44
253.562	215.44
253.795	218.44
254.028	210.44
254.261	227.44
254.494	241.44
254.727	236.44
254.96	262.44
255.193	259.44
255.426	244.44
255.659	231.44
255.892	235.44
256.124	233.44
256.357	239.44
256.59	236.44
256.823	231.44
257.056	228.44
257.289	236.44
257.521	211.44
257.754	224.44
257.987	214.44
258.22	231.44
258.452	226.44
258.685	216.44
258.918	220.44
259.151	216.44
259.383	249.44
259.616	231.44
259.849	228.44
260.081	253.44
260.314	247.44
260.547	257.44
260.779	250.44
261.012	269.44
261.244	234.44
261.477	222.44
261.71	230.44
261.942	252.44
262.175	240.44
262.407	234.44
262.64	219.44
262.872	217.44
263.105	245.44
263.337	223.44
263.57	231.44
263.802	229.44
264.035	219.44
264.267	222.44
264.499	218.44
264.732	230.44
264.964	246.44
265.197	246.44
265.429	229.44
265.661	244.44
265.894	239.44
266.126	234.44
266.358	236.44
266.591	237.44
266.823	242.44
267.055	249.44
267.287	247.44
267.52	241.44
267.752	240.44
267.984	252.44
268.216	253.44
268.448	256.44
268.681	229.44
268.913	275.44
269.145	266.44
269.377	287.44
269.609	276.44
269.841	285.44
270.073	274.44
270.306	317.44
270.538	312.44
270.77	328.44
271.002	293.44
271.234	290.44
271.466	305.44
271.698	328.44
271.93	319.44
272.162	321.44
272.394	333.44
272.626	301.44
272.858	305.44
273.09	309.44
273.322	283.44
273.553	298.44
273.785	281.44
274.017	275.44
274.249	295.44
274.481	291.44
274.713	283.44
274.945	283.44
275.176	277.44
275.408	290.44
275.64	286.44
275.872	293.44
276.104	287.44
276.335	281.44
276.567	301.44
276.799	316.44
277.031	318.44
277.262	339.44
277.494	320.44
277.726	311.44
277.957	312.44
278.189	286.44
278.421	313.44
278.652	314.44
278.884	308.44
279.115	299.44
279.347	323.44
279.579	284.44
279.81	297.44
280.042	306.44
280.273	293.44
280.505	304.44
280.736	293.44
280.968	291.44
281.199	306.44
281.431	282.44
281.662	299.44
281.894	297.44
282.125	308.44
282.356	299.44
282.588	316.44
282.819	301.44
283.051	307.44
283.282	311.44
283.513	315.44
283.745	306.44
283.976	315.44
284.207	292.44
284.439	307.44
284.67	307.44
284.901	324.44
285.132	319.44
285.364	304.44
285.595	303.44
285.826	328.44
286.057	333.44
286.288	328.44
286.52	329.44
286.751	321.44
286.982	333.44
287.213	308.44
287.444	303.44
287.675	309.44
287.906	323.44
288.138	348.44
288.369	333.44
288.6	348.44
288.831	329.44
289.062	329.44
289.293	323.44
289.524	328.44
289.755	332.44
289.986	336.44
290.217	322.44
290.448	321.44
290.679	323.44
290.91	335.44
291.141	343.44
291.371	315.44
291.602	314.44
291.833	326.44
292.064	330.44
292.295	347.44
292.526	326.44
292.757	333.44
292.987	322.44
293.218	321.44
293.449	341.44
293.68	332.44
293.91	323.44
294.141	317.44
294.372	340.44
294.603	337.44
294.833	348.44
295.064	312.44
295.295	347.44
295.525	329.44
295.756	323.44
295.987	336.44
296.217	344.44
296.448	352.44
296.679	347.44
296.909	337.44
297.14	333.44
297.37	352.44
297.601	330.44
297.831	356.44
298.062	344.44
298.292	320.44
298.523	357.44
298.753	346.44
298.984	331.44
299.214	340.44
299.445	348.44
299.675	336.44
299.905	358.44
300.136	359.44
300.366	346.44
300.597	338.44
300.827	351.44
301.057	352.44
301.288	373.44
301.518	353.44
301.748	363.44
301.979	361.44
302.209	371.44
302.439	377.44
302.669	371.44
302.9	377.44
303.13	381.44
303.36	385.44
303.59	370.44
303.82	364.44
304.051	370.44
304.281	360.44
304.511	357.44
304.741	363.44
304.971	361.44
305.201	364.44
305.431	346.44
305.661	384.44
305.891	369.44
306.121	375.44
306.352	360.44
306.582	383.44
306.812	369.44
307.042	396.44
307.272	371.44
307.502	355.44
307.731	383.44
307.961	364.44
308.191	363.44
308.421	369.44
308.651	374.44
308.881	381.44
309.111	381.44
309.341	388.44
309.571	392.44
309.8	404.44
310.03	401.44
310.26	409.44
310.49	394.44
310.72	412.44
310.949	414.44
311.179	446.44
311.409	421.44
311.639	391.44
311.868	407.44
312.098	407.44
312.328	396.44
312.557	417.44
312.787	439.44
313.017	413.44
313.246	412.44
313.476	420.44
313.706	410.44
313.935	423.44
314.165	437.44
314.394	436.44
314.624	435.44
314.853	416.44
315.083	437.44
315.312	433.44
315.542	429.44
315.771	402.44
316.001	405.44
316.23	439.44
316.46	411.44
316.689	412.44
316.919	393.44
317.148	416.44
317.377	435.44
317.607	423.44
317.836	415.44
318.065	412.44
318.295	409.44
318.524	418.44
318.753	412.44
318.983	403.44
319.212	395.44
319.441	391.44
319.67	425.44
319.9	434.44
320.129	411.44
320.358	422.44
320.587	411.44
320.816	438.44
321.046	435.44
321.275	421.44
321.504	422.44
321.733	412.44
321.962	438.44
322.191	448.44
322.42	477.44
322.649	458.44
322.878	454.44
323.108	465.44
323.337	474.44
323.566	495.44
323.795	529.44
324.024	561.44
324.253	645.44
324.482	868.44
324.71	1289.44
324.939	1792.44
325.168	1491.44
325.397	792.44
325.626	565.44
325.855	517.44
326.084	500.44
326.313	519.44
326.542	503.44
326.77	556.44
326.999	631.44
327.228	809.44
327.457	1143.44
327.686	1313.44
327.914	923.44
328.143	635.44
328.372	601.44
328.6	565.44
328.829	567.44
329.058	559.44
329.287	563.44
329.515	544.44
329.744	555.44
329.972	534.44
330.201	523.44
330.43	562.44
330.658	578.44
330.887	589.44
331.115	585.44
331.344	540.44
331.572	513.44
331.801	498.44
332.03	509.44
332.258	484.44
332.486	477.44
332.715	498.44
332.943	474.44
333.172	502.44
333.4	513.44
333.629	528.44
333.857	546.44
334.085	544.44
334.314	562.44
334.542	577.44
334.771	595.44
334.999	517.44
335.227	531.44
335.455	521.44
335.684	515.44
335.912	496.44
336.14	481.44
336.369	467.44
336.597	484.44
336.825	486.44
337.053	488.44
337.281	486.44
337.51	464.44
337.738	479.44
337.966	480.44
338.194	467.44
338.422	463.44
338.65	470.44
338.878	457.44
339.106	477.44
339.334	475.44
339.562	470.44
339.79	477.44
340.018	457.44
340.246	445.44
340.474	458.44
340.702	475.44
340.93	458.44
341.158	452.44
341.386	460.44
341.614	467.44
341.842	471.44
342.07	457.44
342.298	456.44
342.526	464.44
342.754	437.44
342.981	438.44
343.209	455.44
343.437	443.44
343.665	460.44
343.893	480.44
344.12	515.44
344.348	485.44
344.576	471.44
344.804	472.44
345.031	468.44
345.259	486.44
345.487	457.44
345.714	438.44
345.942	442.44
346.17	440.44
346.397	460.44
346.625	432.44
346.853	436.44
347.08	441.44
347.308	427.44
347.535	441.44
347.763	473.44
347.99	448.44
348.218	431.44
348.445	455.44
348.673	432.44
348.9	436.44
349.128	442.44
349.355	434.44
349.583	423.44
349.81	437.44
350.037	427.44
350.265	411.44
350.492	430.44
350.72	414.44
350.947	423.44
351.174	439.44
351.402	424.44
351.629	412.44
351.856	438.44
352.083	422.44
352.311	429.44
352.538	431.44
352.765	449.44
352.992	415.44
353.22	407.44
353.447	434.44
353.674	424.44
353.901	415.44
354.128	400.44
354.355	399.44
354.583	407.44
354.81	380.44
355.037	409.44
355.264	411.44
355.491	373.44
355.718	392.44
355.945	413.44
356.172	415.44
356.399	402.44
356.626	402.44
356.853	409.44
357.08	389.44
357.307	401.44
357.534	413.44
357.761	405.44
357.988	403.44
358.215	407.44
358.441	392.44
358.668	396.44
358.895	415.44
359.122	409.44
359.349	396.44
359.576	402.44
359.802	447.44
360.029	445.44
360.256	469.44
360.483	453.44
360.709	429.44
360.936	433.44
361.163	445.44
361.39	442.44
361.616	425.44
361.843	413.44
362.07	429.44
362.296	400.44
362.523	415.44
362.749	417.44
362.976	417.44
363.203	406.44
363.429	409.44
363.656	416.44
363.882	394.44
364.109	393.44
364.335	402.44
364.562	407.44
364.788	416.44
365.015	407.44
365.241	409.44
365.468	408.44
365.694	415.44
365.92	399.44
366.147	400.44
366.373	410.44
366.599	401.44
366.826	402.44
367.052	405.44
367.278	401.44
367.505	415.44
367.731	422.44
367.957	413.44
368.184	416.44
368.41	401.44
368.636	411.44
368.862	416.44
369.089	429.44
369.315	404.44
369.541	390.44
369.767	410.44
369.993	393.44
370.219	393.44
370.445	404.44
370.672	404.44
370.898	408.44
371.124	407.44
371.35	412.44
371.576	413.44
371.802	397.44
372.028	406.44
372.254	405.44
372.48	421.44
372.706	424.44
372.932	426.44
373.158	397.44
373.384	424.44
373.61	419.44
373.835	391.44
374.061	416.44
374.287	419.44
374.513	425.44
374.739	410.44
374.965	414.44
375.191	425.44
375.416	439.44
375.642	411.44
375.868	400.44
376.094	414.44
376.319	393.44
376.545	406.44
376.771	404.44
376.997	411.44
377.222	407.44
377.448	388.44
377.674	403.44
377.899	385.44
378.125	393.44
378.35	401.44
378.576	396.44
378.802	413.44
379.027	385.44
379.253	385.44
379.478	393.44
379.704	391.44
379.929	378.44
380.155	408.44
380.38	392.44
380.606	402.44
380.831	385.44
381.057	393.44
381.282	408.44
381.507	409.44
381.733	400.44
381.958	419.44
382.184	404.44
382.409	410.44
382.634	419.44
382.86	391.44
383.085	407.44
383.31	441.44
383.535	407.44
383.761	418.44
383.986	415.44
384.211	418.44
384.436	408.44
384.662	427.44
384.887	453.44
385.112	413.44
385.337	437.44
385.562	433.44
385.787	443.44
386.013	460.44
386.238	451.44
386.463	443.44
386.688	433.44
386.913	444.44
387.138	428.44
387.363	446.44
387.588	443.44
387.813	447.44
388.038	430.44
388.263	439.44
388.488	432.44
388.713	446.44
388.938	436.44
389.163	391.44
389.387	435.44
389.612	435.44
389.837	433.44
390.062	441.44
390.287	436.44
390.512	423.44
390.736	441.44
390.961	438.44
391.186	448.44
391.411	440.44
391.636	445.44
391.86	463.44
392.085	471.44
392.31	456.44
392.534	469.44
392.759	444.44
392.984	431.44
393.208	425.44
393.433	425.44
393.658	432.44
393.882	438.44
394.107	415.44
394.331	423.44
394.556	438.44
394.78	434.44
395.005	442.44
395.229	437.44
395.454	451.44
395.678	467.44
395.903	456.44
396.127	462.44
396.352	463.44
396.576	449.44
396.801	456.44
397.025	459.44
397.249	454.44
397.474	460.44
397.698	459.44
397.922	481.44
398.147	481.44
398.371	483.44
398.595	492.44
398.82	497.44
399.044	509.44
399.268	518.44
399.492	538.44
399.717	588.44
399.941	623.44
400.165	619.44
400.389	617.44
400.613	541.44
400.837	517.44
401.062	525.44
401.286	516.44
401.51	489.44
401.734	487.44
401.958	488.44
402.182	492.44
402.406	497.44
402.63	491.44
402.854	496.44
403.078	512.44
403.302	512.44
403.526	515.44
403.75	514.44
403.974	511.44
404.198	500.44
404.422	500.44
404.645	545.44
404.869	532.44
405.093	557.44
405.317	601.44
405.541	610.44
405.765	566.44
405.988	523.44
406.212	548.44
406.436	537.44
406.66	560.44
406.883	547.44
407.107	581.44
407.331	612.44
407.555	657.44
407.778	655.44
408.002	597.44
408.226	553.44
408.449	553.44
408.673	554.44
408.896	556.44
409.12	607.44
409.344	600.44
409.567	507.44
409.791	498.44
410.014	498.44
410.238	520.44
410.461	529.44
410.685	512.44
410.908	532.44
411.132	531.44
411.355	553.44
411.578	542.44
411.802	520.44
412.025	505.44
412.249	516.44
412.472	530.44
412.695	549.44
412.919	516.44
413.142	509.44
413.365	484.44
413.589	489.44
413.812	473.44
414.035	485.44
414.258	453.44
414.482	466.44
414.705	482.44
414.928	470.44
415.151	487.44
415.374	455.44
415.597	465.44
415.821	461.44
416.044	466.44
416.267	459.44
416.49	471.44
416.713	471.44
416.936	456.44
417.159	461.44
417.382	469.44
417.605	474.44
417.828	489.44
418.051	505.44
418.274	474.44
418.497	481.44
418.72	465.44
418.943	464.44
419.166	501.44
419.389	500.44
419.611	513.44
419.834	506.44
420.057	511.44
420.28	515.44
420.503	497.44
420.726	503.44
420.948	490.44
421.171	519.44
421.394	570.44
421.617	508.44
421.839	496.44
422.062	489.44
422.285	499.44
422.507	541.44
422.73	589.44
422.953	569.44
423.175	510.44
423.398	513.44
423.621	483.44
423.843	511.44
424.066	514.44
424.288	520.44
424.511	550.44
424.733	583.44
424.956	625.44
425.178	625.44
425.401	595.44
425.623	581.44
425.846	540.44
426.068	509.44
426.291	492.44
426.513	490.44
426.735	521.44
426.958	549.44
427.18	593.44
427.402	703.44
427.625	782.44
427.847	657.44
428.069	613.44
428.292	536.44
428.514	496.44
428.736	484.44
428.958	490.44
429.181	461.44
429.403	464.44
429.625	481.44
429.847	497.44
430.069	548.44
430.292	548.44
430.514	474.44
430.736	452.44
430.958	473.44
431.18	432.44
431.402	453.44
431.624	444.44
431.846	447.44
432.068	447.44
432.29	437.44
432.512	456.44
432.734	455.44
432.956	450.44
433.178	439.44
433.4	467.44
433.622	453.44
433.844	452.44
434.066	449.44
434.287	433.44
434.509	464.44
434.731	456.44
434.953	464.44
435.175	467.44
435.397	484.44
435.618	495.44
435.84	511.44
436.062	610.44
436.284	679.44
436.505	541.44
436.727	498.44
436.949	472.44
437.17	480.44
437.392	459.44
437.614	502.44
437.835	509.44
438.057	544.44
438.278	633.44
438.5	638.44
438.721	734.44
438.943	665.44
439.165	545.44
439.386	515.44
439.608	513.44
439.829	494.44
440.05	507.44
440.272	559.44
440.493	513.44
440.715	486.44
440.936	464.44
441.158	465.44
441.379	468.44
441.6	475.44
441.822	507.44
442.043	544.44
442.264	609.44
442.486	626.44
442.707	537.44
442.928	497.44
443.149	529.44
443.371	531.44
443.592	581.44
443.813	651.44
444.034	704.44
444.255	569.44
444.476	538.44
444.698	502.44
444.919	519.44
445.14	641.44
445.361	581.44
445.582	546.44
445.803	586.44
446.024	658.44
446.245	667.44
446.466	613.44
446.687	541.44
446.908	482.44
447.129	473.44
447.35	456.44
447.571	472.44
447.792	445.44
448.013	442.44
448.234	463.44
448.455	509.44
448.675	594.44
448.896	700.44
449.117	577.44
449.338	564.44
449.559	650.44
449.779	709.44
450	576.44
450.221	499.44
450.442	460.44
450.662	460.44
450.883	455.44
451.104	450.44
451.324	432.44
451.545	440.44
451.766	420.44
451.986	406.44
452.207	413.44
452.428	404.44
452.648	424.44
452.869	402.44
453.089	437.44
453.31	407.44
453.53	405.44
453.751	404.44
453.971	403.44
454.192	391.44
454.412	411.44
454.633	390.44
454.853	408.44
455.073	407.44
455.294	411.44
455.514	482.44
455.734	463.44
455.955	408.44
456.175	408.44
456.395	382.44
456.616	382.44
456.836	378.44
457.056	384.44
457.276	392.44
457.497	393.44
457.717	391.44
457.937	380.44
458.157	393.44
458.377	408.44
458.598	429.44
458.818	457.44
459.038	492.44
459.258	523.44
459.478	459.44
459.698	446.44
459.918	440.44
460.138	443.44
460.358	474.44
460.578	436.44
460.798	458.44
461.018	451.44
461.238	451.44
461.458	459.44
461.678	451.44
461.898	454.44
462.118	462.44
462.338	464.44
462.558	481.44
462.777	495.44
462.997	495.44
463.217	530.44
463.437	518.44
463.657	520.44
463.876	515.44
464.096	500.44
464.316	490.44
464.536	487.44
464.755	497.44
464.975	488.44
465.195	499.44
465.414	511.44
465.634	496.44
465.854	456.44
466.073	439.44
466.293	428.44
466.512	412.44
466.732	422.44
466.951	402.44
467.171	419.44
467.391	431.44
467.61	433.44
467.829	446.44
468.049	418.44
468.268	419.44
468.488	424.44
468.707	423.44
468.927	399.44
469.146	398.44
469.365	410.44
469.585	408.44
469.804	416.44
470.023	436.44
470.243	427.44
470.462	417.44
470.681	444.44
470.901	450.44
471.12	449.44
471.339	440.44
471.558	439.44
471.777	410.44
471.997	412.44
472.216	424.44
472.435	436.44
472.654	439.44
472.873	415.44
473.092	423.44
473.311	424.44
473.53	416.44
473.749	422.44
473.968	468.44
474.187	525.44
474.406	563.44
474.625	472.44
474.844	446.44
475.063	435.44
475.282	432.44
475.501	418.44
475.72	447.44
475.939	420.44
476.158	438.44
476.377	411.44
476.596	428.44
476.814	420.44
477.033	423.44
477.252	447.44
477.471	432.44
477.69	444.44
477.908	433.44
478.127	462.44
478.346	481.44
478.564	463.44
478.783	473.44
479.002	485.44
479.22	501.44
479.439	511.44
479.658	508.44
479.876	497.44
480.095	527.44
480.313	538.44
480.532	549.44
480.751	540.44
480.969	531.44
481.188	561.44
481.406	597.44
481.624	540.44
481.843	507.44
482.061	500.44
482.28	497.44
482.498	477.44
482.717	499.44
482.935	497.44
483.153	470.44
483.372	495.44
483.59	471.44
483.808	479.44
484.027	477.44
484.245	473.44
484.463	488.44
484.681	507.44
484.9	472.44
485.118	495.44
485.336	503.44
485.554	499.44
485.772	507.44
485.99	503.44
486.209	498.44
486.427	504.44
486.645	500.44
486.863	508.44
487.081	510.44
487.299	532.44
487.517	503.44
487.735	524.44
487.953	526.44
488.171	521.44
488.389	529.44
488.607	511.44
488.825	539.44
489.043	512.44
489.261	535.44
489.479	523.44
489.696	519.44
489.914	535.44
490.132	538.44
490.35	528.44
490.568	531.44
490.786	542.44
491.003	543.44
491.221	550.44
491.439	589.44
491.657	586.44
491.874	567.44
492.092	596.44
492.31	577.44
492.527	565.44
492.745	589.44
492.963	579.44
493.18	622.44
493.398	602.44
493.615	618.44
493.833	587.44
494.05	587.44
494.268	607.44
494.485	582.44
494.703	609.44
494.92	617.44
495.138	602.44
495.355	619.44
495.573	606.44
495.79	615.44
496.008	593.44
496.225	602.44
496.442	616.44
496.66	631.44
496.877	612.44
497.094	632.44
497.312	619.44
497.529	623.44
497.746	631.44
497.963	662.44
498.181	690.44
498.398	677.44
498.615	695.44
498.832	724.44
499.049	733.44
499.267	761.44
499.484	761.44
499.701	813.44
499.918	810.44
500.135	895.44
500.352	915.44
500.569	938.44
500.786	935.44
501.003	906.44
501.22	906.44
501.437	879.44
501.654	836.44
501.871	782.44
502.088	763.44
