Data from 1964.PennyLincolnUp.Lamp.En5.5.200Scan.071719.P1._HRD10591_14-03-34-907.txt Node
Date: Thu Jul 18 14:03:34 EDT 2019
User: cochatt
Spectrometer: HR+D1059
Trigger mode: 1
Integration Time (sec): 1.000000E-1
Scans to average: 1
Electric dark correction enabled: true
Nonlinearity correction enabled: false
Boxcar width: 0
XAxis mode: Wavelengths
Number of Pixels in Spectrum: 2048
>>>>>Begin Spectral Data<<<<<
223.165	-12.44
223.4	-12.44
223.635	-12.44
223.869	-21.44
224.104	-22.44
224.338	-18.44
224.573	-26.44
224.808	-13.44
225.042	-7.44
225.277	0.56
225.511	9.56
225.746	6.56
225.98	19.56
226.215	1.56
226.449	16.56
226.683	17.56
226.918	21.56
227.152	28.56
227.387	50.56
227.621	43.56
227.856	40.56
228.09	54.56
228.324	46.56
228.559	49.56
228.793	64.56
229.027	85.56
229.262	91.56
229.496	91.56
229.73	93.56
229.964	120.56
230.199	113.56
230.433	98.56
230.667	118.56
230.901	99.56
231.136	103.56
231.37	106.56
231.604	96.56
231.838	105.56
232.072	109.56
232.306	116.56
232.541	109.56
232.775	115.56
233.009	107.56
233.243	102.56
233.477	97.56
233.711	108.56
233.945	104.56
234.179	123.56
234.413	120.56
234.647	119.56
234.881	114.56
235.115	118.56
235.349	108.56
235.583	113.56
235.817	98.56
236.051	124.56
236.285	110.56
236.519	120.56
236.753	136.56
236.987	115.56
237.221	152.56
237.455	173.56
237.689	151.56
237.922	123.56
238.156	121.56
238.39	127.56
238.624	122.56
238.858	122.56
239.091	109.56
239.325	114.56
239.559	126.56
239.793	116.56
240.027	122.56
240.26	130.56
240.494	131.56
240.728	143.56
240.961	122.56
241.195	142.56
241.429	134.56
241.662	126.56
241.896	112.56
242.13	128.56
242.363	126.56
242.597	130.56
242.83	136.56
243.064	132.56
243.298	134.56
243.531	145.56
243.765	140.56
243.998	133.56
244.232	129.56
244.465	117.56
244.699	148.56
244.932	155.56
245.166	127.56
245.399	141.56
245.633	132.56
245.866	141.56
246.099	141.56
246.333	151.56
246.566	144.56
246.8	141.56
247.033	136.56
247.266	146.56
247.5	145.56
247.733	150.56
247.966	163.56
248.2	166.56
248.433	162.56
248.666	152.56
248.899	160.56
249.133	184.56
249.366	180.56
249.599	180.56
249.832	186.56
250.066	172.56
250.299	167.56
250.532	176.56
250.765	177.56
250.998	196.56
251.231	191.56
251.465	198.56
251.698	198.56
251.931	185.56
252.164	181.56
252.397	180.56
252.63	199.56
252.863	200.56
253.096	211.56
253.329	198.56
253.562	200.56
253.795	208.56
254.028	209.56
254.261	200.56
254.494	213.56
254.727	226.56
254.96	240.56
255.193	236.56
255.426	223.56
255.659	218.56
255.892	210.56
256.124	206.56
256.357	203.56
256.59	222.56
256.823	218.56
257.056	206.56
257.289	196.56
257.521	214.56
257.754	194.56
257.987	200.56
258.22	198.56
258.452	182.56
258.685	198.56
258.918	199.56
259.151	211.56
259.383	207.56
259.616	191.56
259.849	217.56
260.081	210.56
260.314	230.56
260.547	225.56
260.779	229.56
261.012	209.56
261.244	221.56
261.477	226.56
261.71	219.56
261.942	200.56
262.175	199.56
262.407	230.56
262.64	202.56
262.872	206.56
263.105	203.56
263.337	217.56
263.57	213.56
263.802	204.56
264.035	205.56
264.267	209.56
264.499	223.56
264.732	209.56
264.964	221.56
265.197	209.56
265.429	229.56
265.661	222.56
265.894	202.56
266.126	209.56
266.358	217.56
266.591	221.56
266.823	232.56
267.055	218.56
267.287	214.56
267.52	223.56
267.752	221.56
267.984	202.56
268.216	220.56
268.448	243.56
268.681	230.56
268.913	231.56
269.145	252.56
269.377	250.56
269.609	246.56
269.841	250.56
270.073	247.56
270.306	256.56
270.538	277.56
270.77	280.56
271.002	262.56
271.234	260.56
271.466	282.56
271.698	289.56
271.93	289.56
272.162	279.56
272.394	292.56
272.626	282.56
272.858	267.56
273.09	285.56
273.322	272.56
273.553	258.56
273.785	268.56
274.017	256.56
274.249	264.56
274.481	261.56
274.713	251.56
274.945	264.56
275.176	254.56
275.408	254.56
275.64	270.56
275.872	258.56
276.104	261.56
276.335	262.56
276.567	259.56
276.799	268.56
277.031	278.56
277.262	277.56
277.494	285.56
277.726	297.56
277.957	267.56
278.189	287.56
278.421	258.56
278.652	271.56
278.884	290.56
279.115	284.56
279.347	274.56
279.579	278.56
279.81	270.56
280.042	272.56
280.273	285.56
280.505	273.56
280.736	268.56
280.968	292.56
281.199	284.56
281.431	259.56
281.662	276.56
281.894	261.56
282.125	283.56
282.356	270.56
282.588	293.56
282.819	284.56
283.051	280.56
283.282	282.56
283.513	281.56
283.745	284.56
283.976	291.56
284.207	290.56
284.439	274.56
284.67	290.56
284.901	276.56
285.132	261.56
285.364	308.56
285.595	284.56
285.826	302.56
286.057	309.56
286.288	273.56
286.52	288.56
286.751	292.56
286.982	292.56
287.213	314.56
287.444	307.56
287.675	298.56
287.906	314.56
288.138	313.56
288.369	309.56
288.6	308.56
288.831	308.56
289.062	296.56
289.293	299.56
289.524	297.56
289.755	310.56
289.986	304.56
290.217	298.56
290.448	300.56
290.679	294.56
290.91	312.56
291.141	306.56
291.371	326.56
291.602	312.56
291.833	309.56
292.064	298.56
292.295	311.56
292.526	307.56
292.757	309.56
292.987	324.56
293.218	290.56
293.449	306.56
293.68	309.56
293.91	292.56
294.141	321.56
294.372	309.56
294.603	317.56
294.833	314.56
295.064	322.56
295.295	312.56
295.525	313.56
295.756	325.56
295.987	315.56
296.217	328.56
296.448	325.56
296.679	324.56
296.909	317.56
297.14	308.56
297.37	322.56
297.601	310.56
297.831	317.56
298.062	324.56
298.292	312.56
298.523	322.56
298.753	318.56
298.984	319.56
299.214	324.56
299.445	315.56
299.675	321.56
299.905	318.56
300.136	338.56
300.366	325.56
300.597	321.56
300.827	338.56
301.057	336.56
301.288	330.56
301.518	348.56
301.748	334.56
301.979	334.56
302.209	318.56
302.439	350.56
302.669	317.56
302.9	328.56
303.13	334.56
303.36	360.56
303.59	343.56
303.82	381.56
304.051	353.56
304.281	347.56
304.511	353.56
304.741	357.56
304.971	330.56
305.201	352.56
305.431	354.56
305.661	339.56
305.891	318.56
306.121	336.56
306.352	344.56
306.582	357.56
306.812	336.56
307.042	332.56
307.272	357.56
307.502	362.56
307.731	358.56
307.961	317.56
308.191	347.56
308.421	356.56
308.651	349.56
308.881	327.56
309.111	345.56
309.341	349.56
309.571	350.56
309.8	354.56
310.03	341.56
310.26	360.56
310.49	374.56
310.72	357.56
310.949	352.56
311.179	380.56
311.409	362.56
311.639	369.56
311.868	380.56
312.098	372.56
312.328	370.56
312.557	404.56
312.787	365.56
313.017	376.56
313.246	386.56
313.476	379.56
313.706	376.56
313.935	376.56
314.165	384.56
314.394	386.56
314.624	392.56
314.853	386.56
315.083	368.56
315.312	358.56
315.542	392.56
315.771	376.56
316.001	368.56
316.23	365.56
316.46	368.56
316.689	380.56
316.919	395.56
317.148	387.56
317.377	382.56
317.607	382.56
317.836	387.56
318.065	380.56
318.295	378.56
318.524	388.56
318.753	358.56
318.983	372.56
319.212	374.56
319.441	377.56
319.67	402.56
319.9	384.56
320.129	381.56
320.358	386.56
320.587	388.56
320.816	388.56
321.046	393.56
321.275	406.56
321.504	380.56
321.733	390.56
321.962	405.56
322.191	408.56
322.42	409.56
322.649	400.56
322.878	409.56
323.108	415.56
323.337	452.56
323.566	456.56
323.795	449.56
324.024	459.56
324.253	520.56
324.482	696.56
324.71	986.56
324.939	1332.56
325.168	1129.56
325.397	631.56
325.626	490.56
325.855	472.56
326.084	431.56
326.313	414.56
326.542	465.56
326.77	450.56
326.999	519.56
327.228	673.56
327.457	892.56
327.686	1016.56
327.914	710.56
328.143	516.56
328.372	512.56
328.6	472.56
328.829	460.56
329.058	442.56
329.287	469.56
329.515	458.56
329.744	445.56
329.972	456.56
330.201	470.56
330.43	477.56
330.658	503.56
330.887	488.56
331.115	487.56
331.344	461.56
331.572	458.56
331.801	436.56
332.03	442.56
332.258	479.56
332.486	444.56
332.715	434.56
332.943	437.56
333.172	453.56
333.4	455.56
333.629	472.56
333.857	452.56
334.085	473.56
334.314	498.56
334.542	513.56
334.771	514.56
334.999	481.56
335.227	462.56
335.455	474.56
335.684	459.56
335.912	471.56
336.14	443.56
336.369	454.56
336.597	467.56
336.825	436.56
337.053	436.56
337.281	442.56
337.51	441.56
337.738	425.56
337.966	434.56
338.194	450.56
338.422	428.56
338.65	408.56
338.878	421.56
339.106	412.56
339.334	429.56
339.562	437.56
339.79	419.56
340.018	428.56
340.246	406.56
340.474	411.56
340.702	434.56
340.93	414.56
341.158	422.56
341.386	428.56
341.614	406.56
341.842	425.56
342.07	429.56
342.298	418.56
342.526	398.56
342.754	425.56
342.981	407.56
343.209	409.56
343.437	440.56
343.665	422.56
343.893	429.56
344.12	446.56
344.348	433.56
344.576	449.56
344.804	432.56
345.031	414.56
345.259	439.56
345.487	428.56
345.714	441.56
345.942	402.56
346.17	397.56
346.397	378.56
346.625	374.56
346.853	409.56
347.08	400.56
347.308	404.56
347.535	401.56
347.763	401.56
347.99	393.56
348.218	418.56
348.445	398.56
348.673	399.56
348.9	397.56
349.128	379.56
349.355	396.56
349.583	371.56
349.81	394.56
350.037	389.56
350.265	388.56
350.492	373.56
350.72	403.56
350.947	372.56
351.174	402.56
351.402	397.56
351.629	386.56
351.856	383.56
352.083	384.56
352.311	396.56
352.538	392.56
352.765	376.56
352.992	373.56
353.22	414.56
353.447	385.56
353.674	398.56
353.901	389.56
354.128	387.56
354.355	370.56
354.583	372.56
354.81	377.56
355.037	381.56
355.264	380.56
355.491	379.56
355.718	386.56
355.945	380.56
356.172	360.56
356.399	388.56
356.626	378.56
356.853	382.56
357.08	372.56
357.307	371.56
357.534	378.56
357.761	379.56
357.988	371.56
358.215	364.56
358.441	364.56
358.668	375.56
358.895	390.56
359.122	369.56
359.349	379.56
359.576	394.56
359.802	402.56
360.029	389.56
360.256	407.56
360.483	399.56
360.709	391.56
360.936	394.56
361.163	365.56
361.39	386.56
361.616	390.56
361.843	380.56
362.07	405.56
362.296	388.56
362.523	378.56
362.749	397.56
362.976	373.56
363.203	367.56
363.429	362.56
363.656	382.56
363.882	362.56
364.109	356.56
364.335	366.56
364.562	382.56
364.788	372.56
365.015	364.56
365.241	383.56
365.468	390.56
365.694	404.56
365.92	394.56
366.147	356.56
366.373	358.56
366.599	378.56
366.826	373.56
367.052	364.56
367.278	387.56
367.505	398.56
367.731	374.56
367.957	351.56
368.184	378.56
368.41	364.56
368.636	378.56
368.862	410.56
369.089	389.56
369.315	365.56
369.541	362.56
369.767	373.56
369.993	384.56
370.219	376.56
370.445	357.56
370.672	376.56
370.898	384.56
371.124	377.56
371.35	385.56
371.576	383.56
371.802	372.56
372.028	372.56
372.254	382.56
372.48	374.56
372.706	360.56
372.932	376.56
373.158	379.56
373.384	376.56
373.61	372.56
373.835	379.56
374.061	393.56
374.287	395.56
374.513	388.56
374.739	394.56
374.965	381.56
375.191	383.56
375.416	386.56
375.642	378.56
375.868	393.56
376.094	376.56
376.319	364.56
376.545	352.56
376.771	382.56
376.997	386.56
377.222	382.56
377.448	375.56
377.674	359.56
377.899	374.56
378.125	365.56
378.35	374.56
378.576	373.56
378.802	359.56
379.027	361.56
379.253	376.56
379.478	369.56
379.704	362.56
379.929	380.56
380.155	380.56
380.38	375.56
380.606	362.56
380.831	389.56
381.057	378.56
381.282	380.56
381.507	378.56
381.733	377.56
381.958	364.56
382.184	378.56
382.409	373.56
382.634	357.56
382.86	387.56
383.085	388.56
383.31	398.56
383.535	388.56
383.761	375.56
383.986	393.56
384.211	409.56
384.436	400.56
384.662	388.56
384.887	394.56
385.112	403.56
385.337	390.56
385.562	406.56
385.787	398.56
386.013	403.56
386.238	424.56
386.463	414.56
386.688	405.56
386.913	402.56
387.138	390.56
387.363	431.56
387.588	401.56
387.813	398.56
388.038	404.56
388.263	412.56
388.488	407.56
388.713	399.56
388.938	418.56
389.163	404.56
389.387	386.56
389.612	399.56
389.837	411.56
390.062	384.56
390.287	421.56
390.512	399.56
390.736	406.56
390.961	408.56
391.186	399.56
391.411	421.56
391.636	408.56
391.86	415.56
392.085	445.56
392.31	409.56
392.534	411.56
392.759	410.56
392.984	417.56
393.208	409.56
393.433	403.56
393.658	418.56
393.882	420.56
394.107	402.56
394.331	394.56
394.556	405.56
394.78	413.56
395.005	405.56
395.229	396.56
395.454	410.56
395.678	438.56
395.903	436.56
396.127	446.56
396.352	450.56
396.576	422.56
396.801	417.56
397.025	419.56
397.249	418.56
397.474	435.56
397.698	434.56
397.922	428.56
398.147	460.56
398.371	450.56
398.595	458.56
398.82	466.56
399.044	487.56
399.268	481.56
399.492	537.56
399.717	542.56
399.941	580.56
400.165	585.56
400.389	561.56
400.613	520.56
400.837	488.56
401.062	493.56
401.286	469.56
401.51	465.56
401.734	475.56
401.958	462.56
402.182	447.56
402.406	445.56
402.63	477.56
402.854	466.56
403.078	481.56
403.302	476.56
403.526	469.56
403.75	479.56
403.974	492.56
404.198	468.56
404.422	464.56
404.645	472.56
404.869	496.56
405.093	498.56
405.317	532.56
405.541	525.56
405.765	514.56
405.988	490.56
406.212	500.56
406.436	496.56
406.66	501.56
406.883	478.56
407.107	540.56
407.331	564.56
407.555	595.56
407.778	608.56
408.002	560.56
408.226	524.56
408.449	497.56
408.673	493.56
408.896	543.56
409.12	536.56
409.344	517.56
409.567	486.56
409.791	466.56
410.014	459.56
410.238	482.56
410.461	465.56
410.685	466.56
410.908	480.56
411.132	505.56
411.355	514.56
411.578	489.56
411.802	468.56
412.025	461.56
412.249	473.56
412.472	491.56
412.695	511.56
412.919	497.56
413.142	466.56
413.365	455.56
413.589	465.56
413.812	438.56
414.035	459.56
414.258	443.56
414.482	445.56
414.705	432.56
414.928	450.56
415.151	438.56
415.374	445.56
415.597	442.56
415.821	442.56
416.044	441.56
416.267	454.56
416.49	424.56
416.713	416.56
416.936	434.56
417.159	444.56
417.382	448.56
417.605	420.56
417.828	414.56
418.051	436.56
418.274	455.56
418.497	429.56
418.72	440.56
418.943	434.56
419.166	440.56
419.389	481.56
419.611	450.56
419.834	466.56
420.057	463.56
420.28	447.56
420.503	462.56
420.726	421.56
420.948	451.56
421.171	486.56
421.394	494.56
421.617	457.56
421.839	438.56
422.062	435.56
422.285	467.56
422.507	502.56
422.73	548.56
422.953	522.56
423.175	466.56
423.398	485.56
423.621	444.56
423.843	468.56
424.066	466.56
424.288	478.56
424.511	462.56
424.733	529.56
424.956	560.56
425.178	544.56
425.401	557.56
425.623	548.56
425.846	489.56
426.068	464.56
426.291	452.56
426.513	457.56
426.735	454.56
426.958	494.56
427.18	534.56
427.402	614.56
427.625	651.56
427.847	555.56
428.069	510.56
428.292	480.56
428.514	452.56
428.736	435.56
428.958	413.56
429.181	418.56
429.403	420.56
429.625	440.56
429.847	461.56
430.069	484.56
430.292	484.56
430.514	443.56
430.736	424.56
430.958	424.56
431.18	430.56
431.402	397.56
431.624	388.56
431.846	410.56
432.068	388.56
432.29	402.56
432.512	411.56
432.734	416.56
432.956	431.56
433.178	423.56
433.4	422.56
433.622	434.56
433.844	418.56
434.066	412.56
434.287	421.56
434.509	423.56
434.731	422.56
434.953	425.56
435.175	458.56
435.397	450.56
435.618	444.56
435.84	481.56
436.062	520.56
436.284	583.56
436.505	502.56
436.727	424.56
436.949	442.56
437.17	433.56
437.392	420.56
437.614	428.56
437.835	435.56
438.057	504.56
438.278	574.56
438.5	565.56
438.721	614.56
438.943	613.56
439.165	497.56
439.386	451.56
439.608	428.56
439.829	444.56
440.05	462.56
440.272	493.56
440.493	461.56
440.715	439.56
440.936	417.56
441.158	417.56
441.379	426.56
441.6	443.56
441.822	434.56
442.043	466.56
442.264	516.56
442.486	557.56
442.707	484.56
442.928	477.56
443.149	454.56
443.371	477.56
443.592	509.56
443.813	559.56
444.034	612.56
444.255	513.56
444.476	462.56
444.698	478.56
444.919	466.56
445.14	589.56
445.361	516.56
445.582	496.56
445.803	525.56
446.024	566.56
446.245	560.56
446.466	555.56
446.687	453.56
446.908	439.56
447.129	427.56
447.35	416.56
447.571	409.56
447.792	408.56
448.013	405.56
448.234	412.56
448.455	480.56
448.675	530.56
448.896	608.56
449.117	516.56
449.338	484.56
449.559	566.56
449.779	624.56
450	507.56
450.221	445.56
450.442	406.56
450.662	402.56
450.883	388.56
451.104	407.56
451.324	405.56
451.545	386.56
451.766	378.56
451.986	361.56
452.207	385.56
452.428	382.56
452.648	372.56
452.869	365.56
453.089	382.56
453.31	375.56
453.53	391.56
453.751	373.56
453.971	371.56
454.192	389.56
454.412	373.56
454.633	386.56
454.853	349.56
455.073	362.56
455.294	390.56
455.514	455.56
455.734	404.56
455.955	368.56
456.175	347.56
456.395	361.56
456.616	365.56
456.836	364.56
457.056	363.56
457.276	363.56
457.497	347.56
457.717	370.56
457.937	372.56
458.157	374.56
458.377	367.56
458.598	392.56
458.818	405.56
459.038	441.56
459.258	458.56
459.478	408.56
459.698	401.56
459.918	417.56
460.138	407.56
460.358	418.56
460.578	424.56
460.798	404.56
461.018	427.56
461.238	421.56
461.458	400.56
461.678	436.56
461.898	439.56
462.118	422.56
462.338	437.56
462.558	446.56
462.777	451.56
462.997	456.56
463.217	464.56
463.437	465.56
463.657	458.56
463.876	452.56
464.096	456.56
464.316	447.56
464.536	435.56
464.755	428.56
464.975	426.56
465.195	456.56
465.414	462.56
465.634	434.56
465.854	404.56
466.073	404.56
466.293	401.56
466.512	390.56
466.732	394.56
466.951	402.56
467.171	389.56
467.391	387.56
467.61	377.56
467.829	393.56
468.049	399.56
468.268	388.56
468.488	390.56
468.707	371.56
468.927	380.56
469.146	390.56
469.365	382.56
469.585	387.56
469.804	398.56
470.023	405.56
470.243	374.56
470.462	405.56
470.681	389.56
470.901	407.56
471.12	393.56
471.339	408.56
471.558	396.56
471.777	391.56
471.997	386.56
472.216	392.56
472.435	436.56
472.654	413.56
472.873	370.56
473.092	382.56
473.311	374.56
473.53	388.56
473.749	394.56
473.968	419.56
474.187	479.56
474.406	486.56
474.625	440.56
474.844	393.56
475.063	399.56
475.282	397.56
475.501	400.56
475.72	394.56
475.939	377.56
476.158	404.56
476.377	395.56
476.596	392.56
476.814	407.56
477.033	414.56
477.252	415.56
477.471	405.56
477.69	426.56
477.908	445.56
478.127	423.56
478.346	436.56
478.564	418.56
478.783	426.56
479.002	444.56
479.22	432.56
479.439	456.56
479.658	452.56
479.876	463.56
480.095	477.56
480.313	473.56
480.532	467.56
480.751	486.56
480.969	472.56
481.188	500.56
481.406	503.56
481.624	487.56
481.843	459.56
482.061	454.56
482.28	441.56
482.498	462.56
482.717	456.56
482.935	461.56
483.153	454.56
483.372	450.56
483.59	453.56
483.808	455.56
484.027	443.56
484.245	438.56
484.463	474.56
484.681	455.56
484.9	477.56
485.118	456.56
485.336	456.56
485.554	454.56
485.772	458.56
485.99	463.56
486.209	492.56
486.427	477.56
486.645	481.56
486.863	469.56
487.081	469.56
487.299	478.56
487.517	474.56
487.735	478.56
487.953	475.56
488.171	488.56
488.389	471.56
488.607	470.56
488.825	477.56
489.043	488.56
489.261	489.56
489.479	497.56
489.696	497.56
489.914	501.56
490.132	470.56
490.35	480.56
490.568	483.56
490.786	481.56
491.003	496.56
491.221	508.56
491.439	533.56
491.657	512.56
491.874	510.56
492.092	508.56
492.31	550.56
492.527	527.56
492.745	534.56
492.963	507.56
493.18	536.56
493.398	532.56
493.615	565.56
493.833	540.56
494.05	538.56
494.268	522.56
494.485	564.56
494.703	529.56
494.92	560.56
495.138	540.56
495.355	544.56
495.573	564.56
495.79	568.56
496.008	546.56
496.225	531.56
496.442	540.56
496.66	562.56
496.877	567.56
497.094	556.56
497.312	578.56
497.529	574.56
497.746	577.56
497.963	595.56
498.181	626.56
498.398	616.56
498.615	642.56
498.832	644.56
499.049	655.56
499.267	697.56
499.484	718.56
499.701	736.56
499.918	773.56
500.135	845.56
500.352	839.56
500.569	870.56
500.786	877.56
501.003	851.56
501.22	843.56
501.437	778.56
501.654	757.56
501.871	723.56
502.088	680.56
