Data from 1964.PennyLincolnUp.Lamp.En5.5.200Scan.071719.P1._HRD10591_14-06-05-909.txt Node
Date: Thu Jul 18 14:06:05 EDT 2019
User: cochatt
Spectrometer: HR+D1059
Trigger mode: 1
Integration Time (sec): 1.000000E-1
Scans to average: 1
Electric dark correction enabled: true
Nonlinearity correction enabled: false
Boxcar width: 0
XAxis mode: Wavelengths
Number of Pixels in Spectrum: 2048
>>>>>Begin Spectral Data<<<<<
223.165	-20.69
223.4	-20.69
223.635	-20.69
223.869	-16.69
224.104	-11.69
224.338	-15.69
224.573	-12.69
224.808	-2.69
225.042	-4.69
225.277	-11.69
225.511	-7.69
225.746	7.31
225.98	6.31
226.215	3.31
226.449	14.31
226.683	24.31
226.918	21.31
227.152	27.31
227.387	31.31
227.621	44.31
227.856	48.31
228.09	46.31
228.324	51.31
228.559	62.31
228.793	83.31
229.027	90.31
229.262	96.31
229.496	98.31
229.73	103.31
229.964	128.31
230.199	119.31
230.433	122.31
230.667	100.31
230.901	101.31
231.136	101.31
231.37	105.31
231.604	120.31
231.838	112.31
232.072	114.31
232.306	121.31
232.541	115.31
232.775	107.31
233.009	114.31
233.243	114.31
233.477	119.31
233.711	104.31
233.945	106.31
234.179	114.31
234.413	115.31
234.647	117.31
234.881	103.31
235.115	120.31
235.349	124.31
235.583	115.31
235.817	134.31
236.051	122.31
236.285	108.31
236.519	104.31
236.753	130.31
236.987	128.31
237.221	162.31
237.455	195.31
237.689	171.31
237.922	137.31
238.156	117.31
238.39	126.31
238.624	126.31
238.858	117.31
239.091	122.31
239.325	121.31
239.559	145.31
239.793	143.31
240.027	126.31
240.26	143.31
240.494	158.31
240.728	140.31
240.961	142.31
241.195	130.31
241.429	138.31
241.662	129.31
241.896	141.31
242.13	133.31
242.363	141.31
242.597	135.31
242.83	148.31
243.064	124.31
243.298	130.31
243.531	140.31
243.765	152.31
243.998	130.31
244.232	133.31
244.465	153.31
244.699	155.31
244.932	138.31
245.166	159.31
245.399	148.31
245.633	150.31
245.866	146.31
246.099	137.31
246.333	162.31
246.566	168.31
246.8	160.31
247.033	162.31
247.266	169.31
247.5	162.31
247.733	180.31
247.966	165.31
248.2	166.31
248.433	186.31
248.666	174.31
248.899	186.31
249.133	205.31
249.366	193.31
249.599	198.31
249.832	180.31
250.066	187.31
250.299	199.31
250.532	198.31
250.765	213.31
250.998	211.31
251.231	226.31
251.465	228.31
251.698	182.31
251.931	198.31
252.164	211.31
252.397	195.31
252.63	202.31
252.863	216.31
253.096	223.31
253.329	215.31
253.562	220.31
253.795	230.31
254.028	223.31
254.261	213.31
254.494	241.31
254.727	258.31
254.96	269.31
255.193	278.31
255.426	236.31
255.659	230.31
255.892	251.31
256.124	233.31
256.357	238.31
256.59	242.31
256.823	220.31
257.056	233.31
257.289	214.31
257.521	207.31
257.754	219.31
257.987	224.31
258.22	223.31
258.452	243.31
258.685	227.31
258.918	214.31
259.151	220.31
259.383	214.31
259.616	220.31
259.849	225.31
260.081	246.31
260.314	260.31
260.547	261.31
260.779	236.31
261.012	236.31
261.244	246.31
261.477	230.31
261.71	241.31
261.942	245.31
262.175	233.31
262.407	225.31
262.64	223.31
262.872	231.31
263.105	218.31
263.337	231.31
263.57	222.31
263.802	225.31
264.035	228.31
264.267	225.31
264.499	244.31
264.732	217.31
264.964	220.31
265.197	200.31
265.429	218.31
265.661	215.31
265.894	241.31
266.126	222.31
266.358	226.31
266.591	225.31
266.823	227.31
267.055	255.31
267.287	225.31
267.52	245.31
267.752	236.31
267.984	237.31
268.216	262.31
268.448	249.31
268.681	259.31
268.913	252.31
269.145	276.31
269.377	294.31
269.609	270.31
269.841	291.31
270.073	280.31
270.306	290.31
270.538	328.31
270.77	324.31
271.002	310.31
271.234	298.31
271.466	296.31
271.698	321.31
271.93	308.31
272.162	337.31
272.394	323.31
272.626	299.31
272.858	293.31
273.09	319.31
273.322	286.31
273.553	270.31
273.785	287.31
274.017	288.31
274.249	286.31
274.481	295.31
274.713	260.31
274.945	292.31
275.176	269.31
275.408	280.31
275.64	288.31
275.872	284.31
276.104	300.31
276.335	305.31
276.567	305.31
276.799	318.31
277.031	317.31
277.262	358.31
277.494	328.31
277.726	316.31
277.957	327.31
278.189	289.31
278.421	291.31
278.652	306.31
278.884	302.31
279.115	297.31
279.347	293.31
279.579	288.31
279.81	294.31
280.042	304.31
280.273	304.31
280.505	305.31
280.736	294.31
280.968	286.31
281.199	305.31
281.431	301.31
281.662	308.31
281.894	306.31
282.125	314.31
282.356	307.31
282.588	327.31
282.819	331.31
283.051	307.31
283.282	292.31
283.513	306.31
283.745	320.31
283.976	315.31
284.207	320.31
284.439	307.31
284.67	316.31
284.901	325.31
285.132	307.31
285.364	301.31
285.595	308.31
285.826	289.31
286.057	312.31
286.288	312.31
286.52	329.31
286.751	315.31
286.982	309.31
287.213	313.31
287.444	305.31
287.675	322.31
287.906	339.31
288.138	333.31
288.369	333.31
288.6	334.31
288.831	327.31
289.062	317.31
289.293	341.31
289.524	313.31
289.755	321.31
289.986	314.31
290.217	308.31
290.448	325.31
290.679	308.31
290.91	335.31
291.141	334.31
291.371	308.31
291.602	318.31
291.833	313.31
292.064	325.31
292.295	320.31
292.526	337.31
292.757	321.31
292.987	330.31
293.218	304.31
293.449	341.31
293.68	323.31
293.91	316.31
294.141	321.31
294.372	326.31
294.603	332.31
294.833	341.31
295.064	336.31
295.295	319.31
295.525	339.31
295.756	331.31
295.987	328.31
296.217	351.31
296.448	343.31
296.679	352.31
296.909	339.31
297.14	326.31
297.37	337.31
297.601	347.31
297.831	322.31
298.062	342.31
298.292	342.31
298.523	346.31
298.753	352.31
298.984	340.31
299.214	355.31
299.445	332.31
299.675	350.31
299.905	363.31
300.136	346.31
300.366	354.31
300.597	345.31
300.827	333.31
301.057	349.31
301.288	364.31
301.518	365.31
301.748	388.31
301.979	380.31
302.209	371.31
302.439	374.31
302.669	354.31
302.9	366.31
303.13	370.31
303.36	353.31
303.59	372.31
303.82	356.31
304.051	370.31
304.281	368.31
304.511	376.31
304.741	363.31
304.971	364.31
305.201	370.31
305.431	363.31
305.661	373.31
305.891	349.31
306.121	360.31
306.352	363.31
306.582	365.31
306.812	364.31
307.042	365.31
307.272	367.31
307.502	363.31
307.731	363.31
307.961	372.31
308.191	376.31
308.421	382.31
308.651	385.31
308.881	363.31
309.111	390.31
309.341	380.31
309.571	397.31
309.8	399.31
310.03	388.31
310.26	391.31
310.49	401.31
310.72	402.31
310.949	404.31
311.179	397.31
311.409	409.31
311.639	400.31
311.868	407.31
312.098	394.31
312.328	407.31
312.557	387.31
312.787	414.31
313.017	412.31
313.246	415.31
313.476	411.31
313.706	411.31
313.935	425.31
314.165	407.31
314.394	427.31
314.624	424.31
314.853	400.31
315.083	418.31
315.312	434.31
315.542	410.31
315.771	402.31
316.001	385.31
316.23	406.31
316.46	414.31
316.689	389.31
316.919	424.31
317.148	417.31
317.377	428.31
317.607	429.31
317.836	407.31
318.065	396.31
318.295	399.31
318.524	410.31
318.753	403.31
318.983	422.31
319.212	404.31
319.441	418.31
319.67	420.31
319.9	426.31
320.129	412.31
320.358	414.31
320.587	428.31
320.816	399.31
321.046	424.31
321.275	419.31
321.504	453.31
321.733	424.31
321.962	424.31
322.191	428.31
322.42	426.31
322.649	468.31
322.878	484.31
323.108	457.31
323.337	475.31
323.566	478.31
323.795	513.31
324.024	552.31
324.253	624.31
324.482	885.31
324.71	1251.31
324.939	1759.31
325.168	1476.31
325.397	792.31
325.626	592.31
325.855	536.31
326.084	489.31
326.313	488.31
326.542	520.31
326.77	539.31
326.999	596.31
327.228	776.31
327.457	1141.31
327.686	1303.31
327.914	892.31
328.143	633.31
328.372	576.31
328.6	562.31
328.829	530.31
329.058	560.31
329.287	555.31
329.515	547.31
329.744	510.31
329.972	518.31
330.201	547.31
330.43	557.31
330.658	538.31
330.887	598.31
331.115	552.31
331.344	510.31
331.572	516.31
331.801	525.31
332.03	520.31
332.258	514.31
332.486	493.31
332.715	484.31
332.943	497.31
333.172	502.31
333.4	497.31
333.629	510.31
333.857	521.31
334.085	547.31
334.314	556.31
334.542	558.31
334.771	569.31
334.999	524.31
335.227	512.31
335.455	485.31
335.684	502.31
335.912	496.31
336.14	493.31
336.369	493.31
336.597	469.31
336.825	486.31
337.053	498.31
337.281	492.31
337.51	484.31
337.738	465.31
337.966	457.31
338.194	466.31
338.422	485.31
338.65	463.31
338.878	462.31
339.106	467.31
339.334	460.31
339.562	452.31
339.79	453.31
340.018	469.31
340.246	462.31
340.474	438.31
340.702	463.31
340.93	457.31
341.158	457.31
341.386	464.31
341.614	456.31
341.842	444.31
342.07	445.31
342.298	466.31
342.526	451.31
342.754	434.31
342.981	447.31
343.209	445.31
343.437	455.31
343.665	472.31
343.893	459.31
344.12	455.31
344.348	491.31
344.576	467.31
344.804	464.31
345.031	469.31
345.259	480.31
345.487	461.31
345.714	448.31
345.942	453.31
346.17	438.31
346.397	457.31
346.625	429.31
346.853	432.31
347.08	432.31
347.308	429.31
347.535	437.31
347.763	420.31
347.99	449.31
348.218	432.31
348.445	447.31
348.673	429.31
348.9	430.31
349.128	425.31
349.355	425.31
349.583	433.31
349.81	413.31
350.037	404.31
350.265	406.31
350.492	430.31
350.72	403.31
350.947	422.31
351.174	432.31
351.402	429.31
351.629	429.31
351.856	412.31
352.083	422.31
352.311	423.31
352.538	442.31
352.765	442.31
352.992	421.31
353.22	392.31
353.447	428.31
353.674	428.31
353.901	434.31
354.128	405.31
354.355	400.31
354.583	397.31
354.81	412.31
355.037	402.31
355.264	410.31
355.491	405.31
355.718	406.31
355.945	408.31
356.172	395.31
356.399	404.31
356.626	388.31
356.853	402.31
357.08	396.31
357.307	396.31
357.534	399.31
357.761	396.31
357.988	416.31
358.215	388.31
358.441	403.31
358.668	414.31
358.895	406.31
359.122	398.31
359.349	416.31
359.576	406.31
359.802	432.31
360.029	452.31
360.256	450.31
360.483	413.31
360.709	419.31
360.936	421.31
361.163	395.31
361.39	422.31
361.616	435.31
361.843	408.31
362.07	400.31
362.296	409.31
362.523	384.31
362.749	416.31
362.976	419.31
363.203	405.31
363.429	402.31
363.656	382.31
363.882	412.31
364.109	395.31
364.335	394.31
364.562	398.31
364.788	379.31
365.015	399.31
365.241	409.31
365.468	395.31
365.694	412.31
365.92	408.31
366.147	377.31
366.373	402.31
366.599	381.31
366.826	382.31
367.052	403.31
367.278	387.31
367.505	385.31
367.731	387.31
367.957	392.31
368.184	406.31
368.41	404.31
368.636	399.31
368.862	405.31
369.089	415.31
369.315	410.31
369.541	408.31
369.767	396.31
369.993	384.31
370.219	382.31
370.445	413.31
370.672	410.31
370.898	395.31
371.124	417.31
371.35	401.31
371.576	395.31
371.802	413.31
372.028	404.31
372.254	405.31
372.48	397.31
372.706	408.31
372.932	396.31
373.158	376.31
373.384	421.31
373.61	417.31
373.835	399.31
374.061	385.31
374.287	403.31
374.513	398.31
374.739	395.31
374.965	422.31
375.191	410.31
375.416	412.31
375.642	402.31
375.868	397.31
376.094	412.31
376.319	388.31
376.545	379.31
376.771	376.31
376.997	392.31
377.222	378.31
377.448	394.31
377.674	397.31
377.899	366.31
378.125	372.31
378.35	390.31
378.576	421.31
378.802	368.31
379.027	387.31
379.253	393.31
379.478	386.31
379.704	395.31
379.929	387.31
380.155	378.31
380.38	406.31
380.606	409.31
380.831	397.31
381.057	377.31
381.282	388.31
381.507	388.31
381.733	394.31
381.958	387.31
382.184	386.31
382.409	398.31
382.634	406.31
382.86	396.31
383.085	376.31
383.31	434.31
383.535	408.31
383.761	419.31
383.986	426.31
384.211	405.31
384.436	397.31
384.662	420.31
384.887	420.31
385.112	417.31
385.337	425.31
385.562	428.31
385.787	437.31
386.013	434.31
386.238	452.31
386.463	417.31
386.688	442.31
386.913	430.31
387.138	418.31
387.363	428.31
387.588	452.31
387.813	420.31
388.038	414.31
388.263	446.31
388.488	412.31
388.713	452.31
388.938	432.31
389.163	422.31
389.387	431.31
389.612	428.31
389.837	417.31
390.062	428.31
390.287	414.31
390.512	417.31
390.736	426.31
390.961	399.31
391.186	442.31
391.411	436.31
391.636	439.31
391.86	427.31
392.085	434.31
392.31	440.31
392.534	428.31
392.759	457.31
392.984	425.31
393.208	421.31
393.433	429.31
393.658	411.31
393.882	442.31
394.107	432.31
394.331	421.31
394.556	426.31
394.78	423.31
395.005	459.31
395.229	444.31
395.454	452.31
395.678	444.31
395.903	434.31
396.127	447.31
396.352	474.31
396.576	457.31
396.801	452.31
397.025	454.31
397.249	452.31
397.474	458.31
397.698	444.31
397.922	462.31
398.147	490.31
398.371	480.31
398.595	478.31
398.82	481.31
399.044	494.31
399.268	509.31
399.492	566.31
399.717	577.31
399.941	610.31
400.165	605.31
400.389	608.31
400.613	545.31
400.837	501.31
401.062	488.31
401.286	491.31
401.51	477.31
401.734	500.31
401.958	487.31
402.182	488.31
402.406	500.31
402.63	506.31
402.854	512.31
403.078	481.31
403.302	485.31
403.526	532.31
403.75	516.31
403.974	501.31
404.198	510.31
404.422	502.31
404.645	516.31
404.869	506.31
405.093	534.31
405.317	574.31
405.541	598.31
405.765	542.31
405.988	531.31
406.212	527.31
406.436	540.31
406.66	536.31
406.883	526.31
407.107	549.31
407.331	592.31
407.555	642.31
407.778	629.31
408.002	581.31
408.226	544.31
408.449	560.31
408.673	557.31
408.896	568.31
409.12	584.31
409.344	584.31
409.567	522.31
409.791	521.31
410.014	493.31
410.238	500.31
410.461	488.31
410.685	494.31
410.908	517.31
411.132	544.31
411.355	548.31
411.578	534.31
411.802	485.31
412.025	489.31
412.249	504.31
412.472	558.31
412.695	559.31
412.919	558.31
413.142	487.31
413.365	482.31
413.589	480.31
413.812	446.31
414.035	480.31
414.258	483.31
414.482	468.31
414.705	486.31
414.928	473.31
415.151	458.31
415.374	457.31
415.597	478.31
415.821	479.31
416.044	471.31
416.267	484.31
416.49	458.31
416.713	465.31
416.936	468.31
417.159	468.31
417.382	465.31
417.605	460.31
417.828	469.31
418.051	489.31
418.274	476.31
418.497	466.31
418.72	460.31
418.943	465.31
419.166	462.31
419.389	489.31
419.611	498.31
419.834	482.31
420.057	497.31
420.28	486.31
420.503	475.31
420.726	487.31
420.948	499.31
421.171	526.31
421.394	552.31
421.617	502.31
421.839	491.31
422.062	494.31
422.285	458.31
422.507	530.31
422.73	608.31
422.953	574.31
423.175	503.31
423.398	490.31
423.621	516.31
423.843	506.31
424.066	495.31
424.288	514.31
424.511	516.31
424.733	584.31
424.956	615.31
425.178	584.31
425.401	597.31
425.623	615.31
425.846	536.31
426.068	504.31
426.291	487.31
426.513	480.31
426.735	495.31
426.958	544.31
427.18	597.31
427.402	691.31
427.625	770.31
427.847	656.31
428.069	580.31
428.292	525.31
428.514	490.31
428.736	474.31
428.958	490.31
429.181	439.31
429.403	453.31
429.625	461.31
429.847	504.31
430.069	535.31
430.292	535.31
430.514	485.31
430.736	450.31
430.958	472.31
431.18	466.31
431.402	448.31
431.624	434.31
431.846	415.31
432.068	425.31
432.29	444.31
432.512	436.31
432.734	445.31
432.956	461.31
433.178	469.31
433.4	440.31
433.622	416.31
433.844	434.31
434.066	432.31
434.287	456.31
434.509	448.31
434.731	485.31
434.953	474.31
435.175	484.31
435.397	512.31
435.618	487.31
435.84	505.31
436.062	608.31
436.284	676.31
436.505	514.31
436.727	512.31
436.949	460.31
437.17	452.31
437.392	433.31
437.614	472.31
437.835	474.31
438.057	553.31
438.278	623.31
438.5	630.31
438.721	700.31
438.943	666.31
439.165	538.31
439.386	498.31
439.608	506.31
439.829	486.31
440.05	516.31
440.272	539.31
440.493	510.31
440.715	480.31
440.936	469.31
441.158	477.31
441.379	465.31
441.6	470.31
441.822	498.31
442.043	531.31
442.264	606.31
442.486	622.31
442.707	539.31
442.928	501.31
443.149	510.31
443.371	521.31
443.592	570.31
443.813	618.31
444.034	671.31
444.255	603.31
444.476	523.31
444.698	526.31
444.919	526.31
445.14	627.31
445.361	566.31
445.582	534.31
445.803	572.31
446.024	645.31
446.245	658.31
446.466	593.31
446.687	525.31
446.908	485.31
447.129	458.31
447.35	441.31
447.571	454.31
447.792	450.31
448.013	450.31
448.234	471.31
448.455	514.31
448.675	586.31
448.896	678.31
449.117	571.31
449.338	554.31
449.559	635.31
449.779	708.31
450	551.31
450.221	476.31
450.442	462.31
450.662	451.31
450.883	447.31
451.104	447.31
451.324	445.31
451.545	420.31
451.766	414.31
451.986	409.31
452.207	398.31
452.428	392.31
452.648	403.31
452.869	397.31
453.089	424.31
453.31	423.31
453.53	425.31
453.751	408.31
453.971	426.31
454.192	391.31
454.412	408.31
454.633	402.31
454.853	371.31
455.073	392.31
455.294	422.31
455.514	475.31
455.734	452.31
455.955	413.31
456.175	389.31
456.395	390.31
456.616	397.31
456.836	378.31
457.056	387.31
457.276	398.31
457.497	389.31
457.717	379.31
457.937	387.31
458.157	390.31
458.377	372.31
458.598	414.31
458.818	438.31
459.038	506.31
459.258	512.31
459.478	474.31
459.698	438.31
459.918	412.31
460.138	422.31
460.358	444.31
460.578	436.31
460.798	438.31
461.018	481.31
461.238	464.31
461.458	440.31
461.678	441.31
461.898	434.31
462.118	461.31
462.338	470.31
462.558	473.31
462.777	478.31
462.997	479.31
463.217	500.31
463.437	510.31
463.657	482.31
463.876	498.31
464.096	503.31
464.316	480.31
464.536	490.31
464.755	469.31
464.975	493.31
465.195	476.31
465.414	510.31
465.634	452.31
465.854	442.31
466.073	404.31
466.293	429.31
466.512	428.31
466.732	409.31
466.951	417.31
467.171	412.31
467.391	412.31
467.61	416.31
467.829	438.31
468.049	439.31
468.268	420.31
468.488	418.31
468.707	396.31
468.927	408.31
469.146	411.31
469.365	420.31
469.585	401.31
469.804	404.31
470.023	430.31
470.243	425.31
470.462	423.31
470.681	434.31
470.901	434.31
471.12	426.31
471.339	406.31
471.558	413.31
471.777	414.31
471.997	418.31
472.216	410.31
472.435	442.31
472.654	412.31
472.873	419.31
473.092	422.31
473.311	431.31
473.53	422.31
473.749	434.31
473.968	452.31
474.187	545.31
474.406	554.31
474.625	482.31
474.844	420.31
475.063	428.31
475.282	428.31
475.501	411.31
475.72	432.31
475.939	440.31
476.158	431.31
476.377	417.31
476.596	441.31
476.814	426.31
477.033	416.31
477.252	437.31
477.471	430.31
477.69	440.31
477.908	438.31
478.127	450.31
478.346	464.31
478.564	478.31
478.783	468.31
479.002	470.31
479.22	489.31
479.439	498.31
479.658	500.31
479.876	487.31
480.095	498.31
480.313	542.31
480.532	500.31
480.751	508.31
480.969	524.31
481.188	556.31
481.406	573.31
481.624	535.31
481.843	504.31
482.061	496.31
482.28	504.31
482.498	489.31
482.717	484.31
482.935	497.31
483.153	478.31
483.372	477.31
483.59	481.31
483.808	490.31
484.027	477.31
484.245	479.31
484.463	475.31
484.681	512.31
484.9	498.31
485.118	482.31
485.336	486.31
485.554	501.31
485.772	504.31
485.99	499.31
486.209	496.31
486.427	507.31
486.645	513.31
486.863	512.31
487.081	528.31
487.299	489.31
487.517	523.31
487.735	536.31
487.953	507.31
488.171	521.31
488.389	504.31
488.607	510.31
488.825	518.31
489.043	497.31
489.261	498.31
489.479	521.31
489.696	515.31
489.914	510.31
490.132	535.31
490.35	541.31
490.568	564.31
490.786	525.31
491.003	562.31
491.221	547.31
491.439	559.31
491.657	586.31
491.874	570.31
492.092	564.31
492.31	588.31
492.527	593.31
492.745	593.31
492.963	585.31
493.18	586.31
493.398	601.31
493.615	594.31
493.833	590.31
494.05	613.31
494.268	593.31
494.485	590.31
494.703	594.31
494.92	587.31
495.138	589.31
495.355	597.31
495.573	597.31
495.79	581.31
496.008	609.31
496.225	597.31
496.442	605.31
496.66	627.31
496.877	574.31
497.094	597.31
497.312	614.31
497.529	619.31
497.746	620.31
497.963	643.31
498.181	680.31
498.398	661.31
498.615	699.31
498.832	689.31
499.049	711.31
499.267	741.31
499.484	767.31
499.701	764.31
499.918	832.31
500.135	867.31
500.352	921.31
500.569	914.31
500.786	946.31
501.003	919.31
501.22	874.31
501.437	826.31
501.654	828.31
501.871	799.31
