Data from 1964.PennyLincolnUp.Lamp.En5.5.200Scan.071719.P1._HRD10591_14-05-15-908.txt Node
Date: Thu Jul 18 14:05:15 EDT 2019
User: cochatt
Spectrometer: HR+D1059
Trigger mode: 1
Integration Time (sec): 1.000000E-1
Scans to average: 1
Electric dark correction enabled: true
Nonlinearity correction enabled: false
Boxcar width: 0
XAxis mode: Wavelengths
Number of Pixels in Spectrum: 2048
>>>>>Begin Spectral Data<<<<<
223.165	-11.44
223.4	-11.44
223.635	-11.44
223.869	-8.44
224.104	-26.44
224.338	-24.44
224.573	-16.44
224.808	-25.44
225.042	-4.44
225.277	-8.44
225.511	-9.44
225.746	7.56
225.98	3.56
226.215	18.56
226.449	24.56
226.683	23.56
226.918	27.56
227.152	29.56
227.387	44.56
227.621	32.56
227.856	49.56
228.09	42.56
228.324	44.56
228.559	61.56
228.793	57.56
229.027	88.56
229.262	101.56
229.496	116.56
229.73	125.56
229.964	123.56
230.199	103.56
230.433	105.56
230.667	103.56
230.901	123.56
231.136	114.56
231.37	115.56
231.604	108.56
231.838	117.56
232.072	116.56
232.306	120.56
232.541	119.56
232.775	94.56
233.009	120.56
233.243	110.56
233.477	108.56
233.711	132.56
233.945	101.56
234.179	115.56
234.413	113.56
234.647	131.56
234.881	114.56
235.115	125.56
235.349	124.56
235.583	126.56
235.817	113.56
236.051	115.56
236.285	111.56
236.519	111.56
236.753	136.56
236.987	149.56
237.221	171.56
237.455	191.56
237.689	168.56
237.922	139.56
238.156	143.56
238.39	126.56
238.624	117.56
238.858	119.56
239.091	131.56
239.325	107.56
239.559	120.56
239.793	131.56
240.027	129.56
240.26	139.56
240.494	164.56
240.728	143.56
240.961	149.56
241.195	147.56
241.429	128.56
241.662	137.56
241.896	135.56
242.13	135.56
242.363	143.56
242.597	141.56
242.83	160.56
243.064	144.56
243.298	125.56
243.531	129.56
243.765	146.56
243.998	140.56
244.232	131.56
244.465	157.56
244.699	158.56
244.932	153.56
245.166	156.56
245.399	164.56
245.633	138.56
245.866	158.56
246.099	155.56
246.333	140.56
246.566	167.56
246.8	164.56
247.033	152.56
247.266	167.56
247.5	163.56
247.733	171.56
247.966	174.56
248.2	163.56
248.433	173.56
248.666	180.56
248.899	159.56
249.133	177.56
249.366	205.56
249.599	191.56
249.832	171.56
250.066	187.56
250.299	175.56
250.532	204.56
250.765	219.56
250.998	232.56
251.231	235.56
251.465	211.56
251.698	212.56
251.931	203.56
252.164	211.56
252.397	200.56
252.63	191.56
252.863	200.56
253.096	225.56
253.329	233.56
253.562	227.56
253.795	213.56
254.028	225.56
254.261	214.56
254.494	233.56
254.727	251.56
254.96	262.56
255.193	228.56
255.426	261.56
255.659	230.56
255.892	235.56
256.124	245.56
256.357	247.56
256.59	228.56
256.823	217.56
257.056	206.56
257.289	219.56
257.521	209.56
257.754	223.56
257.987	220.56
258.22	215.56
258.452	222.56
258.685	223.56
258.918	206.56
259.151	211.56
259.383	232.56
259.616	225.56
259.849	228.56
260.081	248.56
260.314	253.56
260.547	243.56
260.779	240.56
261.012	242.56
261.244	263.56
261.477	233.56
261.71	235.56
261.942	233.56
262.175	243.56
262.407	236.56
262.64	236.56
262.872	213.56
263.105	239.56
263.337	224.56
263.57	229.56
263.802	219.56
264.035	235.56
264.267	245.56
264.499	229.56
264.732	235.56
264.964	231.56
265.197	230.56
265.429	247.56
265.661	229.56
265.894	227.56
266.126	232.56
266.358	226.56
266.591	236.56
266.823	258.56
267.055	249.56
267.287	247.56
267.52	246.56
267.752	238.56
267.984	236.56
268.216	248.56
268.448	233.56
268.681	253.56
268.913	254.56
269.145	270.56
269.377	294.56
269.609	278.56
269.841	304.56
270.073	297.56
270.306	307.56
270.538	315.56
270.77	303.56
271.002	288.56
271.234	314.56
271.466	325.56
271.698	326.56
271.93	313.56
272.162	307.56
272.394	307.56
272.626	319.56
272.858	302.56
273.09	300.56
273.322	290.56
273.553	279.56
273.785	295.56
274.017	273.56
274.249	292.56
274.481	284.56
274.713	283.56
274.945	297.56
275.176	291.56
275.408	282.56
275.64	264.56
275.872	283.56
276.104	283.56
276.335	279.56
276.567	299.56
276.799	310.56
277.031	310.56
277.262	300.56
277.494	315.56
277.726	318.56
277.957	309.56
278.189	301.56
278.421	280.56
278.652	292.56
278.884	277.56
279.115	309.56
279.347	294.56
279.579	286.56
279.81	315.56
280.042	302.56
280.273	298.56
280.505	310.56
280.736	294.56
280.968	298.56
281.199	283.56
281.431	295.56
281.662	299.56
281.894	305.56
282.125	299.56
282.356	294.56
282.588	320.56
282.819	316.56
283.051	298.56
283.282	300.56
283.513	307.56
283.745	303.56
283.976	308.56
284.207	309.56
284.439	318.56
284.67	339.56
284.901	304.56
285.132	311.56
285.364	314.56
285.595	312.56
285.826	307.56
286.057	309.56
286.288	303.56
286.52	319.56
286.751	320.56
286.982	327.56
287.213	312.56
287.444	319.56
287.675	301.56
287.906	330.56
288.138	334.56
288.369	332.56
288.6	319.56
288.831	340.56
289.062	324.56
289.293	329.56
289.524	314.56
289.755	338.56
289.986	332.56
290.217	317.56
290.448	340.56
290.679	335.56
290.91	360.56
291.141	322.56
291.371	325.56
291.602	327.56
291.833	333.56
292.064	323.56
292.295	324.56
292.526	332.56
292.757	327.56
292.987	329.56
293.218	328.56
293.449	325.56
293.68	347.56
293.91	316.56
294.141	324.56
294.372	326.56
294.603	327.56
294.833	302.56
295.064	320.56
295.295	331.56
295.525	326.56
295.756	320.56
295.987	332.56
296.217	340.56
296.448	360.56
296.679	344.56
296.909	320.56
297.14	344.56
297.37	350.56
297.601	351.56
297.831	351.56
298.062	345.56
298.292	314.56
298.523	333.56
298.753	352.56
298.984	353.56
299.214	349.56
299.445	341.56
299.675	348.56
299.905	360.56
300.136	357.56
300.366	333.56
300.597	345.56
300.827	355.56
301.057	359.56
301.288	365.56
301.518	360.56
301.748	372.56
301.979	374.56
302.209	358.56
302.439	369.56
302.669	361.56
302.9	357.56
303.13	365.56
303.36	366.56
303.59	380.56
303.82	373.56
304.051	390.56
304.281	375.56
304.511	394.56
304.741	369.56
304.971	345.56
305.201	359.56
305.431	383.56
305.661	371.56
305.891	366.56
306.121	375.56
306.352	380.56
306.582	383.56
306.812	367.56
307.042	364.56
307.272	377.56
307.502	356.56
307.731	355.56
307.961	360.56
308.191	373.56
308.421	362.56
308.651	371.56
308.881	371.56
309.111	372.56
309.341	368.56
309.571	372.56
309.8	373.56
310.03	401.56
310.26	407.56
310.49	387.56
310.72	398.56
310.949	423.56
311.179	416.56
311.409	416.56
311.639	405.56
311.868	411.56
312.098	402.56
312.328	421.56
312.557	420.56
312.787	413.56
313.017	406.56
313.246	417.56
313.476	419.56
313.706	402.56
313.935	418.56
314.165	422.56
314.394	414.56
314.624	442.56
314.853	402.56
315.083	405.56
315.312	420.56
315.542	412.56
315.771	409.56
316.001	423.56
316.23	416.56
316.46	404.56
316.689	409.56
316.919	408.56
317.148	418.56
317.377	410.56
317.607	411.56
317.836	393.56
318.065	417.56
318.295	407.56
318.524	395.56
318.753	401.56
318.983	397.56
319.212	405.56
319.441	423.56
319.67	426.56
319.9	425.56
320.129	423.56
320.358	392.56
320.587	401.56
320.816	425.56
321.046	419.56
321.275	426.56
321.504	411.56
321.733	410.56
321.962	429.56
322.191	420.56
322.42	449.56
322.649	455.56
322.878	450.56
323.108	453.56
323.337	464.56
323.566	464.56
323.795	511.56
324.024	515.56
324.253	607.56
324.482	806.56
324.71	1185.56
324.939	1607.56
325.168	1339.56
325.397	754.56
325.626	551.56
325.855	509.56
326.084	484.56
326.313	462.56
326.542	478.56
326.77	524.56
326.999	569.56
327.228	748.56
327.457	1073.56
327.686	1215.56
327.914	829.56
328.143	617.56
328.372	534.56
328.6	544.56
328.829	524.56
329.058	524.56
329.287	528.56
329.515	515.56
329.744	506.56
329.972	505.56
330.201	528.56
330.43	529.56
330.658	552.56
330.887	560.56
331.115	543.56
331.344	491.56
331.572	504.56
331.801	493.56
332.03	505.56
332.258	495.56
332.486	459.56
332.715	485.56
332.943	505.56
333.172	506.56
333.4	490.56
333.629	494.56
333.857	502.56
334.085	523.56
334.314	574.56
334.542	544.56
334.771	550.56
334.999	548.56
335.227	517.56
335.455	511.56
335.684	486.56
335.912	505.56
336.14	470.56
336.369	451.56
336.597	471.56
336.825	485.56
337.053	462.56
337.281	470.56
337.51	468.56
337.738	476.56
337.966	463.56
338.194	455.56
338.422	472.56
338.65	473.56
338.878	462.56
339.106	445.56
339.334	481.56
339.562	443.56
339.79	462.56
340.018	461.56
340.246	449.56
340.474	446.56
340.702	459.56
340.93	446.56
341.158	442.56
341.386	433.56
341.614	458.56
341.842	463.56
342.07	456.56
342.298	432.56
342.526	430.56
342.754	454.56
342.981	448.56
343.209	432.56
343.437	457.56
343.665	451.56
343.893	491.56
344.12	475.56
344.348	479.56
344.576	492.56
344.804	476.56
345.031	476.56
345.259	457.56
345.487	445.56
345.714	435.56
345.942	438.56
346.17	461.56
346.397	449.56
346.625	416.56
346.853	415.56
347.08	428.56
347.308	430.56
347.535	445.56
347.763	440.56
347.99	432.56
348.218	437.56
348.445	446.56
348.673	444.56
348.9	445.56
349.128	428.56
349.355	423.56
349.583	431.56
349.81	421.56
350.037	421.56
350.265	416.56
350.492	453.56
350.72	415.56
350.947	431.56
351.174	445.56
351.402	422.56
351.629	426.56
351.856	447.56
352.083	430.56
352.311	445.56
352.538	426.56
352.765	428.56
352.992	437.56
353.22	401.56
353.447	410.56
353.674	416.56
353.901	400.56
354.128	404.56
354.355	403.56
354.583	402.56
354.81	421.56
355.037	406.56
355.264	402.56
355.491	390.56
355.718	397.56
355.945	418.56
356.172	401.56
356.399	421.56
356.626	405.56
356.853	412.56
357.08	408.56
357.307	389.56
357.534	399.56
357.761	399.56
357.988	386.56
358.215	410.56
358.441	423.56
358.668	399.56
358.895	405.56
359.122	427.56
359.349	423.56
359.576	406.56
359.802	434.56
360.029	428.56
360.256	452.56
360.483	428.56
360.709	439.56
360.936	426.56
361.163	437.56
361.39	441.56
361.616	405.56
361.843	435.56
362.07	415.56
362.296	404.56
362.523	413.56
362.749	424.56
362.976	418.56
363.203	407.56
363.429	425.56
363.656	403.56
363.882	411.56
364.109	413.56
364.335	394.56
364.562	409.56
364.788	394.56
365.015	409.56
365.241	419.56
365.468	419.56
365.694	406.56
365.92	422.56
366.147	423.56
366.373	387.56
366.599	403.56
366.826	387.56
367.052	394.56
367.278	417.56
367.505	392.56
367.731	419.56
367.957	413.56
368.184	392.56
368.41	383.56
368.636	401.56
368.862	408.56
369.089	421.56
369.315	405.56
369.541	397.56
369.767	397.56
369.993	403.56
370.219	412.56
370.445	396.56
370.672	402.56
370.898	412.56
371.124	399.56
371.35	392.56
371.576	409.56
371.802	413.56
372.028	401.56
372.254	408.56
372.48	391.56
372.706	393.56
372.932	411.56
373.158	401.56
373.384	409.56
373.61	411.56
373.835	408.56
374.061	402.56
374.287	401.56
374.513	406.56
374.739	430.56
374.965	409.56
375.191	415.56
375.416	400.56
375.642	417.56
375.868	424.56
376.094	399.56
376.319	395.56
376.545	397.56
376.771	404.56
376.997	405.56
377.222	404.56
377.448	409.56
377.674	391.56
377.899	409.56
378.125	383.56
378.35	415.56
378.576	402.56
378.802	389.56
379.027	407.56
379.253	399.56
379.478	394.56
379.704	388.56
379.929	409.56
380.155	397.56
380.38	404.56
380.606	394.56
380.831	405.56
381.057	403.56
381.282	386.56
381.507	402.56
381.733	382.56
381.958	405.56
382.184	411.56
382.409	381.56
382.634	382.56
382.86	407.56
383.085	393.56
383.31	415.56
383.535	407.56
383.761	413.56
383.986	415.56
384.211	436.56
384.436	444.56
384.662	414.56
384.887	423.56
385.112	420.56
385.337	423.56
385.562	427.56
385.787	424.56
386.013	417.56
386.238	433.56
386.463	441.56
386.688	445.56
386.913	430.56
387.138	422.56
387.363	448.56
387.588	431.56
387.813	455.56
388.038	447.56
388.263	440.56
388.488	435.56
388.713	444.56
388.938	437.56
389.163	449.56
389.387	439.56
389.612	428.56
389.837	419.56
390.062	456.56
390.287	436.56
390.512	445.56
390.736	426.56
390.961	437.56
391.186	430.56
391.411	454.56
391.636	465.56
391.86	455.56
392.085	451.56
392.31	454.56
392.534	444.56
392.759	448.56
392.984	446.56
393.208	422.56
393.433	442.56
393.658	449.56
393.882	442.56
394.107	446.56
394.331	444.56
394.556	437.56
394.78	438.56
395.005	420.56
395.229	461.56
395.454	458.56
395.678	446.56
395.903	443.56
396.127	463.56
396.352	468.56
396.576	472.56
396.801	450.56
397.025	460.56
397.249	443.56
397.474	460.56
397.698	455.56
397.922	473.56
398.147	494.56
398.371	493.56
398.595	461.56
398.82	491.56
399.044	488.56
399.268	521.56
399.492	553.56
399.717	593.56
399.941	619.56
400.165	605.56
400.389	583.56
400.613	557.56
400.837	527.56
401.062	508.56
401.286	497.56
401.51	485.56
401.734	486.56
401.958	508.56
402.182	489.56
402.406	492.56
402.63	491.56
402.854	485.56
403.078	507.56
403.302	522.56
403.526	520.56
403.75	493.56
403.974	515.56
404.198	508.56
404.422	533.56
404.645	510.56
404.869	516.56
405.093	526.56
405.317	569.56
405.541	588.56
405.765	555.56
405.988	531.56
406.212	555.56
406.436	524.56
406.66	572.56
406.883	561.56
407.107	556.56
407.331	592.56
407.555	635.56
407.778	639.56
408.002	607.56
408.226	554.56
408.449	557.56
408.673	558.56
408.896	563.56
409.12	600.56
409.344	580.56
409.567	525.56
409.791	528.56
410.014	520.56
410.238	504.56
410.461	525.56
410.685	507.56
410.908	490.56
411.132	533.56
411.355	545.56
411.578	517.56
411.802	484.56
412.025	526.56
412.249	497.56
412.472	525.56
412.695	547.56
412.919	535.56
413.142	515.56
413.365	498.56
413.589	525.56
413.812	480.56
414.035	480.56
414.258	467.56
414.482	470.56
414.705	461.56
414.928	447.56
415.151	479.56
415.374	475.56
415.597	475.56
415.821	457.56
416.044	472.56
416.267	463.56
416.49	472.56
416.713	463.56
416.936	437.56
417.159	471.56
417.382	464.56
417.605	487.56
417.828	469.56
418.051	468.56
418.274	475.56
418.497	464.56
418.72	465.56
418.943	453.56
419.166	472.56
419.389	481.56
419.611	518.56
419.834	485.56
420.057	499.56
420.28	487.56
420.503	479.56
420.726	464.56
420.948	494.56
421.171	526.56
421.394	553.56
421.617	508.56
421.839	465.56
422.062	481.56
422.285	469.56
422.507	529.56
422.73	584.56
422.953	563.56
423.175	530.56
423.398	502.56
423.621	464.56
423.843	515.56
424.066	521.56
424.288	494.56
424.511	503.56
424.733	571.56
424.956	635.56
425.178	597.56
425.401	592.56
425.623	602.56
425.846	524.56
426.068	506.56
426.291	493.56
426.513	496.56
426.735	510.56
426.958	540.56
427.18	603.56
427.402	665.56
427.625	739.56
427.847	639.56
428.069	546.56
428.292	511.56
428.514	472.56
428.736	459.56
428.958	453.56
429.181	460.56
429.403	450.56
429.625	455.56
429.847	499.56
430.069	528.56
430.292	535.56
430.514	478.56
430.736	466.56
430.958	447.56
431.18	441.56
431.402	430.56
431.624	443.56
431.846	439.56
432.068	437.56
432.29	452.56
432.512	457.56
432.734	442.56
432.956	461.56
433.178	455.56
433.4	438.56
433.622	440.56
433.844	456.56
434.066	452.56
434.287	437.56
434.509	453.56
434.731	467.56
434.953	472.56
435.175	488.56
435.397	500.56
435.618	495.56
435.84	519.56
436.062	579.56
436.284	656.56
436.505	547.56
436.727	502.56
436.949	473.56
437.17	447.56
437.392	454.56
437.614	473.56
437.835	495.56
438.057	537.56
438.278	625.56
438.5	632.56
438.721	687.56
438.943	643.56
439.165	525.56
439.386	508.56
439.608	509.56
439.829	501.56
440.05	516.56
440.272	563.56
440.493	511.56
440.715	481.56
440.936	461.56
441.158	462.56
441.379	475.56
441.6	478.56
441.822	492.56
442.043	528.56
442.264	587.56
442.486	601.56
442.707	525.56
442.928	509.56
443.149	503.56
443.371	502.56
443.592	563.56
443.813	631.56
444.034	662.56
444.255	575.56
444.476	531.56
444.698	509.56
444.919	513.56
445.14	612.56
445.361	534.56
445.582	512.56
445.803	567.56
446.024	624.56
446.245	648.56
446.466	578.56
446.687	504.56
446.908	492.56
447.129	470.56
447.35	461.56
447.571	463.56
447.792	461.56
448.013	454.56
448.234	468.56
448.455	514.56
448.675	597.56
448.896	655.56
449.117	559.56
449.338	548.56
449.559	600.56
449.779	683.56
450	567.56
450.221	485.56
450.442	457.56
450.662	441.56
450.883	442.56
451.104	447.56
451.324	426.56
451.545	439.56
451.766	437.56
451.986	403.56
452.207	384.56
452.428	397.56
452.648	392.56
452.869	419.56
453.089	422.56
453.31	405.56
453.53	397.56
453.751	387.56
453.971	403.56
454.192	404.56
454.412	405.56
454.633	396.56
454.853	375.56
455.073	399.56
455.294	420.56
455.514	483.56
455.734	445.56
455.955	411.56
456.175	382.56
456.395	395.56
456.616	382.56
456.836	380.56
457.056	385.56
457.276	380.56
457.497	389.56
457.717	393.56
457.937	411.56
458.157	392.56
458.377	397.56
458.598	394.56
458.818	442.56
459.038	494.56
459.258	480.56
459.478	470.56
459.698	444.56
459.918	448.56
460.138	430.56
460.358	433.56
460.578	450.56
460.798	455.56
461.018	462.56
461.238	464.56
461.458	453.56
461.678	457.56
461.898	470.56
462.118	453.56
462.338	482.56
462.558	477.56
462.777	470.56
462.997	507.56
463.217	513.56
463.437	509.56
463.657	491.56
463.876	463.56
464.096	507.56
464.316	485.56
464.536	496.56
464.755	493.56
464.975	491.56
465.195	503.56
465.414	517.56
465.634	475.56
465.854	475.56
466.073	428.56
466.293	429.56
466.512	416.56
466.732	412.56
466.951	422.56
467.171	413.56
467.391	415.56
467.61	420.56
467.829	413.56
468.049	441.56
468.268	411.56
468.488	404.56
468.707	440.56
468.927	397.56
469.146	399.56
469.365	416.56
469.585	397.56
469.804	407.56
470.023	417.56
470.243	429.56
470.462	421.56
470.681	458.56
470.901	439.56
471.12	443.56
471.339	428.56
471.558	434.56
471.777	422.56
471.997	426.56
472.216	429.56
472.435	454.56
472.654	431.56
472.873	437.56
473.092	407.56
473.311	400.56
473.53	418.56
473.749	435.56
473.968	462.56
474.187	549.56
474.406	541.56
474.625	455.56
474.844	436.56
475.063	433.56
475.282	443.56
475.501	430.56
475.72	436.56
475.939	443.56
476.158	448.56
476.377	430.56
476.596	431.56
476.814	447.56
477.033	424.56
477.252	449.56
477.471	460.56
477.69	443.56
477.908	468.56
478.127	467.56
478.346	454.56
478.564	478.56
478.783	472.56
479.002	484.56
479.22	481.56
479.439	500.56
479.658	497.56
479.876	516.56
480.095	489.56
480.313	528.56
480.532	509.56
480.751	524.56
480.969	521.56
481.188	568.56
481.406	572.56
481.624	539.56
481.843	485.56
482.061	502.56
482.28	484.56
482.498	471.56
482.717	497.56
482.935	456.56
483.153	475.56
483.372	494.56
483.59	472.56
483.808	479.56
484.027	506.56
484.245	485.56
484.463	495.56
484.681	523.56
484.9	481.56
485.118	504.56
485.336	484.56
485.554	491.56
485.772	491.56
485.99	483.56
486.209	521.56
486.427	501.56
486.645	518.56
486.863	527.56
487.081	520.56
487.299	513.56
487.517	503.56
487.735	488.56
487.953	521.56
488.171	512.56
488.389	517.56
488.607	508.56
488.825	493.56
489.043	530.56
489.261	524.56
489.479	515.56
489.696	549.56
489.914	517.56
490.132	531.56
490.35	526.56
490.568	531.56
490.786	551.56
491.003	553.56
491.221	552.56
491.439	579.56
491.657	573.56
491.874	555.56
492.092	555.56
492.31	600.56
492.527	579.56
492.745	590.56
492.963	572.56
493.18	606.56
493.398	596.56
493.615	600.56
493.833	587.56
494.05	607.56
494.268	577.56
494.485	584.56
494.703	594.56
494.92	592.56
495.138	613.56
495.355	600.56
495.573	622.56
495.79	618.56
496.008	620.56
496.225	607.56
496.442	588.56
496.66	637.56
496.877	617.56
497.094	612.56
497.312	582.56
497.529	589.56
497.746	628.56
497.963	629.56
498.181	662.56
498.398	664.56
498.615	686.56
498.832	711.56
499.049	689.56
499.267	726.56
499.484	763.56
499.701	805.56
499.918	841.56
500.135	870.56
500.352	939.56
500.569	943.56
500.786	938.56
501.003	917.56
501.22	885.56
501.437	873.56
501.654	845.56
501.871	822.56
