Data from 1964.PennyLincolnUp.Lamp.En5.5.200Scan.071719.P1._HRD10591_14-03-58-909.txt Node
Date: Thu Jul 18 14:03:58 EDT 2019
User: cochatt
Spectrometer: HR+D1059
Trigger mode: 1
Integration Time (sec): 1.000000E-1
Scans to average: 1
Electric dark correction enabled: true
Nonlinearity correction enabled: false
Boxcar width: 0
XAxis mode: Wavelengths
Number of Pixels in Spectrum: 2048
>>>>>Begin Spectral Data<<<<<
223.165	-7.94
223.4	-7.94
223.635	-7.94
223.869	-8.94
224.104	-27.94
224.338	-17.94
224.573	-9.94
224.808	-6.94
225.042	8.06
225.277	-4.94
225.511	-9.94
225.746	-3.94
225.98	5.06
226.215	3.06
226.449	5.06
226.683	21.06
226.918	24.06
227.152	32.06
227.387	31.06
227.621	41.06
227.856	53.06
228.09	35.06
228.324	43.06
228.559	52.06
228.793	59.06
229.027	95.06
229.262	92.06
229.496	97.06
229.73	122.06
229.964	124.06
230.199	114.06
230.433	102.06
230.667	100.06
230.901	94.06
231.136	96.06
231.37	109.06
231.604	99.06
231.838	110.06
232.072	106.06
232.306	102.06
232.541	101.06
232.775	112.06
233.009	120.06
233.243	90.06
233.477	110.06
233.711	98.06
233.945	105.06
234.179	116.06
234.413	108.06
234.647	112.06
234.881	116.06
235.115	111.06
235.349	122.06
235.583	103.06
235.817	112.06
236.051	117.06
236.285	110.06
236.519	125.06
236.753	124.06
236.987	130.06
237.221	151.06
237.455	195.06
237.689	143.06
237.922	116.06
238.156	116.06
238.39	141.06
238.624	130.06
238.858	132.06
239.091	114.06
239.325	119.06
239.559	103.06
239.793	124.06
240.027	128.06
240.26	128.06
240.494	150.06
240.728	132.06
240.961	150.06
241.195	137.06
241.429	121.06
241.662	120.06
241.896	120.06
242.13	140.06
242.363	134.06
242.597	127.06
242.83	124.06
243.064	126.06
243.298	134.06
243.531	140.06
243.765	123.06
243.998	142.06
244.232	122.06
244.465	122.06
244.699	129.06
244.932	145.06
245.166	136.06
245.399	154.06
245.633	144.06
245.866	144.06
246.099	149.06
246.333	138.06
246.566	143.06
246.8	144.06
247.033	157.06
247.266	150.06
247.5	176.06
247.733	161.06
247.966	154.06
248.2	163.06
248.433	156.06
248.666	167.06
248.899	156.06
249.133	186.06
249.366	209.06
249.599	181.06
249.832	174.06
250.066	174.06
250.299	179.06
250.532	178.06
250.765	196.06
250.998	194.06
251.231	197.06
251.465	199.06
251.698	196.06
251.931	191.06
252.164	185.06
252.397	194.06
252.63	204.06
252.863	188.06
253.096	211.06
253.329	196.06
253.562	207.06
253.795	196.06
254.028	196.06
254.261	206.06
254.494	222.06
254.727	223.06
254.96	240.06
255.193	230.06
255.426	228.06
255.659	201.06
255.892	221.06
256.124	220.06
256.357	223.06
256.59	212.06
256.823	194.06
257.056	182.06
257.289	195.06
257.521	200.06
257.754	198.06
257.987	211.06
258.22	206.06
258.452	224.06
258.685	201.06
258.918	200.06
259.151	211.06
259.383	200.06
259.616	203.06
259.849	214.06
260.081	210.06
260.314	237.06
260.547	236.06
260.779	230.06
261.012	227.06
261.244	225.06
261.477	232.06
261.71	202.06
261.942	217.06
262.175	234.06
262.407	242.06
262.64	218.06
262.872	209.06
263.105	202.06
263.337	210.06
263.57	190.06
263.802	217.06
264.035	219.06
264.267	225.06
264.499	220.06
264.732	232.06
264.964	207.06
265.197	213.06
265.429	205.06
265.661	210.06
265.894	217.06
266.126	226.06
266.358	220.06
266.591	221.06
266.823	226.06
267.055	221.06
267.287	216.06
267.52	217.06
267.752	235.06
267.984	228.06
268.216	234.06
268.448	231.06
268.681	229.06
268.913	248.06
269.145	231.06
269.377	260.06
269.609	258.06
269.841	260.06
270.073	276.06
270.306	297.06
270.538	307.06
270.77	309.06
271.002	286.06
271.234	276.06
271.466	275.06
271.698	296.06
271.93	297.06
272.162	310.06
272.394	299.06
272.626	275.06
272.858	277.06
273.09	273.06
273.322	259.06
273.553	260.06
273.785	250.06
274.017	247.06
274.249	249.06
274.481	268.06
274.713	268.06
274.945	274.06
275.176	275.06
275.408	260.06
275.64	265.06
275.872	258.06
276.104	249.06
276.335	250.06
276.567	284.06
276.799	296.06
277.031	308.06
277.262	304.06
277.494	297.06
277.726	306.06
277.957	288.06
278.189	276.06
278.421	279.06
278.652	290.06
278.884	268.06
279.115	284.06
279.347	278.06
279.579	281.06
279.81	269.06
280.042	284.06
280.273	277.06
280.505	264.06
280.736	296.06
280.968	283.06
281.199	284.06
281.431	267.06
281.662	290.06
281.894	281.06
282.125	297.06
282.356	300.06
282.588	305.06
282.819	290.06
283.051	290.06
283.282	290.06
283.513	295.06
283.745	307.06
283.976	301.06
284.207	293.06
284.439	292.06
284.67	299.06
284.901	294.06
285.132	280.06
285.364	293.06
285.595	308.06
285.826	303.06
286.057	277.06
286.288	288.06
286.52	304.06
286.751	322.06
286.982	296.06
287.213	288.06
287.444	300.06
287.675	310.06
287.906	332.06
288.138	326.06
288.369	320.06
288.6	288.06
288.831	320.06
289.062	327.06
289.293	316.06
289.524	286.06
289.755	308.06
289.986	299.06
290.217	285.06
290.448	297.06
290.679	311.06
290.91	314.06
291.141	320.06
291.371	292.06
291.602	296.06
291.833	308.06
292.064	323.06
292.295	310.06
292.526	312.06
292.757	318.06
292.987	306.06
293.218	306.06
293.449	317.06
293.68	311.06
293.91	318.06
294.141	302.06
294.372	317.06
294.603	310.06
294.833	317.06
295.064	293.06
295.295	324.06
295.525	325.06
295.756	319.06
295.987	316.06
296.217	337.06
296.448	330.06
296.679	315.06
296.909	325.06
297.14	304.06
297.37	341.06
297.601	319.06
297.831	320.06
298.062	352.06
298.292	339.06
298.523	317.06
298.753	321.06
298.984	312.06
299.214	333.06
299.445	329.06
299.675	322.06
299.905	335.06
300.136	330.06
300.366	330.06
300.597	343.06
300.827	354.06
301.057	327.06
301.288	345.06
301.518	342.06
301.748	346.06
301.979	353.06
302.209	338.06
302.439	351.06
302.669	339.06
302.9	341.06
303.13	357.06
303.36	352.06
303.59	337.06
303.82	348.06
304.051	346.06
304.281	357.06
304.511	348.06
304.741	338.06
304.971	336.06
305.201	346.06
305.431	356.06
305.661	341.06
305.891	346.06
306.121	356.06
306.352	352.06
306.582	342.06
306.812	330.06
307.042	348.06
307.272	357.06
307.502	343.06
307.731	375.06
307.961	356.06
308.191	325.06
308.421	362.06
308.651	362.06
308.881	353.06
309.111	350.06
309.341	357.06
309.571	375.06
309.8	364.06
310.03	380.06
310.26	373.06
310.49	369.06
310.72	375.06
310.949	387.06
311.179	386.06
311.409	389.06
311.639	377.06
311.868	353.06
312.098	372.06
312.328	367.06
312.557	384.06
312.787	402.06
313.017	384.06
313.246	378.06
313.476	368.06
313.706	371.06
313.935	373.06
314.165	408.06
314.394	377.06
314.624	403.06
314.853	376.06
315.083	369.06
315.312	372.06
315.542	394.06
315.771	361.06
316.001	376.06
316.23	382.06
316.46	378.06
316.689	380.06
316.919	379.06
317.148	388.06
317.377	393.06
317.607	392.06
317.836	380.06
318.065	386.06
318.295	382.06
318.524	380.06
318.753	385.06
318.983	388.06
319.212	354.06
319.441	372.06
319.67	378.06
319.9	393.06
320.129	385.06
320.358	381.06
320.587	379.06
320.816	407.06
321.046	412.06
321.275	402.06
321.504	392.06
321.733	398.06
321.962	406.06
322.191	419.06
322.42	410.06
322.649	416.06
322.878	418.06
323.108	414.06
323.337	432.06
323.566	440.06
323.795	448.06
324.024	481.06
324.253	550.06
324.482	719.06
324.71	1026.06
324.939	1415.06
325.168	1162.06
325.397	655.06
325.626	488.06
325.855	461.06
326.084	460.06
326.313	443.06
326.542	462.06
326.77	488.06
326.999	521.06
327.228	660.06
327.457	936.06
327.686	1057.06
327.914	743.06
328.143	548.06
328.372	522.06
328.6	485.06
328.829	494.06
329.058	506.06
329.287	492.06
329.515	474.06
329.744	462.06
329.972	468.06
330.201	488.06
330.43	496.06
330.658	501.06
330.887	493.06
331.115	481.06
331.344	461.06
331.572	463.06
331.801	453.06
332.03	460.06
332.258	425.06
332.486	438.06
332.715	449.06
332.943	465.06
333.172	473.06
333.4	474.06
333.629	488.06
333.857	497.06
334.085	491.06
334.314	504.06
334.542	510.06
334.771	516.06
334.999	498.06
335.227	473.06
335.455	470.06
335.684	474.06
335.912	469.06
336.14	445.06
336.369	440.06
336.597	472.06
336.825	469.06
337.053	420.06
337.281	449.06
337.51	448.06
337.738	458.06
337.966	442.06
338.194	428.06
338.422	452.06
338.65	423.06
338.878	462.06
339.106	425.06
339.334	432.06
339.562	422.06
339.79	448.06
340.018	433.06
340.246	424.06
340.474	427.06
340.702	420.06
340.93	436.06
341.158	435.06
341.386	422.06
341.614	426.06
341.842	429.06
342.07	407.06
342.298	412.06
342.526	419.06
342.754	427.06
342.981	423.06
343.209	403.06
343.437	415.06
343.665	444.06
343.893	437.06
344.12	454.06
344.348	457.06
344.576	427.06
344.804	455.06
345.031	429.06
345.259	448.06
345.487	432.06
345.714	407.06
345.942	392.06
346.17	413.06
346.397	404.06
346.625	400.06
346.853	420.06
347.08	392.06
347.308	411.06
347.535	420.06
347.763	384.06
347.99	417.06
348.218	412.06
348.445	420.06
348.673	408.06
348.9	403.06
349.128	379.06
349.355	403.06
349.583	387.06
349.81	396.06
350.037	389.06
350.265	381.06
350.492	371.06
350.72	394.06
350.947	384.06
351.174	404.06
351.402	408.06
351.629	373.06
351.856	389.06
352.083	416.06
352.311	425.06
352.538	415.06
352.765	414.06
352.992	384.06
353.22	401.06
353.447	375.06
353.674	363.06
353.901	394.06
354.128	394.06
354.355	376.06
354.583	385.06
354.81	361.06
355.037	396.06
355.264	386.06
355.491	382.06
355.718	406.06
355.945	387.06
356.172	379.06
356.399	376.06
356.626	380.06
356.853	371.06
357.08	386.06
357.307	370.06
357.534	392.06
357.761	374.06
357.988	388.06
358.215	382.06
358.441	381.06
358.668	357.06
358.895	408.06
359.122	402.06
359.349	394.06
359.576	386.06
359.802	378.06
360.029	434.06
360.256	410.06
360.483	410.06
360.709	389.06
360.936	408.06
361.163	404.06
361.39	395.06
361.616	392.06
361.843	370.06
362.07	383.06
362.296	392.06
362.523	389.06
362.749	369.06
362.976	369.06
363.203	378.06
363.429	348.06
363.656	376.06
363.882	392.06
364.109	389.06
364.335	383.06
364.562	394.06
364.788	362.06
365.015	370.06
365.241	384.06
365.468	386.06
365.694	381.06
365.92	402.06
366.147	388.06
366.373	365.06
366.599	368.06
366.826	376.06
367.052	358.06
367.278	370.06
367.505	371.06
367.731	375.06
367.957	372.06
368.184	373.06
368.41	370.06
368.636	371.06
368.862	386.06
369.089	378.06
369.315	357.06
369.541	386.06
369.767	377.06
369.993	388.06
370.219	378.06
370.445	389.06
370.672	378.06
370.898	369.06
371.124	384.06
371.35	382.06
371.576	368.06
371.802	377.06
372.028	371.06
372.254	386.06
372.48	371.06
372.706	393.06
372.932	384.06
373.158	374.06
373.384	391.06
373.61	382.06
373.835	394.06
374.061	361.06
374.287	413.06
374.513	384.06
374.739	368.06
374.965	398.06
375.191	406.06
375.416	380.06
375.642	389.06
375.868	388.06
376.094	366.06
376.319	378.06
376.545	374.06
376.771	375.06
376.997	375.06
377.222	369.06
377.448	357.06
377.674	372.06
377.899	355.06
378.125	375.06
378.35	377.06
378.576	364.06
378.802	364.06
379.027	368.06
379.253	356.06
379.478	376.06
379.704	376.06
379.929	367.06
380.155	377.06
380.38	382.06
380.606	376.06
380.831	373.06
381.057	389.06
381.282	387.06
381.507	380.06
381.733	373.06
381.958	384.06
382.184	378.06
382.409	363.06
382.634	384.06
382.86	380.06
383.085	384.06
383.31	390.06
383.535	393.06
383.761	394.06
383.986	391.06
384.211	383.06
384.436	417.06
384.662	415.06
384.887	408.06
385.112	413.06
385.337	405.06
385.562	402.06
385.787	416.06
386.013	422.06
386.238	435.06
386.463	414.06
386.688	402.06
386.913	413.06
387.138	392.06
387.363	403.06
387.588	410.06
387.813	404.06
388.038	398.06
388.263	406.06
388.488	416.06
388.713	408.06
388.938	398.06
389.163	416.06
389.387	448.06
389.612	413.06
389.837	402.06
390.062	410.06
390.287	412.06
390.512	392.06
390.736	405.06
390.961	410.06
391.186	398.06
391.411	404.06
391.636	432.06
391.86	419.06
392.085	426.06
392.31	414.06
392.534	444.06
392.759	420.06
392.984	426.06
393.208	414.06
393.433	422.06
393.658	406.06
393.882	416.06
394.107	416.06
394.331	404.06
394.556	416.06
394.78	419.06
395.005	425.06
395.229	425.06
395.454	418.06
395.678	436.06
395.903	422.06
396.127	417.06
396.352	451.06
396.576	446.06
396.801	430.06
397.025	438.06
397.249	418.06
397.474	421.06
397.698	448.06
397.922	430.06
398.147	460.06
398.371	449.06
398.595	457.06
398.82	462.06
399.044	481.06
399.268	499.06
399.492	538.06
399.717	554.06
399.941	578.06
400.165	602.06
400.389	560.06
400.613	531.06
400.837	480.06
401.062	490.06
401.286	478.06
401.51	468.06
401.734	466.06
401.958	466.06
402.182	468.06
402.406	463.06
402.63	476.06
402.854	469.06
403.078	455.06
403.302	485.06
403.526	495.06
403.75	469.06
403.974	476.06
404.198	513.06
404.422	486.06
404.645	485.06
404.869	491.06
405.093	498.06
405.317	562.06
405.541	564.06
405.765	514.06
405.988	492.06
406.212	496.06
406.436	492.06
406.66	519.06
406.883	508.06
407.107	542.06
407.331	583.06
407.555	610.06
407.778	597.06
408.002	562.06
408.226	536.06
408.449	485.06
408.673	532.06
408.896	537.06
409.12	561.06
409.344	538.06
409.567	510.06
409.791	499.06
410.014	471.06
410.238	476.06
410.461	483.06
410.685	482.06
410.908	491.06
411.132	500.06
411.355	525.06
411.578	492.06
411.802	477.06
412.025	460.06
412.249	489.06
412.472	496.06
412.695	520.06
412.919	502.06
413.142	468.06
413.365	455.06
413.589	466.06
413.812	435.06
414.035	450.06
414.258	462.06
414.482	456.06
414.705	432.06
414.928	451.06
415.151	454.06
415.374	452.06
415.597	434.06
415.821	424.06
416.044	430.06
416.267	442.06
416.49	440.06
416.713	430.06
416.936	428.06
417.159	431.06
417.382	438.06
417.605	403.06
417.828	436.06
418.051	442.06
418.274	440.06
418.497	436.06
418.72	441.06
418.943	429.06
419.166	470.06
419.389	480.06
419.611	474.06
419.834	494.06
420.057	451.06
420.28	480.06
420.503	435.06
420.726	453.06
420.948	483.06
421.171	475.06
421.394	496.06
421.617	465.06
421.839	455.06
422.062	434.06
422.285	445.06
422.507	489.06
422.73	573.06
422.953	539.06
423.175	481.06
423.398	456.06
423.621	490.06
423.843	476.06
424.066	472.06
424.288	469.06
424.511	479.06
424.733	524.06
424.956	586.06
425.178	547.06
425.401	564.06
425.623	565.06
425.846	510.06
426.068	475.06
426.291	458.06
426.513	463.06
426.735	481.06
426.958	496.06
427.18	547.06
427.402	653.06
427.625	686.06
427.847	583.06
428.069	538.06
428.292	498.06
428.514	443.06
428.736	440.06
428.958	444.06
429.181	421.06
429.403	451.06
429.625	434.06
429.847	446.06
430.069	500.06
430.292	482.06
430.514	436.06
430.736	418.06
430.958	416.06
431.18	400.06
431.402	403.06
431.624	410.06
431.846	416.06
432.068	420.06
432.29	408.06
432.512	422.06
432.734	435.06
432.956	419.06
433.178	433.06
433.4	424.06
433.622	416.06
433.844	425.06
434.066	440.06
434.287	419.06
434.509	428.06
434.731	416.06
434.953	439.06
435.175	448.06
435.397	452.06
435.618	465.06
435.84	481.06
436.062	557.06
436.284	587.06
436.505	513.06
436.727	457.06
436.949	450.06
437.17	421.06
437.392	442.06
437.614	443.06
437.835	450.06
438.057	508.06
438.278	574.06
438.5	572.06
438.721	616.06
438.943	607.06
439.165	494.06
439.386	463.06
439.608	456.06
439.829	474.06
440.05	482.06
440.272	477.06
440.493	469.06
440.715	459.06
440.936	454.06
441.158	432.06
441.379	423.06
441.6	428.06
441.822	451.06
442.043	477.06
442.264	518.06
442.486	545.06
442.707	500.06
442.928	466.06
443.149	494.06
443.371	481.06
443.592	508.06
443.813	553.06
444.034	626.06
444.255	529.06
444.476	478.06
444.698	480.06
444.919	460.06
445.14	594.06
445.361	530.06
445.582	478.06
445.803	536.06
446.024	571.06
446.245	590.06
446.466	533.06
446.687	472.06
446.908	441.06
447.129	442.06
447.35	434.06
447.571	416.06
447.792	432.06
448.013	408.06
448.234	421.06
448.455	468.06
448.675	528.06
448.896	600.06
449.117	529.06
449.338	501.06
449.559	567.06
449.779	645.06
450	520.06
450.221	452.06
450.442	416.06
450.662	414.06
450.883	378.06
451.104	384.06
451.324	398.06
451.545	412.06
451.766	363.06
451.986	373.06
452.207	380.06
452.428	380.06
452.648	380.06
452.869	382.06
453.089	371.06
453.31	390.06
453.53	361.06
453.751	378.06
453.971	376.06
454.192	382.06
454.412	366.06
454.633	378.06
454.853	346.06
455.073	360.06
455.294	405.06
455.514	424.06
455.734	430.06
455.955	382.06
456.175	362.06
456.395	363.06
456.616	351.06
456.836	368.06
457.056	364.06
457.276	349.06
457.497	353.06
457.717	383.06
457.937	383.06
458.157	368.06
458.377	359.06
458.598	392.06
458.818	417.06
459.038	460.06
459.258	455.06
459.478	412.06
459.698	427.06
459.918	426.06
460.138	398.06
460.358	416.06
460.578	442.06
460.798	440.06
461.018	438.06
461.238	442.06
461.458	415.06
461.678	409.06
461.898	432.06
462.118	406.06
462.338	441.06
462.558	441.06
462.777	440.06
462.997	476.06
463.217	471.06
463.437	468.06
463.657	466.06
463.876	449.06
464.096	468.06
464.316	472.06
464.536	437.06
464.755	447.06
464.975	451.06
465.195	468.06
465.414	491.06
465.634	442.06
465.854	423.06
466.073	407.06
466.293	402.06
466.512	403.06
466.732	395.06
466.951	390.06
467.171	381.06
467.391	394.06
467.61	396.06
467.829	400.06
468.049	397.06
468.268	411.06
468.488	392.06
468.707	363.06
468.927	369.06
469.146	388.06
469.365	374.06
469.585	378.06
469.804	384.06
470.023	390.06
470.243	403.06
470.462	392.06
470.681	398.06
470.901	400.06
471.12	396.06
471.339	382.06
471.558	405.06
471.777	421.06
471.997	401.06
472.216	410.06
472.435	416.06
472.654	404.06
472.873	391.06
473.092	405.06
473.311	420.06
473.53	390.06
473.749	389.06
473.968	457.06
474.187	494.06
474.406	498.06
474.625	429.06
474.844	408.06
475.063	406.06
475.282	392.06
475.501	388.06
475.72	415.06
475.939	399.06
476.158	397.06
476.377	415.06
476.596	401.06
476.814	425.06
477.033	418.06
477.252	411.06
477.471	412.06
477.69	441.06
477.908	430.06
478.127	456.06
478.346	424.06
478.564	437.06
478.783	450.06
479.002	444.06
479.22	441.06
479.439	465.06
479.658	466.06
479.876	457.06
480.095	477.06
480.313	519.06
480.532	483.06
480.751	477.06
480.969	495.06
481.188	506.06
481.406	500.06
481.624	475.06
481.843	457.06
482.061	436.06
482.28	475.06
482.498	467.06
482.717	456.06
482.935	454.06
483.153	462.06
483.372	443.06
483.59	477.06
483.808	442.06
484.027	459.06
484.245	458.06
484.463	469.06
484.681	464.06
484.9	434.06
485.118	476.06
485.336	451.06
485.554	464.06
485.772	473.06
485.99	455.06
486.209	476.06
486.427	467.06
486.645	475.06
486.863	494.06
487.081	474.06
487.299	471.06
487.517	479.06
487.735	482.06
487.953	489.06
488.171	500.06
488.389	480.06
488.607	480.06
488.825	493.06
489.043	478.06
489.261	477.06
489.479	498.06
489.696	481.06
489.914	482.06
490.132	499.06
490.35	502.06
490.568	505.06
490.786	483.06
491.003	509.06
491.221	526.06
491.439	517.06
491.657	510.06
491.874	528.06
492.092	542.06
492.31	519.06
492.527	527.06
492.745	560.06
492.963	578.06
493.18	560.06
493.398	565.06
493.615	556.06
493.833	550.06
494.05	554.06
494.268	572.06
494.485	564.06
494.703	535.06
494.92	560.06
495.138	559.06
495.355	549.06
495.573	560.06
495.79	572.06
496.008	546.06
496.225	568.06
496.442	562.06
496.66	566.06
496.877	570.06
497.094	544.06
497.312	569.06
497.529	596.06
497.746	596.06
497.963	586.06
498.181	627.06
498.398	625.06
498.615	655.06
498.832	673.06
499.049	684.06
499.267	695.06
499.484	739.06
499.701	749.06
499.918	789.06
500.135	840.06
500.352	861.06
500.569	896.06
500.786	890.06
501.003	866.06
501.22	848.06
501.437	798.06
501.654	772.06
501.871	742.06
502.088	705.06
