Data from 1964.PennyLincolnUp.Lamp.En5.5.200Scan.071719.P1._HRD10591_14-06-35-910.txt Node
Date: Thu Jul 18 14:06:35 EDT 2019
User: cochatt
Spectrometer: HR+D1059
Trigger mode: 1
Integration Time (sec): 1.000000E-1
Scans to average: 1
Electric dark correction enabled: true
Nonlinearity correction enabled: false
Boxcar width: 0
XAxis mode: Wavelengths
Number of Pixels in Spectrum: 2048
>>>>>Begin Spectral Data<<<<<
223.165	-6.25
223.4	-6.25
223.635	-6.25
223.869	-22.25
224.104	-9.25
224.338	-18.25
224.573	-13.25
224.808	-1.25
225.042	-0.25
225.277	-3.25
225.511	-11.25
225.746	1.75
225.98	1.75
226.215	13.75
226.449	9.75
226.683	10.75
226.918	20.75
227.152	26.75
227.387	38.75
227.621	29.75
227.856	53.75
228.09	58.75
228.324	43.75
228.559	42.75
228.793	66.75
229.027	81.75
229.262	78.75
229.496	104.75
229.73	126.75
229.964	132.75
230.199	112.75
230.433	92.75
230.667	112.75
230.901	112.75
231.136	96.75
231.37	116.75
231.604	91.75
231.838	107.75
232.072	107.75
232.306	107.75
232.541	125.75
232.775	100.75
233.009	110.75
233.243	107.75
233.477	112.75
233.711	114.75
233.945	105.75
234.179	117.75
234.413	118.75
234.647	132.75
234.881	111.75
235.115	120.75
235.349	100.75
235.583	120.75
235.817	124.75
236.051	128.75
236.285	103.75
236.519	129.75
236.753	130.75
236.987	149.75
237.221	161.75
237.455	202.75
237.689	171.75
237.922	130.75
238.156	128.75
238.39	132.75
238.624	133.75
238.858	131.75
239.091	126.75
239.325	128.75
239.559	129.75
239.793	140.75
240.027	122.75
240.26	137.75
240.494	163.75
240.728	142.75
240.961	167.75
241.195	157.75
241.429	149.75
241.662	147.75
241.896	150.75
242.13	130.75
242.363	129.75
242.597	130.75
242.83	149.75
243.064	128.75
243.298	145.75
243.531	145.75
243.765	147.75
243.998	156.75
244.232	146.75
244.465	142.75
244.699	138.75
244.932	151.75
245.166	154.75
245.399	139.75
245.633	127.75
245.866	154.75
246.099	156.75
246.333	155.75
246.566	148.75
246.8	151.75
247.033	162.75
247.266	154.75
247.5	164.75
247.733	176.75
247.966	175.75
248.2	182.75
248.433	171.75
248.666	168.75
248.899	191.75
249.133	208.75
249.366	194.75
249.599	196.75
249.832	187.75
250.066	184.75
250.299	185.75
250.532	176.75
250.765	204.75
250.998	232.75
251.231	228.75
251.465	227.75
251.698	208.75
251.931	187.75
252.164	191.75
252.397	211.75
252.63	215.75
252.863	205.75
253.096	229.75
253.329	228.75
253.562	214.75
253.795	212.75
254.028	205.75
254.261	214.75
254.494	236.75
254.727	231.75
254.96	281.75
255.193	253.75
255.426	242.75
255.659	235.75
255.892	240.75
256.124	234.75
256.357	254.75
256.59	258.75
256.823	245.75
257.056	227.75
257.289	215.75
257.521	212.75
257.754	218.75
257.987	230.75
258.22	241.75
258.452	215.75
258.685	213.75
258.918	204.75
259.151	225.75
259.383	230.75
259.616	229.75
259.849	241.75
260.081	257.75
260.314	273.75
260.547	276.75
260.779	244.75
261.012	240.75
261.244	236.75
261.477	220.75
261.71	218.75
261.942	224.75
262.175	233.75
262.407	251.75
262.64	232.75
262.872	219.75
263.105	216.75
263.337	236.75
263.57	229.75
263.802	215.75
264.035	227.75
264.267	228.75
264.499	234.75
264.732	245.75
264.964	242.75
265.197	221.75
265.429	221.75
265.661	236.75
265.894	258.75
266.126	248.75
266.358	231.75
266.591	237.75
266.823	247.75
267.055	246.75
267.287	243.75
267.52	258.75
267.752	265.75
267.984	256.75
268.216	259.75
268.448	259.75
268.681	260.75
268.913	263.75
269.145	289.75
269.377	304.75
269.609	285.75
269.841	292.75
270.073	287.75
270.306	285.75
270.538	304.75
270.77	320.75
271.002	292.75
271.234	297.75
271.466	322.75
271.698	319.75
271.93	340.75
272.162	321.75
272.394	320.75
272.626	342.75
272.858	311.75
273.09	306.75
273.322	291.75
273.553	287.75
273.785	300.75
274.017	292.75
274.249	300.75
274.481	278.75
274.713	293.75
274.945	313.75
275.176	290.75
275.408	281.75
275.64	292.75
275.872	284.75
276.104	290.75
276.335	296.75
276.567	295.75
276.799	295.75
277.031	343.75
277.262	329.75
277.494	331.75
277.726	332.75
277.957	325.75
278.189	299.75
278.421	321.75
278.652	290.75
278.884	296.75
279.115	303.75
279.347	314.75
279.579	296.75
279.81	297.75
280.042	308.75
280.273	298.75
280.505	288.75
280.736	296.75
280.968	309.75
281.199	308.75
281.431	301.75
281.662	310.75
281.894	295.75
282.125	312.75
282.356	329.75
282.588	313.75
282.819	316.75
283.051	318.75
283.282	308.75
283.513	300.75
283.745	307.75
283.976	297.75
284.207	316.75
284.439	310.75
284.67	297.75
284.901	306.75
285.132	310.75
285.364	320.75
285.595	317.75
285.826	316.75
286.057	325.75
286.288	318.75
286.52	317.75
286.751	306.75
286.982	314.75
287.213	316.75
287.444	322.75
287.675	328.75
287.906	333.75
288.138	331.75
288.369	341.75
288.6	332.75
288.831	316.75
289.062	330.75
289.293	355.75
289.524	340.75
289.755	326.75
289.986	332.75
290.217	318.75
290.448	331.75
290.679	342.75
290.91	335.75
291.141	331.75
291.371	322.75
291.602	335.75
291.833	331.75
292.064	299.75
292.295	334.75
292.526	335.75
292.757	331.75
292.987	317.75
293.218	318.75
293.449	341.75
293.68	334.75
293.91	320.75
294.141	328.75
294.372	312.75
294.603	334.75
294.833	334.75
295.064	321.75
295.295	339.75
295.525	333.75
295.756	350.75
295.987	342.75
296.217	373.75
296.448	355.75
296.679	339.75
296.909	323.75
297.14	347.75
297.37	350.75
297.601	341.75
297.831	338.75
298.062	333.75
298.292	341.75
298.523	329.75
298.753	333.75
298.984	342.75
299.214	325.75
299.445	349.75
299.675	350.75
299.905	348.75
300.136	354.75
300.366	350.75
300.597	355.75
300.827	354.75
301.057	370.75
301.288	363.75
301.518	360.75
301.748	346.75
301.979	373.75
302.209	377.75
302.439	372.75
302.669	369.75
302.9	365.75
303.13	356.75
303.36	355.75
303.59	378.75
303.82	370.75
304.051	369.75
304.281	356.75
304.511	365.75
304.741	390.75
304.971	374.75
305.201	361.75
305.431	368.75
305.661	364.75
305.891	380.75
306.121	374.75
306.352	374.75
306.582	365.75
306.812	380.75
307.042	364.75
307.272	369.75
307.502	358.75
307.731	380.75
307.961	387.75
308.191	372.75
308.421	376.75
308.651	380.75
308.881	377.75
309.111	365.75
309.341	380.75
309.571	398.75
309.8	394.75
310.03	410.75
310.26	388.75
310.49	404.75
310.72	398.75
310.949	414.75
311.179	425.75
311.409	423.75
311.639	406.75
311.868	395.75
312.098	391.75
312.328	417.75
312.557	418.75
312.787	434.75
313.017	433.75
313.246	411.75
313.476	416.75
313.706	416.75
313.935	437.75
314.165	410.75
314.394	426.75
314.624	437.75
314.853	425.75
315.083	416.75
315.312	421.75
315.542	392.75
315.771	416.75
316.001	382.75
316.23	430.75
316.46	426.75
316.689	429.75
316.919	409.75
317.148	424.75
317.377	404.75
317.607	402.75
317.836	423.75
318.065	401.75
318.295	404.75
318.524	399.75
318.753	416.75
318.983	424.75
319.212	409.75
319.441	424.75
319.67	407.75
319.9	408.75
320.129	419.75
320.358	422.75
320.587	421.75
320.816	429.75
321.046	432.75
321.275	424.75
321.504	424.75
321.733	440.75
321.962	450.75
322.191	460.75
322.42	444.75
322.649	452.75
322.878	456.75
323.108	469.75
323.337	485.75
323.566	483.75
323.795	520.75
324.024	560.75
324.253	655.75
324.482	894.75
324.71	1312.75
324.939	1789.75
325.168	1536.75
325.397	831.75
325.626	606.75
325.855	518.75
326.084	518.75
326.313	516.75
326.542	497.75
326.77	550.75
326.999	621.75
327.228	818.75
327.457	1145.75
327.686	1322.75
327.914	936.75
328.143	658.75
328.372	564.75
328.6	548.75
328.829	557.75
329.058	535.75
329.287	569.75
329.515	535.75
329.744	501.75
329.972	526.75
330.201	561.75
330.43	567.75
330.658	566.75
330.887	596.75
331.115	548.75
331.344	508.75
331.572	494.75
331.801	511.75
332.03	494.75
332.258	489.75
332.486	499.75
332.715	492.75
332.943	485.75
333.172	518.75
333.4	505.75
333.629	501.75
333.857	523.75
334.085	531.75
334.314	545.75
334.542	582.75
334.771	577.75
334.999	533.75
335.227	516.75
335.455	508.75
335.684	504.75
335.912	502.75
336.14	493.75
336.369	490.75
336.597	485.75
336.825	488.75
337.053	500.75
337.281	472.75
337.51	462.75
337.738	498.75
337.966	484.75
338.194	480.75
338.422	503.75
338.65	491.75
338.878	457.75
339.106	469.75
339.334	470.75
339.562	467.75
339.79	462.75
340.018	469.75
340.246	461.75
340.474	489.75
340.702	453.75
340.93	456.75
341.158	452.75
341.386	464.75
341.614	467.75
341.842	455.75
342.07	448.75
342.298	422.75
342.526	482.75
342.754	463.75
342.981	441.75
343.209	447.75
343.437	454.75
343.665	484.75
343.893	470.75
344.12	484.75
344.348	483.75
344.576	475.75
344.804	468.75
345.031	460.75
345.259	488.75
345.487	473.75
345.714	466.75
345.942	465.75
346.17	457.75
346.397	437.75
346.625	459.75
346.853	440.75
347.08	426.75
347.308	438.75
347.535	445.75
347.763	454.75
347.99	425.75
348.218	429.75
348.445	439.75
348.673	449.75
348.9	434.75
349.128	445.75
349.355	416.75
349.583	432.75
349.81	432.75
350.037	423.75
350.265	408.75
350.492	410.75
350.72	414.75
350.947	430.75
351.174	431.75
351.402	430.75
351.629	440.75
351.856	428.75
352.083	449.75
352.311	444.75
352.538	445.75
352.765	424.75
352.992	408.75
353.22	430.75
353.447	438.75
353.674	417.75
353.901	412.75
354.128	420.75
354.355	401.75
354.583	418.75
354.81	414.75
355.037	431.75
355.264	392.75
355.491	423.75
355.718	408.75
355.945	418.75
356.172	429.75
356.399	401.75
356.626	403.75
356.853	400.75
357.08	408.75
357.307	397.75
357.534	416.75
357.761	396.75
357.988	400.75
358.215	392.75
358.441	403.75
358.668	386.75
358.895	408.75
359.122	394.75
359.349	433.75
359.576	422.75
359.802	427.75
360.029	458.75
360.256	451.75
360.483	420.75
360.709	426.75
360.936	434.75
361.163	404.75
361.39	419.75
361.616	440.75
361.843	412.75
362.07	429.75
362.296	415.75
362.523	419.75
362.749	418.75
362.976	413.75
363.203	424.75
363.429	409.75
363.656	405.75
363.882	401.75
364.109	405.75
364.335	394.75
364.562	385.75
364.788	411.75
365.015	412.75
365.241	406.75
365.468	417.75
365.694	416.75
365.92	411.75
366.147	406.75
366.373	398.75
366.599	398.75
366.826	397.75
367.052	397.75
367.278	398.75
367.505	415.75
367.731	394.75
367.957	400.75
368.184	408.75
368.41	407.75
368.636	419.75
368.862	420.75
369.089	402.75
369.315	430.75
369.541	405.75
369.767	413.75
369.993	407.75
370.219	409.75
370.445	421.75
370.672	416.75
370.898	378.75
371.124	424.75
371.35	412.75
371.576	410.75
371.802	412.75
372.028	399.75
372.254	395.75
372.48	405.75
372.706	420.75
372.932	431.75
373.158	400.75
373.384	409.75
373.61	418.75
373.835	424.75
374.061	423.75
374.287	417.75
374.513	402.75
374.739	420.75
374.965	420.75
375.191	407.75
375.416	394.75
375.642	403.75
375.868	421.75
376.094	383.75
376.319	404.75
376.545	416.75
376.771	397.75
376.997	382.75
377.222	361.75
377.448	406.75
377.674	384.75
377.899	390.75
378.125	401.75
378.35	413.75
378.576	386.75
378.802	406.75
379.027	397.75
379.253	404.75
379.478	395.75
379.704	416.75
379.929	407.75
380.155	388.75
380.38	416.75
380.606	395.75
380.831	373.75
381.057	412.75
381.282	399.75
381.507	385.75
381.733	399.75
381.958	417.75
382.184	419.75
382.409	411.75
382.634	393.75
382.86	425.75
383.085	405.75
383.31	396.75
383.535	421.75
383.761	402.75
383.986	415.75
384.211	413.75
384.436	438.75
384.662	432.75
384.887	411.75
385.112	432.75
385.337	439.75
385.562	421.75
385.787	429.75
386.013	466.75
386.238	427.75
386.463	443.75
386.688	436.75
386.913	436.75
387.138	431.75
387.363	453.75
387.588	450.75
387.813	445.75
388.038	438.75
388.263	450.75
388.488	446.75
388.713	441.75
388.938	436.75
389.163	478.75
389.387	445.75
389.612	426.75
389.837	410.75
390.062	443.75
390.287	420.75
390.512	450.75
390.736	435.75
390.961	424.75
391.186	434.75
391.411	423.75
391.636	435.75
391.86	456.75
392.085	460.75
392.31	444.75
392.534	452.75
392.759	458.75
392.984	432.75
393.208	443.75
393.433	429.75
393.658	446.75
393.882	448.75
394.107	425.75
394.331	439.75
394.556	439.75
394.78	425.75
395.005	448.75
395.229	435.75
395.454	462.75
395.678	450.75
395.903	464.75
396.127	490.75
396.352	482.75
396.576	460.75
396.801	459.75
397.025	443.75
397.249	447.75
397.474	460.75
397.698	452.75
397.922	485.75
398.147	486.75
398.371	473.75
398.595	492.75
398.82	488.75
399.044	502.75
399.268	516.75
399.492	555.75
399.717	570.75
399.941	607.75
400.165	617.75
400.389	595.75
400.613	565.75
400.837	547.75
401.062	500.75
401.286	507.75
401.51	504.75
401.734	487.75
401.958	514.75
402.182	495.75
402.406	503.75
402.63	508.75
402.854	508.75
403.078	501.75
403.302	500.75
403.526	516.75
403.75	528.75
403.974	530.75
404.198	494.75
404.422	520.75
404.645	530.75
404.869	531.75
405.093	557.75
405.317	584.75
405.541	576.75
405.765	552.75
405.988	550.75
406.212	539.75
406.436	545.75
406.66	559.75
406.883	545.75
407.107	568.75
407.331	616.75
407.555	643.75
407.778	637.75
408.002	606.75
408.226	563.75
408.449	566.75
408.673	577.75
408.896	574.75
409.12	577.75
409.344	538.75
409.567	529.75
409.791	530.75
410.014	488.75
410.238	495.75
410.461	518.75
410.685	514.75
410.908	518.75
411.132	533.75
411.355	567.75
411.578	538.75
411.802	515.75
412.025	522.75
412.249	517.75
412.472	524.75
412.695	560.75
412.919	579.75
413.142	520.75
413.365	477.75
413.589	500.75
413.812	510.75
414.035	481.75
414.258	478.75
414.482	489.75
414.705	476.75
414.928	480.75
415.151	473.75
415.374	469.75
415.597	466.75
415.821	454.75
416.044	456.75
416.267	460.75
416.49	468.75
416.713	480.75
416.936	454.75
417.159	470.75
417.382	463.75
417.605	470.75
417.828	486.75
418.051	478.75
418.274	509.75
418.497	476.75
418.72	475.75
418.943	458.75
419.166	469.75
419.389	493.75
419.611	510.75
419.834	501.75
420.057	474.75
420.28	481.75
420.503	490.75
420.726	491.75
420.948	494.75
421.171	526.75
421.394	575.75
421.617	510.75
421.839	512.75
422.062	475.75
422.285	486.75
422.507	540.75
422.73	640.75
422.953	592.75
423.175	522.75
423.398	512.75
423.621	492.75
423.843	521.75
424.066	531.75
424.288	539.75
424.511	534.75
424.733	585.75
424.956	637.75
425.178	605.75
425.401	575.75
425.623	587.75
425.846	537.75
426.068	513.75
426.291	522.75
426.513	519.75
426.735	522.75
426.958	549.75
427.18	602.75
427.402	699.75
427.625	776.75
427.847	636.75
428.069	569.75
428.292	536.75
428.514	488.75
428.736	484.75
428.958	484.75
429.181	458.75
429.403	469.75
429.625	480.75
429.847	499.75
430.069	547.75
430.292	525.75
430.514	483.75
430.736	456.75
430.958	437.75
431.18	446.75
431.402	424.75
431.624	456.75
431.846	439.75
432.068	429.75
432.29	449.75
432.512	442.75
432.734	450.75
432.956	442.75
433.178	460.75
433.4	458.75
433.622	434.75
433.844	466.75
434.066	455.75
434.287	457.75
434.509	446.75
434.731	462.75
434.953	462.75
435.175	482.75
435.397	508.75
435.618	515.75
435.84	526.75
436.062	594.75
436.284	669.75
436.505	562.75
436.727	514.75
436.949	488.75
437.17	492.75
437.392	457.75
437.614	457.75
437.835	481.75
438.057	565.75
438.278	646.75
438.5	657.75
438.721	710.75
438.943	686.75
439.165	552.75
439.386	508.75
439.608	522.75
439.829	499.75
440.05	520.75
440.272	564.75
440.493	530.75
440.715	492.75
440.936	498.75
441.158	490.75
441.379	461.75
441.6	471.75
441.822	493.75
442.043	523.75
442.264	612.75
442.486	633.75
442.707	544.75
442.928	530.75
443.149	521.75
443.371	537.75
443.592	553.75
443.813	649.75
444.034	696.75
444.255	568.75
444.476	546.75
444.698	545.75
444.919	526.75
445.14	593.75
445.361	550.75
445.582	559.75
445.803	598.75
446.024	672.75
446.245	666.75
446.466	585.75
446.687	526.75
446.908	510.75
447.129	476.75
447.35	462.75
447.571	448.75
447.792	443.75
448.013	461.75
448.234	466.75
448.455	514.75
448.675	610.75
448.896	694.75
449.117	579.75
449.338	563.75
449.559	635.75
449.779	701.75
450	589.75
450.221	488.75
450.442	461.75
450.662	440.75
450.883	444.75
451.104	445.75
451.324	448.75
451.545	433.75
451.766	410.75
451.986	427.75
452.207	413.75
452.428	391.75
452.648	412.75
452.869	402.75
453.089	419.75
453.31	450.75
453.53	440.75
453.751	421.75
453.971	428.75
454.192	418.75
454.412	406.75
454.633	400.75
454.853	402.75
455.073	397.75
455.294	422.75
455.514	480.75
455.734	473.75
455.955	405.75
456.175	395.75
456.395	388.75
456.616	384.75
456.836	383.75
457.056	373.75
457.276	397.75
457.497	418.75
457.717	372.75
457.937	399.75
458.157	406.75
458.377	403.75
458.598	425.75
458.818	462.75
459.038	497.75
459.258	515.75
459.478	484.75
459.698	450.75
459.918	436.75
460.138	459.75
460.358	465.75
460.578	440.75
460.798	467.75
461.018	448.75
461.238	487.75
461.458	452.75
461.678	458.75
461.898	462.75
462.118	454.75
462.338	476.75
462.558	477.75
462.777	480.75
462.997	516.75
463.217	527.75
463.437	525.75
463.657	476.75
463.876	497.75
464.096	518.75
464.316	502.75
464.536	496.75
464.755	499.75
464.975	481.75
465.195	489.75
465.414	526.75
465.634	481.75
465.854	448.75
466.073	424.75
466.293	417.75
466.512	408.75
466.732	417.75
466.951	420.75
467.171	415.75
467.391	428.75
467.61	432.75
467.829	428.75
468.049	451.75
468.268	420.75
468.488	430.75
468.707	409.75
468.927	421.75
469.146	396.75
469.365	410.75
469.585	406.75
469.804	402.75
470.023	442.75
470.243	408.75
470.462	415.75
470.681	449.75
470.901	428.75
471.12	415.75
471.339	424.75
471.558	414.75
471.777	425.75
471.997	418.75
472.216	440.75
472.435	466.75
472.654	443.75
472.873	421.75
473.092	416.75
473.311	450.75
473.53	437.75
473.749	424.75
473.968	466.75
474.187	551.75
474.406	560.75
474.625	460.75
474.844	454.75
475.063	418.75
475.282	412.75
475.501	440.75
475.72	442.75
475.939	441.75
476.158	430.75
476.377	438.75
476.596	432.75
476.814	440.75
477.033	456.75
477.252	450.75
477.471	439.75
477.69	434.75
477.908	457.75
478.127	466.75
478.346	481.75
478.564	466.75
478.783	479.75
479.002	472.75
479.22	493.75
479.439	496.75
479.658	476.75
479.876	509.75
480.095	516.75
480.313	521.75
480.532	515.75
480.751	516.75
480.969	539.75
481.188	579.75
481.406	570.75
481.624	534.75
481.843	513.75
482.061	514.75
482.28	511.75
482.498	500.75
482.717	486.75
482.935	468.75
483.153	488.75
483.372	482.75
483.59	502.75
483.808	490.75
484.027	468.75
484.245	482.75
484.463	488.75
484.681	496.75
484.9	507.75
485.118	514.75
485.336	504.75
485.554	504.75
485.772	505.75
485.99	496.75
486.209	501.75
486.427	498.75
486.645	531.75
486.863	534.75
487.081	525.75
487.299	519.75
487.517	520.75
487.735	547.75
487.953	521.75
488.171	500.75
488.389	528.75
488.607	522.75
488.825	538.75
489.043	517.75
489.261	517.75
489.479	528.75
489.696	530.75
489.914	535.75
490.132	544.75
490.35	549.75
490.568	546.75
490.786	538.75
491.003	570.75
491.221	582.75
491.439	583.75
491.657	562.75
491.874	582.75
492.092	608.75
492.31	595.75
492.527	616.75
492.745	590.75
492.963	581.75
493.18	581.75
493.398	591.75
493.615	616.75
493.833	611.75
494.05	585.75
494.268	596.75
494.485	623.75
494.703	621.75
494.92	601.75
495.138	593.75
495.355	600.75
495.573	608.75
495.79	612.75
496.008	606.75
496.225	618.75
496.442	604.75
496.66	588.75
496.877	599.75
497.094	636.75
497.312	589.75
497.529	616.75
497.746	646.75
497.963	646.75
498.181	658.75
498.398	684.75
498.615	666.75
498.832	692.75
499.049	676.75
499.267	751.75
499.484	790.75
499.701	817.75
499.918	845.75
500.135	901.75
500.352	914.75
500.569	935.75
500.786	933.75
501.003	921.75
501.22	893.75
501.437	874.75
501.654	818.75
501.871	817.75
502.088	772.75
