Data from 1964.PennyLincolnUp.Lamp.En5.5.200Scan.071719.P1._HRD10591_14-06-31-910.txt Node
Date: Thu Jul 18 14:06:31 EDT 2019
User: cochatt
Spectrometer: HR+D1059
Trigger mode: 1
Integration Time (sec): 1.000000E-1
Scans to average: 1
Electric dark correction enabled: true
Nonlinearity correction enabled: false
Boxcar width: 0
XAxis mode: Wavelengths
Number of Pixels in Spectrum: 2048
>>>>>Begin Spectral Data<<<<<
223.165	-17.56
223.4	-17.56
223.635	-17.56
223.869	-18.56
224.104	-25.56
224.338	1.44
224.573	-22.56
224.808	-16.56
225.042	-14.56
225.277	1.44
225.511	-10.56
225.746	3.44
225.98	20.44
226.215	-3.56
226.449	23.44
226.683	18.44
226.918	23.44
227.152	37.44
227.387	46.44
227.621	42.44
227.856	31.44
228.09	43.44
228.324	34.44
228.559	55.44
228.793	71.44
229.027	109.44
229.262	103.44
229.496	92.44
229.73	122.44
229.964	120.44
230.199	116.44
230.433	111.44
230.667	101.44
230.901	113.44
231.136	105.44
231.37	102.44
231.604	119.44
231.838	118.44
232.072	102.44
232.306	108.44
232.541	117.44
232.775	117.44
233.009	92.44
233.243	111.44
233.477	125.44
233.711	120.44
233.945	116.44
234.179	125.44
234.413	128.44
234.647	129.44
234.881	111.44
235.115	123.44
235.349	117.44
235.583	122.44
235.817	129.44
236.051	137.44
236.285	128.44
236.519	129.44
236.753	144.44
236.987	147.44
237.221	174.44
237.455	210.44
237.689	173.44
237.922	155.44
238.156	141.44
238.39	141.44
238.624	126.44
238.858	131.44
239.091	109.44
239.325	131.44
239.559	125.44
239.793	125.44
240.027	137.44
240.26	135.44
240.494	159.44
240.728	134.44
240.961	147.44
241.195	152.44
241.429	140.44
241.662	141.44
241.896	132.44
242.13	141.44
242.363	146.44
242.597	147.44
242.83	137.44
243.064	146.44
243.298	142.44
243.531	117.44
243.765	140.44
243.998	147.44
244.232	140.44
244.465	136.44
244.699	155.44
244.932	153.44
245.166	154.44
245.399	159.44
245.633	150.44
245.866	149.44
246.099	140.44
246.333	171.44
246.566	164.44
246.8	176.44
247.033	172.44
247.266	151.44
247.5	167.44
247.733	181.44
247.966	183.44
248.2	185.44
248.433	178.44
248.666	167.44
248.899	192.44
249.133	209.44
249.366	214.44
249.599	203.44
249.832	201.44
250.066	199.44
250.299	181.44
250.532	197.44
250.765	202.44
250.998	233.44
251.231	239.44
251.465	219.44
251.698	206.44
251.931	210.44
252.164	201.44
252.397	210.44
252.63	196.44
252.863	218.44
253.096	233.44
253.329	210.44
253.562	219.44
253.795	227.44
254.028	217.44
254.261	221.44
254.494	228.44
254.727	250.44
254.96	280.44
255.193	277.44
255.426	259.44
255.659	250.44
255.892	234.44
256.124	233.44
256.357	237.44
256.59	233.44
256.823	222.44
257.056	233.44
257.289	247.44
257.521	209.44
257.754	216.44
257.987	226.44
258.22	212.44
258.452	226.44
258.685	210.44
258.918	229.44
259.151	223.44
259.383	231.44
259.616	224.44
259.849	234.44
260.081	241.44
260.314	241.44
260.547	262.44
260.779	236.44
261.012	252.44
261.244	228.44
261.477	248.44
261.71	260.44
261.942	233.44
262.175	227.44
262.407	237.44
262.64	246.44
262.872	231.44
263.105	230.44
263.337	234.44
263.57	238.44
263.802	244.44
264.035	222.44
264.267	231.44
264.499	228.44
264.732	248.44
264.964	221.44
265.197	237.44
265.429	231.44
265.661	231.44
265.894	257.44
266.126	229.44
266.358	235.44
266.591	229.44
266.823	256.44
267.055	245.44
267.287	243.44
267.52	257.44
267.752	259.44
267.984	248.44
268.216	237.44
268.448	271.44
268.681	259.44
268.913	280.44
269.145	300.44
269.377	306.44
269.609	277.44
269.841	278.44
270.073	300.44
270.306	318.44
270.538	331.44
270.77	337.44
271.002	326.44
271.234	331.44
271.466	309.44
271.698	313.44
271.93	325.44
272.162	313.44
272.394	335.44
272.626	329.44
272.858	310.44
273.09	310.44
273.322	292.44
273.553	310.44
273.785	286.44
274.017	286.44
274.249	298.44
274.481	317.44
274.713	307.44
274.945	309.44
275.176	303.44
275.408	311.44
275.64	295.44
275.872	288.44
276.104	308.44
276.335	311.44
276.567	293.44
276.799	289.44
277.031	325.44
277.262	351.44
277.494	358.44
277.726	332.44
277.957	325.44
278.189	296.44
278.421	311.44
278.652	313.44
278.884	298.44
279.115	309.44
279.347	296.44
279.579	287.44
279.81	308.44
280.042	318.44
280.273	313.44
280.505	297.44
280.736	299.44
280.968	298.44
281.199	317.44
281.431	305.44
281.662	305.44
281.894	299.44
282.125	305.44
282.356	323.44
282.588	354.44
282.819	326.44
283.051	323.44
283.282	309.44
283.513	322.44
283.745	320.44
283.976	308.44
284.207	317.44
284.439	312.44
284.67	321.44
284.901	316.44
285.132	323.44
285.364	298.44
285.595	326.44
285.826	317.44
286.057	317.44
286.288	323.44
286.52	319.44
286.751	319.44
286.982	334.44
287.213	327.44
287.444	309.44
287.675	321.44
287.906	336.44
288.138	338.44
288.369	361.44
288.6	355.44
288.831	349.44
289.062	317.44
289.293	326.44
289.524	339.44
289.755	325.44
289.986	324.44
290.217	338.44
290.448	353.44
290.679	330.44
290.91	333.44
291.141	328.44
291.371	343.44
291.602	340.44
291.833	330.44
292.064	360.44
292.295	339.44
292.526	346.44
292.757	335.44
292.987	340.44
293.218	314.44
293.449	336.44
293.68	351.44
293.91	341.44
294.141	344.44
294.372	332.44
294.603	342.44
294.833	326.44
295.064	331.44
295.295	340.44
295.525	365.44
295.756	361.44
295.987	346.44
296.217	367.44
296.448	369.44
296.679	350.44
296.909	347.44
297.14	337.44
297.37	358.44
297.601	362.44
297.831	370.44
298.062	359.44
298.292	339.44
298.523	362.44
298.753	348.44
298.984	340.44
299.214	356.44
299.445	370.44
299.675	370.44
299.905	372.44
300.136	370.44
300.366	365.44
300.597	364.44
300.827	380.44
301.057	392.44
301.288	361.44
301.518	365.44
301.748	362.44
301.979	375.44
302.209	380.44
302.439	362.44
302.669	382.44
302.9	362.44
303.13	375.44
303.36	378.44
303.59	362.44
303.82	377.44
304.051	374.44
304.281	385.44
304.511	383.44
304.741	364.44
304.971	383.44
305.201	383.44
305.431	378.44
305.661	380.44
305.891	374.44
306.121	377.44
306.352	389.44
306.582	391.44
306.812	378.44
307.042	384.44
307.272	382.44
307.502	397.44
307.731	409.44
307.961	378.44
308.191	378.44
308.421	371.44
308.651	395.44
308.881	404.44
309.111	394.44
309.341	399.44
309.571	391.44
309.8	398.44
310.03	425.44
310.26	403.44
310.49	403.44
310.72	409.44
310.949	428.44
311.179	411.44
311.409	429.44
311.639	424.44
311.868	435.44
312.098	423.44
312.328	403.44
312.557	434.44
312.787	431.44
313.017	435.44
313.246	443.44
313.476	406.44
313.706	409.44
313.935	427.44
314.165	456.44
314.394	450.44
314.624	427.44
314.853	420.44
315.083	418.44
315.312	421.44
315.542	411.44
315.771	419.44
316.001	410.44
316.23	441.44
316.46	425.44
316.689	427.44
316.919	428.44
317.148	412.44
317.377	442.44
317.607	436.44
317.836	427.44
318.065	413.44
318.295	441.44
318.524	418.44
318.753	429.44
318.983	418.44
319.212	421.44
319.441	433.44
319.67	446.44
319.9	431.44
320.129	419.44
320.358	422.44
320.587	433.44
320.816	441.44
321.046	446.44
321.275	432.44
321.504	421.44
321.733	449.44
321.962	427.44
322.191	468.44
322.42	481.44
322.649	484.44
322.878	451.44
323.108	467.44
323.337	503.44
323.566	494.44
323.795	519.44
324.024	556.44
324.253	652.44
324.482	917.44
324.71	1314.44
324.939	1852.44
325.168	1570.44
325.397	858.44
325.626	603.44
325.855	554.44
326.084	534.44
326.313	518.44
326.542	520.44
326.77	543.44
326.999	637.44
327.228	852.44
327.457	1185.44
327.686	1369.44
327.914	932.44
328.143	651.44
328.372	610.44
328.6	573.44
328.829	555.44
329.058	580.44
329.287	554.44
329.515	553.44
329.744	538.44
329.972	524.44
330.201	535.44
330.43	556.44
330.658	612.44
330.887	583.44
331.115	569.44
331.344	563.44
331.572	549.44
331.801	519.44
332.03	530.44
332.258	506.44
332.486	507.44
332.715	497.44
332.943	536.44
333.172	508.44
333.4	523.44
333.629	544.44
333.857	537.44
334.085	561.44
334.314	564.44
334.542	609.44
334.771	597.44
334.999	573.44
335.227	532.44
335.455	526.44
335.684	511.44
335.912	502.44
336.14	494.44
336.369	498.44
336.597	503.44
336.825	500.44
337.053	502.44
337.281	497.44
337.51	474.44
337.738	482.44
337.966	476.44
338.194	485.44
338.422	488.44
338.65	468.44
338.878	466.44
339.106	487.44
339.334	486.44
339.562	466.44
339.79	477.44
340.018	485.44
340.246	479.44
340.474	465.44
340.702	476.44
340.93	480.44
341.158	479.44
341.386	452.44
341.614	486.44
341.842	489.44
342.07	477.44
342.298	476.44
342.526	442.44
342.754	444.44
342.981	455.44
343.209	459.44
343.437	460.44
343.665	463.44
343.893	490.44
344.12	505.44
344.348	499.44
344.576	486.44
344.804	485.44
345.031	493.44
345.259	488.44
345.487	485.44
345.714	453.44
345.942	456.44
346.17	444.44
346.397	454.44
346.625	437.44
346.853	465.44
347.08	463.44
347.308	452.44
347.535	450.44
347.763	453.44
347.99	444.44
348.218	461.44
348.445	451.44
348.673	442.44
348.9	447.44
349.128	442.44
349.355	424.44
349.583	446.44
349.81	430.44
350.037	429.44
350.265	425.44
350.492	411.44
350.72	426.44
350.947	437.44
351.174	427.44
351.402	446.44
351.629	447.44
351.856	440.44
352.083	461.44
352.311	476.44
352.538	445.44
352.765	467.44
352.992	435.44
353.22	436.44
353.447	446.44
353.674	429.44
353.901	422.44
354.128	418.44
354.355	446.44
354.583	421.44
354.81	437.44
355.037	411.44
355.264	414.44
355.491	398.44
355.718	395.44
355.945	398.44
356.172	409.44
356.399	417.44
356.626	403.44
356.853	426.44
357.08	424.44
357.307	405.44
357.534	411.44
357.761	422.44
357.988	393.44
358.215	395.44
358.441	417.44
358.668	434.44
358.895	420.44
359.122	414.44
359.349	419.44
359.576	431.44
359.802	475.44
360.029	478.44
360.256	478.44
360.483	451.44
360.709	421.44
360.936	438.44
361.163	428.44
361.39	418.44
361.616	435.44
361.843	421.44
362.07	428.44
362.296	439.44
362.523	434.44
362.749	400.44
362.976	423.44
363.203	432.44
363.429	417.44
363.656	412.44
363.882	413.44
364.109	412.44
364.335	399.44
364.562	399.44
364.788	419.44
365.015	423.44
365.241	399.44
365.468	406.44
365.694	412.44
365.92	418.44
366.147	411.44
366.373	423.44
366.599	420.44
366.826	413.44
367.052	412.44
367.278	404.44
367.505	415.44
367.731	418.44
367.957	430.44
368.184	422.44
368.41	415.44
368.636	406.44
368.862	447.44
369.089	411.44
369.315	413.44
369.541	418.44
369.767	418.44
369.993	394.44
370.219	400.44
370.445	420.44
370.672	407.44
370.898	422.44
371.124	400.44
371.35	399.44
371.576	392.44
371.802	402.44
372.028	414.44
372.254	423.44
372.48	405.44
372.706	427.44
372.932	436.44
373.158	407.44
373.384	400.44
373.61	437.44
373.835	416.44
374.061	449.44
374.287	428.44
374.513	433.44
374.739	446.44
374.965	429.44
375.191	427.44
375.416	424.44
375.642	409.44
375.868	418.44
376.094	419.44
376.319	423.44
376.545	428.44
376.771	411.44
376.997	399.44
377.222	417.44
377.448	391.44
377.674	415.44
377.899	405.44
378.125	395.44
378.35	407.44
378.576	387.44
378.802	399.44
379.027	411.44
379.253	392.44
379.478	397.44
379.704	425.44
379.929	432.44
380.155	425.44
380.38	404.44
380.606	411.44
380.831	402.44
381.057	427.44
381.282	399.44
381.507	400.44
381.733	403.44
381.958	423.44
382.184	405.44
382.409	412.44
382.634	438.44
382.86	425.44
383.085	439.44
383.31	424.44
383.535	421.44
383.761	422.44
383.986	421.44
384.211	425.44
384.436	413.44
384.662	456.44
384.887	457.44
385.112	434.44
385.337	427.44
385.562	447.44
385.787	465.44
386.013	434.44
386.238	435.44
386.463	439.44
386.688	451.44
386.913	439.44
387.138	442.44
387.363	460.44
387.588	442.44
387.813	430.44
388.038	440.44
388.263	443.44
388.488	456.44
388.713	441.44
388.938	441.44
389.163	449.44
389.387	481.44
389.612	442.44
389.837	430.44
390.062	440.44
390.287	445.44
390.512	429.44
390.736	436.44
390.961	438.44
391.186	461.44
391.411	446.44
391.636	440.44
391.86	465.44
392.085	458.44
392.31	460.44
392.534	474.44
392.759	466.44
392.984	439.44
393.208	449.44
393.433	445.44
393.658	449.44
393.882	459.44
394.107	447.44
394.331	441.44
394.556	423.44
394.78	429.44
395.005	459.44
395.229	462.44
395.454	460.44
395.678	457.44
395.903	482.44
396.127	495.44
396.352	481.44
396.576	469.44
396.801	437.44
397.025	463.44
397.249	470.44
397.474	478.44
397.698	463.44
397.922	494.44
398.147	498.44
398.371	496.44
398.595	495.44
398.82	488.44
399.044	507.44
399.268	558.44
399.492	572.44
399.717	602.44
399.941	635.44
400.165	637.44
400.389	617.44
400.613	555.44
400.837	540.44
401.062	530.44
401.286	517.44
401.51	525.44
401.734	516.44
401.958	513.44
402.182	518.44
402.406	522.44
402.63	500.44
402.854	494.44
403.078	486.44
403.302	516.44
403.526	510.44
403.75	531.44
403.974	552.44
404.198	510.44
404.422	510.44
404.645	522.44
404.869	521.44
405.093	548.44
405.317	579.44
405.541	611.44
405.765	578.44
405.988	561.44
406.212	525.44
406.436	545.44
406.66	561.44
406.883	566.44
407.107	569.44
407.331	611.44
407.555	674.44
407.778	649.44
408.002	603.44
408.226	575.44
408.449	549.44
408.673	582.44
408.896	572.44
409.12	639.44
409.344	588.44
409.567	529.44
409.791	527.44
410.014	523.44
410.238	480.44
410.461	533.44
410.685	515.44
410.908	533.44
411.132	561.44
411.355	575.44
411.578	564.44
411.802	533.44
412.025	520.44
412.249	557.44
412.472	561.44
412.695	589.44
412.919	548.44
413.142	534.44
413.365	517.44
413.589	503.44
413.812	486.44
414.035	491.44
414.258	459.44
414.482	482.44
414.705	503.44
414.928	487.44
415.151	498.44
415.374	483.44
415.597	479.44
415.821	494.44
416.044	478.44
416.267	487.44
416.49	476.44
416.713	487.44
416.936	490.44
417.159	479.44
417.382	470.44
417.605	473.44
417.828	490.44
418.051	516.44
418.274	485.44
418.497	473.44
418.72	462.44
418.943	462.44
419.166	495.44
419.389	509.44
419.611	518.44
419.834	511.44
420.057	541.44
420.28	485.44
420.503	508.44
420.726	500.44
420.948	506.44
421.171	542.44
421.394	565.44
421.617	523.44
421.839	504.44
422.062	499.44
422.285	516.44
422.507	558.44
422.73	613.44
422.953	600.44
423.175	546.44
423.398	503.44
423.621	511.44
423.843	541.44
424.066	529.44
424.288	536.44
424.511	545.44
424.733	602.44
424.956	653.44
425.178	620.44
425.401	613.44
425.623	643.44
425.846	570.44
426.068	549.44
426.291	513.44
426.513	535.44
426.735	526.44
426.958	552.44
427.18	605.44
427.402	721.44
427.625	783.44
427.847	687.44
428.069	587.44
428.292	540.44
428.514	513.44
428.736	498.44
428.958	489.44
429.181	462.44
429.403	475.44
429.625	471.44
429.847	534.44
430.069	561.44
430.292	557.44
430.514	499.44
430.736	477.44
430.958	464.44
431.18	444.44
431.402	467.44
431.624	459.44
431.846	437.44
432.068	443.44
432.29	429.44
432.512	467.44
432.734	466.44
432.956	457.44
433.178	459.44
433.4	463.44
433.622	454.44
433.844	448.44
434.066	470.44
434.287	425.44
434.509	450.44
434.731	464.44
434.953	479.44
435.175	503.44
435.397	507.44
435.618	521.44
435.84	547.44
436.062	609.44
436.284	667.44
436.505	572.44
436.727	525.44
436.949	489.44
437.17	496.44
437.392	473.44
437.614	480.44
437.835	503.44
438.057	578.44
438.278	667.44
438.5	670.44
438.721	710.44
438.943	713.44
439.165	563.44
439.386	499.44
439.608	524.44
439.829	527.44
440.05	525.44
440.272	577.44
440.493	530.44
440.715	497.44
440.936	483.44
441.158	499.44
441.379	473.44
441.6	479.44
441.822	500.44
442.043	539.44
442.264	599.44
442.486	635.44
442.707	540.44
442.928	501.44
443.149	523.44
443.371	563.44
443.592	584.44
443.813	645.44
444.034	681.44
444.255	579.44
444.476	537.44
444.698	514.44
444.919	534.44
445.14	617.44
445.361	601.44
445.582	555.44
445.803	586.44
446.024	678.44
446.245	695.44
446.466	597.44
446.687	533.44
446.908	492.44
447.129	464.44
447.35	481.44
447.571	468.44
447.792	469.44
448.013	479.44
448.234	471.44
448.455	530.44
448.675	614.44
448.896	716.44
449.117	627.44
449.338	565.44
449.559	681.44
449.779	719.44
450	608.44
450.221	488.44
450.442	472.44
450.662	451.44
450.883	451.44
451.104	467.44
451.324	433.44
451.545	439.44
451.766	457.44
451.986	417.44
452.207	423.44
452.428	426.44
452.648	413.44
452.869	413.44
453.089	424.44
453.31	424.44
453.53	407.44
453.751	418.44
453.971	428.44
454.192	438.44
454.412	410.44
454.633	414.44
454.853	408.44
455.073	407.44
455.294	419.44
455.514	497.44
455.734	485.44
455.955	413.44
456.175	404.44
456.395	385.44
456.616	399.44
456.836	413.44
457.056	409.44
457.276	376.44
457.497	388.44
457.717	406.44
457.937	413.44
458.157	399.44
458.377	403.44
458.598	430.44
458.818	472.44
459.038	506.44
459.258	557.44
459.478	486.44
459.698	457.44
459.918	439.44
460.138	468.44
460.358	442.44
460.578	435.44
460.798	481.44
461.018	462.44
461.238	451.44
461.458	452.44
461.678	454.44
461.898	464.44
462.118	447.44
462.338	478.44
462.558	488.44
462.777	492.44
462.997	508.44
463.217	515.44
463.437	521.44
463.657	503.44
463.876	509.44
464.096	516.44
464.316	495.44
464.536	470.44
464.755	493.44
464.975	506.44
465.195	503.44
465.414	556.44
465.634	514.44
465.854	440.44
466.073	463.44
466.293	453.44
466.512	430.44
466.732	429.44
466.951	428.44
467.171	438.44
467.391	422.44
467.61	435.44
467.829	416.44
468.049	424.44
468.268	407.44
468.488	416.44
468.707	421.44
468.927	415.44
469.146	412.44
469.365	407.44
469.585	412.44
469.804	424.44
470.023	438.44
470.243	421.44
470.462	431.44
470.681	456.44
470.901	446.44
471.12	435.44
471.339	437.44
471.558	422.44
471.777	444.44
471.997	425.44
472.216	425.44
472.435	449.44
472.654	440.44
472.873	423.44
473.092	430.44
473.311	451.44
473.53	440.44
473.749	449.44
473.968	476.44
474.187	565.44
474.406	588.44
474.625	467.44
474.844	450.44
475.063	439.44
475.282	431.44
475.501	447.44
475.72	462.44
475.939	434.44
476.158	472.44
476.377	444.44
476.596	427.44
476.814	455.44
477.033	462.44
477.252	445.44
477.471	471.44
477.69	474.44
477.908	475.44
478.127	494.44
478.346	481.44
478.564	499.44
478.783	488.44
479.002	485.44
479.22	495.44
479.439	501.44
479.658	520.44
479.876	525.44
480.095	543.44
480.313	542.44
480.532	544.44
480.751	533.44
480.969	518.44
481.188	567.44
481.406	601.44
481.624	541.44
481.843	523.44
482.061	504.44
482.28	513.44
482.498	501.44
482.717	494.44
482.935	503.44
483.153	497.44
483.372	487.44
483.59	502.44
483.808	508.44
484.027	478.44
484.245	495.44
484.463	487.44
484.681	505.44
484.9	510.44
485.118	509.44
485.336	496.44
485.554	518.44
485.772	513.44
485.99	510.44
486.209	537.44
486.427	541.44
486.645	531.44
486.863	513.44
487.081	536.44
487.299	514.44
487.517	542.44
487.735	529.44
487.953	528.44
488.171	532.44
488.389	507.44
488.607	505.44
488.825	523.44
489.043	556.44
489.261	551.44
489.479	523.44
489.696	549.44
489.914	513.44
490.132	530.44
490.35	551.44
490.568	541.44
490.786	571.44
491.003	567.44
491.221	602.44
491.439	580.44
491.657	589.44
491.874	586.44
492.092	600.44
492.31	582.44
492.527	607.44
492.745	605.44
492.963	622.44
493.18	598.44
493.398	603.44
493.615	611.44
493.833	599.44
494.05	631.44
494.268	621.44
494.485	625.44
494.703	622.44
494.92	606.44
495.138	627.44
495.355	603.44
495.573	630.44
495.79	626.44
496.008	631.44
496.225	611.44
496.442	597.44
496.66	616.44
496.877	634.44
497.094	631.44
497.312	641.44
497.529	641.44
497.746	662.44
497.963	663.44
498.181	676.44
498.398	718.44
498.615	713.44
498.832	712.44
499.049	735.44
499.267	742.44
499.484	788.44
499.701	808.44
499.918	850.44
500.135	866.44
500.352	932.44
500.569	945.44
500.786	942.44
501.003	925.44
501.22	919.44
501.437	863.44
501.654	819.44
501.871	834.44
