Data from 1964.PennyLincolnUp.Lamp.En5.5.200Scan.071719.P1._HRD10591_14-05-20-909.txt Node
Date: Thu Jul 18 14:05:20 EDT 2019
User: cochatt
Spectrometer: HR+D1059
Trigger mode: 1
Integration Time (sec): 1.000000E-1
Scans to average: 1
Electric dark correction enabled: true
Nonlinearity correction enabled: false
Boxcar width: 0
XAxis mode: Wavelengths
Number of Pixels in Spectrum: 2048
>>>>>Begin Spectral Data<<<<<
223.165	-21.06
223.4	-21.06
223.635	-21.06
223.869	-8.06
224.104	-20.06
224.338	-10.06
224.573	-14.06
224.808	-22.06
225.042	-5.06
225.277	-5.06
225.511	1.94
225.746	-13.06
225.98	17.94
226.215	8.94
226.449	26.94
226.683	16.94
226.918	15.94
227.152	29.94
227.387	36.94
227.621	46.94
227.856	37.94
228.09	50.94
228.324	42.94
228.559	62.94
228.793	73.94
229.027	82.94
229.262	89.94
229.496	90.94
229.73	116.94
229.964	130.94
230.199	114.94
230.433	110.94
230.667	112.94
230.901	105.94
231.136	107.94
231.37	94.94
231.604	100.94
231.838	116.94
232.072	117.94
232.306	114.94
232.541	94.94
232.775	100.94
233.009	108.94
233.243	116.94
233.477	117.94
233.711	103.94
233.945	118.94
234.179	120.94
234.413	112.94
234.647	104.94
234.881	120.94
235.115	90.94
235.349	111.94
235.583	118.94
235.817	120.94
236.051	122.94
236.285	110.94
236.519	119.94
236.753	111.94
236.987	131.94
237.221	160.94
237.455	199.94
237.689	160.94
237.922	129.94
238.156	116.94
238.39	119.94
238.624	118.94
238.858	112.94
239.091	124.94
239.325	126.94
239.559	116.94
239.793	118.94
240.027	134.94
240.26	140.94
240.494	145.94
240.728	141.94
240.961	156.94
241.195	147.94
241.429	143.94
241.662	144.94
241.896	112.94
242.13	127.94
242.363	122.94
242.597	122.94
242.83	134.94
243.064	138.94
243.298	139.94
243.531	136.94
243.765	146.94
243.998	146.94
244.232	146.94
244.465	142.94
244.699	140.94
244.932	149.94
245.166	138.94
245.399	152.94
245.633	138.94
245.866	134.94
246.099	158.94
246.333	141.94
246.566	143.94
246.8	159.94
247.033	157.94
247.266	141.94
247.5	156.94
247.733	157.94
247.966	162.94
248.2	165.94
248.433	174.94
248.666	167.94
248.899	192.94
249.133	184.94
249.366	202.94
249.599	202.94
249.832	189.94
250.066	185.94
250.299	183.94
250.532	211.94
250.765	208.94
250.998	208.94
251.231	210.94
251.465	207.94
251.698	187.94
251.931	195.94
252.164	195.94
252.397	199.94
252.63	201.94
252.863	197.94
253.096	206.94
253.329	223.94
253.562	220.94
253.795	225.94
254.028	214.94
254.261	203.94
254.494	222.94
254.727	240.94
254.96	260.94
255.193	229.94
255.426	247.94
255.659	238.94
255.892	236.94
256.124	221.94
256.357	237.94
256.59	235.94
256.823	231.94
257.056	207.94
257.289	204.94
257.521	229.94
257.754	192.94
257.987	213.94
258.22	202.94
258.452	218.94
258.685	209.94
258.918	203.94
259.151	221.94
259.383	213.94
259.616	222.94
259.849	226.94
260.081	221.94
260.314	234.94
260.547	220.94
260.779	273.94
261.012	210.94
261.244	241.94
261.477	230.94
261.71	232.94
261.942	238.94
262.175	219.94
262.407	222.94
262.64	227.94
262.872	224.94
263.105	230.94
263.337	226.94
263.57	233.94
263.802	229.94
264.035	240.94
264.267	218.94
264.499	217.94
264.732	206.94
264.964	220.94
265.197	221.94
265.429	218.94
265.661	235.94
265.894	230.94
266.126	226.94
266.358	221.94
266.591	224.94
266.823	236.94
267.055	240.94
267.287	242.94
267.52	241.94
267.752	233.94
267.984	247.94
268.216	235.94
268.448	243.94
268.681	231.94
268.913	258.94
269.145	258.94
269.377	281.94
269.609	277.94
269.841	265.94
270.073	278.94
270.306	275.94
270.538	308.94
270.77	309.94
271.002	303.94
271.234	299.94
271.466	295.94
271.698	299.94
271.93	307.94
272.162	322.94
272.394	315.94
272.626	308.94
272.858	294.94
273.09	287.94
273.322	267.94
273.553	280.94
273.785	281.94
274.017	275.94
274.249	272.94
274.481	288.94
274.713	289.94
274.945	265.94
275.176	282.94
275.408	266.94
275.64	277.94
275.872	265.94
276.104	281.94
276.335	277.94
276.567	282.94
276.799	284.94
277.031	299.94
277.262	299.94
277.494	308.94
277.726	304.94
277.957	300.94
278.189	292.94
278.421	288.94
278.652	314.94
278.884	274.94
279.115	287.94
279.347	282.94
279.579	286.94
279.81	302.94
280.042	290.94
280.273	289.94
280.505	297.94
280.736	294.94
280.968	282.94
281.199	286.94
281.431	300.94
281.662	299.94
281.894	283.94
282.125	286.94
282.356	307.94
282.588	306.94
282.819	312.94
283.051	311.94
283.282	288.94
283.513	321.94
283.745	297.94
283.976	296.94
284.207	298.94
284.439	331.94
284.67	312.94
284.901	305.94
285.132	292.94
285.364	297.94
285.595	297.94
285.826	318.94
286.057	306.94
286.288	300.94
286.52	301.94
286.751	300.94
286.982	300.94
287.213	314.94
287.444	312.94
287.675	307.94
287.906	328.94
288.138	338.94
288.369	310.94
288.6	300.94
288.831	325.94
289.062	322.94
289.293	336.94
289.524	309.94
289.755	301.94
289.986	308.94
290.217	328.94
290.448	321.94
290.679	300.94
290.91	332.94
291.141	313.94
291.371	326.94
291.602	326.94
291.833	325.94
292.064	313.94
292.295	319.94
292.526	303.94
292.757	311.94
292.987	314.94
293.218	314.94
293.449	315.94
293.68	339.94
293.91	341.94
294.141	309.94
294.372	325.94
294.603	309.94
294.833	307.94
295.064	312.94
295.295	329.94
295.525	330.94
295.756	329.94
295.987	347.94
296.217	342.94
296.448	359.94
296.679	342.94
296.909	328.94
297.14	337.94
297.37	333.94
297.601	316.94
297.831	325.94
298.062	345.94
298.292	328.94
298.523	325.94
298.753	342.94
298.984	328.94
299.214	332.94
299.445	342.94
299.675	343.94
299.905	352.94
300.136	344.94
300.366	351.94
300.597	352.94
300.827	357.94
301.057	369.94
301.288	344.94
301.518	361.94
301.748	357.94
301.979	377.94
302.209	376.94
302.439	355.94
302.669	363.94
302.9	379.94
303.13	376.94
303.36	363.94
303.59	350.94
303.82	353.94
304.051	367.94
304.281	370.94
304.511	381.94
304.741	374.94
304.971	360.94
305.201	360.94
305.431	364.94
305.661	354.94
305.891	352.94
306.121	358.94
306.352	367.94
306.582	368.94
306.812	362.94
307.042	357.94
307.272	359.94
307.502	369.94
307.731	353.94
307.961	352.94
308.191	377.94
308.421	360.94
308.651	370.94
308.881	352.94
309.111	374.94
309.341	380.94
309.571	397.94
309.8	383.94
310.03	396.94
310.26	401.94
310.49	396.94
310.72	408.94
310.949	398.94
311.179	399.94
311.409	380.94
311.639	406.94
311.868	394.94
312.098	382.94
312.328	388.94
312.557	401.94
312.787	410.94
313.017	409.94
313.246	413.94
313.476	398.94
313.706	419.94
313.935	403.94
314.165	414.94
314.394	417.94
314.624	427.94
314.853	417.94
315.083	422.94
315.312	398.94
315.542	409.94
315.771	393.94
316.001	390.94
316.23	389.94
316.46	399.94
316.689	396.94
316.919	397.94
317.148	383.94
317.377	410.94
317.607	397.94
317.836	399.94
318.065	399.94
318.295	407.94
318.524	395.94
318.753	393.94
318.983	403.94
319.212	416.94
319.441	403.94
319.67	421.94
319.9	414.94
320.129	408.94
320.358	397.94
320.587	412.94
320.816	398.94
321.046	399.94
321.275	406.94
321.504	416.94
321.733	427.94
321.962	434.94
322.191	420.94
322.42	416.94
322.649	437.94
322.878	449.94
323.108	459.94
323.337	485.94
323.566	450.94
323.795	477.94
324.024	541.94
324.253	602.94
324.482	790.94
324.71	1144.94
324.939	1554.94
325.168	1294.94
325.397	717.94
325.626	536.94
325.855	501.94
326.084	480.94
326.313	464.94
326.542	473.94
326.77	504.94
326.999	597.94
327.228	740.94
327.457	1031.94
327.686	1162.94
327.914	804.94
328.143	598.94
328.372	570.94
328.6	521.94
328.829	505.94
329.058	527.94
329.287	525.94
329.515	513.94
329.744	516.94
329.972	483.94
330.201	518.94
330.43	527.94
330.658	546.94
330.887	536.94
331.115	551.94
331.344	515.94
331.572	478.94
331.801	488.94
332.03	509.94
332.258	467.94
332.486	479.94
332.715	481.94
332.943	489.94
333.172	488.94
333.4	454.94
333.629	494.94
333.857	510.94
334.085	496.94
334.314	514.94
334.542	543.94
334.771	568.94
334.999	544.94
335.227	499.94
335.455	507.94
335.684	496.94
335.912	486.94
336.14	466.94
336.369	465.94
336.597	490.94
336.825	482.94
337.053	469.94
337.281	477.94
337.51	456.94
337.738	453.94
337.966	478.94
338.194	475.94
338.422	483.94
338.65	463.94
338.878	457.94
339.106	456.94
339.334	454.94
339.562	454.94
339.79	443.94
340.018	465.94
340.246	433.94
340.474	441.94
340.702	441.94
340.93	425.94
341.158	457.94
341.386	435.94
341.614	423.94
341.842	456.94
342.07	447.94
342.298	449.94
342.526	450.94
342.754	440.94
342.981	444.94
343.209	431.94
343.437	453.94
343.665	454.94
343.893	481.94
344.12	486.94
344.348	464.94
344.576	459.94
344.804	474.94
345.031	475.94
345.259	448.94
345.487	457.94
345.714	455.94
345.942	440.94
346.17	439.94
346.397	431.94
346.625	438.94
346.853	412.94
347.08	418.94
347.308	406.94
347.535	426.94
347.763	428.94
347.99	428.94
348.218	419.94
348.445	425.94
348.673	424.94
348.9	405.94
349.128	426.94
349.355	408.94
349.583	404.94
349.81	416.94
350.037	408.94
350.265	394.94
350.492	403.94
350.72	412.94
350.947	427.94
351.174	420.94
351.402	424.94
351.629	428.94
351.856	420.94
352.083	425.94
352.311	405.94
352.538	418.94
352.765	418.94
352.992	434.94
353.22	418.94
353.447	399.94
353.674	395.94
353.901	404.94
354.128	402.94
354.355	396.94
354.583	404.94
354.81	414.94
355.037	405.94
355.264	402.94
355.491	422.94
355.718	396.94
355.945	402.94
356.172	392.94
356.399	392.94
356.626	372.94
356.853	397.94
357.08	424.94
357.307	380.94
357.534	402.94
357.761	388.94
357.988	410.94
358.215	392.94
358.441	400.94
358.668	384.94
358.895	399.94
359.122	393.94
359.349	390.94
359.576	430.94
359.802	415.94
360.029	445.94
360.256	429.94
360.483	417.94
360.709	403.94
360.936	424.94
361.163	432.94
361.39	427.94
361.616	425.94
361.843	421.94
362.07	417.94
362.296	404.94
362.523	406.94
362.749	403.94
362.976	397.94
363.203	384.94
363.429	391.94
363.656	386.94
363.882	421.94
364.109	402.94
364.335	390.94
364.562	416.94
364.788	387.94
365.015	401.94
365.241	402.94
365.468	394.94
365.694	394.94
365.92	391.94
366.147	398.94
366.373	395.94
366.599	392.94
366.826	391.94
367.052	402.94
367.278	408.94
367.505	390.94
367.731	392.94
367.957	378.94
368.184	404.94
368.41	400.94
368.636	389.94
368.862	418.94
369.089	386.94
369.315	389.94
369.541	404.94
369.767	394.94
369.993	380.94
370.219	390.94
370.445	381.94
370.672	393.94
370.898	394.94
371.124	376.94
371.35	387.94
371.576	390.94
371.802	409.94
372.028	404.94
372.254	400.94
372.48	394.94
372.706	409.94
372.932	415.94
373.158	406.94
373.384	403.94
373.61	398.94
373.835	404.94
374.061	390.94
374.287	394.94
374.513	414.94
374.739	406.94
374.965	412.94
375.191	404.94
375.416	403.94
375.642	405.94
375.868	411.94
376.094	417.94
376.319	380.94
376.545	393.94
376.771	382.94
376.997	399.94
377.222	396.94
377.448	396.94
377.674	392.94
377.899	402.94
378.125	397.94
378.35	392.94
378.576	374.94
378.802	370.94
379.027	377.94
379.253	390.94
379.478	397.94
379.704	399.94
379.929	376.94
380.155	380.94
380.38	385.94
380.606	380.94
380.831	383.94
381.057	391.94
381.282	410.94
381.507	376.94
381.733	387.94
381.958	399.94
382.184	389.94
382.409	377.94
382.634	404.94
382.86	391.94
383.085	381.94
383.31	410.94
383.535	417.94
383.761	412.94
383.986	413.94
384.211	423.94
384.436	400.94
384.662	439.94
384.887	413.94
385.112	406.94
385.337	424.94
385.562	408.94
385.787	437.94
386.013	445.94
386.238	456.94
386.463	449.94
386.688	450.94
386.913	433.94
387.138	424.94
387.363	423.94
387.588	437.94
387.813	446.94
388.038	434.94
388.263	412.94
388.488	418.94
388.713	427.94
388.938	413.94
389.163	423.94
389.387	411.94
389.612	407.94
389.837	428.94
390.062	432.94
390.287	404.94
390.512	402.94
390.736	439.94
390.961	416.94
391.186	421.94
391.411	428.94
391.636	437.94
391.86	462.94
392.085	436.94
392.31	427.94
392.534	444.94
392.759	448.94
392.984	457.94
393.208	442.94
393.433	438.94
393.658	426.94
393.882	418.94
394.107	429.94
394.331	440.94
394.556	427.94
394.78	434.94
395.005	457.94
395.229	429.94
395.454	435.94
395.678	437.94
395.903	471.94
396.127	471.94
396.352	466.94
396.576	448.94
396.801	449.94
397.025	459.94
397.249	459.94
397.474	454.94
397.698	445.94
397.922	493.94
398.147	471.94
398.371	461.94
398.595	476.94
398.82	468.94
399.044	507.94
399.268	525.94
399.492	548.94
399.717	595.94
399.941	597.94
400.165	602.94
400.389	602.94
400.613	536.94
400.837	513.94
401.062	503.94
401.286	476.94
401.51	476.94
401.734	506.94
401.958	502.94
402.182	488.94
402.406	490.94
402.63	512.94
402.854	489.94
403.078	514.94
403.302	519.94
403.526	508.94
403.75	487.94
403.974	504.94
404.198	502.94
404.422	492.94
404.645	502.94
404.869	489.94
405.093	536.94
405.317	573.94
405.541	580.94
405.765	550.94
405.988	512.94
406.212	515.94
406.436	545.94
406.66	567.94
406.883	538.94
407.107	560.94
407.331	590.94
407.555	630.94
407.778	624.94
408.002	590.94
408.226	545.94
408.449	544.94
408.673	546.94
408.896	564.94
409.12	594.94
409.344	552.94
409.567	513.94
409.791	494.94
410.014	480.94
410.238	501.94
410.461	507.94
410.685	490.94
410.908	504.94
411.132	529.94
411.355	556.94
411.578	531.94
411.802	493.94
412.025	483.94
412.249	518.94
412.472	522.94
412.695	537.94
412.919	549.94
413.142	505.94
413.365	487.94
413.589	493.94
413.812	458.94
414.035	468.94
414.258	497.94
414.482	462.94
414.705	450.94
414.928	461.94
415.151	475.94
415.374	478.94
415.597	456.94
415.821	457.94
416.044	459.94
416.267	454.94
416.49	425.94
416.713	442.94
416.936	463.94
417.159	450.94
417.382	480.94
417.605	473.94
417.828	477.94
418.051	461.94
418.274	488.94
418.497	475.94
418.72	484.94
418.943	463.94
419.166	487.94
419.389	517.94
419.611	491.94
419.834	487.94
420.057	480.94
420.28	477.94
420.503	477.94
420.726	478.94
420.948	473.94
421.171	499.94
421.394	537.94
421.617	511.94
421.839	474.94
422.062	466.94
422.285	485.94
422.507	549.94
422.73	561.94
422.953	556.94
423.175	498.94
423.398	504.94
423.621	496.94
423.843	525.94
424.066	518.94
424.288	517.94
424.511	517.94
424.733	537.94
424.956	617.94
425.178	590.94
425.401	573.94
425.623	584.94
425.846	526.94
426.068	497.94
426.291	482.94
426.513	513.94
426.735	485.94
426.958	528.94
427.18	607.94
427.402	673.94
427.625	703.94
427.847	616.94
428.069	545.94
428.292	509.94
428.514	472.94
428.736	452.94
428.958	458.94
429.181	457.94
429.403	456.94
429.625	453.94
429.847	497.94
430.069	523.94
430.292	529.94
430.514	465.94
430.736	444.94
430.958	446.94
431.18	435.94
431.402	427.94
431.624	428.94
431.846	449.94
432.068	432.94
432.29	458.94
432.512	449.94
432.734	459.94
432.956	457.94
433.178	440.94
433.4	445.94
433.622	434.94
433.844	452.94
434.066	452.94
434.287	454.94
434.509	449.94
434.731	472.94
434.953	462.94
435.175	483.94
435.397	504.94
435.618	446.94
435.84	536.94
436.062	573.94
436.284	637.94
436.505	549.94
436.727	492.94
436.949	476.94
437.17	447.94
437.392	440.94
437.614	455.94
437.835	460.94
438.057	532.94
438.278	618.94
438.5	634.94
438.721	664.94
438.943	654.94
439.165	512.94
439.386	498.94
439.608	486.94
439.829	485.94
440.05	481.94
440.272	535.94
440.493	481.94
440.715	470.94
440.936	468.94
441.158	443.94
441.379	458.94
441.6	448.94
441.822	482.94
442.043	522.94
442.264	552.94
442.486	597.94
442.707	527.94
442.928	500.94
443.149	520.94
443.371	527.94
443.592	577.94
443.813	603.94
444.034	654.94
444.255	539.94
444.476	496.94
444.698	490.94
444.919	514.94
445.14	624.94
445.361	561.94
445.582	548.94
445.803	570.94
446.024	617.94
446.245	621.94
446.466	574.94
446.687	504.94
446.908	485.94
447.129	451.94
447.35	454.94
447.571	458.94
447.792	433.94
448.013	443.94
448.234	445.94
448.455	485.94
448.675	584.94
448.896	662.94
449.117	585.94
449.338	546.94
449.559	610.94
449.779	662.94
450	555.94
450.221	475.94
450.442	435.94
450.662	427.94
450.883	434.94
451.104	444.94
451.324	412.94
451.545	414.94
451.766	401.94
451.986	404.94
452.207	384.94
452.428	407.94
452.648	404.94
452.869	401.94
453.089	416.94
453.31	387.94
453.53	418.94
453.751	413.94
453.971	404.94
454.192	418.94
454.412	405.94
454.633	384.94
454.853	381.94
455.073	402.94
455.294	409.94
455.514	456.94
455.734	447.94
455.955	397.94
456.175	395.94
456.395	385.94
456.616	401.94
456.836	378.94
457.056	391.94
457.276	379.94
457.497	381.94
457.717	388.94
457.937	384.94
458.157	398.94
458.377	389.94
458.598	397.94
458.818	418.94
459.038	467.94
459.258	503.94
459.478	438.94
459.698	428.94
459.918	435.94
460.138	452.94
460.358	455.94
460.578	470.94
460.798	463.94
461.018	462.94
461.238	444.94
461.458	437.94
461.678	458.94
461.898	438.94
462.118	458.94
462.338	467.94
462.558	490.94
462.777	460.94
462.997	497.94
463.217	491.94
463.437	518.94
463.657	477.94
463.876	475.94
464.096	478.94
464.316	484.94
464.536	484.94
464.755	468.94
464.975	483.94
465.195	475.94
465.414	505.94
465.634	460.94
465.854	449.94
466.073	444.94
466.293	436.94
466.512	432.94
466.732	425.94
466.951	413.94
467.171	399.94
467.391	425.94
467.61	407.94
467.829	407.94
468.049	405.94
468.268	406.94
468.488	389.94
468.707	413.94
468.927	377.94
469.146	392.94
469.365	405.94
469.585	412.94
469.804	414.94
470.023	429.94
470.243	429.94
470.462	411.94
470.681	428.94
470.901	424.94
471.12	413.94
471.339	403.94
471.558	420.94
471.777	421.94
471.997	417.94
472.216	436.94
472.435	452.94
472.654	407.94
472.873	440.94
473.092	409.94
473.311	417.94
473.53	426.94
473.749	425.94
473.968	439.94
474.187	500.94
474.406	520.94
474.625	451.94
474.844	421.94
475.063	405.94
475.282	427.94
475.501	411.94
475.72	435.94
475.939	412.94
476.158	417.94
476.377	428.94
476.596	444.94
476.814	438.94
477.033	416.94
477.252	441.94
477.471	443.94
477.69	452.94
477.908	461.94
478.127	457.94
478.346	444.94
478.564	462.94
478.783	488.94
479.002	490.94
479.22	463.94
479.439	482.94
479.658	498.94
479.876	486.94
480.095	482.94
480.313	519.94
480.532	522.94
480.751	513.94
480.969	497.94
481.188	550.94
481.406	564.94
481.624	510.94
481.843	493.94
482.061	479.94
482.28	472.94
482.498	477.94
482.717	473.94
482.935	472.94
483.153	498.94
483.372	457.94
483.59	468.94
483.808	494.94
484.027	476.94
484.245	475.94
484.463	482.94
484.681	498.94
484.9	498.94
485.118	497.94
485.336	497.94
485.554	480.94
485.772	503.94
485.99	488.94
486.209	487.94
486.427	507.94
486.645	483.94
486.863	504.94
487.081	502.94
487.299	526.94
487.517	511.94
487.735	493.94
487.953	506.94
488.171	505.94
488.389	515.94
488.607	502.94
488.825	500.94
489.043	511.94
489.261	489.94
489.479	522.94
489.696	497.94
489.914	534.94
490.132	514.94
490.35	502.94
490.568	523.94
490.786	528.94
491.003	568.94
491.221	521.94
491.439	548.94
491.657	539.94
491.874	545.94
492.092	564.94
492.31	561.94
492.527	581.94
492.745	576.94
492.963	577.94
493.18	571.94
493.398	578.94
493.615	591.94
493.833	580.94
494.05	580.94
494.268	580.94
494.485	577.94
494.703	591.94
494.92	586.94
495.138	595.94
495.355	562.94
495.573	583.94
495.79	595.94
496.008	584.94
496.225	594.94
496.442	591.94
496.66	599.94
496.877	610.94
497.094	605.94
497.312	600.94
497.529	596.94
497.746	608.94
497.963	626.94
498.181	676.94
498.398	644.94
498.615	659.94
498.832	698.94
499.049	716.94
499.267	748.94
499.484	768.94
499.701	781.94
499.918	841.94
500.135	905.94
500.352	938.94
500.569	910.94
500.786	922.94
501.003	885.94
501.22	865.94
501.437	841.94
501.654	806.94
501.871	746.94
502.088	729.94
