Data from 1964.PennyLincolnUp.Lamp.En5.5.200Scan.071719.P1._HRD10591_14-06-01-909.txt Node
Date: Thu Jul 18 14:06:01 EDT 2019
User: cochatt
Spectrometer: HR+D1059
Trigger mode: 1
Integration Time (sec): 1.000000E-1
Scans to average: 1
Electric dark correction enabled: true
Nonlinearity correction enabled: false
Boxcar width: 0
XAxis mode: Wavelengths
Number of Pixels in Spectrum: 2048
>>>>>Begin Spectral Data<<<<<
223.165	-12.19
223.4	-12.19
223.635	-12.19
223.869	-15.19
224.104	-24.19
224.338	-12.19
224.573	-10.19
224.808	-10.19
225.042	5.81
225.277	-5.19
225.511	-7.19
225.746	3.81
225.98	10.81
226.215	7.81
226.449	1.81
226.683	18.81
226.918	15.81
227.152	31.81
227.387	40.81
227.621	18.81
227.856	24.81
228.09	24.81
228.324	37.81
228.559	58.81
228.793	58.81
229.027	78.81
229.262	91.81
229.496	104.81
229.73	108.81
229.964	146.81
230.199	96.81
230.433	116.81
230.667	101.81
230.901	92.81
231.136	105.81
231.37	101.81
231.604	118.81
231.838	104.81
232.072	108.81
232.306	100.81
232.541	126.81
232.775	98.81
233.009	111.81
233.243	103.81
233.477	103.81
233.711	116.81
233.945	120.81
234.179	115.81
234.413	110.81
234.647	114.81
234.881	110.81
235.115	109.81
235.349	130.81
235.583	114.81
235.817	112.81
236.051	113.81
236.285	121.81
236.519	121.81
236.753	134.81
236.987	138.81
237.221	165.81
237.455	199.81
237.689	158.81
237.922	134.81
238.156	123.81
238.39	116.81
238.624	116.81
238.858	130.81
239.091	118.81
239.325	130.81
239.559	117.81
239.793	118.81
240.027	129.81
240.26	116.81
240.494	154.81
240.728	138.81
240.961	159.81
241.195	146.81
241.429	152.81
241.662	133.81
241.896	130.81
242.13	127.81
242.363	140.81
242.597	136.81
242.83	132.81
243.064	127.81
243.298	145.81
243.531	116.81
243.765	137.81
243.998	130.81
244.232	146.81
244.465	139.81
244.699	142.81
244.932	124.81
245.166	153.81
245.399	148.81
245.633	161.81
245.866	140.81
246.099	148.81
246.333	144.81
246.566	149.81
246.8	137.81
247.033	145.81
247.266	153.81
247.5	155.81
247.733	176.81
247.966	156.81
248.2	170.81
248.433	176.81
248.666	181.81
248.899	171.81
249.133	195.81
249.366	193.81
249.599	181.81
249.832	176.81
250.066	182.81
250.299	164.81
250.532	193.81
250.765	198.81
250.998	236.81
251.231	224.81
251.465	203.81
251.698	208.81
251.931	204.81
252.164	193.81
252.397	203.81
252.63	209.81
252.863	198.81
253.096	202.81
253.329	224.81
253.562	212.81
253.795	208.81
254.028	216.81
254.261	214.81
254.494	239.81
254.727	270.81
254.96	268.81
255.193	273.81
255.426	250.81
255.659	238.81
255.892	236.81
256.124	244.81
256.357	229.81
256.59	236.81
256.823	221.81
257.056	227.81
257.289	223.81
257.521	203.81
257.754	204.81
257.987	213.81
258.22	217.81
258.452	200.81
258.685	225.81
258.918	209.81
259.151	224.81
259.383	205.81
259.616	236.81
259.849	236.81
260.081	260.81
260.314	255.81
260.547	258.81
260.779	244.81
261.012	252.81
261.244	241.81
261.477	213.81
261.71	214.81
261.942	236.81
262.175	234.81
262.407	216.81
262.64	215.81
262.872	212.81
263.105	222.81
263.337	233.81
263.57	232.81
263.802	228.81
264.035	219.81
264.267	216.81
264.499	219.81
264.732	225.81
264.964	233.81
265.197	241.81
265.429	238.81
265.661	223.81
265.894	230.81
266.126	229.81
266.358	234.81
266.591	239.81
266.823	240.81
267.055	246.81
267.287	251.81
267.52	228.81
267.752	230.81
267.984	231.81
268.216	248.81
268.448	228.81
268.681	252.81
268.913	278.81
269.145	290.81
269.377	277.81
269.609	277.81
269.841	281.81
270.073	297.81
270.306	294.81
270.538	306.81
270.77	315.81
271.002	295.81
271.234	311.81
271.466	316.81
271.698	321.81
271.93	330.81
272.162	325.81
272.394	321.81
272.626	294.81
272.858	293.81
273.09	278.81
273.322	285.81
273.553	281.81
273.785	266.81
274.017	279.81
274.249	296.81
274.481	286.81
274.713	278.81
274.945	289.81
275.176	271.81
275.408	280.81
275.64	273.81
275.872	269.81
276.104	286.81
276.335	291.81
276.567	272.81
276.799	301.81
277.031	301.81
277.262	313.81
277.494	336.81
277.726	308.81
277.957	310.81
278.189	303.81
278.421	311.81
278.652	289.81
278.884	304.81
279.115	303.81
279.347	300.81
279.579	291.81
279.81	286.81
280.042	287.81
280.273	291.81
280.505	291.81
280.736	289.81
280.968	288.81
281.199	292.81
281.431	277.81
281.662	296.81
281.894	294.81
282.125	308.81
282.356	296.81
282.588	342.81
282.819	318.81
283.051	310.81
283.282	305.81
283.513	307.81
283.745	296.81
283.976	314.81
284.207	314.81
284.439	317.81
284.67	308.81
284.901	319.81
285.132	302.81
285.364	325.81
285.595	320.81
285.826	316.81
286.057	314.81
286.288	325.81
286.52	303.81
286.751	308.81
286.982	313.81
287.213	321.81
287.444	312.81
287.675	343.81
287.906	332.81
288.138	327.81
288.369	318.81
288.6	346.81
288.831	324.81
289.062	340.81
289.293	327.81
289.524	329.81
289.755	325.81
289.986	300.81
290.217	317.81
290.448	314.81
290.679	329.81
290.91	316.81
291.141	316.81
291.371	331.81
291.602	323.81
291.833	320.81
292.064	334.81
292.295	337.81
292.526	325.81
292.757	316.81
292.987	325.81
293.218	314.81
293.449	327.81
293.68	315.81
293.91	334.81
294.141	340.81
294.372	342.81
294.603	334.81
294.833	328.81
295.064	298.81
295.295	337.81
295.525	321.81
295.756	342.81
295.987	350.81
296.217	351.81
296.448	344.81
296.679	320.81
296.909	357.81
297.14	342.81
297.37	349.81
297.601	334.81
297.831	345.81
298.062	344.81
298.292	342.81
298.523	342.81
298.753	335.81
298.984	337.81
299.214	353.81
299.445	354.81
299.675	336.81
299.905	356.81
300.136	356.81
300.366	361.81
300.597	338.81
300.827	360.81
301.057	356.81
301.288	378.81
301.518	362.81
301.748	374.81
301.979	360.81
302.209	380.81
302.439	352.81
302.669	362.81
302.9	358.81
303.13	377.81
303.36	364.81
303.59	375.81
303.82	371.81
304.051	377.81
304.281	368.81
304.511	348.81
304.741	359.81
304.971	361.81
305.201	354.81
305.431	345.81
305.661	355.81
305.891	377.81
306.121	348.81
306.352	356.81
306.582	352.81
306.812	348.81
307.042	372.81
307.272	366.81
307.502	364.81
307.731	368.81
307.961	366.81
308.191	364.81
308.421	358.81
308.651	354.81
308.881	382.81
309.111	367.81
309.341	374.81
309.571	394.81
309.8	387.81
310.03	402.81
310.26	381.81
310.49	402.81
310.72	408.81
310.949	402.81
311.179	408.81
311.409	391.81
311.639	414.81
311.868	391.81
312.098	410.81
312.328	406.81
312.557	399.81
312.787	436.81
313.017	415.81
313.246	413.81
313.476	412.81
313.706	419.81
313.935	422.81
314.165	436.81
314.394	404.81
314.624	415.81
314.853	413.81
315.083	421.81
315.312	407.81
315.542	406.81
315.771	394.81
316.001	382.81
316.23	394.81
316.46	427.81
316.689	413.81
316.919	417.81
317.148	418.81
317.377	421.81
317.607	419.81
317.836	419.81
318.065	424.81
318.295	418.81
318.524	428.81
318.753	415.81
318.983	424.81
319.212	419.81
319.441	421.81
319.67	405.81
319.9	406.81
320.129	422.81
320.358	411.81
320.587	402.81
320.816	395.81
321.046	425.81
321.275	435.81
321.504	412.81
321.733	424.81
321.962	454.81
322.191	420.81
322.42	459.81
322.649	442.81
322.878	468.81
323.108	452.81
323.337	481.81
323.566	483.81
323.795	520.81
324.024	550.81
324.253	644.81
324.482	867.81
324.71	1280.81
324.939	1792.81
325.168	1477.81
325.397	802.81
325.626	581.81
325.855	532.81
326.084	518.81
326.313	496.81
326.542	512.81
326.77	528.81
326.999	637.81
327.228	794.81
327.457	1162.81
327.686	1316.81
327.914	887.81
328.143	623.81
328.372	584.81
328.6	563.81
328.829	544.81
329.058	534.81
329.287	556.81
329.515	530.81
329.744	521.81
329.972	513.81
330.201	545.81
330.43	543.81
330.658	587.81
330.887	597.81
331.115	555.81
331.344	527.81
331.572	512.81
331.801	501.81
332.03	502.81
332.258	486.81
332.486	488.81
332.715	484.81
332.943	500.81
333.172	499.81
333.4	508.81
333.629	503.81
333.857	537.81
334.085	538.81
334.314	521.81
334.542	577.81
334.771	568.81
334.999	526.81
335.227	499.81
335.455	510.81
335.684	500.81
335.912	492.81
336.14	489.81
336.369	471.81
336.597	470.81
336.825	506.81
337.053	495.81
337.281	476.81
337.51	458.81
337.738	475.81
337.966	472.81
338.194	485.81
338.422	455.81
338.65	478.81
338.878	494.81
339.106	468.81
339.334	448.81
339.562	456.81
339.79	473.81
340.018	470.81
340.246	460.81
340.474	449.81
340.702	453.81
340.93	439.81
341.158	458.81
341.386	440.81
341.614	450.81
341.842	441.81
342.07	435.81
342.298	444.81
342.526	433.81
342.754	439.81
342.981	453.81
343.209	443.81
343.437	463.81
343.665	469.81
343.893	469.81
344.12	477.81
344.348	459.81
344.576	479.81
344.804	457.81
345.031	476.81
345.259	443.81
345.487	446.81
345.714	445.81
345.942	436.81
346.17	463.81
346.397	446.81
346.625	449.81
346.853	444.81
347.08	444.81
347.308	432.81
347.535	428.81
347.763	439.81
347.99	457.81
348.218	421.81
348.445	448.81
348.673	439.81
348.9	418.81
349.128	435.81
349.355	424.81
349.583	440.81
349.81	407.81
350.037	411.81
350.265	390.81
350.492	416.81
350.72	407.81
350.947	407.81
351.174	408.81
351.402	423.81
351.629	429.81
351.856	416.81
352.083	437.81
352.311	450.81
352.538	445.81
352.765	420.81
352.992	432.81
353.22	414.81
353.447	407.81
353.674	434.81
353.901	419.81
354.128	426.81
354.355	398.81
354.583	420.81
354.81	393.81
355.037	414.81
355.264	400.81
355.491	406.81
355.718	402.81
355.945	386.81
356.172	384.81
356.399	408.81
356.626	389.81
356.853	402.81
357.08	411.81
357.307	392.81
357.534	404.81
357.761	390.81
357.988	402.81
358.215	418.81
358.441	396.81
358.668	389.81
358.895	418.81
359.122	428.81
359.349	381.81
359.576	422.81
359.802	440.81
360.029	440.81
360.256	428.81
360.483	432.81
360.709	427.81
360.936	423.81
361.163	401.81
361.39	428.81
361.616	420.81
361.843	416.81
362.07	416.81
362.296	419.81
362.523	416.81
362.749	434.81
362.976	396.81
363.203	399.81
363.429	409.81
363.656	410.81
363.882	407.81
364.109	421.81
364.335	394.81
364.562	374.81
364.788	411.81
365.015	402.81
365.241	392.81
365.468	400.81
365.694	384.81
365.92	407.81
366.147	400.81
366.373	405.81
366.599	384.81
366.826	393.81
367.052	394.81
367.278	406.81
367.505	392.81
367.731	395.81
367.957	403.81
368.184	413.81
368.41	390.81
368.636	395.81
368.862	398.81
369.089	408.81
369.315	410.81
369.541	399.81
369.767	394.81
369.993	374.81
370.219	415.81
370.445	409.81
370.672	401.81
370.898	405.81
371.124	389.81
371.35	407.81
371.576	409.81
371.802	408.81
372.028	388.81
372.254	402.81
372.48	388.81
372.706	410.81
372.932	400.81
373.158	408.81
373.384	389.81
373.61	388.81
373.835	410.81
374.061	438.81
374.287	409.81
374.513	374.81
374.739	421.81
374.965	408.81
375.191	404.81
375.416	424.81
375.642	416.81
375.868	422.81
376.094	403.81
376.319	412.81
376.545	405.81
376.771	375.81
376.997	412.81
377.222	384.81
377.448	384.81
377.674	387.81
377.899	390.81
378.125	400.81
378.35	398.81
378.576	381.81
378.802	400.81
379.027	398.81
379.253	382.81
379.478	394.81
379.704	377.81
379.929	416.81
380.155	401.81
380.38	374.81
380.606	392.81
380.831	389.81
381.057	399.81
381.282	370.81
381.507	398.81
381.733	405.81
381.958	389.81
382.184	391.81
382.409	422.81
382.634	412.81
382.86	420.81
383.085	405.81
383.31	401.81
383.535	405.81
383.761	399.81
383.986	403.81
384.211	423.81
384.436	447.81
384.662	409.81
384.887	434.81
385.112	414.81
385.337	413.81
385.562	430.81
385.787	434.81
386.013	459.81
386.238	429.81
386.463	412.81
386.688	443.81
386.913	429.81
387.138	437.81
387.363	430.81
387.588	446.81
387.813	434.81
388.038	438.81
388.263	445.81
388.488	421.81
388.713	423.81
388.938	415.81
389.163	434.81
389.387	452.81
389.612	417.81
389.837	409.81
390.062	420.81
390.287	432.81
390.512	438.81
390.736	424.81
390.961	434.81
391.186	452.81
391.411	441.81
391.636	444.81
391.86	463.81
392.085	451.81
392.31	457.81
392.534	452.81
392.759	456.81
392.984	432.81
393.208	450.81
393.433	439.81
393.658	432.81
393.882	443.81
394.107	423.81
394.331	434.81
394.556	423.81
394.78	423.81
395.005	437.81
395.229	442.81
395.454	442.81
395.678	441.81
395.903	459.81
396.127	448.81
396.352	494.81
396.576	482.81
396.801	463.81
397.025	448.81
397.249	437.81
397.474	446.81
397.698	463.81
397.922	465.81
398.147	461.81
398.371	471.81
398.595	481.81
398.82	479.81
399.044	519.81
399.268	546.81
399.492	547.81
399.717	579.81
399.941	601.81
400.165	596.81
400.389	613.81
400.613	562.81
400.837	543.81
401.062	486.81
401.286	482.81
401.51	476.81
401.734	490.81
401.958	488.81
402.182	499.81
402.406	480.81
402.63	504.81
402.854	488.81
403.078	510.81
403.302	496.81
403.526	506.81
403.75	517.81
403.974	521.81
404.198	528.81
404.422	503.81
404.645	517.81
404.869	516.81
405.093	556.81
405.317	582.81
405.541	624.81
405.765	544.81
405.988	521.81
406.212	524.81
406.436	540.81
406.66	560.81
406.883	540.81
407.107	550.81
407.331	602.81
407.555	633.81
407.778	633.81
408.002	598.81
408.226	568.81
408.449	540.81
408.673	545.81
408.896	577.81
409.12	603.81
409.344	549.81
409.567	526.81
409.791	527.81
410.014	494.81
410.238	487.81
410.461	480.81
410.685	524.81
410.908	512.81
411.132	535.81
411.355	556.81
411.578	526.81
411.802	486.81
412.025	496.81
412.249	498.81
412.472	518.81
412.695	520.81
412.919	544.81
413.142	498.81
413.365	511.81
413.589	497.81
413.812	477.81
414.035	471.81
414.258	451.81
414.482	460.81
414.705	467.81
414.928	459.81
415.151	466.81
415.374	471.81
415.597	461.81
415.821	485.81
416.044	477.81
416.267	486.81
416.49	462.81
416.713	446.81
416.936	485.81
417.159	477.81
417.382	475.81
417.605	479.81
417.828	497.81
418.051	469.81
418.274	472.81
418.497	460.81
418.72	469.81
418.943	478.81
419.166	491.81
419.389	497.81
419.611	514.81
419.834	485.81
420.057	492.81
420.28	505.81
420.503	480.81
420.726	498.81
420.948	495.81
421.171	533.81
421.394	545.81
421.617	479.81
421.839	478.81
422.062	477.81
422.285	496.81
422.507	553.81
422.73	590.81
422.953	547.81
423.175	504.81
423.398	501.81
423.621	494.81
423.843	498.81
424.066	528.81
424.288	531.81
424.511	522.81
424.733	574.81
424.956	644.81
425.178	605.81
425.401	604.81
425.623	632.81
425.846	544.81
426.068	501.81
426.291	484.81
426.513	504.81
426.735	510.81
426.958	555.81
427.18	607.81
427.402	720.81
427.625	730.81
427.847	636.81
428.069	584.81
428.292	531.81
428.514	476.81
428.736	453.81
428.958	470.81
429.181	456.81
429.403	452.81
429.625	468.81
429.847	489.81
430.069	534.81
430.292	550.81
430.514	472.81
430.736	468.81
430.958	471.81
431.18	436.81
431.402	446.81
431.624	434.81
431.846	448.81
432.068	436.81
432.29	446.81
432.512	420.81
432.734	451.81
432.956	457.81
433.178	437.81
433.4	447.81
433.622	452.81
433.844	461.81
434.066	444.81
434.287	438.81
434.509	464.81
434.731	445.81
434.953	473.81
435.175	484.81
435.397	458.81
435.618	508.81
435.84	518.81
436.062	586.81
436.284	660.81
436.505	533.81
436.727	488.81
436.949	465.81
437.17	453.81
437.392	459.81
437.614	470.81
437.835	503.81
438.057	567.81
438.278	628.81
438.5	629.81
438.721	693.81
438.943	655.81
439.165	541.81
439.386	497.81
439.608	493.81
439.829	499.81
440.05	503.81
440.272	534.81
440.493	504.81
440.715	484.81
440.936	474.81
441.158	440.81
441.379	479.81
441.6	485.81
441.822	497.81
442.043	527.81
442.264	589.81
442.486	637.81
442.707	532.81
442.928	515.81
443.149	518.81
443.371	510.81
443.592	562.81
443.813	634.81
444.034	676.81
444.255	590.81
444.476	508.81
444.698	502.81
444.919	492.81
445.14	627.81
445.361	567.81
445.582	549.81
445.803	585.81
446.024	637.81
446.245	654.81
446.466	604.81
446.687	524.81
446.908	489.81
447.129	455.81
447.35	453.81
447.571	452.81
447.792	431.81
448.013	462.81
448.234	461.81
448.455	490.81
448.675	596.81
448.896	677.81
449.117	595.81
449.338	547.81
449.559	650.81
449.779	704.81
450	577.81
450.221	493.81
450.442	445.81
450.662	435.81
450.883	440.81
451.104	424.81
451.324	422.81
451.545	412.81
451.766	415.81
451.986	393.81
452.207	398.81
452.428	421.81
452.648	402.81
452.869	409.81
453.089	392.81
453.31	430.81
453.53	409.81
453.751	383.81
453.971	385.81
454.192	424.81
454.412	393.81
454.633	389.81
454.853	393.81
455.073	409.81
455.294	421.81
455.514	480.81
455.734	467.81
455.955	387.81
456.175	389.81
456.395	405.81
456.616	382.81
456.836	401.81
457.056	384.81
457.276	393.81
457.497	393.81
457.717	383.81
457.937	408.81
458.157	393.81
458.377	389.81
458.598	423.81
458.818	457.81
459.038	500.81
459.258	518.81
459.478	457.81
459.698	452.81
459.918	428.81
460.138	437.81
460.358	443.81
460.578	445.81
460.798	452.81
461.018	436.81
461.238	440.81
461.458	463.81
461.678	446.81
461.898	470.81
462.118	462.81
462.338	464.81
462.558	468.81
462.777	485.81
462.997	506.81
463.217	516.81
463.437	512.81
463.657	493.81
463.876	470.81
464.096	470.81
464.316	463.81
464.536	457.81
464.755	484.81
464.975	466.81
465.195	491.81
465.414	496.81
465.634	496.81
465.854	465.81
466.073	428.81
466.293	420.81
466.512	441.81
466.732	425.81
466.951	412.81
467.171	408.81
467.391	410.81
467.61	421.81
467.829	423.81
468.049	412.81
468.268	431.81
468.488	410.81
468.707	402.81
468.927	415.81
469.146	402.81
469.365	414.81
469.585	400.81
469.804	413.81
470.023	416.81
470.243	406.81
470.462	425.81
470.681	414.81
470.901	419.81
471.12	408.81
471.339	418.81
471.558	416.81
471.777	412.81
471.997	421.81
472.216	422.81
472.435	441.81
472.654	439.81
472.873	410.81
473.092	428.81
473.311	424.81
473.53	432.81
473.749	459.81
473.968	464.81
474.187	527.81
474.406	536.81
474.625	442.81
474.844	421.81
475.063	423.81
475.282	428.81
475.501	414.81
475.72	413.81
475.939	436.81
476.158	436.81
476.377	443.81
476.596	445.81
476.814	439.81
477.033	450.81
477.252	438.81
477.471	434.81
477.69	442.81
477.908	450.81
478.127	444.81
478.346	450.81
478.564	463.81
478.783	455.81
479.002	469.81
479.22	505.81
479.439	493.81
479.658	488.81
479.876	520.81
480.095	503.81
480.313	527.81
480.532	532.81
480.751	541.81
480.969	537.81
481.188	552.81
481.406	582.81
481.624	530.81
481.843	524.81
482.061	492.81
482.28	505.81
482.498	479.81
482.717	482.81
482.935	492.81
483.153	469.81
483.372	464.81
483.59	489.81
483.808	477.81
484.027	470.81
484.245	468.81
484.463	473.81
484.681	493.81
484.9	497.81
485.118	506.81
485.336	494.81
485.554	500.81
485.772	511.81
485.99	491.81
486.209	508.81
486.427	531.81
486.645	513.81
486.863	525.81
487.081	504.81
487.299	501.81
487.517	536.81
487.735	528.81
487.953	515.81
488.171	505.81
488.389	496.81
488.607	513.81
488.825	504.81
489.043	494.81
489.261	526.81
489.479	505.81
489.696	532.81
489.914	513.81
490.132	513.81
490.35	562.81
490.568	535.81
490.786	549.81
491.003	563.81
491.221	569.81
491.439	594.81
491.657	580.81
491.874	574.81
492.092	576.81
492.31	565.81
492.527	567.81
492.745	585.81
492.963	580.81
493.18	583.81
493.398	612.81
493.615	584.81
493.833	588.81
494.05	597.81
494.268	597.81
494.485	604.81
494.703	603.81
494.92	610.81
495.138	605.81
495.355	604.81
495.573	616.81
495.79	601.81
496.008	586.81
496.225	588.81
496.442	597.81
496.66	623.81
496.877	599.81
497.094	615.81
497.312	622.81
497.529	615.81
497.746	636.81
497.963	624.81
498.181	635.81
498.398	664.81
498.615	687.81
498.832	700.81
499.049	740.81
499.267	742.81
499.484	733.81
499.701	818.81
499.918	829.81
500.135	882.81
500.352	919.81
500.569	937.81
500.786	938.81
501.003	912.81
501.22	871.81
501.437	855.81
501.654	800.81
501.871	784.81
502.088	749.81
