Data from 1964.PennyLincolnUp.Lamp.En5.5.200Scan.071719.P1._HRD10591_14-05-03-911.txt Node
Date: Thu Jul 18 14:05:03 EDT 2019
User: cochatt
Spectrometer: HR+D1059
Trigger mode: 1
Integration Time (sec): 1.000000E-1
Scans to average: 1
Electric dark correction enabled: true
Nonlinearity correction enabled: false
Boxcar width: 0
XAxis mode: Wavelengths
Number of Pixels in Spectrum: 2048
>>>>>Begin Spectral Data<<<<<
223.165	-12.94
223.4	-12.94
223.635	-12.94
223.869	-2.94
224.104	-13.94
224.338	-18.94
224.573	-24.94
224.808	-6.94
225.042	-14.94
225.277	-12.94
225.511	-8.94
225.746	8.06
225.98	11.06
226.215	10.06
226.449	16.06
226.683	14.06
226.918	24.06
227.152	34.06
227.387	43.06
227.621	38.06
227.856	47.06
228.09	43.06
228.324	50.06
228.559	71.06
228.793	45.06
229.027	79.06
229.262	91.06
229.496	107.06
229.73	111.06
229.964	132.06
230.199	118.06
230.433	109.06
230.667	106.06
230.901	120.06
231.136	98.06
231.37	100.06
231.604	120.06
231.838	115.06
232.072	120.06
232.306	118.06
232.541	119.06
232.775	110.06
233.009	107.06
233.243	114.06
233.477	118.06
233.711	95.06
233.945	103.06
234.179	89.06
234.413	105.06
234.647	119.06
234.881	119.06
235.115	112.06
235.349	112.06
235.583	111.06
235.817	116.06
236.051	126.06
236.285	113.06
236.519	133.06
236.753	130.06
236.987	148.06
237.221	162.06
237.455	210.06
237.689	157.06
237.922	125.06
238.156	130.06
238.39	134.06
238.624	115.06
238.858	138.06
239.091	117.06
239.325	122.06
239.559	124.06
239.793	128.06
240.027	127.06
240.26	133.06
240.494	156.06
240.728	138.06
240.961	135.06
241.195	138.06
241.429	136.06
241.662	148.06
241.896	134.06
242.13	132.06
242.363	142.06
242.597	145.06
242.83	154.06
243.064	131.06
243.298	142.06
243.531	134.06
243.765	132.06
243.998	148.06
244.232	146.06
244.465	150.06
244.699	151.06
244.932	150.06
245.166	146.06
245.399	151.06
245.633	138.06
245.866	152.06
246.099	139.06
246.333	138.06
246.566	153.06
246.8	184.06
247.033	150.06
247.266	159.06
247.5	159.06
247.733	165.06
247.966	191.06
248.2	165.06
248.433	176.06
248.666	171.06
248.899	176.06
249.133	190.06
249.366	200.06
249.599	198.06
249.832	182.06
250.066	174.06
250.299	156.06
250.532	182.06
250.765	196.06
250.998	207.06
251.231	224.06
251.465	205.06
251.698	198.06
251.931	191.06
252.164	201.06
252.397	194.06
252.63	203.06
252.863	208.06
253.096	213.06
253.329	216.06
253.562	220.06
253.795	202.06
254.028	189.06
254.261	219.06
254.494	221.06
254.727	250.06
254.96	267.06
255.193	255.06
255.426	245.06
255.659	230.06
255.892	231.06
256.124	221.06
256.357	223.06
256.59	234.06
256.823	216.06
257.056	224.06
257.289	206.06
257.521	212.06
257.754	239.06
257.987	218.06
258.22	219.06
258.452	203.06
258.685	222.06
258.918	229.06
259.151	218.06
259.383	207.06
259.616	212.06
259.849	236.06
260.081	247.06
260.314	260.06
260.547	275.06
260.779	248.06
261.012	227.06
261.244	242.06
261.477	222.06
261.71	242.06
261.942	248.06
262.175	245.06
262.407	229.06
262.64	239.06
262.872	232.06
263.105	227.06
263.337	231.06
263.57	203.06
263.802	226.06
264.035	223.06
264.267	224.06
264.499	235.06
264.732	233.06
264.964	221.06
265.197	224.06
265.429	222.06
265.661	242.06
265.894	223.06
266.126	227.06
266.358	220.06
266.591	222.06
266.823	226.06
267.055	233.06
267.287	247.06
267.52	243.06
267.752	244.06
267.984	250.06
268.216	244.06
268.448	260.06
268.681	267.06
268.913	244.06
269.145	270.06
269.377	286.06
269.609	270.06
269.841	275.06
270.073	276.06
270.306	295.06
270.538	301.06
270.77	296.06
271.002	313.06
271.234	306.06
271.466	296.06
271.698	310.06
271.93	296.06
272.162	302.06
272.394	311.06
272.626	310.06
272.858	291.06
273.09	291.06
273.322	282.06
273.553	284.06
273.785	294.06
274.017	266.06
274.249	286.06
274.481	281.06
274.713	292.06
274.945	296.06
275.176	286.06
275.408	291.06
275.64	277.06
275.872	284.06
276.104	285.06
276.335	280.06
276.567	292.06
276.799	296.06
277.031	311.06
277.262	334.06
277.494	335.06
277.726	320.06
277.957	317.06
278.189	315.06
278.421	312.06
278.652	293.06
278.884	301.06
279.115	290.06
279.347	287.06
279.579	272.06
279.81	287.06
280.042	286.06
280.273	306.06
280.505	293.06
280.736	287.06
280.968	291.06
281.199	296.06
281.431	306.06
281.662	300.06
281.894	280.06
282.125	303.06
282.356	298.06
282.588	312.06
282.819	334.06
283.051	297.06
283.282	307.06
283.513	300.06
283.745	315.06
283.976	309.06
284.207	328.06
284.439	323.06
284.67	310.06
284.901	296.06
285.132	307.06
285.364	299.06
285.595	302.06
285.826	315.06
286.057	318.06
286.288	297.06
286.52	316.06
286.751	304.06
286.982	296.06
287.213	292.06
287.444	339.06
287.675	309.06
287.906	312.06
288.138	323.06
288.369	327.06
288.6	335.06
288.831	330.06
289.062	322.06
289.293	318.06
289.524	336.06
289.755	331.06
289.986	308.06
290.217	323.06
290.448	337.06
290.679	314.06
290.91	320.06
291.141	332.06
291.371	340.06
291.602	306.06
291.833	320.06
292.064	325.06
292.295	322.06
292.526	331.06
292.757	338.06
292.987	317.06
293.218	332.06
293.449	328.06
293.68	335.06
293.91	334.06
294.141	319.06
294.372	331.06
294.603	343.06
294.833	329.06
295.064	314.06
295.295	326.06
295.525	348.06
295.756	339.06
295.987	342.06
296.217	359.06
296.448	332.06
296.679	346.06
296.909	336.06
297.14	340.06
297.37	346.06
297.601	343.06
297.831	339.06
298.062	336.06
298.292	351.06
298.523	332.06
298.753	346.06
298.984	348.06
299.214	340.06
299.445	356.06
299.675	357.06
299.905	347.06
300.136	346.06
300.366	354.06
300.597	338.06
300.827	342.06
301.057	356.06
301.288	355.06
301.518	364.06
301.748	374.06
301.979	358.06
302.209	371.06
302.439	356.06
302.669	372.06
302.9	357.06
303.13	354.06
303.36	362.06
303.59	388.06
303.82	374.06
304.051	370.06
304.281	365.06
304.511	367.06
304.741	362.06
304.971	361.06
305.201	365.06
305.431	363.06
305.661	358.06
305.891	361.06
306.121	373.06
306.352	386.06
306.582	396.06
306.812	357.06
307.042	390.06
307.272	384.06
307.502	383.06
307.731	364.06
307.961	382.06
308.191	363.06
308.421	370.06
308.651	367.06
308.881	377.06
309.111	377.06
309.341	373.06
309.571	380.06
309.8	387.06
310.03	380.06
310.26	389.06
310.49	399.06
310.72	388.06
310.949	383.06
311.179	416.06
311.409	407.06
311.639	403.06
311.868	414.06
312.098	399.06
312.328	394.06
312.557	418.06
312.787	413.06
313.017	425.06
313.246	391.06
313.476	418.06
313.706	400.06
313.935	395.06
314.165	414.06
314.394	414.06
314.624	417.06
314.853	418.06
315.083	431.06
315.312	416.06
315.542	408.06
315.771	401.06
316.001	406.06
316.23	403.06
316.46	408.06
316.689	411.06
316.919	400.06
317.148	431.06
317.377	432.06
317.607	416.06
317.836	419.06
318.065	419.06
318.295	416.06
318.524	406.06
318.753	425.06
318.983	400.06
319.212	427.06
319.441	401.06
319.67	420.06
319.9	383.06
320.129	414.06
320.358	416.06
320.587	401.06
320.816	420.06
321.046	416.06
321.275	438.06
321.504	421.06
321.733	412.06
321.962	418.06
322.191	441.06
322.42	439.06
322.649	447.06
322.878	452.06
323.108	462.06
323.337	456.06
323.566	472.06
323.795	499.06
324.024	551.06
324.253	621.06
324.482	812.06
324.71	1199.06
324.939	1592.06
325.168	1340.06
325.397	754.06
325.626	537.06
325.855	499.06
326.084	478.06
326.313	485.06
326.542	482.06
326.77	543.06
326.999	589.06
327.228	745.06
327.457	1046.06
327.686	1207.06
327.914	847.06
328.143	615.06
328.372	550.06
328.6	533.06
328.829	524.06
329.058	513.06
329.287	535.06
329.515	518.06
329.744	490.06
329.972	505.06
330.201	516.06
330.43	546.06
330.658	540.06
330.887	543.06
331.115	535.06
331.344	495.06
331.572	498.06
331.801	510.06
332.03	495.06
332.258	496.06
332.486	478.06
332.715	490.06
332.943	487.06
333.172	497.06
333.4	482.06
333.629	521.06
333.857	510.06
334.085	512.06
334.314	558.06
334.542	550.06
334.771	547.06
334.999	537.06
335.227	509.06
335.455	480.06
335.684	487.06
335.912	503.06
336.14	473.06
336.369	466.06
336.597	514.06
336.825	504.06
337.053	474.06
337.281	477.06
337.51	460.06
337.738	466.06
337.966	448.06
338.194	455.06
338.422	483.06
338.65	456.06
338.878	467.06
339.106	436.06
339.334	479.06
339.562	455.06
339.79	445.06
340.018	454.06
340.246	458.06
340.474	465.06
340.702	446.06
340.93	448.06
341.158	456.06
341.386	440.06
341.614	467.06
341.842	444.06
342.07	457.06
342.298	467.06
342.526	454.06
342.754	440.06
342.981	459.06
343.209	453.06
343.437	456.06
343.665	459.06
343.893	468.06
344.12	487.06
344.348	468.06
344.576	462.06
344.804	486.06
345.031	462.06
345.259	471.06
345.487	450.06
345.714	443.06
345.942	446.06
346.17	434.06
346.397	445.06
346.625	428.06
346.853	444.06
347.08	460.06
347.308	426.06
347.535	424.06
347.763	434.06
347.99	463.06
348.218	448.06
348.445	427.06
348.673	421.06
348.9	440.06
349.128	431.06
349.355	423.06
349.583	443.06
349.81	430.06
350.037	412.06
350.265	411.06
350.492	425.06
350.72	423.06
350.947	415.06
351.174	425.06
351.402	420.06
351.629	407.06
351.856	439.06
352.083	422.06
352.311	450.06
352.538	427.06
352.765	427.06
352.992	418.06
353.22	425.06
353.447	438.06
353.674	421.06
353.901	425.06
354.128	408.06
354.355	420.06
354.583	404.06
354.81	406.06
355.037	401.06
355.264	418.06
355.491	393.06
355.718	404.06
355.945	415.06
356.172	401.06
356.399	411.06
356.626	414.06
356.853	392.06
357.08	398.06
357.307	418.06
357.534	395.06
357.761	393.06
357.988	404.06
358.215	393.06
358.441	412.06
358.668	389.06
358.895	400.06
359.122	407.06
359.349	404.06
359.576	409.06
359.802	416.06
360.029	447.06
360.256	449.06
360.483	448.06
360.709	415.06
360.936	407.06
361.163	430.06
361.39	415.06
361.616	414.06
361.843	410.06
362.07	399.06
362.296	444.06
362.523	395.06
362.749	432.06
362.976	408.06
363.203	407.06
363.429	407.06
363.656	387.06
363.882	404.06
364.109	399.06
364.335	378.06
364.562	378.06
364.788	394.06
365.015	392.06
365.241	392.06
365.468	405.06
365.694	403.06
365.92	396.06
366.147	407.06
366.373	373.06
366.599	407.06
366.826	389.06
367.052	384.06
367.278	379.06
367.505	383.06
367.731	399.06
367.957	401.06
368.184	404.06
368.41	390.06
368.636	415.06
368.862	404.06
369.089	392.06
369.315	408.06
369.541	411.06
369.767	414.06
369.993	389.06
370.219	394.06
370.445	414.06
370.672	398.06
370.898	388.06
371.124	416.06
371.35	402.06
371.576	408.06
371.802	417.06
372.028	386.06
372.254	408.06
372.48	412.06
372.706	427.06
372.932	419.06
373.158	411.06
373.384	415.06
373.61	402.06
373.835	399.06
374.061	406.06
374.287	428.06
374.513	409.06
374.739	420.06
374.965	399.06
375.191	421.06
375.416	405.06
375.642	385.06
375.868	404.06
376.094	427.06
376.319	402.06
376.545	392.06
376.771	411.06
376.997	406.06
377.222	406.06
377.448	405.06
377.674	394.06
377.899	407.06
378.125	416.06
378.35	401.06
378.576	401.06
378.802	390.06
379.027	390.06
379.253	383.06
379.478	386.06
379.704	395.06
379.929	419.06
380.155	394.06
380.38	406.06
380.606	384.06
380.831	405.06
381.057	422.06
381.282	395.06
381.507	404.06
381.733	411.06
381.958	398.06
382.184	396.06
382.409	405.06
382.634	423.06
382.86	405.06
383.085	403.06
383.31	400.06
383.535	419.06
383.761	428.06
383.986	416.06
384.211	427.06
384.436	437.06
384.662	416.06
384.887	416.06
385.112	443.06
385.337	421.06
385.562	440.06
385.787	440.06
386.013	428.06
386.238	429.06
386.463	441.06
386.688	440.06
386.913	436.06
387.138	430.06
387.363	451.06
387.588	435.06
387.813	426.06
388.038	441.06
388.263	419.06
388.488	430.06
388.713	452.06
388.938	445.06
389.163	413.06
389.387	453.06
389.612	442.06
389.837	416.06
390.062	431.06
390.287	426.06
390.512	416.06
390.736	444.06
390.961	434.06
391.186	409.06
391.411	428.06
391.636	417.06
391.86	446.06
392.085	452.06
392.31	469.06
392.534	458.06
392.759	436.06
392.984	440.06
393.208	454.06
393.433	433.06
393.658	443.06
393.882	438.06
394.107	424.06
394.331	449.06
394.556	452.06
394.78	424.06
395.005	446.06
395.229	443.06
395.454	444.06
395.678	473.06
395.903	458.06
396.127	483.06
396.352	476.06
396.576	467.06
396.801	448.06
397.025	473.06
397.249	464.06
397.474	461.06
397.698	463.06
397.922	471.06
398.147	483.06
398.371	484.06
398.595	480.06
398.82	484.06
399.044	510.06
399.268	538.06
399.492	549.06
399.717	626.06
399.941	598.06
400.165	598.06
400.389	581.06
400.613	571.06
400.837	530.06
401.062	515.06
401.286	516.06
401.51	517.06
401.734	487.06
401.958	526.06
402.182	505.06
402.406	502.06
402.63	495.06
402.854	514.06
403.078	503.06
403.302	515.06
403.526	530.06
403.75	498.06
403.974	518.06
404.198	486.06
404.422	518.06
404.645	531.06
404.869	515.06
405.093	562.06
405.317	587.06
405.541	614.06
405.765	548.06
405.988	522.06
406.212	539.06
406.436	518.06
406.66	545.06
406.883	544.06
407.107	566.06
407.331	598.06
407.555	651.06
407.778	628.06
408.002	595.06
408.226	570.06
408.449	556.06
408.673	565.06
408.896	566.06
409.12	597.06
409.344	562.06
409.567	538.06
409.791	540.06
410.014	524.06
410.238	518.06
410.461	506.06
410.685	502.06
410.908	495.06
411.132	541.06
411.355	582.06
411.578	540.06
411.802	522.06
412.025	503.06
412.249	512.06
412.472	532.06
412.695	557.06
412.919	528.06
413.142	527.06
413.365	487.06
413.589	503.06
413.812	476.06
414.035	486.06
414.258	479.06
414.482	477.06
414.705	474.06
414.928	469.06
415.151	474.06
415.374	468.06
415.597	468.06
415.821	459.06
416.044	455.06
416.267	466.06
416.49	475.06
416.713	460.06
416.936	456.06
417.159	461.06
417.382	441.06
417.605	463.06
417.828	474.06
418.051	472.06
418.274	477.06
418.497	466.06
418.72	473.06
418.943	481.06
419.166	491.06
419.389	514.06
419.611	498.06
419.834	501.06
420.057	495.06
420.28	487.06
420.503	478.06
420.726	478.06
420.948	501.06
421.171	539.06
421.394	549.06
421.617	488.06
421.839	460.06
422.062	492.06
422.285	481.06
422.507	538.06
422.73	592.06
422.953	552.06
423.175	485.06
423.398	492.06
423.621	488.06
423.843	502.06
424.066	524.06
424.288	503.06
424.511	532.06
424.733	590.06
424.956	652.06
425.178	605.06
425.401	592.06
425.623	606.06
425.846	503.06
426.068	506.06
426.291	495.06
426.513	514.06
426.735	526.06
426.958	528.06
427.18	585.06
427.402	690.06
427.625	728.06
427.847	655.06
428.069	560.06
428.292	536.06
428.514	476.06
428.736	482.06
428.958	476.06
429.181	461.06
429.403	453.06
429.625	468.06
429.847	495.06
430.069	542.06
430.292	535.06
430.514	464.06
430.736	429.06
430.958	455.06
431.18	448.06
431.402	454.06
431.624	423.06
431.846	446.06
432.068	459.06
432.29	442.06
432.512	443.06
432.734	463.06
432.956	445.06
433.178	469.06
433.4	468.06
433.622	450.06
433.844	458.06
434.066	432.06
434.287	453.06
434.509	453.06
434.731	460.06
434.953	483.06
435.175	492.06
435.397	491.06
435.618	485.06
435.84	537.06
436.062	599.06
436.284	653.06
436.505	544.06
436.727	486.06
436.949	454.06
437.17	468.06
437.392	454.06
437.614	455.06
437.835	503.06
438.057	547.06
438.278	634.06
438.5	636.06
438.721	687.06
438.943	646.06
439.165	522.06
439.386	492.06
439.608	517.06
439.829	467.06
440.05	512.06
440.272	524.06
440.493	499.06
440.715	500.06
440.936	467.06
441.158	463.06
441.379	481.06
441.6	460.06
441.822	500.06
442.043	550.06
442.264	603.06
442.486	621.06
442.707	524.06
442.928	523.06
443.149	519.06
443.371	500.06
443.592	539.06
443.813	639.06
444.034	665.06
444.255	576.06
444.476	534.06
444.698	531.06
444.919	515.06
445.14	638.06
445.361	568.06
445.582	532.06
445.803	564.06
446.024	622.06
446.245	632.06
446.466	571.06
446.687	520.06
446.908	498.06
447.129	452.06
447.35	462.06
447.571	465.06
447.792	462.06
448.013	438.06
448.234	478.06
448.455	504.06
448.675	576.06
448.896	667.06
449.117	553.06
449.338	554.06
449.559	624.06
449.779	686.06
450	560.06
450.221	492.06
450.442	435.06
450.662	450.06
450.883	448.06
451.104	447.06
451.324	427.06
451.545	428.06
451.766	414.06
451.986	420.06
452.207	419.06
452.428	405.06
452.648	410.06
452.869	417.06
453.089	415.06
453.31	433.06
453.53	414.06
453.751	392.06
453.971	406.06
454.192	404.06
454.412	384.06
454.633	394.06
454.853	397.06
455.073	399.06
455.294	413.06
455.514	484.06
455.734	454.06
455.955	398.06
456.175	395.06
456.395	382.06
456.616	390.06
456.836	377.06
457.056	380.06
457.276	400.06
457.497	386.06
457.717	376.06
457.937	387.06
458.157	403.06
458.377	398.06
458.598	410.06
458.818	439.06
459.038	506.06
459.258	495.06
459.478	470.06
459.698	450.06
459.918	427.06
460.138	457.06
460.358	460.06
460.578	445.06
460.798	463.06
461.018	440.06
461.238	442.06
461.458	466.06
461.678	452.06
461.898	477.06
462.118	462.06
462.338	492.06
462.558	467.06
462.777	490.06
462.997	486.06
463.217	519.06
463.437	524.06
463.657	534.06
463.876	487.06
464.096	482.06
464.316	486.06
464.536	513.06
464.755	502.06
464.975	477.06
465.195	506.06
465.414	514.06
465.634	478.06
465.854	442.06
466.073	438.06
466.293	414.06
466.512	421.06
466.732	412.06
466.951	419.06
467.171	415.06
467.391	425.06
467.61	441.06
467.829	447.06
468.049	421.06
468.268	422.06
468.488	409.06
468.707	409.06
468.927	423.06
469.146	423.06
469.365	420.06
469.585	406.06
469.804	414.06
470.023	412.06
470.243	422.06
470.462	421.06
470.681	426.06
470.901	419.06
471.12	418.06
471.339	420.06
471.558	417.06
471.777	410.06
471.997	423.06
472.216	439.06
472.435	436.06
472.654	443.06
472.873	425.06
473.092	430.06
473.311	426.06
473.53	428.06
473.749	439.06
473.968	436.06
474.187	519.06
474.406	547.06
474.625	468.06
474.844	440.06
475.063	429.06
475.282	415.06
475.501	413.06
475.72	407.06
475.939	436.06
476.158	438.06
476.377	436.06
476.596	441.06
476.814	442.06
477.033	462.06
477.252	452.06
477.471	452.06
477.69	477.06
477.908	458.06
478.127	471.06
478.346	460.06
478.564	482.06
478.783	481.06
479.002	488.06
479.22	465.06
479.439	494.06
479.658	502.06
479.876	503.06
480.095	487.06
480.313	523.06
480.532	514.06
480.751	508.06
480.969	531.06
481.188	568.06
481.406	572.06
481.624	524.06
481.843	507.06
482.061	506.06
482.28	478.06
482.498	488.06
482.717	498.06
482.935	506.06
483.153	487.06
483.372	479.06
483.59	463.06
483.808	487.06
484.027	479.06
484.245	502.06
484.463	485.06
484.681	489.06
484.9	483.06
485.118	503.06
485.336	476.06
485.554	490.06
485.772	516.06
485.99	504.06
486.209	503.06
486.427	506.06
486.645	481.06
486.863	512.06
487.081	502.06
487.299	524.06
487.517	522.06
487.735	530.06
487.953	515.06
488.171	504.06
488.389	523.06
488.607	512.06
488.825	502.06
489.043	514.06
489.261	519.06
489.479	506.06
489.696	535.06
489.914	537.06
490.132	530.06
490.35	507.06
490.568	527.06
490.786	545.06
491.003	530.06
491.221	549.06
491.439	566.06
491.657	572.06
491.874	557.06
492.092	550.06
492.31	567.06
492.527	579.06
492.745	575.06
492.963	582.06
493.18	599.06
493.398	583.06
493.615	597.06
493.833	590.06
494.05	599.06
494.268	619.06
494.485	594.06
494.703	577.06
494.92	595.06
495.138	607.06
495.355	591.06
495.573	586.06
495.79	594.06
496.008	614.06
496.225	602.06
496.442	616.06
496.66	605.06
496.877	607.06
497.094	599.06
497.312	621.06
497.529	642.06
497.746	623.06
497.963	642.06
498.181	668.06
498.398	680.06
498.615	678.06
498.832	713.06
499.049	724.06
499.267	744.06
499.484	754.06
499.701	808.06
499.918	841.06
500.135	885.06
500.352	930.06
500.569	939.06
500.786	952.06
501.003	912.06
501.22	891.06
501.437	822.06
501.654	822.06
501.871	806.06
