Data from 1964.PennyLincolnUp.Lamp.En5.5.200Scan.071719.P1._HRD10591_14-04-17-910.txt Node
Date: Thu Jul 18 14:04:17 EDT 2019
User: cochatt
Spectrometer: HR+D1059
Trigger mode: 1
Integration Time (sec): 1.000000E-1
Scans to average: 1
Electric dark correction enabled: true
Nonlinearity correction enabled: false
Boxcar width: 0
XAxis mode: Wavelengths
Number of Pixels in Spectrum: 2048
>>>>>Begin Spectral Data<<<<<
223.165	-15.19
223.4	-15.19
223.635	-15.19
223.869	-22.19
224.104	-11.19
224.338	-9.19
224.573	-14.19
224.808	-4.19
225.042	-16.19
225.277	-4.19
225.511	-14.19
225.746	-9.19
225.98	6.81
226.215	15.81
226.449	24.81
226.683	16.81
226.918	22.81
227.152	32.81
227.387	28.81
227.621	23.81
227.856	51.81
228.09	43.81
228.324	44.81
228.559	55.81
228.793	55.81
229.027	88.81
229.262	91.81
229.496	95.81
229.73	104.81
229.964	132.81
230.199	107.81
230.433	101.81
230.667	102.81
230.901	115.81
231.136	97.81
231.37	119.81
231.604	108.81
231.838	105.81
232.072	106.81
232.306	101.81
232.541	100.81
232.775	96.81
233.009	103.81
233.243	115.81
233.477	105.81
233.711	120.81
233.945	109.81
234.179	102.81
234.413	104.81
234.647	111.81
234.881	100.81
235.115	104.81
235.349	112.81
235.583	111.81
235.817	106.81
236.051	114.81
236.285	124.81
236.519	106.81
236.753	123.81
236.987	123.81
237.221	142.81
237.455	185.81
237.689	148.81
237.922	142.81
238.156	125.81
238.39	120.81
238.624	130.81
238.858	121.81
239.091	129.81
239.325	114.81
239.559	108.81
239.793	119.81
240.027	117.81
240.26	140.81
240.494	137.81
240.728	143.81
240.961	131.81
241.195	140.81
241.429	142.81
241.662	141.81
241.896	120.81
242.13	121.81
242.363	130.81
242.597	134.81
242.83	138.81
243.064	131.81
243.298	140.81
243.531	141.81
243.765	138.81
243.998	156.81
244.232	141.81
244.465	137.81
244.699	135.81
244.932	135.81
245.166	145.81
245.399	157.81
245.633	149.81
245.866	149.81
246.099	123.81
246.333	157.81
246.566	147.81
246.8	152.81
247.033	143.81
247.266	165.81
247.5	140.81
247.733	153.81
247.966	166.81
248.2	165.81
248.433	159.81
248.666	163.81
248.899	182.81
249.133	195.81
249.366	183.81
249.599	169.81
249.832	171.81
250.066	162.81
250.299	172.81
250.532	171.81
250.765	184.81
250.998	176.81
251.231	198.81
251.465	194.81
251.698	203.81
251.931	183.81
252.164	173.81
252.397	194.81
252.63	187.81
252.863	202.81
253.096	194.81
253.329	210.81
253.562	207.81
253.795	211.81
254.028	213.81
254.261	215.81
254.494	210.81
254.727	245.81
254.96	253.81
255.193	243.81
255.426	218.81
255.659	221.81
255.892	212.81
256.124	226.81
256.357	219.81
256.59	220.81
256.823	197.81
257.056	225.81
257.289	210.81
257.521	197.81
257.754	200.81
257.987	202.81
258.22	225.81
258.452	199.81
258.685	208.81
258.918	212.81
259.151	205.81
259.383	217.81
259.616	215.81
259.849	227.81
260.081	239.81
260.314	238.81
260.547	240.81
260.779	211.81
261.012	235.81
261.244	234.81
261.477	241.81
261.71	214.81
261.942	222.81
262.175	221.81
262.407	211.81
262.64	210.81
262.872	205.81
263.105	218.81
263.337	198.81
263.57	223.81
263.802	209.81
264.035	223.81
264.267	215.81
264.499	208.81
264.732	220.81
264.964	225.81
265.197	223.81
265.429	218.81
265.661	209.81
265.894	221.81
266.126	226.81
266.358	226.81
266.591	215.81
266.823	240.81
267.055	236.81
267.287	249.81
267.52	241.81
267.752	233.81
267.984	245.81
268.216	225.81
268.448	241.81
268.681	244.81
268.913	246.81
269.145	273.81
269.377	266.81
269.609	269.81
269.841	282.81
270.073	270.81
270.306	285.81
270.538	300.81
270.77	301.81
271.002	304.81
271.234	284.81
271.466	275.81
271.698	296.81
271.93	316.81
272.162	308.81
272.394	292.81
272.626	276.81
272.858	258.81
273.09	284.81
273.322	280.81
273.553	278.81
273.785	267.81
274.017	263.81
274.249	273.81
274.481	277.81
274.713	284.81
274.945	268.81
275.176	265.81
275.408	276.81
275.64	249.81
275.872	265.81
276.104	269.81
276.335	255.81
276.567	266.81
276.799	276.81
277.031	304.81
277.262	310.81
277.494	300.81
277.726	308.81
277.957	288.81
278.189	283.81
278.421	285.81
278.652	283.81
278.884	278.81
279.115	293.81
279.347	275.81
279.579	273.81
279.81	278.81
280.042	271.81
280.273	289.81
280.505	277.81
280.736	265.81
280.968	264.81
281.199	283.81
281.431	280.81
281.662	311.81
281.894	278.81
282.125	284.81
282.356	302.81
282.588	312.81
282.819	318.81
283.051	311.81
283.282	279.81
283.513	304.81
283.745	301.81
283.976	289.81
284.207	289.81
284.439	299.81
284.67	295.81
284.901	304.81
285.132	284.81
285.364	295.81
285.595	308.81
285.826	293.81
286.057	289.81
286.288	292.81
286.52	306.81
286.751	299.81
286.982	321.81
287.213	294.81
287.444	284.81
287.675	318.81
287.906	315.81
288.138	321.81
288.369	319.81
288.6	324.81
288.831	308.81
289.062	294.81
289.293	295.81
289.524	298.81
289.755	300.81
289.986	324.81
290.217	308.81
290.448	297.81
290.679	309.81
290.91	327.81
291.141	339.81
291.371	301.81
291.602	327.81
291.833	312.81
292.064	327.81
292.295	301.81
292.526	305.81
292.757	306.81
292.987	322.81
293.218	303.81
293.449	327.81
293.68	315.81
293.91	306.81
294.141	297.81
294.372	291.81
294.603	312.81
294.833	322.81
295.064	322.81
295.295	345.81
295.525	312.81
295.756	323.81
295.987	309.81
296.217	327.81
296.448	337.81
296.679	319.81
296.909	331.81
297.14	321.81
297.37	321.81
297.601	331.81
297.831	338.81
298.062	340.81
298.292	342.81
298.523	349.81
298.753	330.81
298.984	323.81
299.214	336.81
299.445	333.81
299.675	341.81
299.905	343.81
300.136	345.81
300.366	340.81
300.597	322.81
300.827	359.81
301.057	354.81
301.288	352.81
301.518	326.81
301.748	364.81
301.979	352.81
302.209	344.81
302.439	356.81
302.669	366.81
302.9	355.81
303.13	353.81
303.36	367.81
303.59	341.81
303.82	342.81
304.051	349.81
304.281	362.81
304.511	359.81
304.741	343.81
304.971	345.81
305.201	337.81
305.431	368.81
305.661	347.81
305.891	357.81
306.121	352.81
306.352	351.81
306.582	331.81
306.812	356.81
307.042	360.81
307.272	361.81
307.502	355.81
307.731	368.81
307.961	351.81
308.191	350.81
308.421	371.81
308.651	371.81
308.881	359.81
309.111	335.81
309.341	343.81
309.571	367.81
309.8	378.81
310.03	374.81
310.26	371.81
310.49	377.81
310.72	380.81
310.949	395.81
311.179	383.81
311.409	386.81
311.639	362.81
311.868	393.81
312.098	397.81
312.328	380.81
312.557	394.81
312.787	394.81
313.017	400.81
313.246	401.81
313.476	377.81
313.706	391.81
313.935	392.81
314.165	397.81
314.394	415.81
314.624	402.81
314.853	394.81
315.083	378.81
315.312	388.81
315.542	396.81
315.771	378.81
316.001	401.81
316.23	376.81
316.46	364.81
316.689	390.81
316.919	395.81
317.148	393.81
317.377	405.81
317.607	398.81
317.836	413.81
318.065	393.81
318.295	392.81
318.524	383.81
318.753	381.81
318.983	396.81
319.212	410.81
319.441	398.81
319.67	394.81
319.9	387.81
320.129	378.81
320.358	405.81
320.587	403.81
320.816	382.81
321.046	409.81
321.275	410.81
321.504	412.81
321.733	367.81
321.962	407.81
322.191	417.81
322.42	431.81
322.649	443.81
322.878	419.81
323.108	438.81
323.337	462.81
323.566	458.81
323.795	465.81
324.024	482.81
324.253	560.81
324.482	711.81
324.71	1051.81
324.939	1415.81
325.168	1233.81
325.397	662.81
325.626	519.81
325.855	467.81
326.084	471.81
326.313	445.81
326.542	461.81
326.77	491.81
326.999	543.81
327.228	680.81
327.457	940.81
327.686	1056.81
327.914	764.81
328.143	556.81
328.372	514.81
328.6	497.81
328.829	474.81
329.058	481.81
329.287	517.81
329.515	477.81
329.744	456.81
329.972	457.81
330.201	493.81
330.43	506.81
330.658	517.81
330.887	526.81
331.115	513.81
331.344	480.81
331.572	449.81
331.801	471.81
332.03	464.81
332.258	458.81
332.486	447.81
332.715	452.81
332.943	441.81
333.172	460.81
333.4	472.81
333.629	495.81
333.857	509.81
334.085	504.81
334.314	526.81
334.542	510.81
334.771	524.81
334.999	487.81
335.227	487.81
335.455	463.81
335.684	472.81
335.912	479.81
336.14	492.81
336.369	463.81
336.597	449.81
336.825	472.81
337.053	465.81
337.281	450.81
337.51	415.81
337.738	462.81
337.966	466.81
338.194	455.81
338.422	445.81
338.65	462.81
338.878	441.81
339.106	444.81
339.334	431.81
339.562	441.81
339.79	441.81
340.018	415.81
340.246	431.81
340.474	457.81
340.702	440.81
340.93	460.81
341.158	436.81
341.386	416.81
341.614	435.81
341.842	437.81
342.07	423.81
342.298	435.81
342.526	427.81
342.754	409.81
342.981	404.81
343.209	419.81
343.437	424.81
343.665	451.81
343.893	454.81
344.12	474.81
344.348	437.81
344.576	453.81
344.804	443.81
345.031	423.81
345.259	429.81
345.487	438.81
345.714	421.81
345.942	411.81
346.17	422.81
346.397	432.81
346.625	410.81
346.853	413.81
347.08	397.81
347.308	405.81
347.535	417.81
347.763	407.81
347.99	411.81
348.218	417.81
348.445	418.81
348.673	417.81
348.9	395.81
349.128	399.81
349.355	399.81
349.583	416.81
349.81	394.81
350.037	397.81
350.265	383.81
350.492	403.81
350.72	403.81
350.947	410.81
351.174	413.81
351.402	419.81
351.629	397.81
351.856	394.81
352.083	408.81
352.311	418.81
352.538	410.81
352.765	413.81
352.992	406.81
353.22	379.81
353.447	385.81
353.674	391.81
353.901	403.81
354.128	395.81
354.355	384.81
354.583	388.81
354.81	390.81
355.037	381.81
355.264	370.81
355.491	369.81
355.718	384.81
355.945	353.81
356.172	383.81
356.399	396.81
356.626	386.81
356.853	375.81
357.08	383.81
357.307	388.81
357.534	373.81
357.761	384.81
357.988	385.81
358.215	370.81
358.441	385.81
358.668	375.81
358.895	389.81
359.122	400.81
359.349	399.81
359.576	389.81
359.802	405.81
360.029	403.81
360.256	417.81
360.483	421.81
360.709	384.81
360.936	404.81
361.163	390.81
361.39	417.81
361.616	402.81
361.843	389.81
362.07	406.81
362.296	393.81
362.523	395.81
362.749	401.81
362.976	382.81
363.203	405.81
363.429	389.81
363.656	389.81
363.882	390.81
364.109	382.81
364.335	375.81
364.562	390.81
364.788	378.81
365.015	407.81
365.241	389.81
365.468	389.81
365.694	378.81
365.92	381.81
366.147	378.81
366.373	391.81
366.599	376.81
366.826	380.81
367.052	395.81
367.278	376.81
367.505	370.81
367.731	401.81
367.957	379.81
368.184	388.81
368.41	389.81
368.636	398.81
368.862	413.81
369.089	401.81
369.315	374.81
369.541	379.81
369.767	376.81
369.993	375.81
370.219	391.81
370.445	359.81
370.672	396.81
370.898	394.81
371.124	374.81
371.35	383.81
371.576	390.81
371.802	357.81
372.028	379.81
372.254	397.81
372.48	388.81
372.706	407.81
372.932	404.81
373.158	385.81
373.384	387.81
373.61	405.81
373.835	396.81
374.061	377.81
374.287	412.81
374.513	377.81
374.739	388.81
374.965	407.81
375.191	408.81
375.416	391.81
375.642	396.81
375.868	385.81
376.094	385.81
376.319	388.81
376.545	399.81
376.771	370.81
376.997	377.81
377.222	399.81
377.448	357.81
377.674	363.81
377.899	371.81
378.125	383.81
378.35	389.81
378.576	376.81
378.802	383.81
379.027	381.81
379.253	390.81
379.478	393.81
379.704	367.81
379.929	389.81
380.155	398.81
380.38	393.81
380.606	387.81
380.831	373.81
381.057	373.81
381.282	396.81
381.507	386.81
381.733	379.81
381.958	363.81
382.184	391.81
382.409	379.81
382.634	393.81
382.86	401.81
383.085	389.81
383.31	386.81
383.535	407.81
383.761	387.81
383.986	409.81
384.211	392.81
384.436	369.81
384.662	419.81
384.887	406.81
385.112	412.81
385.337	420.81
385.562	400.81
385.787	434.81
386.013	439.81
386.238	430.81
386.463	426.81
386.688	430.81
386.913	426.81
387.138	432.81
387.363	412.81
387.588	413.81
387.813	406.81
388.038	415.81
388.263	408.81
388.488	425.81
388.713	408.81
388.938	404.81
389.163	407.81
389.387	409.81
389.612	438.81
389.837	426.81
390.062	409.81
390.287	429.81
390.512	410.81
390.736	407.81
390.961	409.81
391.186	409.81
391.411	418.81
391.636	424.81
391.86	431.81
392.085	442.81
392.31	440.81
392.534	413.81
392.759	446.81
392.984	433.81
393.208	435.81
393.433	437.81
393.658	415.81
393.882	432.81
394.107	428.81
394.331	419.81
394.556	417.81
394.78	433.81
395.005	435.81
395.229	418.81
395.454	425.81
395.678	440.81
395.903	411.81
396.127	447.81
396.352	451.81
396.576	448.81
396.801	436.81
397.025	438.81
397.249	447.81
397.474	448.81
397.698	452.81
397.922	451.81
398.147	452.81
398.371	466.81
398.595	455.81
398.82	465.81
399.044	492.81
399.268	509.81
399.492	538.81
399.717	561.81
399.941	604.81
400.165	588.81
400.389	603.81
400.613	525.81
400.837	501.81
401.062	486.81
401.286	481.81
401.51	497.81
401.734	481.81
401.958	470.81
402.182	496.81
402.406	475.81
402.63	487.81
402.854	493.81
403.078	504.81
403.302	487.81
403.526	511.81
403.75	504.81
403.974	472.81
404.198	480.81
404.422	504.81
404.645	499.81
404.869	493.81
405.093	525.81
405.317	538.81
405.541	562.81
405.765	528.81
405.988	536.81
406.212	523.81
406.436	499.81
406.66	518.81
406.883	536.81
407.107	540.81
407.331	570.81
407.555	606.81
407.778	609.81
408.002	578.81
408.226	516.81
408.449	509.81
408.673	533.81
408.896	544.81
409.12	584.81
409.344	533.81
409.567	499.81
409.791	491.81
410.014	469.81
410.238	483.81
410.461	477.81
410.685	477.81
410.908	520.81
411.132	528.81
411.355	531.81
411.578	523.81
411.802	507.81
412.025	479.81
412.249	458.81
412.472	515.81
412.695	520.81
412.919	509.81
413.142	510.81
413.365	489.81
413.589	465.81
413.812	455.81
414.035	475.81
414.258	454.81
414.482	459.81
414.705	452.81
414.928	447.81
415.151	449.81
415.374	455.81
415.597	439.81
415.821	461.81
416.044	433.81
416.267	437.81
416.49	447.81
416.713	429.81
416.936	442.81
417.159	439.81
417.382	453.81
417.605	473.81
417.828	470.81
418.051	461.81
418.274	454.81
418.497	455.81
418.72	443.81
418.943	445.81
419.166	476.81
419.389	492.81
419.611	511.81
419.834	495.81
420.057	478.81
420.28	456.81
420.503	449.81
420.726	467.81
420.948	485.81
421.171	513.81
421.394	540.81
421.617	476.81
421.839	476.81
422.062	470.81
422.285	470.81
422.507	520.81
422.73	555.81
422.953	559.81
423.175	482.81
423.398	485.81
423.621	454.81
423.843	495.81
424.066	507.81
424.288	472.81
424.511	499.81
424.733	549.81
424.956	588.81
425.178	569.81
425.401	551.81
425.623	575.81
425.846	518.81
426.068	496.81
426.291	477.81
426.513	499.81
426.735	487.81
426.958	516.81
427.18	555.81
427.402	659.81
427.625	680.81
427.847	615.81
428.069	553.81
428.292	481.81
428.514	461.81
428.736	458.81
428.958	447.81
429.181	425.81
429.403	435.81
429.625	449.81
429.847	467.81
430.069	523.81
430.292	501.81
430.514	434.81
430.736	449.81
430.958	428.81
431.18	424.81
431.402	420.81
431.624	426.81
431.846	420.81
432.068	397.81
432.29	424.81
432.512	428.81
432.734	428.81
432.956	422.81
433.178	442.81
433.4	421.81
433.622	419.81
433.844	426.81
434.066	420.81
434.287	432.81
434.509	423.81
434.731	433.81
434.953	449.81
435.175	467.81
435.397	476.81
435.618	481.81
435.84	507.81
436.062	568.81
436.284	597.81
436.505	516.81
436.727	481.81
436.949	448.81
437.17	456.81
437.392	472.81
437.614	451.81
437.835	472.81
438.057	526.81
438.278	586.81
438.5	568.81
438.721	650.81
438.943	612.81
439.165	504.81
439.386	467.81
439.608	461.81
439.829	458.81
440.05	460.81
440.272	491.81
440.493	475.81
440.715	456.81
440.936	451.81
441.158	438.81
441.379	443.81
441.6	456.81
441.822	481.81
442.043	517.81
442.264	549.81
442.486	556.81
442.707	499.81
442.928	483.81
443.149	484.81
443.371	512.81
443.592	547.81
443.813	608.81
444.034	654.81
444.255	534.81
444.476	498.81
444.698	498.81
444.919	486.81
445.14	612.81
445.361	538.81
445.582	503.81
445.803	547.81
446.024	588.81
446.245	606.81
446.466	549.81
446.687	482.81
446.908	461.81
447.129	448.81
447.35	453.81
447.571	430.81
447.792	431.81
448.013	432.81
448.234	429.81
448.455	460.81
448.675	548.81
448.896	623.81
449.117	546.81
449.338	517.81
449.559	584.81
449.779	657.81
450	544.81
450.221	463.81
450.442	417.81
450.662	412.81
450.883	413.81
451.104	416.81
451.324	422.81
451.545	400.81
451.766	389.81
451.986	385.81
452.207	388.81
452.428	378.81
452.648	385.81
452.869	407.81
453.089	389.81
453.31	397.81
453.53	389.81
453.751	392.81
453.971	393.81
454.192	380.81
454.412	378.81
454.633	384.81
454.853	362.81
455.073	381.81
455.294	387.81
455.514	437.81
455.734	444.81
455.955	378.81
456.175	373.81
456.395	361.81
456.616	391.81
456.836	365.81
457.056	379.81
457.276	377.81
457.497	376.81
457.717	354.81
457.937	373.81
458.157	395.81
458.377	391.81
458.598	390.81
458.818	444.81
459.038	456.81
459.258	475.81
459.478	424.81
459.698	420.81
459.918	418.81
460.138	435.81
460.358	439.81
460.578	424.81
460.798	450.81
461.018	431.81
461.238	447.81
461.458	443.81
461.678	428.81
461.898	432.81
462.118	437.81
462.338	457.81
462.558	457.81
462.777	473.81
462.997	488.81
463.217	487.81
463.437	479.81
463.657	472.81
463.876	482.81
464.096	476.81
464.316	443.81
464.536	469.81
464.755	475.81
464.975	444.81
465.195	464.81
465.414	483.81
465.634	448.81
465.854	456.81
466.073	416.81
466.293	409.81
466.512	398.81
466.732	404.81
466.951	393.81
467.171	379.81
467.391	387.81
467.61	408.81
467.829	419.81
468.049	408.81
468.268	391.81
468.488	399.81
468.707	397.81
468.927	395.81
469.146	376.81
469.365	382.81
469.585	401.81
469.804	397.81
470.023	410.81
470.243	409.81
470.462	394.81
470.681	409.81
470.901	409.81
471.12	407.81
471.339	408.81
471.558	415.81
471.777	417.81
471.997	394.81
472.216	389.81
472.435	413.81
472.654	407.81
472.873	400.81
473.092	403.81
473.311	398.81
473.53	398.81
473.749	405.81
473.968	434.81
474.187	510.81
474.406	511.81
474.625	439.81
474.844	409.81
475.063	415.81
475.282	391.81
475.501	423.81
475.72	411.81
475.939	403.81
476.158	428.81
476.377	431.81
476.596	410.81
476.814	412.81
477.033	412.81
477.252	420.81
477.471	434.81
477.69	425.81
477.908	456.81
478.127	441.81
478.346	465.81
478.564	458.81
478.783	467.81
479.002	478.81
479.22	461.81
479.439	472.81
479.658	496.81
479.876	466.81
480.095	486.81
480.313	492.81
480.532	484.81
480.751	495.81
480.969	499.81
481.188	516.81
481.406	529.81
481.624	492.81
481.843	476.81
482.061	484.81
482.28	476.81
482.498	451.81
482.717	465.81
482.935	466.81
483.153	472.81
483.372	467.81
483.59	493.81
483.808	478.81
484.027	482.81
484.245	479.81
484.463	475.81
484.681	467.81
484.9	461.81
485.118	481.81
485.336	469.81
485.554	479.81
485.772	472.81
485.99	483.81
486.209	480.81
486.427	492.81
486.645	491.81
486.863	493.81
487.081	489.81
487.299	494.81
487.517	493.81
487.735	467.81
487.953	503.81
488.171	489.81
488.389	503.81
488.607	511.81
488.825	483.81
489.043	511.81
489.261	497.81
489.479	496.81
489.696	516.81
489.914	485.81
490.132	512.81
490.35	505.81
490.568	525.81
490.786	490.81
491.003	514.81
491.221	525.81
491.439	540.81
491.657	524.81
491.874	538.81
492.092	545.81
492.31	551.81
492.527	576.81
492.745	547.81
492.963	554.81
493.18	577.81
493.398	559.81
493.615	569.81
493.833	552.81
494.05	557.81
494.268	591.81
494.485	567.81
494.703	579.81
494.92	556.81
495.138	546.81
495.355	557.81
495.573	572.81
495.79	561.81
496.008	599.81
496.225	571.81
496.442	581.81
496.66	588.81
496.877	583.81
497.094	581.81
497.312	614.81
497.529	604.81
497.746	610.81
497.963	619.81
498.181	626.81
498.398	647.81
498.615	624.81
498.832	680.81
499.049	697.81
499.267	693.81
499.484	735.81
499.701	755.81
499.918	806.81
500.135	840.81
500.352	887.81
500.569	891.81
500.786	925.81
501.003	879.81
501.22	847.81
501.437	817.81
501.654	794.81
501.871	762.81
502.088	733.81
