Data from 1964.PennyLincolnUp.Lamp.En5.5.200Scan.071719.P1._HRD10591_14-05-11-909.txt Node
Date: Thu Jul 18 14:05:11 EDT 2019
User: cochatt
Spectrometer: HR+D1059
Trigger mode: 1
Integration Time (sec): 1.000000E-1
Scans to average: 1
Electric dark correction enabled: true
Nonlinearity correction enabled: false
Boxcar width: 0
XAxis mode: Wavelengths
Number of Pixels in Spectrum: 2048
>>>>>Begin Spectral Data<<<<<
223.165	-12.69
223.4	-12.69
223.635	-12.69
223.869	-20.69
224.104	-20.69
224.338	-1.69
224.573	-10.69
224.808	-5.69
225.042	10.31
225.277	-8.69
225.511	-19.69
225.746	-1.69
225.98	0.31
226.215	11.31
226.449	12.31
226.683	10.31
226.918	26.31
227.152	31.31
227.387	48.31
227.621	41.31
227.856	52.31
228.09	45.31
228.324	51.31
228.559	51.31
228.793	68.31
229.027	93.31
229.262	103.31
229.496	110.31
229.73	128.31
229.964	142.31
230.199	111.31
230.433	120.31
230.667	101.31
230.901	110.31
231.136	118.31
231.37	101.31
231.604	116.31
231.838	96.31
232.072	121.31
232.306	116.31
232.541	127.31
232.775	111.31
233.009	123.31
233.243	117.31
233.477	113.31
233.711	104.31
233.945	114.31
234.179	111.31
234.413	117.31
234.647	112.31
234.881	115.31
235.115	121.31
235.349	112.31
235.583	112.31
235.817	132.31
236.051	109.31
236.285	127.31
236.519	127.31
236.753	128.31
236.987	129.31
237.221	157.31
237.455	196.31
237.689	173.31
237.922	133.31
238.156	110.31
238.39	133.31
238.624	125.31
238.858	140.31
239.091	136.31
239.325	132.31
239.559	120.31
239.793	131.31
240.027	134.31
240.26	139.31
240.494	142.31
240.728	137.31
240.961	136.31
241.195	142.31
241.429	132.31
241.662	123.31
241.896	131.31
242.13	131.31
242.363	125.31
242.597	129.31
242.83	128.31
243.064	133.31
243.298	145.31
243.531	143.31
243.765	151.31
243.998	145.31
244.232	140.31
244.465	159.31
244.699	148.31
244.932	151.31
245.166	152.31
245.399	146.31
245.633	148.31
245.866	162.31
246.099	142.31
246.333	153.31
246.566	145.31
246.8	159.31
247.033	145.31
247.266	142.31
247.5	168.31
247.733	166.31
247.966	174.31
248.2	179.31
248.433	159.31
248.666	160.31
248.899	185.31
249.133	197.31
249.366	193.31
249.599	194.31
249.832	179.31
250.066	175.31
250.299	190.31
250.532	191.31
250.765	210.31
250.998	213.31
251.231	230.31
251.465	225.31
251.698	216.31
251.931	198.31
252.164	188.31
252.397	198.31
252.63	189.31
252.863	211.31
253.096	205.31
253.329	221.31
253.562	212.31
253.795	226.31
254.028	204.31
254.261	236.31
254.494	225.31
254.727	259.31
254.96	277.31
255.193	271.31
255.426	233.31
255.659	252.31
255.892	239.31
256.124	233.31
256.357	234.31
256.59	238.31
256.823	203.31
257.056	218.31
257.289	208.31
257.521	203.31
257.754	208.31
257.987	195.31
258.22	215.31
258.452	210.31
258.685	212.31
258.918	208.31
259.151	222.31
259.383	221.31
259.616	226.31
259.849	233.31
260.081	232.31
260.314	271.31
260.547	261.31
260.779	240.31
261.012	239.31
261.244	231.31
261.477	236.31
261.71	225.31
261.942	228.31
262.175	217.31
262.407	231.31
262.64	232.31
262.872	232.31
263.105	224.31
263.337	218.31
263.57	219.31
263.802	240.31
264.035	240.31
264.267	230.31
264.499	223.31
264.732	230.31
264.964	225.31
265.197	219.31
265.429	232.31
265.661	220.31
265.894	218.31
266.126	228.31
266.358	237.31
266.591	231.31
266.823	242.31
267.055	245.31
267.287	234.31
267.52	244.31
267.752	246.31
267.984	242.31
268.216	244.31
268.448	264.31
268.681	260.31
268.913	247.31
269.145	262.31
269.377	276.31
269.609	305.31
269.841	290.31
270.073	275.31
270.306	283.31
270.538	321.31
270.77	311.31
271.002	315.31
271.234	311.31
271.466	308.31
271.698	318.31
271.93	323.31
272.162	315.31
272.394	330.31
272.626	316.31
272.858	308.31
273.09	287.31
273.322	297.31
273.553	270.31
273.785	289.31
274.017	280.31
274.249	284.31
274.481	282.31
274.713	279.31
274.945	272.31
275.176	274.31
275.408	291.31
275.64	289.31
275.872	293.31
276.104	268.31
276.335	291.31
276.567	287.31
276.799	296.31
277.031	328.31
277.262	307.31
277.494	331.31
277.726	311.31
277.957	309.31
278.189	280.31
278.421	281.31
278.652	296.31
278.884	311.31
279.115	288.31
279.347	302.31
279.579	284.31
279.81	295.31
280.042	295.31
280.273	304.31
280.505	300.31
280.736	307.31
280.968	301.31
281.199	283.31
281.431	296.31
281.662	301.31
281.894	287.31
282.125	294.31
282.356	318.31
282.588	295.31
282.819	302.31
283.051	317.31
283.282	301.31
283.513	295.31
283.745	312.31
283.976	297.31
284.207	321.31
284.439	303.31
284.67	314.31
284.901	327.31
285.132	299.31
285.364	309.31
285.595	309.31
285.826	305.31
286.057	314.31
286.288	303.31
286.52	328.31
286.751	300.31
286.982	311.31
287.213	315.31
287.444	326.31
287.675	316.31
287.906	319.31
288.138	319.31
288.369	324.31
288.6	332.31
288.831	333.31
289.062	316.31
289.293	328.31
289.524	326.31
289.755	325.31
289.986	331.31
290.217	295.31
290.448	310.31
290.679	334.31
290.91	320.31
291.141	333.31
291.371	313.31
291.602	316.31
291.833	331.31
292.064	331.31
292.295	342.31
292.526	321.31
292.757	310.31
292.987	327.31
293.218	310.31
293.449	303.31
293.68	353.31
293.91	338.31
294.141	342.31
294.372	316.31
294.603	341.31
294.833	334.31
295.064	331.31
295.295	326.31
295.525	309.31
295.756	331.31
295.987	337.31
296.217	338.31
296.448	354.31
296.679	350.31
296.909	351.31
297.14	339.31
297.37	339.31
297.601	340.31
297.831	351.31
298.062	343.31
298.292	342.31
298.523	348.31
298.753	360.31
298.984	340.31
299.214	347.31
299.445	360.31
299.675	358.31
299.905	352.31
300.136	331.31
300.366	357.31
300.597	336.31
300.827	355.31
301.057	358.31
301.288	352.31
301.518	373.31
301.748	381.31
301.979	370.31
302.209	358.31
302.439	356.31
302.669	374.31
302.9	335.31
303.13	367.31
303.36	366.31
303.59	374.31
303.82	373.31
304.051	371.31
304.281	377.31
304.511	368.31
304.741	355.31
304.971	372.31
305.201	364.31
305.431	367.31
305.661	377.31
305.891	349.31
306.121	355.31
306.352	373.31
306.582	366.31
306.812	369.31
307.042	373.31
307.272	373.31
307.502	352.31
307.731	366.31
307.961	364.31
308.191	361.31
308.421	385.31
308.651	363.31
308.881	365.31
309.111	379.31
309.341	384.31
309.571	379.31
309.8	382.31
310.03	389.31
310.26	388.31
310.49	408.31
310.72	402.31
310.949	407.31
311.179	416.31
311.409	381.31
311.639	405.31
311.868	398.31
312.098	402.31
312.328	411.31
312.557	414.31
312.787	404.31
313.017	427.31
313.246	411.31
313.476	405.31
313.706	394.31
313.935	400.31
314.165	413.31
314.394	427.31
314.624	421.31
314.853	421.31
315.083	420.31
315.312	401.31
315.542	396.31
315.771	413.31
316.001	423.31
316.23	387.31
316.46	388.31
316.689	405.31
316.919	409.31
317.148	416.31
317.377	400.31
317.607	416.31
317.836	409.31
318.065	413.31
318.295	389.31
318.524	400.31
318.753	406.31
318.983	391.31
319.212	378.31
319.441	411.31
319.67	402.31
319.9	399.31
320.129	410.31
320.358	404.31
320.587	406.31
320.816	419.31
321.046	413.31
321.275	444.31
321.504	441.31
321.733	424.31
321.962	428.31
322.191	437.31
322.42	443.31
322.649	439.31
322.878	454.31
323.108	457.31
323.337	476.31
323.566	473.31
323.795	497.31
324.024	514.31
324.253	609.31
324.482	774.31
324.71	1156.31
324.939	1610.31
325.168	1360.31
325.397	755.31
325.626	560.31
325.855	505.31
326.084	497.31
326.313	470.31
326.542	483.31
326.77	535.31
326.999	600.31
327.228	753.31
327.457	1023.31
327.686	1219.31
327.914	822.31
328.143	593.31
328.372	548.31
328.6	543.31
328.829	521.31
329.058	503.31
329.287	546.31
329.515	491.31
329.744	495.31
329.972	489.31
330.201	514.31
330.43	514.31
330.658	552.31
330.887	530.31
331.115	532.31
331.344	496.31
331.572	484.31
331.801	501.31
332.03	484.31
332.258	492.31
332.486	444.31
332.715	491.31
332.943	494.31
333.172	489.31
333.4	522.31
333.629	505.31
333.857	526.31
334.085	530.31
334.314	544.31
334.542	560.31
334.771	545.31
334.999	513.31
335.227	522.31
335.455	508.31
335.684	468.31
335.912	475.31
336.14	489.31
336.369	467.31
336.597	481.31
336.825	489.31
337.053	487.31
337.281	458.31
337.51	452.31
337.738	468.31
337.966	461.31
338.194	457.31
338.422	472.31
338.65	462.31
338.878	460.31
339.106	461.31
339.334	450.31
339.562	452.31
339.79	472.31
340.018	478.31
340.246	430.31
340.474	448.31
340.702	452.31
340.93	438.31
341.158	460.31
341.386	454.31
341.614	451.31
341.842	447.31
342.07	449.31
342.298	440.31
342.526	476.31
342.754	462.31
342.981	437.31
343.209	443.31
343.437	457.31
343.665	455.31
343.893	469.31
344.12	475.31
344.348	469.31
344.576	466.31
344.804	459.31
345.031	458.31
345.259	458.31
345.487	453.31
345.714	445.31
345.942	432.31
346.17	422.31
346.397	423.31
346.625	450.31
346.853	427.31
347.08	444.31
347.308	443.31
347.535	440.31
347.763	443.31
347.99	416.31
348.218	415.31
348.445	446.31
348.673	447.31
348.9	432.31
349.128	425.31
349.355	414.31
349.583	410.31
349.81	414.31
350.037	426.31
350.265	422.31
350.492	408.31
350.72	411.31
350.947	405.31
351.174	445.31
351.402	454.31
351.629	443.31
351.856	429.31
352.083	411.31
352.311	409.31
352.538	412.31
352.765	405.31
352.992	412.31
353.22	415.31
353.447	427.31
353.674	399.31
353.901	412.31
354.128	390.31
354.355	391.31
354.583	394.31
354.81	391.31
355.037	387.31
355.264	391.31
355.491	393.31
355.718	392.31
355.945	376.31
356.172	407.31
356.399	392.31
356.626	381.31
356.853	393.31
357.08	397.31
357.307	380.31
357.534	400.31
357.761	394.31
357.988	391.31
358.215	421.31
358.441	401.31
358.668	398.31
358.895	400.31
359.122	416.31
359.349	411.31
359.576	417.31
359.802	420.31
360.029	432.31
360.256	445.31
360.483	425.31
360.709	431.31
360.936	421.31
361.163	410.31
361.39	421.31
361.616	421.31
361.843	399.31
362.07	412.31
362.296	413.31
362.523	421.31
362.749	396.31
362.976	406.31
363.203	414.31
363.429	411.31
363.656	406.31
363.882	421.31
364.109	394.31
364.335	395.31
364.562	388.31
364.788	401.31
365.015	394.31
365.241	385.31
365.468	408.31
365.694	404.31
365.92	401.31
366.147	413.31
366.373	384.31
366.599	365.31
366.826	391.31
367.052	391.31
367.278	391.31
367.505	394.31
367.731	394.31
367.957	398.31
368.184	386.31
368.41	382.31
368.636	404.31
368.862	423.31
369.089	405.31
369.315	397.31
369.541	401.31
369.767	396.31
369.993	405.31
370.219	397.31
370.445	399.31
370.672	387.31
370.898	388.31
371.124	413.31
371.35	409.31
371.576	396.31
371.802	414.31
372.028	407.31
372.254	390.31
372.48	395.31
372.706	410.31
372.932	408.31
373.158	407.31
373.384	394.31
373.61	400.31
373.835	418.31
374.061	396.31
374.287	402.31
374.513	395.31
374.739	403.31
374.965	440.31
375.191	415.31
375.416	416.31
375.642	405.31
375.868	403.31
376.094	409.31
376.319	394.31
376.545	393.31
376.771	373.31
376.997	381.31
377.222	419.31
377.448	388.31
377.674	392.31
377.899	393.31
378.125	404.31
378.35	395.31
378.576	397.31
378.802	375.31
379.027	395.31
379.253	383.31
379.478	391.31
379.704	404.31
379.929	397.31
380.155	401.31
380.38	376.31
380.606	411.31
380.831	393.31
381.057	407.31
381.282	385.31
381.507	403.31
381.733	407.31
381.958	395.31
382.184	423.31
382.409	380.31
382.634	400.31
382.86	385.31
383.085	410.31
383.31	414.31
383.535	408.31
383.761	408.31
383.986	419.31
384.211	415.31
384.436	414.31
384.662	422.31
384.887	451.31
385.112	408.31
385.337	419.31
385.562	449.31
385.787	418.31
386.013	442.31
386.238	432.31
386.463	452.31
386.688	426.31
386.913	439.31
387.138	435.31
387.363	425.31
387.588	432.31
387.813	426.31
388.038	440.31
388.263	422.31
388.488	417.31
388.713	455.31
388.938	445.31
389.163	419.31
389.387	431.31
389.612	397.31
389.837	415.31
390.062	409.31
390.287	412.31
390.512	429.31
390.736	438.31
390.961	435.31
391.186	425.31
391.411	431.31
391.636	457.31
391.86	460.31
392.085	451.31
392.31	409.31
392.534	428.31
392.759	429.31
392.984	428.31
393.208	446.31
393.433	424.31
393.658	446.31
393.882	450.31
394.107	425.31
394.331	430.31
394.556	447.31
394.78	439.31
395.005	437.31
395.229	446.31
395.454	440.31
395.678	475.31
395.903	458.31
396.127	451.31
396.352	480.31
396.576	463.31
396.801	450.31
397.025	441.31
397.249	462.31
397.474	461.31
397.698	461.31
397.922	475.31
398.147	477.31
398.371	486.31
398.595	479.31
398.82	483.31
399.044	500.31
399.268	519.31
399.492	549.31
399.717	591.31
399.941	605.31
400.165	598.31
400.389	605.31
400.613	553.31
400.837	481.31
401.062	482.31
401.286	489.31
401.51	483.31
401.734	489.31
401.958	472.31
402.182	499.31
402.406	498.31
402.63	497.31
402.854	513.31
403.078	509.31
403.302	505.31
403.526	508.31
403.75	527.31
403.974	491.31
404.198	501.31
404.422	495.31
404.645	505.31
404.869	532.31
405.093	528.31
405.317	571.31
405.541	584.31
405.765	535.31
405.988	517.31
406.212	545.31
406.436	551.31
406.66	555.31
406.883	526.31
407.107	550.31
407.331	582.31
407.555	632.31
407.778	631.31
408.002	589.31
408.226	550.31
408.449	567.31
408.673	557.31
408.896	545.31
409.12	588.31
409.344	559.31
409.567	531.31
409.791	519.31
410.014	490.31
410.238	491.31
410.461	491.31
410.685	513.31
410.908	525.31
411.132	523.31
411.355	561.31
411.578	541.31
411.802	522.31
412.025	508.31
412.249	490.31
412.472	508.31
412.695	537.31
412.919	539.31
413.142	485.31
413.365	493.31
413.589	485.31
413.812	501.31
414.035	483.31
414.258	467.31
414.482	468.31
414.705	454.31
414.928	449.31
415.151	459.31
415.374	462.31
415.597	471.31
415.821	463.31
416.044	470.31
416.267	463.31
416.49	474.31
416.713	467.31
416.936	460.31
417.159	464.31
417.382	462.31
417.605	470.31
417.828	501.31
418.051	482.31
418.274	475.31
418.497	465.31
418.72	473.31
418.943	479.31
419.166	478.31
419.389	500.31
419.611	488.31
419.834	488.31
420.057	498.31
420.28	501.31
420.503	488.31
420.726	471.31
420.948	486.31
421.171	497.31
421.394	512.31
421.617	500.31
421.839	488.31
422.062	500.31
422.285	493.31
422.507	557.31
422.73	580.31
422.953	565.31
423.175	512.31
423.398	492.31
423.621	503.31
423.843	507.31
424.066	513.31
424.288	520.31
424.511	522.31
424.733	557.31
424.956	617.31
425.178	600.31
425.401	585.31
425.623	595.31
425.846	529.31
426.068	501.31
426.291	495.31
426.513	480.31
426.735	489.31
426.958	550.31
427.18	598.31
427.402	663.31
427.625	756.31
427.847	627.31
428.069	569.31
428.292	505.31
428.514	473.31
428.736	451.31
428.958	464.31
429.181	463.31
429.403	468.31
429.625	470.31
429.847	493.31
430.069	527.31
430.292	540.31
430.514	469.31
430.736	455.31
430.958	467.31
431.18	462.31
431.402	435.31
431.624	427.31
431.846	453.31
432.068	439.31
432.29	465.31
432.512	441.31
432.734	462.31
432.956	452.31
433.178	449.31
433.4	456.31
433.622	447.31
433.844	449.31
434.066	458.31
434.287	444.31
434.509	435.31
434.731	451.31
434.953	452.31
435.175	472.31
435.397	503.31
435.618	512.31
435.84	535.31
436.062	602.31
436.284	628.31
436.505	535.31
436.727	495.31
436.949	443.31
437.17	447.31
437.392	457.31
437.614	447.31
437.835	488.31
438.057	535.31
438.278	595.31
438.5	640.31
438.721	684.31
438.943	640.31
439.165	527.31
439.386	477.31
439.608	475.31
439.829	469.31
440.05	500.31
440.272	545.31
440.493	506.31
440.715	479.31
440.936	473.31
441.158	455.31
441.379	442.31
441.6	471.31
441.822	480.31
442.043	511.31
442.264	570.31
442.486	583.31
442.707	537.31
442.928	500.31
443.149	504.31
443.371	488.31
443.592	548.31
443.813	605.31
444.034	650.31
444.255	592.31
444.476	528.31
444.698	521.31
444.919	523.31
445.14	608.31
445.361	575.31
445.582	502.31
445.803	572.31
446.024	641.31
446.245	637.31
446.466	579.31
446.687	513.31
446.908	483.31
447.129	457.31
447.35	442.31
447.571	461.31
447.792	445.31
448.013	441.31
448.234	471.31
448.455	489.31
448.675	579.31
448.896	661.31
449.117	579.31
449.338	531.31
449.559	613.31
449.779	686.31
450	549.31
450.221	495.31
450.442	461.31
450.662	421.31
450.883	405.31
451.104	441.31
451.324	441.31
451.545	432.31
451.766	387.31
451.986	405.31
452.207	406.31
452.428	401.31
452.648	392.31
452.869	412.31
453.089	397.31
453.31	412.31
453.53	401.31
453.751	416.31
453.971	399.31
454.192	418.31
454.412	406.31
454.633	401.31
454.853	392.31
455.073	398.31
455.294	426.31
455.514	468.31
455.734	469.31
455.955	411.31
456.175	391.31
456.395	392.31
456.616	383.31
456.836	393.31
457.056	375.31
457.276	360.31
457.497	389.31
457.717	388.31
457.937	385.31
458.157	380.31
458.377	385.31
458.598	376.31
458.818	443.31
459.038	508.31
459.258	505.31
459.478	452.31
459.698	452.31
459.918	398.31
460.138	425.31
460.358	445.31
460.578	448.31
460.798	430.31
461.018	437.31
461.238	454.31
461.458	459.31
461.678	457.31
461.898	448.31
462.118	461.31
462.338	475.31
462.558	467.31
462.777	506.31
462.997	507.31
463.217	516.31
463.437	489.31
463.657	479.31
463.876	483.31
464.096	474.31
464.316	471.31
464.536	470.31
464.755	471.31
464.975	463.31
465.195	503.31
465.414	513.31
465.634	461.31
465.854	463.31
466.073	449.31
466.293	436.31
466.512	398.31
466.732	419.31
466.951	418.31
467.171	420.31
467.391	405.31
467.61	443.31
467.829	411.31
468.049	416.31
468.268	443.31
468.488	395.31
468.707	404.31
468.927	394.31
469.146	398.31
469.365	412.31
469.585	411.31
469.804	412.31
470.023	425.31
470.243	429.31
470.462	426.31
470.681	439.31
470.901	445.31
471.12	421.31
471.339	400.31
471.558	431.31
471.777	427.31
471.997	405.31
472.216	412.31
472.435	436.31
472.654	425.31
472.873	405.31
473.092	405.31
473.311	417.31
473.53	413.31
473.749	408.31
473.968	438.31
474.187	521.31
474.406	533.31
474.625	471.31
474.844	419.31
475.063	417.31
475.282	417.31
475.501	428.31
475.72	428.31
475.939	443.31
476.158	424.31
476.377	411.31
476.596	437.31
476.814	435.31
477.033	423.31
477.252	447.31
477.471	456.31
477.69	463.31
477.908	430.31
478.127	468.31
478.346	470.31
478.564	469.31
478.783	471.31
479.002	463.31
479.22	469.31
479.439	483.31
479.658	497.31
479.876	497.31
480.095	486.31
480.313	527.31
480.532	488.31
480.751	492.31
480.969	497.31
481.188	554.31
481.406	550.31
481.624	523.31
481.843	503.31
482.061	511.31
482.28	487.31
482.498	493.31
482.717	471.31
482.935	484.31
483.153	480.31
483.372	484.31
483.59	479.31
483.808	487.31
484.027	473.31
484.245	480.31
484.463	471.31
484.681	524.31
484.9	489.31
485.118	468.31
485.336	489.31
485.554	518.31
485.772	494.31
485.99	493.31
486.209	499.31
486.427	487.31
486.645	499.31
486.863	505.31
487.081	527.31
487.299	515.31
487.517	532.31
487.735	515.31
487.953	519.31
488.171	509.31
488.389	513.31
488.607	528.31
488.825	526.31
489.043	531.31
489.261	503.31
489.479	519.31
489.696	521.31
489.914	508.31
490.132	519.31
490.35	544.31
490.568	545.31
490.786	537.31
491.003	560.31
491.221	527.31
491.439	540.31
491.657	571.31
491.874	565.31
492.092	571.31
492.31	572.31
492.527	570.31
492.745	545.31
492.963	588.31
493.18	607.31
493.398	579.31
493.615	582.31
493.833	577.31
494.05	614.31
494.268	603.31
494.485	589.31
494.703	588.31
494.92	618.31
495.138	605.31
495.355	589.31
495.573	582.31
495.79	581.31
496.008	578.31
496.225	590.31
496.442	606.31
496.66	598.31
496.877	596.31
497.094	613.31
497.312	592.31
497.529	610.31
497.746	622.31
497.963	619.31
498.181	662.31
498.398	675.31
498.615	675.31
498.832	696.31
499.049	688.31
499.267	748.31
499.484	763.31
499.701	753.31
499.918	819.31
500.135	880.31
500.352	897.31
500.569	931.31
500.786	926.31
501.003	906.31
501.22	890.31
501.437	826.31
501.654	801.31
501.871	760.31
