Data from 1964.PennyLincolnUp.Lamp.En5.5.200Scan.071719.P1._HRD10591_14-06-12-909.txt Node
Date: Thu Jul 18 14:06:12 EDT 2019
User: cochatt
Spectrometer: HR+D1059
Trigger mode: 1
Integration Time (sec): 1.000000E-1
Scans to average: 1
Electric dark correction enabled: true
Nonlinearity correction enabled: false
Boxcar width: 0
XAxis mode: Wavelengths
Number of Pixels in Spectrum: 2048
>>>>>Begin Spectral Data<<<<<
223.165	-16.62
223.4	-16.62
223.635	-16.62
223.869	-19.62
224.104	-11.62
224.338	-7.62
224.573	-11.62
224.808	-21.62
225.042	-4.62
225.277	-5.62
225.511	7.38
225.746	11.38
225.98	7.38
226.215	13.38
226.449	-9.62
226.683	11.38
226.918	24.38
227.152	33.38
227.387	42.38
227.621	48.38
227.856	54.38
228.09	40.38
228.324	40.38
228.559	62.38
228.793	68.38
229.027	86.38
229.262	102.38
229.496	100.38
229.73	123.38
229.964	130.38
230.199	118.38
230.433	115.38
230.667	111.38
230.901	107.38
231.136	114.38
231.37	114.38
231.604	91.38
231.838	105.38
232.072	115.38
232.306	111.38
232.541	116.38
232.775	126.38
233.009	112.38
233.243	116.38
233.477	109.38
233.711	110.38
233.945	118.38
234.179	108.38
234.413	117.38
234.647	114.38
234.881	114.38
235.115	119.38
235.349	111.38
235.583	124.38
235.817	113.38
236.051	117.38
236.285	126.38
236.519	124.38
236.753	131.38
236.987	126.38
237.221	159.38
237.455	197.38
237.689	168.38
237.922	137.38
238.156	128.38
238.39	125.38
238.624	134.38
238.858	110.38
239.091	118.38
239.325	120.38
239.559	122.38
239.793	142.38
240.027	127.38
240.26	152.38
240.494	152.38
240.728	136.38
240.961	138.38
241.195	150.38
241.429	143.38
241.662	148.38
241.896	129.38
242.13	142.38
242.363	138.38
242.597	142.38
242.83	148.38
243.064	130.38
243.298	131.38
243.531	144.38
243.765	146.38
243.998	140.38
244.232	138.38
244.465	150.38
244.699	145.38
244.932	144.38
245.166	145.38
245.399	152.38
245.633	152.38
245.866	152.38
246.099	149.38
246.333	143.38
246.566	172.38
246.8	152.38
247.033	158.38
247.266	148.38
247.5	154.38
247.733	168.38
247.966	156.38
248.2	166.38
248.433	178.38
248.666	169.38
248.899	180.38
249.133	201.38
249.366	208.38
249.599	203.38
249.832	194.38
250.066	191.38
250.299	178.38
250.532	202.38
250.765	201.38
250.998	217.38
251.231	218.38
251.465	224.38
251.698	199.38
251.931	199.38
252.164	175.38
252.397	200.38
252.63	198.38
252.863	200.38
253.096	208.38
253.329	222.38
253.562	216.38
253.795	218.38
254.028	212.38
254.261	215.38
254.494	228.38
254.727	238.38
254.96	268.38
255.193	267.38
255.426	259.38
255.659	216.38
255.892	223.38
256.124	232.38
256.357	243.38
256.59	231.38
256.823	213.38
257.056	211.38
257.289	204.38
257.521	214.38
257.754	204.38
257.987	211.38
258.22	200.38
258.452	203.38
258.685	218.38
258.918	214.38
259.151	205.38
259.383	218.38
259.616	219.38
259.849	230.38
260.081	233.38
260.314	242.38
260.547	250.38
260.779	239.38
261.012	235.38
261.244	224.38
261.477	221.38
261.71	221.38
261.942	240.38
262.175	244.38
262.407	230.38
262.64	212.38
262.872	205.38
263.105	225.38
263.337	236.38
263.57	217.38
263.802	226.38
264.035	223.38
264.267	229.38
264.499	207.38
264.732	223.38
264.964	219.38
265.197	216.38
265.429	224.38
265.661	234.38
265.894	222.38
266.126	228.38
266.358	221.38
266.591	237.38
266.823	229.38
267.055	224.38
267.287	243.38
267.52	238.38
267.752	246.38
267.984	250.38
268.216	246.38
268.448	255.38
268.681	244.38
268.913	253.38
269.145	276.38
269.377	293.38
269.609	274.38
269.841	296.38
270.073	278.38
270.306	284.38
270.538	316.38
270.77	322.38
271.002	291.38
271.234	286.38
271.466	301.38
271.698	313.38
271.93	307.38
272.162	322.38
272.394	316.38
272.626	310.38
272.858	290.38
273.09	302.38
273.322	279.38
273.553	290.38
273.785	302.38
274.017	291.38
274.249	287.38
274.481	263.38
274.713	291.38
274.945	293.38
275.176	280.38
275.408	283.38
275.64	255.38
275.872	283.38
276.104	298.38
276.335	284.38
276.567	291.38
276.799	290.38
277.031	331.38
277.262	318.38
277.494	319.38
277.726	316.38
277.957	307.38
278.189	297.38
278.421	302.38
278.652	306.38
278.884	289.38
279.115	281.38
279.347	297.38
279.579	300.38
279.81	282.38
280.042	301.38
280.273	279.38
280.505	292.38
280.736	301.38
280.968	288.38
281.199	288.38
281.431	294.38
281.662	284.38
281.894	293.38
282.125	282.38
282.356	312.38
282.588	310.38
282.819	332.38
283.051	302.38
283.282	278.38
283.513	293.38
283.745	285.38
283.976	312.38
284.207	315.38
284.439	306.38
284.67	334.38
284.901	311.38
285.132	324.38
285.364	301.38
285.595	308.38
285.826	324.38
286.057	312.38
286.288	310.38
286.52	310.38
286.751	299.38
286.982	310.38
287.213	306.38
287.444	319.38
287.675	317.38
287.906	337.38
288.138	320.38
288.369	326.38
288.6	321.38
288.831	314.38
289.062	331.38
289.293	314.38
289.524	326.38
289.755	316.38
289.986	310.38
290.217	318.38
290.448	321.38
290.679	337.38
290.91	310.38
291.141	311.38
291.371	323.38
291.602	315.38
291.833	299.38
292.064	316.38
292.295	318.38
292.526	318.38
292.757	327.38
292.987	328.38
293.218	343.38
293.449	330.38
293.68	325.38
293.91	340.38
294.141	315.38
294.372	323.38
294.603	332.38
294.833	333.38
295.064	338.38
295.295	324.38
295.525	335.38
295.756	332.38
295.987	332.38
296.217	361.38
296.448	353.38
296.679	351.38
296.909	330.38
297.14	326.38
297.37	337.38
297.601	333.38
297.831	350.38
298.062	329.38
298.292	324.38
298.523	334.38
298.753	334.38
298.984	329.38
299.214	354.38
299.445	340.38
299.675	349.38
299.905	358.38
300.136	331.38
300.366	348.38
300.597	354.38
300.827	349.38
301.057	351.38
301.288	372.38
301.518	364.38
301.748	350.38
301.979	367.38
302.209	383.38
302.439	358.38
302.669	349.38
302.9	367.38
303.13	360.38
303.36	365.38
303.59	347.38
303.82	353.38
304.051	366.38
304.281	359.38
304.511	372.38
304.741	380.38
304.971	366.38
305.201	370.38
305.431	352.38
305.661	363.38
305.891	363.38
306.121	349.38
306.352	364.38
306.582	359.38
306.812	359.38
307.042	359.38
307.272	366.38
307.502	382.38
307.731	375.38
307.961	349.38
308.191	357.38
308.421	381.38
308.651	348.38
308.881	376.38
309.111	380.38
309.341	375.38
309.571	386.38
309.8	370.38
310.03	381.38
310.26	379.38
310.49	400.38
310.72	397.38
310.949	400.38
311.179	418.38
311.409	390.38
311.639	397.38
311.868	394.38
312.098	393.38
312.328	431.38
312.557	411.38
312.787	416.38
313.017	415.38
313.246	425.38
313.476	406.38
313.706	397.38
313.935	410.38
314.165	399.38
314.394	408.38
314.624	441.38
314.853	415.38
315.083	415.38
315.312	411.38
315.542	420.38
315.771	396.38
316.001	403.38
316.23	394.38
316.46	401.38
316.689	406.38
316.919	419.38
317.148	404.38
317.377	418.38
317.607	391.38
317.836	406.38
318.065	401.38
318.295	398.38
318.524	397.38
318.753	398.38
318.983	407.38
319.212	404.38
319.441	401.38
319.67	398.38
319.9	422.38
320.129	415.38
320.358	411.38
320.587	410.38
320.816	415.38
321.046	403.38
321.275	434.38
321.504	428.38
321.733	439.38
321.962	438.38
322.191	422.38
322.42	444.38
322.649	447.38
322.878	459.38
323.108	463.38
323.337	477.38
323.566	471.38
323.795	493.38
324.024	540.38
324.253	629.38
324.482	843.38
324.71	1204.38
324.939	1672.38
325.168	1412.38
325.397	766.38
325.626	564.38
325.855	510.38
326.084	506.38
326.313	482.38
326.542	500.38
326.77	533.38
326.999	587.38
327.228	753.38
327.457	1076.38
327.686	1262.38
327.914	865.38
328.143	623.38
328.372	540.38
328.6	534.38
328.829	529.38
329.058	550.38
329.287	532.38
329.515	504.38
329.744	501.38
329.972	480.38
330.201	528.38
330.43	539.38
330.658	557.38
330.887	552.38
331.115	539.38
331.344	501.38
331.572	504.38
331.801	509.38
332.03	479.38
332.258	483.38
332.486	470.38
332.715	471.38
332.943	483.38
333.172	500.38
333.4	494.38
333.629	491.38
333.857	520.38
334.085	525.38
334.314	532.38
334.542	549.38
334.771	549.38
334.999	530.38
335.227	505.38
335.455	517.38
335.684	504.38
335.912	476.38
336.14	476.38
336.369	482.38
336.597	471.38
336.825	472.38
337.053	471.38
337.281	479.38
337.51	475.38
337.738	462.38
337.966	454.38
338.194	465.38
338.422	470.38
338.65	467.38
338.878	452.38
339.106	448.38
339.334	458.38
339.562	455.38
339.79	456.38
340.018	457.38
340.246	434.38
340.474	446.38
340.702	456.38
340.93	447.38
341.158	464.38
341.386	456.38
341.614	447.38
341.842	436.38
342.07	436.38
342.298	440.38
342.526	439.38
342.754	431.38
342.981	432.38
343.209	441.38
343.437	452.38
343.665	471.38
343.893	478.38
344.12	469.38
344.348	473.38
344.576	446.38
344.804	470.38
345.031	453.38
345.259	449.38
345.487	458.38
345.714	474.38
345.942	438.38
346.17	423.38
346.397	440.38
346.625	439.38
346.853	428.38
347.08	429.38
347.308	439.38
347.535	439.38
347.763	436.38
347.99	423.38
348.218	432.38
348.445	423.38
348.673	431.38
348.9	427.38
349.128	440.38
349.355	414.38
349.583	407.38
349.81	429.38
350.037	427.38
350.265	411.38
350.492	435.38
350.72	408.38
350.947	427.38
351.174	404.38
351.402	415.38
351.629	426.38
351.856	426.38
352.083	421.38
352.311	426.38
352.538	426.38
352.765	447.38
352.992	412.38
353.22	415.38
353.447	407.38
353.674	408.38
353.901	393.38
354.128	397.38
354.355	405.38
354.583	386.38
354.81	400.38
355.037	412.38
355.264	390.38
355.491	400.38
355.718	395.38
355.945	400.38
356.172	394.38
356.399	400.38
356.626	392.38
356.853	395.38
357.08	401.38
357.307	411.38
357.534	393.38
357.761	406.38
357.988	398.38
358.215	409.38
358.441	401.38
358.668	399.38
358.895	391.38
359.122	398.38
359.349	393.38
359.576	427.38
359.802	428.38
360.029	451.38
360.256	444.38
360.483	428.38
360.709	435.38
360.936	419.38
361.163	391.38
361.39	423.38
361.616	412.38
361.843	406.38
362.07	405.38
362.296	398.38
362.523	410.38
362.749	391.38
362.976	406.38
363.203	407.38
363.429	397.38
363.656	391.38
363.882	399.38
364.109	388.38
364.335	388.38
364.562	379.38
364.788	387.38
365.015	397.38
365.241	397.38
365.468	418.38
365.694	394.38
365.92	396.38
366.147	408.38
366.373	388.38
366.599	409.38
366.826	391.38
367.052	380.38
367.278	392.38
367.505	402.38
367.731	411.38
367.957	395.38
368.184	399.38
368.41	393.38
368.636	419.38
368.862	417.38
369.089	403.38
369.315	415.38
369.541	392.38
369.767	409.38
369.993	394.38
370.219	392.38
370.445	383.38
370.672	400.38
370.898	394.38
371.124	393.38
371.35	388.38
371.576	412.38
371.802	395.38
372.028	411.38
372.254	401.38
372.48	419.38
372.706	418.38
372.932	404.38
373.158	395.38
373.384	412.38
373.61	418.38
373.835	395.38
374.061	410.38
374.287	400.38
374.513	390.38
374.739	401.38
374.965	423.38
375.191	398.38
375.416	406.38
375.642	406.38
375.868	411.38
376.094	390.38
376.319	400.38
376.545	397.38
376.771	373.38
376.997	405.38
377.222	408.38
377.448	397.38
377.674	375.38
377.899	377.38
378.125	379.38
378.35	381.38
378.576	408.38
378.802	382.38
379.027	381.38
379.253	389.38
379.478	379.38
379.704	366.38
379.929	390.38
380.155	394.38
380.38	385.38
380.606	387.38
380.831	393.38
381.057	397.38
381.282	367.38
381.507	374.38
381.733	389.38
381.958	380.38
382.184	390.38
382.409	383.38
382.634	403.38
382.86	405.38
383.085	397.38
383.31	392.38
383.535	422.38
383.761	422.38
383.986	412.38
384.211	418.38
384.436	416.38
384.662	423.38
384.887	437.38
385.112	429.38
385.337	438.38
385.562	433.38
385.787	409.38
386.013	443.38
386.238	409.38
386.463	444.38
386.688	429.38
386.913	440.38
387.138	415.38
387.363	416.38
387.588	435.38
387.813	447.38
388.038	443.38
388.263	419.38
388.488	430.38
388.713	430.38
388.938	422.38
389.163	441.38
389.387	436.38
389.612	430.38
389.837	414.38
390.062	420.38
390.287	436.38
390.512	412.38
390.736	410.38
390.961	424.38
391.186	447.38
391.411	445.38
391.636	444.38
391.86	458.38
392.085	431.38
392.31	442.38
392.534	451.38
392.759	443.38
392.984	431.38
393.208	422.38
393.433	421.38
393.658	430.38
393.882	434.38
394.107	440.38
394.331	431.38
394.556	430.38
394.78	448.38
395.005	434.38
395.229	421.38
395.454	454.38
395.678	463.38
395.903	465.38
396.127	472.38
396.352	473.38
396.576	451.38
396.801	449.38
397.025	451.38
397.249	458.38
397.474	446.38
397.698	454.38
397.922	464.38
398.147	469.38
398.371	466.38
398.595	479.38
398.82	479.38
399.044	498.38
399.268	522.38
399.492	548.38
399.717	579.38
399.941	587.38
400.165	587.38
400.389	583.38
400.613	550.38
400.837	536.38
401.062	513.38
401.286	498.38
401.51	480.38
401.734	480.38
401.958	504.38
402.182	498.38
402.406	475.38
402.63	492.38
402.854	493.38
403.078	488.38
403.302	494.38
403.526	520.38
403.75	518.38
403.974	494.38
404.198	490.38
404.422	516.38
404.645	498.38
404.869	519.38
405.093	539.38
405.317	581.38
405.541	582.38
405.765	523.38
405.988	520.38
406.212	527.38
406.436	527.38
406.66	515.38
406.883	538.38
407.107	566.38
407.331	578.38
407.555	637.38
407.778	634.38
408.002	587.38
408.226	573.38
408.449	532.38
408.673	564.38
408.896	564.38
409.12	579.38
409.344	574.38
409.567	508.38
409.791	489.38
410.014	498.38
410.238	483.38
410.461	496.38
410.685	501.38
410.908	500.38
411.132	542.38
411.355	531.38
411.578	529.38
411.802	514.38
412.025	503.38
412.249	489.38
412.472	504.38
412.695	544.38
412.919	546.38
413.142	507.38
413.365	477.38
413.589	487.38
413.812	491.38
414.035	472.38
414.258	485.38
414.482	472.38
414.705	474.38
414.928	483.38
415.151	495.38
415.374	456.38
415.597	479.38
415.821	463.38
416.044	451.38
416.267	454.38
416.49	466.38
416.713	439.38
416.936	459.38
417.159	459.38
417.382	478.38
417.605	480.38
417.828	445.38
418.051	467.38
418.274	487.38
418.497	478.38
418.72	469.38
418.943	472.38
419.166	490.38
419.389	508.38
419.611	520.38
419.834	495.38
420.057	495.38
420.28	471.38
420.503	480.38
420.726	465.38
420.948	476.38
421.171	517.38
421.394	522.38
421.617	492.38
421.839	454.38
422.062	488.38
422.285	493.38
422.507	565.38
422.73	586.38
422.953	558.38
423.175	513.38
423.398	500.38
423.621	492.38
423.843	512.38
424.066	506.38
424.288	490.38
424.511	525.38
424.733	568.38
424.956	612.38
425.178	608.38
425.401	582.38
425.623	613.38
425.846	537.38
426.068	499.38
426.291	489.38
426.513	512.38
426.735	474.38
426.958	531.38
427.18	572.38
427.402	690.38
427.625	720.38
427.847	626.38
428.069	558.38
428.292	513.38
428.514	463.38
428.736	472.38
428.958	465.38
429.181	451.38
429.403	459.38
429.625	449.38
429.847	492.38
430.069	541.38
430.292	545.38
430.514	473.38
430.736	485.38
430.958	458.38
431.18	434.38
431.402	421.38
431.624	435.38
431.846	422.38
432.068	438.38
432.29	445.38
432.512	442.38
432.734	436.38
432.956	451.38
433.178	443.38
433.4	451.38
433.622	451.38
433.844	434.38
434.066	451.38
434.287	447.38
434.509	443.38
434.731	447.38
434.953	471.38
435.175	478.38
435.397	477.38
435.618	487.38
435.84	538.38
436.062	582.38
436.284	607.38
436.505	555.38
436.727	488.38
436.949	466.38
437.17	439.38
437.392	459.38
437.614	451.38
437.835	484.38
438.057	534.38
438.278	614.38
438.5	608.38
438.721	653.38
438.943	667.38
439.165	534.38
439.386	485.38
439.608	499.38
439.829	483.38
440.05	494.38
440.272	526.38
440.493	515.38
440.715	464.38
440.936	458.38
441.158	460.38
441.379	460.38
441.6	467.38
441.822	490.38
442.043	517.38
442.264	585.38
442.486	612.38
442.707	539.38
442.928	487.38
443.149	488.38
443.371	540.38
443.592	558.38
443.813	620.38
444.034	655.38
444.255	558.38
444.476	527.38
444.698	502.38
444.919	526.38
445.14	611.38
445.361	542.38
445.582	531.38
445.803	547.38
446.024	618.38
446.245	650.38
446.466	599.38
446.687	516.38
446.908	482.38
447.129	444.38
447.35	430.38
447.571	450.38
447.792	430.38
448.013	454.38
448.234	481.38
448.455	486.38
448.675	587.38
448.896	679.38
449.117	575.38
449.338	537.38
449.559	633.38
449.779	672.38
450	561.38
450.221	474.38
450.442	449.38
450.662	430.38
450.883	416.38
451.104	460.38
451.324	442.38
451.545	428.38
451.766	414.38
451.986	399.38
452.207	390.38
452.428	384.38
452.648	407.38
452.869	395.38
453.089	398.38
453.31	400.38
453.53	406.38
453.751	409.38
453.971	393.38
454.192	414.38
454.412	394.38
454.633	387.38
454.853	378.38
455.073	396.38
455.294	404.38
455.514	470.38
455.734	453.38
455.955	384.38
456.175	378.38
456.395	377.38
456.616	383.38
456.836	378.38
457.056	384.38
457.276	364.38
457.497	374.38
457.717	376.38
457.937	382.38
458.157	384.38
458.377	393.38
458.598	405.38
458.818	450.38
459.038	516.38
459.258	530.38
459.478	459.38
459.698	434.38
459.918	434.38
460.138	440.38
460.358	450.38
460.578	460.38
460.798	445.38
461.018	444.38
461.238	455.38
461.458	450.38
461.678	444.38
461.898	455.38
462.118	456.38
462.338	450.38
462.558	481.38
462.777	488.38
462.997	486.38
463.217	501.38
463.437	507.38
463.657	475.38
463.876	464.38
464.096	495.38
464.316	484.38
464.536	469.38
464.755	473.38
464.975	461.38
465.195	496.38
465.414	517.38
465.634	462.38
465.854	474.38
466.073	434.38
466.293	409.38
466.512	410.38
466.732	426.38
466.951	428.38
467.171	405.38
467.391	404.38
467.61	411.38
467.829	410.38
468.049	410.38
468.268	421.38
468.488	411.38
468.707	386.38
468.927	410.38
469.146	407.38
469.365	384.38
469.585	399.38
469.804	402.38
470.023	408.38
470.243	425.38
470.462	416.38
470.681	424.38
470.901	450.38
471.12	448.38
471.339	424.38
471.558	417.38
471.777	410.38
471.997	417.38
472.216	437.38
472.435	436.38
472.654	446.38
472.873	400.38
473.092	420.38
473.311	423.38
473.53	419.38
473.749	428.38
473.968	454.38
474.187	537.38
474.406	549.38
474.625	448.38
474.844	414.38
475.063	418.38
475.282	439.38
475.501	388.38
475.72	439.38
475.939	434.38
476.158	428.38
476.377	432.38
476.596	440.38
476.814	434.38
477.033	423.38
477.252	450.38
477.471	441.38
477.69	440.38
477.908	454.38
478.127	451.38
478.346	460.38
478.564	436.38
478.783	467.38
479.002	470.38
479.22	471.38
479.439	489.38
479.658	516.38
479.876	476.38
480.095	498.38
480.313	530.38
480.532	501.38
480.751	498.38
480.969	520.38
481.188	539.38
481.406	570.38
481.624	508.38
481.843	508.38
482.061	466.38
482.28	473.38
482.498	491.38
482.717	482.38
482.935	469.38
483.153	476.38
483.372	455.38
483.59	490.38
483.808	459.38
484.027	506.38
484.245	487.38
484.463	462.38
484.681	481.38
484.9	477.38
485.118	475.38
485.336	480.38
485.554	470.38
485.772	485.38
485.99	491.38
486.209	485.38
486.427	504.38
486.645	502.38
486.863	495.38
487.081	518.38
487.299	514.38
487.517	506.38
487.735	511.38
487.953	499.38
488.171	508.38
488.389	502.38
488.607	507.38
488.825	479.38
489.043	503.38
489.261	504.38
489.479	528.38
489.696	533.38
489.914	522.38
490.132	510.38
490.35	530.38
490.568	510.38
490.786	544.38
491.003	529.38
491.221	557.38
491.439	545.38
491.657	557.38
491.874	558.38
492.092	571.38
492.31	556.38
492.527	562.38
492.745	575.38
492.963	568.38
493.18	563.38
493.398	582.38
493.615	574.38
493.833	590.38
494.05	618.38
494.268	580.38
494.485	568.38
494.703	582.38
494.92	589.38
495.138	602.38
495.355	603.38
495.573	586.38
495.79	579.38
496.008	578.38
496.225	554.38
496.442	614.38
496.66	603.38
496.877	602.38
497.094	606.38
497.312	612.38
497.529	611.38
497.746	636.38
497.963	636.38
498.181	636.38
498.398	644.38
498.615	671.38
498.832	682.38
499.049	711.38
499.267	717.38
499.484	748.38
499.701	795.38
499.918	784.38
500.135	847.38
500.352	888.38
500.569	939.38
500.786	918.38
501.003	898.38
501.22	879.38
501.437	842.38
501.654	799.38
501.871	764.38
