Data from 1964.PennyLincolnUp.Lamp.En5.5.200Scan.071719.P1._HRD10591_14-03-52-911.txt Node
Date: Thu Jul 18 14:03:52 EDT 2019
User: cochatt
Spectrometer: HR+D1059
Trigger mode: 1
Integration Time (sec): 1.000000E-1
Scans to average: 1
Electric dark correction enabled: true
Nonlinearity correction enabled: false
Boxcar width: 0
XAxis mode: Wavelengths
Number of Pixels in Spectrum: 2048
>>>>>Begin Spectral Data<<<<<
223.165	-25.81
223.4	-25.81
223.635	-25.81
223.869	7.19
224.104	-24.81
224.338	-19.81
224.573	-25.81
224.808	-12.81
225.042	-2.81
225.277	11.19
225.511	-1.81
225.746	-0.81
225.98	14.19
226.215	9.19
226.449	12.19
226.683	9.19
226.918	28.19
227.152	23.19
227.387	32.19
227.621	25.19
227.856	40.19
228.09	49.19
228.324	43.19
228.559	46.19
228.793	58.19
229.027	85.19
229.262	97.19
229.496	87.19
229.73	119.19
229.964	125.19
230.199	105.19
230.433	102.19
230.667	91.19
230.901	89.19
231.136	104.19
231.37	110.19
231.604	96.19
231.838	110.19
232.072	119.19
232.306	117.19
232.541	80.19
232.775	99.19
233.009	98.19
233.243	120.19
233.477	123.19
233.711	107.19
233.945	116.19
234.179	125.19
234.413	124.19
234.647	120.19
234.881	119.19
235.115	125.19
235.349	103.19
235.583	125.19
235.817	118.19
236.051	117.19
236.285	126.19
236.519	108.19
236.753	121.19
236.987	131.19
237.221	161.19
237.455	177.19
237.689	145.19
237.922	132.19
238.156	106.19
238.39	120.19
238.624	116.19
238.858	105.19
239.091	119.19
239.325	108.19
239.559	124.19
239.793	120.19
240.027	125.19
240.26	137.19
240.494	121.19
240.728	139.19
240.961	138.19
241.195	129.19
241.429	126.19
241.662	127.19
241.896	123.19
242.13	126.19
242.363	139.19
242.597	125.19
242.83	138.19
243.064	137.19
243.298	128.19
243.531	131.19
243.765	140.19
243.998	144.19
244.232	142.19
244.465	135.19
244.699	147.19
244.932	126.19
245.166	141.19
245.399	147.19
245.633	147.19
245.866	139.19
246.099	150.19
246.333	136.19
246.566	143.19
246.8	150.19
247.033	144.19
247.266	155.19
247.5	162.19
247.733	151.19
247.966	155.19
248.2	167.19
248.433	174.19
248.666	165.19
248.899	175.19
249.133	183.19
249.366	186.19
249.599	178.19
249.832	182.19
250.066	169.19
250.299	173.19
250.532	182.19
250.765	189.19
250.998	211.19
251.231	208.19
251.465	202.19
251.698	202.19
251.931	199.19
252.164	187.19
252.397	167.19
252.63	200.19
252.863	196.19
253.096	198.19
253.329	225.19
253.562	204.19
253.795	199.19
254.028	207.19
254.261	190.19
254.494	215.19
254.727	233.19
254.96	255.19
255.193	241.19
255.426	218.19
255.659	234.19
255.892	221.19
256.124	227.19
256.357	235.19
256.59	243.19
256.823	222.19
257.056	211.19
257.289	216.19
257.521	202.19
257.754	199.19
257.987	202.19
258.22	208.19
258.452	198.19
258.685	210.19
258.918	191.19
259.151	230.19
259.383	215.19
259.616	218.19
259.849	218.19
260.081	225.19
260.314	231.19
260.547	244.19
260.779	234.19
261.012	225.19
261.244	218.19
261.477	218.19
261.71	214.19
261.942	235.19
262.175	239.19
262.407	216.19
262.64	212.19
262.872	221.19
263.105	203.19
263.337	219.19
263.57	224.19
263.802	213.19
264.035	213.19
264.267	225.19
264.499	220.19
264.732	210.19
264.964	214.19
265.197	222.19
265.429	219.19
265.661	212.19
265.894	219.19
266.126	219.19
266.358	237.19
266.591	219.19
266.823	230.19
267.055	234.19
267.287	230.19
267.52	231.19
267.752	237.19
267.984	231.19
268.216	232.19
268.448	240.19
268.681	240.19
268.913	243.19
269.145	255.19
269.377	269.19
269.609	278.19
269.841	279.19
270.073	253.19
270.306	287.19
270.538	296.19
270.77	278.19
271.002	281.19
271.234	267.19
271.466	293.19
271.698	285.19
271.93	302.19
272.162	299.19
272.394	295.19
272.626	275.19
272.858	286.19
273.09	276.19
273.322	275.19
273.553	266.19
273.785	267.19
274.017	264.19
274.249	269.19
274.481	287.19
274.713	263.19
274.945	267.19
275.176	255.19
275.408	264.19
275.64	268.19
275.872	265.19
276.104	269.19
276.335	259.19
276.567	261.19
276.799	290.19
277.031	297.19
277.262	298.19
277.494	296.19
277.726	307.19
277.957	306.19
278.189	274.19
278.421	270.19
278.652	291.19
278.884	270.19
279.115	289.19
279.347	287.19
279.579	279.19
279.81	295.19
280.042	269.19
280.273	286.19
280.505	293.19
280.736	295.19
280.968	295.19
281.199	294.19
281.431	274.19
281.662	279.19
281.894	293.19
282.125	277.19
282.356	296.19
282.588	297.19
282.819	317.19
283.051	297.19
283.282	295.19
283.513	282.19
283.745	293.19
283.976	290.19
284.207	281.19
284.439	296.19
284.67	296.19
284.901	293.19
285.132	297.19
285.364	300.19
285.595	292.19
285.826	306.19
286.057	294.19
286.288	290.19
286.52	310.19
286.751	306.19
286.982	306.19
287.213	308.19
287.444	294.19
287.675	320.19
287.906	313.19
288.138	326.19
288.369	308.19
288.6	307.19
288.831	297.19
289.062	314.19
289.293	314.19
289.524	292.19
289.755	313.19
289.986	309.19
290.217	324.19
290.448	295.19
290.679	323.19
290.91	311.19
291.141	301.19
291.371	300.19
291.602	309.19
291.833	295.19
292.064	303.19
292.295	313.19
292.526	309.19
292.757	307.19
292.987	320.19
293.218	302.19
293.449	310.19
293.68	317.19
293.91	314.19
294.141	305.19
294.372	319.19
294.603	318.19
294.833	321.19
295.064	321.19
295.295	315.19
295.525	296.19
295.756	333.19
295.987	322.19
296.217	324.19
296.448	322.19
296.679	318.19
296.909	336.19
297.14	335.19
297.37	317.19
297.601	302.19
297.831	332.19
298.062	329.19
298.292	349.19
298.523	339.19
298.753	341.19
298.984	332.19
299.214	321.19
299.445	337.19
299.675	345.19
299.905	347.19
300.136	341.19
300.366	339.19
300.597	331.19
300.827	363.19
301.057	341.19
301.288	361.19
301.518	373.19
301.748	361.19
301.979	356.19
302.209	348.19
302.439	331.19
302.669	364.19
302.9	355.19
303.13	347.19
303.36	355.19
303.59	360.19
303.82	384.19
304.051	352.19
304.281	356.19
304.511	342.19
304.741	338.19
304.971	336.19
305.201	358.19
305.431	335.19
305.661	355.19
305.891	335.19
306.121	358.19
306.352	361.19
306.582	365.19
306.812	356.19
307.042	353.19
307.272	347.19
307.502	359.19
307.731	329.19
307.961	355.19
308.191	338.19
308.421	357.19
308.651	369.19
308.881	364.19
309.111	357.19
309.341	339.19
309.571	370.19
309.8	377.19
310.03	376.19
310.26	373.19
310.49	358.19
310.72	377.19
310.949	385.19
311.179	373.19
311.409	378.19
311.639	379.19
311.868	403.19
312.098	401.19
312.328	398.19
312.557	407.19
312.787	404.19
313.017	411.19
313.246	387.19
313.476	396.19
313.706	394.19
313.935	400.19
314.165	401.19
314.394	398.19
314.624	394.19
314.853	399.19
315.083	389.19
315.312	391.19
315.542	389.19
315.771	404.19
316.001	391.19
316.23	381.19
316.46	373.19
316.689	376.19
316.919	387.19
317.148	408.19
317.377	400.19
317.607	397.19
317.836	380.19
318.065	385.19
318.295	357.19
318.524	408.19
318.753	403.19
318.983	382.19
319.212	381.19
319.441	389.19
319.67	405.19
319.9	398.19
320.129	395.19
320.358	402.19
320.587	406.19
320.816	425.19
321.046	396.19
321.275	412.19
321.504	395.19
321.733	417.19
321.962	416.19
322.191	395.19
322.42	427.19
322.649	415.19
322.878	420.19
323.108	414.19
323.337	467.19
323.566	439.19
323.795	476.19
324.024	494.19
324.253	547.19
324.482	753.19
324.71	1046.19
324.939	1446.19
325.168	1196.19
325.397	673.19
325.626	505.19
325.855	475.19
326.084	450.19
326.313	462.19
326.542	450.19
326.77	490.19
326.999	553.19
327.228	699.19
327.457	940.19
327.686	1056.19
327.914	755.19
328.143	553.19
328.372	513.19
328.6	483.19
328.829	469.19
329.058	474.19
329.287	475.19
329.515	469.19
329.744	491.19
329.972	470.19
330.201	476.19
330.43	506.19
330.658	497.19
330.887	502.19
331.115	526.19
331.344	464.19
331.572	482.19
331.801	474.19
332.03	452.19
332.258	465.19
332.486	473.19
332.715	467.19
332.943	468.19
333.172	474.19
333.4	477.19
333.629	502.19
333.857	491.19
334.085	492.19
334.314	521.19
334.542	550.19
334.771	529.19
334.999	498.19
335.227	478.19
335.455	485.19
335.684	478.19
335.912	466.19
336.14	465.19
336.369	474.19
336.597	461.19
336.825	459.19
337.053	444.19
337.281	441.19
337.51	452.19
337.738	444.19
337.966	428.19
338.194	439.19
338.422	451.19
338.65	453.19
338.878	430.19
339.106	445.19
339.334	440.19
339.562	419.19
339.79	440.19
340.018	431.19
340.246	426.19
340.474	431.19
340.702	422.19
340.93	440.19
341.158	447.19
341.386	429.19
341.614	433.19
341.842	432.19
342.07	444.19
342.298	418.19
342.526	429.19
342.754	438.19
342.981	439.19
343.209	444.19
343.437	417.19
343.665	416.19
343.893	457.19
344.12	445.19
344.348	442.19
344.576	438.19
344.804	455.19
345.031	450.19
345.259	426.19
345.487	427.19
345.714	422.19
345.942	407.19
346.17	421.19
346.397	431.19
346.625	426.19
346.853	422.19
347.08	391.19
347.308	419.19
347.535	408.19
347.763	411.19
347.99	414.19
348.218	402.19
348.445	415.19
348.673	403.19
348.9	403.19
349.128	429.19
349.355	398.19
349.583	399.19
349.81	393.19
350.037	402.19
350.265	400.19
350.492	398.19
350.72	418.19
350.947	392.19
351.174	402.19
351.402	408.19
351.629	435.19
351.856	410.19
352.083	413.19
352.311	415.19
352.538	395.19
352.765	408.19
352.992	395.19
353.22	409.19
353.447	410.19
353.674	387.19
353.901	377.19
354.128	385.19
354.355	397.19
354.583	392.19
354.81	395.19
355.037	405.19
355.264	388.19
355.491	400.19
355.718	385.19
355.945	382.19
356.172	389.19
356.399	400.19
356.626	391.19
356.853	381.19
357.08	389.19
357.307	385.19
357.534	389.19
357.761	376.19
357.988	381.19
358.215	393.19
358.441	375.19
358.668	395.19
358.895	393.19
359.122	383.19
359.349	406.19
359.576	399.19
359.802	409.19
360.029	412.19
360.256	423.19
360.483	417.19
360.709	409.19
360.936	398.19
361.163	411.19
361.39	401.19
361.616	406.19
361.843	399.19
362.07	387.19
362.296	403.19
362.523	395.19
362.749	383.19
362.976	390.19
363.203	385.19
363.429	408.19
363.656	398.19
363.882	390.19
364.109	373.19
364.335	390.19
364.562	385.19
364.788	376.19
365.015	389.19
365.241	371.19
365.468	376.19
365.694	379.19
365.92	383.19
366.147	363.19
366.373	396.19
366.599	366.19
366.826	373.19
367.052	383.19
367.278	402.19
367.505	353.19
367.731	385.19
367.957	378.19
368.184	377.19
368.41	381.19
368.636	388.19
368.862	392.19
369.089	379.19
369.315	386.19
369.541	386.19
369.767	381.19
369.993	385.19
370.219	394.19
370.445	404.19
370.672	391.19
370.898	377.19
371.124	373.19
371.35	354.19
371.576	359.19
371.802	406.19
372.028	379.19
372.254	382.19
372.48	410.19
372.706	396.19
372.932	400.19
373.158	380.19
373.384	400.19
373.61	398.19
373.835	388.19
374.061	390.19
374.287	411.19
374.513	404.19
374.739	414.19
374.965	402.19
375.191	410.19
375.416	387.19
375.642	381.19
375.868	382.19
376.094	406.19
376.319	405.19
376.545	401.19
376.771	402.19
376.997	394.19
377.222	383.19
377.448	362.19
377.674	371.19
377.899	377.19
378.125	377.19
378.35	394.19
378.576	385.19
378.802	371.19
379.027	400.19
379.253	404.19
379.478	364.19
379.704	381.19
379.929	402.19
380.155	376.19
380.38	379.19
380.606	382.19
380.831	404.19
381.057	403.19
381.282	388.19
381.507	396.19
381.733	375.19
381.958	394.19
382.184	373.19
382.409	405.19
382.634	388.19
382.86	375.19
383.085	387.19
383.31	387.19
383.535	405.19
383.761	391.19
383.986	424.19
384.211	416.19
384.436	400.19
384.662	424.19
384.887	386.19
385.112	390.19
385.337	399.19
385.562	403.19
385.787	414.19
386.013	425.19
386.238	389.19
386.463	421.19
386.688	434.19
386.913	399.19
387.138	444.19
387.363	420.19
387.588	419.19
387.813	426.19
388.038	441.19
388.263	413.19
388.488	418.19
388.713	433.19
388.938	401.19
389.163	404.19
389.387	413.19
389.612	418.19
389.837	418.19
390.062	404.19
390.287	437.19
390.512	419.19
390.736	426.19
390.961	433.19
391.186	413.19
391.411	421.19
391.636	408.19
391.86	447.19
392.085	443.19
392.31	427.19
392.534	445.19
392.759	437.19
392.984	422.19
393.208	421.19
393.433	425.19
393.658	422.19
393.882	413.19
394.107	441.19
394.331	422.19
394.556	407.19
394.78	399.19
395.005	409.19
395.229	445.19
395.454	442.19
395.678	440.19
395.903	441.19
396.127	445.19
396.352	439.19
396.576	429.19
396.801	431.19
397.025	417.19
397.249	427.19
397.474	444.19
397.698	458.19
397.922	462.19
398.147	475.19
398.371	483.19
398.595	478.19
398.82	478.19
399.044	493.19
399.268	502.19
399.492	533.19
399.717	568.19
399.941	583.19
400.165	592.19
400.389	574.19
400.613	546.19
400.837	502.19
401.062	478.19
401.286	475.19
401.51	505.19
401.734	497.19
401.958	464.19
402.182	461.19
402.406	478.19
402.63	483.19
402.854	485.19
403.078	491.19
403.302	500.19
403.526	482.19
403.75	503.19
403.974	496.19
404.198	489.19
404.422	514.19
404.645	492.19
404.869	484.19
405.093	530.19
405.317	539.19
405.541	600.19
405.765	543.19
405.988	486.19
406.212	498.19
406.436	533.19
406.66	524.19
406.883	528.19
407.107	534.19
407.331	588.19
407.555	617.19
407.778	587.19
408.002	574.19
408.226	542.19
408.449	542.19
408.673	540.19
408.896	539.19
409.12	567.19
409.344	529.19
409.567	502.19
409.791	485.19
410.014	491.19
410.238	487.19
410.461	493.19
410.685	465.19
410.908	490.19
411.132	493.19
411.355	538.19
411.578	500.19
411.802	483.19
412.025	483.19
412.249	485.19
412.472	523.19
412.695	512.19
412.919	541.19
413.142	481.19
413.365	471.19
413.589	471.19
413.812	458.19
414.035	453.19
414.258	447.19
414.482	444.19
414.705	449.19
414.928	447.19
415.151	456.19
415.374	462.19
415.597	470.19
415.821	467.19
416.044	442.19
416.267	452.19
416.49	451.19
416.713	449.19
416.936	434.19
417.159	441.19
417.382	435.19
417.605	471.19
417.828	447.19
418.051	483.19
418.274	461.19
418.497	483.19
418.72	488.19
418.943	451.19
419.166	477.19
419.389	481.19
419.611	477.19
419.834	489.19
420.057	459.19
420.28	466.19
420.503	453.19
420.726	466.19
420.948	472.19
421.171	497.19
421.394	509.19
421.617	478.19
421.839	431.19
422.062	468.19
422.285	470.19
422.507	510.19
422.73	569.19
422.953	530.19
423.175	488.19
423.398	467.19
423.621	475.19
423.843	475.19
424.066	484.19
424.288	485.19
424.511	492.19
424.733	533.19
424.956	586.19
425.178	552.19
425.401	569.19
425.623	590.19
425.846	504.19
426.068	473.19
426.291	455.19
426.513	462.19
426.735	492.19
426.958	513.19
427.18	562.19
427.402	673.19
427.625	686.19
427.847	592.19
428.069	540.19
428.292	508.19
428.514	472.19
428.736	454.19
428.958	467.19
429.181	438.19
429.403	440.19
429.625	455.19
429.847	465.19
430.069	515.19
430.292	510.19
430.514	427.19
430.736	435.19
430.958	425.19
431.18	449.19
431.402	423.19
431.624	426.19
431.846	402.19
432.068	410.19
432.29	431.19
432.512	442.19
432.734	421.19
432.956	410.19
433.178	408.19
433.4	424.19
433.622	441.19
433.844	406.19
434.066	420.19
434.287	438.19
434.509	424.19
434.731	428.19
434.953	446.19
435.175	477.19
435.397	476.19
435.618	495.19
435.84	499.19
436.062	544.19
436.284	590.19
436.505	509.19
436.727	465.19
436.949	445.19
437.17	431.19
437.392	429.19
437.614	449.19
437.835	462.19
438.057	513.19
438.278	586.19
438.5	603.19
438.721	665.19
438.943	620.19
439.165	495.19
439.386	477.19
439.608	470.19
439.829	445.19
440.05	469.19
440.272	524.19
440.493	462.19
440.715	463.19
440.936	453.19
441.158	442.19
441.379	451.19
441.6	453.19
441.822	477.19
442.043	473.19
442.264	554.19
442.486	553.19
442.707	524.19
442.928	480.19
443.149	484.19
443.371	482.19
443.592	507.19
443.813	577.19
444.034	629.19
444.255	539.19
444.476	489.19
444.698	503.19
444.919	499.19
445.14	614.19
445.361	552.19
445.582	509.19
445.803	519.19
446.024	599.19
446.245	603.19
446.466	534.19
446.687	472.19
446.908	476.19
447.129	428.19
447.35	441.19
447.571	430.19
447.792	425.19
448.013	423.19
448.234	437.19
448.455	465.19
448.675	566.19
448.896	604.19
449.117	558.19
449.338	523.19
449.559	599.19
449.779	661.19
450	528.19
450.221	469.19
450.442	423.19
450.662	407.19
450.883	407.19
451.104	410.19
451.324	428.19
451.545	410.19
451.766	398.19
451.986	378.19
452.207	397.19
452.428	390.19
452.648	390.19
452.869	375.19
453.089	404.19
453.31	403.19
453.53	363.19
453.751	373.19
453.971	358.19
454.192	395.19
454.412	391.19
454.633	393.19
454.853	393.19
455.073	390.19
455.294	389.19
455.514	430.19
455.734	441.19
455.955	377.19
456.175	378.19
456.395	366.19
456.616	367.19
456.836	362.19
457.056	378.19
457.276	365.19
457.497	375.19
457.717	375.19
457.937	400.19
458.157	394.19
458.377	378.19
458.598	386.19
458.818	418.19
459.038	479.19
459.258	485.19
459.478	446.19
459.698	412.19
459.918	444.19
460.138	438.19
460.358	438.19
460.578	422.19
460.798	434.19
461.018	448.19
461.238	429.19
461.458	451.19
461.678	433.19
461.898	430.19
462.118	450.19
462.338	450.19
462.558	459.19
462.777	465.19
462.997	503.19
463.217	495.19
463.437	506.19
463.657	471.19
463.876	485.19
464.096	471.19
464.316	471.19
464.536	461.19
464.755	473.19
464.975	473.19
465.195	447.19
465.414	487.19
465.634	478.19
465.854	428.19
466.073	404.19
466.293	437.19
466.512	406.19
466.732	385.19
466.951	385.19
467.171	391.19
467.391	418.19
467.61	418.19
467.829	395.19
468.049	400.19
468.268	412.19
468.488	386.19
468.707	383.19
468.927	383.19
469.146	390.19
469.365	399.19
469.585	381.19
469.804	392.19
470.023	413.19
470.243	408.19
470.462	406.19
470.681	415.19
470.901	417.19
471.12	406.19
471.339	392.19
471.558	425.19
471.777	408.19
471.997	392.19
472.216	406.19
472.435	412.19
472.654	406.19
472.873	404.19
473.092	397.19
473.311	394.19
473.53	416.19
473.749	390.19
473.968	424.19
474.187	498.19
474.406	524.19
474.625	441.19
474.844	387.19
475.063	407.19
475.282	425.19
475.501	415.19
475.72	420.19
475.939	395.19
476.158	420.19
476.377	405.19
476.596	416.19
476.814	408.19
477.033	413.19
477.252	420.19
477.471	430.19
477.69	445.19
477.908	452.19
478.127	453.19
478.346	441.19
478.564	445.19
478.783	453.19
479.002	471.19
479.22	474.19
479.439	456.19
479.658	480.19
479.876	485.19
480.095	505.19
480.313	524.19
480.532	511.19
480.751	496.19
480.969	514.19
481.188	527.19
481.406	534.19
481.624	510.19
481.843	483.19
482.061	460.19
482.28	464.19
482.498	436.19
482.717	470.19
482.935	467.19
483.153	456.19
483.372	451.19
483.59	474.19
483.808	453.19
484.027	447.19
484.245	481.19
484.463	469.19
484.681	477.19
484.9	474.19
485.118	487.19
485.336	477.19
485.554	483.19
485.772	481.19
485.99	493.19
486.209	471.19
486.427	494.19
486.645	492.19
486.863	478.19
487.081	485.19
487.299	494.19
487.517	483.19
487.735	485.19
487.953	487.19
488.171	514.19
488.389	487.19
488.607	478.19
488.825	469.19
489.043	491.19
489.261	491.19
489.479	508.19
489.696	506.19
489.914	500.19
490.132	513.19
490.35	535.19
490.568	524.19
490.786	539.19
491.003	527.19
491.221	531.19
491.439	533.19
491.657	546.19
491.874	549.19
492.092	558.19
492.31	534.19
492.527	576.19
492.745	583.19
492.963	552.19
493.18	575.19
493.398	547.19
493.615	573.19
493.833	572.19
494.05	577.19
494.268	554.19
494.485	577.19
494.703	567.19
494.92	578.19
495.138	553.19
495.355	557.19
495.573	557.19
495.79	557.19
496.008	584.19
496.225	561.19
496.442	585.19
496.66	575.19
496.877	585.19
497.094	595.19
497.312	598.19
497.529	596.19
497.746	618.19
497.963	613.19
498.181	634.19
498.398	633.19
498.615	696.19
498.832	679.19
499.049	697.19
499.267	731.19
499.484	729.19
499.701	775.19
499.918	792.19
500.135	876.19
500.352	882.19
500.569	894.19
500.786	915.19
501.003	876.19
501.22	825.19
501.437	811.19
501.654	779.19
501.871	773.19
502.088	725.19
