Data from 1964.PennyLincolnUp.Lamp.En5.5.200Scan.071719.P1._HRD10591_14-04-57-909.txt Node
Date: Thu Jul 18 14:04:57 EDT 2019
User: cochatt
Spectrometer: HR+D1059
Trigger mode: 1
Integration Time (sec): 1.000000E-1
Scans to average: 1
Electric dark correction enabled: true
Nonlinearity correction enabled: false
Boxcar width: 0
XAxis mode: Wavelengths
Number of Pixels in Spectrum: 2048
>>>>>Begin Spectral Data<<<<<
223.165	-24.62
223.4	-24.62
223.635	-24.62
223.869	-16.62
224.104	-31.62
224.338	-21.62
224.573	-16.62
224.808	-1.62
225.042	2.38
225.277	-8.62
225.511	1.38
225.746	5.38
225.98	6.38
226.215	25.38
226.449	9.38
226.683	23.38
226.918	6.38
227.152	41.38
227.387	28.38
227.621	39.38
227.856	47.38
228.09	56.38
228.324	54.38
228.559	49.38
228.793	72.38
229.027	101.38
229.262	123.38
229.496	113.38
229.73	116.38
229.964	146.38
230.199	118.38
230.433	108.38
230.667	123.38
230.901	106.38
231.136	107.38
231.37	109.38
231.604	114.38
231.838	116.38
232.072	117.38
232.306	119.38
232.541	111.38
232.775	110.38
233.009	121.38
233.243	109.38
233.477	112.38
233.711	99.38
233.945	109.38
234.179	121.38
234.413	108.38
234.647	106.38
234.881	119.38
235.115	110.38
235.349	120.38
235.583	120.38
235.817	116.38
236.051	117.38
236.285	124.38
236.519	120.38
236.753	130.38
236.987	134.38
237.221	163.38
237.455	199.38
237.689	159.38
237.922	132.38
238.156	140.38
238.39	128.38
238.624	134.38
238.858	126.38
239.091	118.38
239.325	113.38
239.559	128.38
239.793	128.38
240.027	127.38
240.26	147.38
240.494	132.38
240.728	169.38
240.961	148.38
241.195	147.38
241.429	140.38
241.662	132.38
241.896	130.38
242.13	144.38
242.363	137.38
242.597	153.38
242.83	144.38
243.064	144.38
243.298	144.38
243.531	139.38
243.765	149.38
243.998	163.38
244.232	144.38
244.465	141.38
244.699	136.38
244.932	144.38
245.166	156.38
245.399	161.38
245.633	161.38
245.866	128.38
246.099	146.38
246.333	142.38
246.566	148.38
246.8	158.38
247.033	146.38
247.266	150.38
247.5	159.38
247.733	181.38
247.966	182.38
248.2	172.38
248.433	163.38
248.666	192.38
248.899	189.38
249.133	191.38
249.366	200.38
249.599	200.38
249.832	169.38
250.066	192.38
250.299	183.38
250.532	196.38
250.765	176.38
250.998	193.38
251.231	219.38
251.465	215.38
251.698	219.38
251.931	184.38
252.164	195.38
252.397	187.38
252.63	200.38
252.863	209.38
253.096	232.38
253.329	219.38
253.562	227.38
253.795	224.38
254.028	193.38
254.261	217.38
254.494	237.38
254.727	242.38
254.96	262.38
255.193	260.38
255.426	225.38
255.659	221.38
255.892	223.38
256.124	232.38
256.357	236.38
256.59	233.38
256.823	224.38
257.056	231.38
257.289	215.38
257.521	225.38
257.754	196.38
257.987	216.38
258.22	215.38
258.452	220.38
258.685	225.38
258.918	225.38
259.151	218.38
259.383	221.38
259.616	229.38
259.849	221.38
260.081	240.38
260.314	235.38
260.547	258.38
260.779	237.38
261.012	234.38
261.244	235.38
261.477	234.38
261.71	220.38
261.942	233.38
262.175	227.38
262.407	251.38
262.64	217.38
262.872	218.38
263.105	218.38
263.337	241.38
263.57	236.38
263.802	225.38
264.035	217.38
264.267	197.38
264.499	213.38
264.732	232.38
264.964	236.38
265.197	229.38
265.429	220.38
265.661	229.38
265.894	253.38
266.126	248.38
266.358	246.38
266.591	235.38
266.823	241.38
267.055	244.38
267.287	238.38
267.52	236.38
267.752	238.38
267.984	250.38
268.216	234.38
268.448	242.38
268.681	250.38
268.913	259.38
269.145	252.38
269.377	276.38
269.609	278.38
269.841	279.38
270.073	283.38
270.306	300.38
270.538	301.38
270.77	328.38
271.002	324.38
271.234	297.38
271.466	286.38
271.698	303.38
271.93	334.38
272.162	329.38
272.394	316.38
272.626	326.38
272.858	290.38
273.09	294.38
273.322	293.38
273.553	270.38
273.785	270.38
274.017	286.38
274.249	305.38
274.481	283.38
274.713	292.38
274.945	303.38
275.176	279.38
275.408	292.38
275.64	292.38
275.872	282.38
276.104	278.38
276.335	261.38
276.567	278.38
276.799	292.38
277.031	313.38
277.262	323.38
277.494	330.38
277.726	302.38
277.957	300.38
278.189	304.38
278.421	289.38
278.652	304.38
278.884	291.38
279.115	284.38
279.347	294.38
279.579	289.38
279.81	282.38
280.042	288.38
280.273	286.38
280.505	309.38
280.736	295.38
280.968	298.38
281.199	303.38
281.431	288.38
281.662	297.38
281.894	304.38
282.125	287.38
282.356	292.38
282.588	304.38
282.819	330.38
283.051	302.38
283.282	303.38
283.513	304.38
283.745	308.38
283.976	299.38
284.207	306.38
284.439	321.38
284.67	324.38
284.901	312.38
285.132	325.38
285.364	294.38
285.595	324.38
285.826	306.38
286.057	318.38
286.288	314.38
286.52	324.38
286.751	315.38
286.982	316.38
287.213	296.38
287.444	316.38
287.675	322.38
287.906	323.38
288.138	346.38
288.369	340.38
288.6	342.38
288.831	324.38
289.062	325.38
289.293	329.38
289.524	321.38
289.755	317.38
289.986	332.38
290.217	330.38
290.448	316.38
290.679	340.38
290.91	325.38
291.141	319.38
291.371	318.38
291.602	305.38
291.833	333.38
292.064	320.38
292.295	326.38
292.526	324.38
292.757	327.38
292.987	305.38
293.218	326.38
293.449	335.38
293.68	338.38
293.91	312.38
294.141	352.38
294.372	314.38
294.603	320.38
294.833	344.38
295.064	324.38
295.295	340.38
295.525	337.38
295.756	322.38
295.987	332.38
296.217	355.38
296.448	354.38
296.679	359.38
296.909	335.38
297.14	340.38
297.37	338.38
297.601	334.38
297.831	352.38
298.062	342.38
298.292	340.38
298.523	362.38
298.753	347.38
298.984	357.38
299.214	351.38
299.445	358.38
299.675	365.38
299.905	364.38
300.136	360.38
300.366	362.38
300.597	380.38
300.827	350.38
301.057	357.38
301.288	372.38
301.518	354.38
301.748	364.38
301.979	358.38
302.209	379.38
302.439	367.38
302.669	382.38
302.9	380.38
303.13	378.38
303.36	380.38
303.59	366.38
303.82	386.38
304.051	349.38
304.281	365.38
304.511	379.38
304.741	360.38
304.971	358.38
305.201	365.38
305.431	380.38
305.661	369.38
305.891	360.38
306.121	356.38
306.352	377.38
306.582	365.38
306.812	364.38
307.042	370.38
307.272	377.38
307.502	376.38
307.731	369.38
307.961	356.38
308.191	353.38
308.421	374.38
308.651	386.38
308.881	375.38
309.111	374.38
309.341	376.38
309.571	378.38
309.8	393.38
310.03	392.38
310.26	398.38
310.49	393.38
310.72	395.38
310.949	398.38
311.179	413.38
311.409	383.38
311.639	412.38
311.868	391.38
312.098	406.38
312.328	414.38
312.557	406.38
312.787	422.38
313.017	432.38
313.246	420.38
313.476	401.38
313.706	406.38
313.935	404.38
314.165	418.38
314.394	422.38
314.624	431.38
314.853	418.38
315.083	396.38
315.312	423.38
315.542	401.38
315.771	397.38
316.001	395.38
316.23	399.38
316.46	407.38
316.689	398.38
316.919	401.38
317.148	426.38
317.377	406.38
317.607	410.38
317.836	417.38
318.065	422.38
318.295	398.38
318.524	417.38
318.753	423.38
318.983	402.38
319.212	404.38
319.441	414.38
319.67	424.38
319.9	408.38
320.129	394.38
320.358	437.38
320.587	406.38
320.816	417.38
321.046	432.38
321.275	420.38
321.504	405.38
321.733	435.38
321.962	448.38
322.191	406.38
322.42	452.38
322.649	439.38
322.878	448.38
323.108	438.38
323.337	481.38
323.566	494.38
323.795	516.38
324.024	517.38
324.253	609.38
324.482	795.38
324.71	1144.38
324.939	1602.38
325.168	1313.38
325.397	732.38
325.626	546.38
325.855	504.38
326.084	491.38
326.313	485.38
326.542	492.38
326.77	526.38
326.999	574.38
327.228	735.38
327.457	1040.38
327.686	1201.38
327.914	809.38
328.143	606.38
328.372	552.38
328.6	534.38
328.829	508.38
329.058	528.38
329.287	524.38
329.515	521.38
329.744	505.38
329.972	487.38
330.201	503.38
330.43	532.38
330.658	537.38
330.887	549.38
331.115	538.38
331.344	519.38
331.572	501.38
331.801	485.38
332.03	487.38
332.258	484.38
332.486	481.38
332.715	505.38
332.943	480.38
333.172	492.38
333.4	500.38
333.629	496.38
333.857	523.38
334.085	507.38
334.314	540.38
334.542	551.38
334.771	542.38
334.999	520.38
335.227	505.38
335.455	518.38
335.684	495.38
335.912	489.38
336.14	485.38
336.369	494.38
336.597	481.38
336.825	465.38
337.053	464.38
337.281	463.38
337.51	473.38
337.738	484.38
337.966	457.38
338.194	482.38
338.422	457.38
338.65	454.38
338.878	457.38
339.106	438.38
339.334	469.38
339.562	465.38
339.79	439.38
340.018	467.38
340.246	453.38
340.474	454.38
340.702	466.38
340.93	442.38
341.158	448.38
341.386	439.38
341.614	473.38
341.842	450.38
342.07	426.38
342.298	448.38
342.526	436.38
342.754	444.38
342.981	430.38
343.209	440.38
343.437	460.38
343.665	478.38
343.893	482.38
344.12	488.38
344.348	481.38
344.576	464.38
344.804	461.38
345.031	454.38
345.259	439.38
345.487	446.38
345.714	448.38
345.942	438.38
346.17	424.38
346.397	435.38
346.625	426.38
346.853	420.38
347.08	450.38
347.308	449.38
347.535	429.38
347.763	409.38
347.99	423.38
348.218	423.38
348.445	431.38
348.673	439.38
348.9	433.38
349.128	427.38
349.355	420.38
349.583	421.38
349.81	424.38
350.037	404.38
350.265	401.38
350.492	436.38
350.72	402.38
350.947	410.38
351.174	433.38
351.402	424.38
351.629	431.38
351.856	416.38
352.083	433.38
352.311	445.38
352.538	406.38
352.765	411.38
352.992	420.38
353.22	414.38
353.447	399.38
353.674	439.38
353.901	393.38
354.128	417.38
354.355	424.38
354.583	410.38
354.81	409.38
355.037	409.38
355.264	409.38
355.491	410.38
355.718	401.38
355.945	423.38
356.172	386.38
356.399	388.38
356.626	393.38
356.853	408.38
357.08	412.38
357.307	416.38
357.534	403.38
357.761	384.38
357.988	400.38
358.215	395.38
358.441	394.38
358.668	407.38
358.895	406.38
359.122	390.38
359.349	412.38
359.576	401.38
359.802	440.38
360.029	443.38
360.256	440.38
360.483	431.38
360.709	430.38
360.936	426.38
361.163	411.38
361.39	409.38
361.616	420.38
361.843	388.38
362.07	410.38
362.296	401.38
362.523	390.38
362.749	427.38
362.976	418.38
363.203	408.38
363.429	426.38
363.656	403.38
363.882	397.38
364.109	401.38
364.335	394.38
364.562	399.38
364.788	401.38
365.015	397.38
365.241	395.38
365.468	393.38
365.694	408.38
365.92	402.38
366.147	404.38
366.373	394.38
366.599	396.38
366.826	413.38
367.052	384.38
367.278	413.38
367.505	397.38
367.731	392.38
367.957	420.38
368.184	398.38
368.41	415.38
368.636	413.38
368.862	420.38
369.089	409.38
369.315	400.38
369.541	422.38
369.767	412.38
369.993	408.38
370.219	408.38
370.445	386.38
370.672	397.38
370.898	391.38
371.124	401.38
371.35	399.38
371.576	407.38
371.802	392.38
372.028	407.38
372.254	420.38
372.48	428.38
372.706	411.38
372.932	426.38
373.158	414.38
373.384	420.38
373.61	404.38
373.835	400.38
374.061	407.38
374.287	412.38
374.513	406.38
374.739	384.38
374.965	413.38
375.191	436.38
375.416	404.38
375.642	415.38
375.868	401.38
376.094	397.38
376.319	406.38
376.545	398.38
376.771	390.38
376.997	380.38
377.222	395.38
377.448	390.38
377.674	411.38
377.899	389.38
378.125	420.38
378.35	388.38
378.576	400.38
378.802	403.38
379.027	403.38
379.253	381.38
379.478	407.38
379.704	405.38
379.929	390.38
380.155	398.38
380.38	392.38
380.606	398.38
380.831	407.38
381.057	408.38
381.282	382.38
381.507	401.38
381.733	414.38
381.958	386.38
382.184	400.38
382.409	394.38
382.634	392.38
382.86	395.38
383.085	418.38
383.31	413.38
383.535	415.38
383.761	422.38
383.986	408.38
384.211	430.38
384.436	430.38
384.662	415.38
384.887	438.38
385.112	421.38
385.337	446.38
385.562	427.38
385.787	445.38
386.013	449.38
386.238	448.38
386.463	451.38
386.688	447.38
386.913	421.38
387.138	437.38
387.363	450.38
387.588	478.38
387.813	430.38
388.038	432.38
388.263	438.38
388.488	416.38
388.713	450.38
388.938	430.38
389.163	425.38
389.387	432.38
389.612	442.38
389.837	451.38
390.062	449.38
390.287	432.38
390.512	438.38
390.736	418.38
390.961	447.38
391.186	439.38
391.411	441.38
391.636	444.38
391.86	452.38
392.085	453.38
392.31	437.38
392.534	445.38
392.759	444.38
392.984	452.38
393.208	433.38
393.433	436.38
393.658	439.38
393.882	433.38
394.107	452.38
394.331	441.38
394.556	424.38
394.78	455.38
395.005	430.38
395.229	440.38
395.454	429.38
395.678	473.38
395.903	464.38
396.127	481.38
396.352	489.38
396.576	452.38
396.801	446.38
397.025	430.38
397.249	454.38
397.474	481.38
397.698	469.38
397.922	470.38
398.147	474.38
398.371	469.38
398.595	479.38
398.82	497.38
399.044	514.38
399.268	528.38
399.492	558.38
399.717	585.38
399.941	597.38
400.165	606.38
400.389	591.38
400.613	544.38
400.837	500.38
401.062	500.38
401.286	516.38
401.51	498.38
401.734	479.38
401.958	487.38
402.182	495.38
402.406	498.38
402.63	497.38
402.854	501.38
403.078	520.38
403.302	488.38
403.526	494.38
403.75	498.38
403.974	502.38
404.198	497.38
404.422	532.38
404.645	501.38
404.869	519.38
405.093	527.38
405.317	566.38
405.541	589.38
405.765	538.38
405.988	537.38
406.212	538.38
406.436	520.38
406.66	555.38
406.883	514.38
407.107	579.38
407.331	576.38
407.555	620.38
407.778	629.38
408.002	576.38
408.226	538.38
408.449	540.38
408.673	541.38
408.896	558.38
409.12	560.38
409.344	545.38
409.567	505.38
409.791	509.38
410.014	503.38
410.238	473.38
410.461	487.38
410.685	482.38
410.908	526.38
411.132	517.38
411.355	540.38
411.578	536.38
411.802	495.38
412.025	496.38
412.249	519.38
412.472	510.38
412.695	546.38
412.919	536.38
413.142	517.38
413.365	493.38
413.589	502.38
413.812	496.38
414.035	472.38
414.258	475.38
414.482	455.38
414.705	461.38
414.928	483.38
415.151	463.38
415.374	477.38
415.597	452.38
415.821	482.38
416.044	445.38
416.267	478.38
416.49	469.38
416.713	455.38
416.936	484.38
417.159	463.38
417.382	471.38
417.605	471.38
417.828	493.38
418.051	470.38
418.274	487.38
418.497	453.38
418.72	467.38
418.943	460.38
419.166	479.38
419.389	524.38
419.611	483.38
419.834	500.38
420.057	494.38
420.28	495.38
420.503	463.38
420.726	486.38
420.948	511.38
421.171	531.38
421.394	537.38
421.617	470.38
421.839	475.38
422.062	492.38
422.285	477.38
422.507	530.38
422.73	593.38
422.953	589.38
423.175	512.38
423.398	494.38
423.621	516.38
423.843	523.38
424.066	536.38
424.288	507.38
424.511	514.38
424.733	581.38
424.956	589.38
425.178	595.38
425.401	574.38
425.623	578.38
425.846	530.38
426.068	505.38
426.291	485.38
426.513	494.38
426.735	503.38
426.958	518.38
427.18	605.38
427.402	689.38
427.625	726.38
427.847	638.38
428.069	561.38
428.292	519.38
428.514	471.38
428.736	467.38
428.958	457.38
429.181	470.38
429.403	447.38
429.625	502.38
429.847	467.38
430.069	520.38
430.292	528.38
430.514	487.38
430.736	464.38
430.958	456.38
431.18	444.38
431.402	428.38
431.624	431.38
431.846	428.38
432.068	431.38
432.29	470.38
432.512	444.38
432.734	450.38
432.956	434.38
433.178	448.38
433.4	449.38
433.622	449.38
433.844	426.38
434.066	420.38
434.287	458.38
434.509	457.38
434.731	476.38
434.953	465.38
435.175	480.38
435.397	485.38
435.618	490.38
435.84	509.38
436.062	598.38
436.284	634.38
436.505	528.38
436.727	512.38
436.949	477.38
437.17	466.38
437.392	448.38
437.614	478.38
437.835	453.38
438.057	561.38
438.278	626.38
438.5	621.38
438.721	683.38
438.943	640.38
439.165	518.38
439.386	520.38
439.608	505.38
439.829	454.38
440.05	514.38
440.272	530.38
440.493	514.38
440.715	465.38
440.936	469.38
441.158	464.38
441.379	477.38
441.6	484.38
441.822	489.38
442.043	535.38
442.264	589.38
442.486	607.38
442.707	529.38
442.928	500.38
443.149	506.38
443.371	520.38
443.592	557.38
443.813	628.38
444.034	640.38
444.255	563.38
444.476	520.38
444.698	510.38
444.919	492.38
445.14	636.38
445.361	571.38
445.582	529.38
445.803	546.38
446.024	639.38
446.245	622.38
446.466	580.38
446.687	515.38
446.908	472.38
447.129	452.38
447.35	441.38
447.571	445.38
447.792	426.38
448.013	438.38
448.234	460.38
448.455	493.38
448.675	584.38
448.896	653.38
449.117	575.38
449.338	541.38
449.559	592.38
449.779	678.38
450	561.38
450.221	457.38
450.442	441.38
450.662	436.38
450.883	423.38
451.104	448.38
451.324	428.38
451.545	408.38
451.766	411.38
451.986	425.38
452.207	401.38
452.428	415.38
452.648	406.38
452.869	393.38
453.089	409.38
453.31	405.38
453.53	403.38
453.751	413.38
453.971	402.38
454.192	408.38
454.412	401.38
454.633	402.38
454.853	409.38
455.073	404.38
455.294	417.38
455.514	459.38
455.734	462.38
455.955	395.38
456.175	366.38
456.395	369.38
456.616	366.38
456.836	384.38
457.056	382.38
457.276	359.38
457.497	376.38
457.717	380.38
457.937	368.38
458.157	397.38
458.377	406.38
458.598	388.38
458.818	450.38
459.038	516.38
459.258	502.38
459.478	464.38
459.698	432.38
459.918	420.38
460.138	454.38
460.358	438.38
460.578	441.38
460.798	470.38
461.018	472.38
461.238	438.38
461.458	454.38
461.678	428.38
461.898	455.38
462.118	465.38
462.338	489.38
462.558	466.38
462.777	487.38
462.997	511.38
463.217	503.38
463.437	501.38
463.657	477.38
463.876	484.38
464.096	491.38
464.316	455.38
464.536	476.38
464.755	504.38
464.975	482.38
465.195	487.38
465.414	516.38
465.634	449.38
465.854	440.38
466.073	428.38
466.293	421.38
466.512	422.38
466.732	416.38
466.951	392.38
467.171	429.38
467.391	432.38
467.61	406.38
467.829	425.38
468.049	418.38
468.268	413.38
468.488	417.38
468.707	411.38
468.927	409.38
469.146	406.38
469.365	403.38
469.585	423.38
469.804	427.38
470.023	398.38
470.243	422.38
470.462	397.38
470.681	437.38
470.901	428.38
471.12	425.38
471.339	424.38
471.558	399.38
471.777	431.38
471.997	409.38
472.216	405.38
472.435	421.38
472.654	420.38
472.873	411.38
473.092	422.38
473.311	402.38
473.53	406.38
473.749	427.38
473.968	456.38
474.187	539.38
474.406	522.38
474.625	445.38
474.844	444.38
475.063	411.38
475.282	414.38
475.501	424.38
475.72	413.38
475.939	404.38
476.158	427.38
476.377	454.38
476.596	434.38
476.814	420.38
477.033	419.38
477.252	452.38
477.471	442.38
477.69	458.38
477.908	445.38
478.127	453.38
478.346	472.38
478.564	480.38
478.783	459.38
479.002	485.38
479.22	473.38
479.439	503.38
479.658	488.38
479.876	502.38
480.095	484.38
480.313	533.38
480.532	495.38
480.751	512.38
480.969	528.38
481.188	538.38
481.406	580.38
481.624	529.38
481.843	512.38
482.061	484.38
482.28	499.38
482.498	479.38
482.717	494.38
482.935	477.38
483.153	481.38
483.372	464.38
483.59	500.38
483.808	489.38
484.027	489.38
484.245	473.38
484.463	475.38
484.681	510.38
484.9	485.38
485.118	482.38
485.336	493.38
485.554	500.38
485.772	482.38
485.99	486.38
486.209	490.38
486.427	519.38
486.645	520.38
486.863	497.38
487.081	508.38
487.299	516.38
487.517	525.38
487.735	505.38
487.953	506.38
488.171	493.38
488.389	509.38
488.607	518.38
488.825	514.38
489.043	505.38
489.261	501.38
489.479	541.38
489.696	534.38
489.914	522.38
490.132	517.38
490.35	533.38
490.568	545.38
490.786	570.38
491.003	550.38
491.221	546.38
491.439	559.38
491.657	561.38
491.874	574.38
492.092	581.38
492.31	558.38
492.527	581.38
492.745	591.38
492.963	590.38
493.18	573.38
493.398	582.38
493.615	586.38
493.833	583.38
494.05	590.38
494.268	595.38
494.485	562.38
494.703	588.38
494.92	583.38
495.138	617.38
495.355	587.38
495.573	599.38
495.79	588.38
496.008	592.38
496.225	597.38
496.442	596.38
496.66	612.38
496.877	608.38
497.094	609.38
497.312	605.38
497.529	601.38
497.746	628.38
497.963	642.38
498.181	672.38
498.398	654.38
498.615	682.38
498.832	698.38
499.049	713.38
499.267	749.38
499.484	769.38
499.701	793.38
499.918	831.38
500.135	884.38
500.352	920.38
500.569	938.38
500.786	935.38
501.003	913.38
501.22	877.38
501.437	815.38
501.654	813.38
501.871	781.38
502.088	751.38
