Data from 1964.PennyLincolnUp.Lamp.En5.5.200Scan.071719.P1._HRD10591_14-05-27-909.txt Node
Date: Thu Jul 18 14:05:27 EDT 2019
User: cochatt
Spectrometer: HR+D1059
Trigger mode: 1
Integration Time (sec): 1.000000E-1
Scans to average: 1
Electric dark correction enabled: true
Nonlinearity correction enabled: false
Boxcar width: 0
XAxis mode: Wavelengths
Number of Pixels in Spectrum: 2048
>>>>>Begin Spectral Data<<<<<
223.165	-18.31
223.4	-18.31
223.635	-18.31
223.869	-17.31
224.104	-25.31
224.338	-17.31
224.573	-9.31
224.808	-12.31
225.042	-15.31
225.277	-5.31
225.511	-4.31
225.746	4.69
225.98	9.69
226.215	11.69
226.449	16.69
226.683	22.69
226.918	24.69
227.152	34.69
227.387	42.69
227.621	32.69
227.856	48.69
228.09	52.69
228.324	58.69
228.559	56.69
228.793	80.69
229.027	88.69
229.262	102.69
229.496	101.69
229.73	124.69
229.964	134.69
230.199	118.69
230.433	102.69
230.667	102.69
230.901	108.69
231.136	112.69
231.37	117.69
231.604	100.69
231.838	102.69
232.072	109.69
232.306	103.69
232.541	107.69
232.775	106.69
233.009	108.69
233.243	106.69
233.477	107.69
233.711	119.69
233.945	119.69
234.179	106.69
234.413	116.69
234.647	125.69
234.881	110.69
235.115	107.69
235.349	125.69
235.583	128.69
235.817	127.69
236.051	116.69
236.285	110.69
236.519	119.69
236.753	112.69
236.987	134.69
237.221	165.69
237.455	191.69
237.689	160.69
237.922	138.69
238.156	130.69
238.39	129.69
238.624	118.69
238.858	142.69
239.091	127.69
239.325	105.69
239.559	105.69
239.793	118.69
240.027	116.69
240.26	139.69
240.494	161.69
240.728	144.69
240.961	136.69
241.195	131.69
241.429	124.69
241.662	126.69
241.896	128.69
242.13	137.69
242.363	130.69
242.597	120.69
242.83	136.69
243.064	133.69
243.298	144.69
243.531	143.69
243.765	140.69
243.998	129.69
244.232	144.69
244.465	150.69
244.699	135.69
244.932	143.69
245.166	169.69
245.399	148.69
245.633	142.69
245.866	149.69
246.099	136.69
246.333	160.69
246.566	143.69
246.8	162.69
247.033	153.69
247.266	156.69
247.5	165.69
247.733	170.69
247.966	165.69
248.2	162.69
248.433	160.69
248.666	162.69
248.899	162.69
249.133	177.69
249.366	194.69
249.599	201.69
249.832	194.69
250.066	193.69
250.299	180.69
250.532	188.69
250.765	186.69
250.998	213.69
251.231	220.69
251.465	208.69
251.698	196.69
251.931	198.69
252.164	190.69
252.397	199.69
252.63	192.69
252.863	205.69
253.096	223.69
253.329	219.69
253.562	213.69
253.795	216.69
254.028	210.69
254.261	212.69
254.494	229.69
254.727	231.69
254.96	266.69
255.193	271.69
255.426	228.69
255.659	221.69
255.892	223.69
256.124	238.69
256.357	219.69
256.59	232.69
256.823	238.69
257.056	222.69
257.289	212.69
257.521	218.69
257.754	205.69
257.987	216.69
258.22	212.69
258.452	203.69
258.685	207.69
258.918	218.69
259.151	222.69
259.383	222.69
259.616	215.69
259.849	233.69
260.081	227.69
260.314	244.69
260.547	242.69
260.779	238.69
261.012	219.69
261.244	225.69
261.477	216.69
261.71	219.69
261.942	231.69
262.175	261.69
262.407	232.69
262.64	220.69
262.872	226.69
263.105	226.69
263.337	234.69
263.57	229.69
263.802	215.69
264.035	215.69
264.267	223.69
264.499	211.69
264.732	222.69
264.964	210.69
265.197	236.69
265.429	235.69
265.661	224.69
265.894	229.69
266.126	232.69
266.358	227.69
266.591	242.69
266.823	226.69
267.055	226.69
267.287	248.69
267.52	246.69
267.752	246.69
267.984	241.69
268.216	241.69
268.448	238.69
268.681	236.69
268.913	247.69
269.145	289.69
269.377	271.69
269.609	286.69
269.841	261.69
270.073	269.69
270.306	295.69
270.538	302.69
270.77	326.69
271.002	292.69
271.234	312.69
271.466	294.69
271.698	309.69
271.93	327.69
272.162	291.69
272.394	302.69
272.626	304.69
272.858	286.69
273.09	297.69
273.322	296.69
273.553	275.69
273.785	278.69
274.017	266.69
274.249	274.69
274.481	280.69
274.713	267.69
274.945	291.69
275.176	279.69
275.408	282.69
275.64	267.69
275.872	275.69
276.104	270.69
276.335	274.69
276.567	283.69
276.799	293.69
277.031	304.69
277.262	315.69
277.494	309.69
277.726	315.69
277.957	286.69
278.189	318.69
278.421	277.69
278.652	283.69
278.884	290.69
279.115	285.69
279.347	291.69
279.579	282.69
279.81	282.69
280.042	297.69
280.273	286.69
280.505	294.69
280.736	281.69
280.968	295.69
281.199	293.69
281.431	281.69
281.662	288.69
281.894	292.69
282.125	288.69
282.356	287.69
282.588	302.69
282.819	330.69
283.051	288.69
283.282	306.69
283.513	292.69
283.745	300.69
283.976	300.69
284.207	298.69
284.439	300.69
284.67	299.69
284.901	299.69
285.132	299.69
285.364	293.69
285.595	303.69
285.826	294.69
286.057	315.69
286.288	290.69
286.52	302.69
286.751	296.69
286.982	329.69
287.213	314.69
287.444	311.69
287.675	327.69
287.906	329.69
288.138	319.69
288.369	333.69
288.6	322.69
288.831	312.69
289.062	315.69
289.293	324.69
289.524	308.69
289.755	307.69
289.986	316.69
290.217	309.69
290.448	324.69
290.679	325.69
290.91	326.69
291.141	326.69
291.371	303.69
291.602	327.69
291.833	329.69
292.064	330.69
292.295	326.69
292.526	332.69
292.757	318.69
292.987	315.69
293.218	307.69
293.449	308.69
293.68	310.69
293.91	306.69
294.141	322.69
294.372	334.69
294.603	312.69
294.833	323.69
295.064	322.69
295.295	324.69
295.525	327.69
295.756	312.69
295.987	318.69
296.217	346.69
296.448	349.69
296.679	332.69
296.909	331.69
297.14	333.69
297.37	343.69
297.601	319.69
297.831	335.69
298.062	323.69
298.292	332.69
298.523	336.69
298.753	347.69
298.984	343.69
299.214	330.69
299.445	340.69
299.675	340.69
299.905	365.69
300.136	332.69
300.366	336.69
300.597	335.69
300.827	345.69
301.057	355.69
301.288	354.69
301.518	334.69
301.748	354.69
301.979	357.69
302.209	354.69
302.439	365.69
302.669	370.69
302.9	374.69
303.13	342.69
303.36	355.69
303.59	362.69
303.82	362.69
304.051	362.69
304.281	335.69
304.511	364.69
304.741	355.69
304.971	365.69
305.201	361.69
305.431	358.69
305.661	345.69
305.891	352.69
306.121	355.69
306.352	378.69
306.582	340.69
306.812	342.69
307.042	348.69
307.272	375.69
307.502	363.69
307.731	363.69
307.961	361.69
308.191	333.69
308.421	352.69
308.651	370.69
308.881	374.69
309.111	381.69
309.341	363.69
309.571	374.69
309.8	378.69
310.03	380.69
310.26	387.69
310.49	402.69
310.72	392.69
310.949	396.69
311.179	409.69
311.409	391.69
311.639	386.69
311.868	398.69
312.098	400.69
312.328	390.69
312.557	402.69
312.787	409.69
313.017	413.69
313.246	391.69
313.476	386.69
313.706	386.69
313.935	415.69
314.165	407.69
314.394	416.69
314.624	418.69
314.853	419.69
315.083	383.69
315.312	382.69
315.542	387.69
315.771	408.69
316.001	394.69
316.23	404.69
316.46	403.69
316.689	421.69
316.919	422.69
317.148	389.69
317.377	410.69
317.607	399.69
317.836	416.69
318.065	380.69
318.295	396.69
318.524	400.69
318.753	401.69
318.983	394.69
319.212	404.69
319.441	410.69
319.67	405.69
319.9	411.69
320.129	414.69
320.358	401.69
320.587	404.69
320.816	399.69
321.046	432.69
321.275	420.69
321.504	403.69
321.733	412.69
321.962	416.69
322.191	413.69
322.42	423.69
322.649	440.69
322.878	458.69
323.108	430.69
323.337	469.69
323.566	484.69
323.795	470.69
324.024	522.69
324.253	603.69
324.482	801.69
324.71	1162.69
324.939	1625.69
325.168	1322.69
325.397	739.69
325.626	565.69
325.855	479.69
326.084	498.69
326.313	457.69
326.542	480.69
326.77	517.69
326.999	580.69
327.228	720.69
327.457	1069.69
327.686	1175.69
327.914	831.69
328.143	597.69
328.372	551.69
328.6	547.69
328.829	518.69
329.058	526.69
329.287	520.69
329.515	533.69
329.744	475.69
329.972	501.69
330.201	506.69
330.43	529.69
330.658	543.69
330.887	548.69
331.115	546.69
331.344	490.69
331.572	486.69
331.801	486.69
332.03	479.69
332.258	470.69
332.486	471.69
332.715	471.69
332.943	472.69
333.172	482.69
333.4	500.69
333.629	489.69
333.857	514.69
334.085	496.69
334.314	514.69
334.542	540.69
334.771	546.69
334.999	509.69
335.227	502.69
335.455	498.69
335.684	470.69
335.912	471.69
336.14	474.69
336.369	455.69
336.597	495.69
336.825	473.69
337.053	462.69
337.281	476.69
337.51	472.69
337.738	474.69
337.966	465.69
338.194	453.69
338.422	451.69
338.65	458.69
338.878	468.69
339.106	454.69
339.334	439.69
339.562	438.69
339.79	447.69
340.018	442.69
340.246	464.69
340.474	465.69
340.702	442.69
340.93	458.69
341.158	455.69
341.386	442.69
341.614	445.69
341.842	437.69
342.07	441.69
342.298	416.69
342.526	446.69
342.754	443.69
342.981	455.69
343.209	444.69
343.437	451.69
343.665	454.69
343.893	476.69
344.12	454.69
344.348	470.69
344.576	454.69
344.804	477.69
345.031	463.69
345.259	460.69
345.487	445.69
345.714	446.69
345.942	444.69
346.17	426.69
346.397	423.69
346.625	444.69
346.853	417.69
347.08	434.69
347.308	422.69
347.535	414.69
347.763	440.69
347.99	427.69
348.218	418.69
348.445	448.69
348.673	423.69
348.9	430.69
349.128	408.69
349.355	409.69
349.583	414.69
349.81	396.69
350.037	418.69
350.265	400.69
350.492	406.69
350.72	407.69
350.947	414.69
351.174	410.69
351.402	406.69
351.629	394.69
351.856	406.69
352.083	419.69
352.311	420.69
352.538	436.69
352.765	425.69
352.992	395.69
353.22	407.69
353.447	406.69
353.674	406.69
353.901	376.69
354.128	395.69
354.355	399.69
354.583	386.69
354.81	398.69
355.037	390.69
355.264	412.69
355.491	391.69
355.718	396.69
355.945	393.69
356.172	404.69
356.399	404.69
356.626	397.69
356.853	390.69
357.08	380.69
357.307	393.69
357.534	400.69
357.761	395.69
357.988	395.69
358.215	380.69
358.441	395.69
358.668	385.69
358.895	415.69
359.122	407.69
359.349	387.69
359.576	422.69
359.802	400.69
360.029	444.69
360.256	436.69
360.483	438.69
360.709	389.69
360.936	420.69
361.163	407.69
361.39	413.69
361.616	410.69
361.843	418.69
362.07	409.69
362.296	399.69
362.523	390.69
362.749	398.69
362.976	406.69
363.203	424.69
363.429	399.69
363.656	406.69
363.882	402.69
364.109	401.69
364.335	400.69
364.562	383.69
364.788	391.69
365.015	391.69
365.241	400.69
365.468	382.69
365.694	396.69
365.92	405.69
366.147	400.69
366.373	391.69
366.599	389.69
366.826	393.69
367.052	392.69
367.278	382.69
367.505	394.69
367.731	397.69
367.957	406.69
368.184	382.69
368.41	387.69
368.636	410.69
368.862	400.69
369.089	378.69
369.315	390.69
369.541	399.69
369.767	376.69
369.993	391.69
370.219	407.69
370.445	394.69
370.672	392.69
370.898	396.69
371.124	401.69
371.35	394.69
371.576	401.69
371.802	384.69
372.028	395.69
372.254	393.69
372.48	392.69
372.706	398.69
372.932	400.69
373.158	396.69
373.384	386.69
373.61	400.69
373.835	403.69
374.061	394.69
374.287	407.69
374.513	405.69
374.739	398.69
374.965	427.69
375.191	399.69
375.416	400.69
375.642	410.69
375.868	422.69
376.094	391.69
376.319	407.69
376.545	391.69
376.771	391.69
376.997	387.69
377.222	376.69
377.448	385.69
377.674	392.69
377.899	396.69
378.125	402.69
378.35	388.69
378.576	391.69
378.802	407.69
379.027	387.69
379.253	394.69
379.478	392.69
379.704	386.69
379.929	401.69
380.155	389.69
380.38	386.69
380.606	384.69
380.831	384.69
381.057	391.69
381.282	389.69
381.507	391.69
381.733	405.69
381.958	368.69
382.184	386.69
382.409	392.69
382.634	394.69
382.86	411.69
383.085	406.69
383.31	406.69
383.535	386.69
383.761	404.69
383.986	411.69
384.211	392.69
384.436	417.69
384.662	417.69
384.887	411.69
385.112	414.69
385.337	418.69
385.562	427.69
385.787	427.69
386.013	453.69
386.238	415.69
386.463	420.69
386.688	453.69
386.913	434.69
387.138	430.69
387.363	415.69
387.588	437.69
387.813	429.69
388.038	439.69
388.263	424.69
388.488	426.69
388.713	433.69
388.938	436.69
389.163	424.69
389.387	416.69
389.612	425.69
389.837	431.69
390.062	427.69
390.287	439.69
390.512	425.69
390.736	418.69
390.961	430.69
391.186	439.69
391.411	423.69
391.636	413.69
391.86	452.69
392.085	451.69
392.31	421.69
392.534	426.69
392.759	443.69
392.984	440.69
393.208	456.69
393.433	434.69
393.658	438.69
393.882	418.69
394.107	408.69
394.331	431.69
394.556	418.69
394.78	435.69
395.005	454.69
395.229	430.69
395.454	439.69
395.678	434.69
395.903	446.69
396.127	446.69
396.352	455.69
396.576	429.69
396.801	429.69
397.025	435.69
397.249	447.69
397.474	458.69
397.698	458.69
397.922	460.69
398.147	467.69
398.371	480.69
398.595	476.69
398.82	480.69
399.044	494.69
399.268	505.69
399.492	554.69
399.717	578.69
399.941	594.69
400.165	588.69
400.389	595.69
400.613	559.69
400.837	514.69
401.062	504.69
401.286	486.69
401.51	487.69
401.734	479.69
401.958	500.69
402.182	486.69
402.406	494.69
402.63	492.69
402.854	500.69
403.078	500.69
403.302	487.69
403.526	494.69
403.75	484.69
403.974	489.69
404.198	495.69
404.422	466.69
404.645	498.69
404.869	510.69
405.093	524.69
405.317	560.69
405.541	597.69
405.765	545.69
405.988	512.69
406.212	519.69
406.436	530.69
406.66	543.69
406.883	514.69
407.107	551.69
407.331	576.69
407.555	630.69
407.778	630.69
408.002	595.69
408.226	546.69
408.449	562.69
408.673	542.69
408.896	524.69
409.12	581.69
409.344	560.69
409.567	520.69
409.791	502.69
410.014	502.69
410.238	490.69
410.461	508.69
410.685	499.69
410.908	518.69
411.132	519.69
411.355	552.69
411.578	537.69
411.802	496.69
412.025	486.69
412.249	496.69
412.472	510.69
412.695	530.69
412.919	517.69
413.142	499.69
413.365	471.69
413.589	491.69
413.812	479.69
414.035	462.69
414.258	465.69
414.482	466.69
414.705	462.69
414.928	471.69
415.151	463.69
415.374	454.69
415.597	462.69
415.821	444.69
416.044	462.69
416.267	462.69
416.49	444.69
416.713	452.69
416.936	441.69
417.159	471.69
417.382	460.69
417.605	460.69
417.828	454.69
418.051	483.69
418.274	485.69
418.497	446.69
418.72	468.69
418.943	472.69
419.166	482.69
419.389	477.69
419.611	495.69
419.834	502.69
420.057	486.69
420.28	493.69
420.503	462.69
420.726	472.69
420.948	490.69
421.171	516.69
421.394	526.69
421.617	506.69
421.839	483.69
422.062	486.69
422.285	476.69
422.507	524.69
422.73	582.69
422.953	565.69
423.175	503.69
423.398	508.69
423.621	480.69
423.843	503.69
424.066	495.69
424.288	504.69
424.511	519.69
424.733	543.69
424.956	619.69
425.178	588.69
425.401	579.69
425.623	591.69
425.846	522.69
426.068	498.69
426.291	498.69
426.513	481.69
426.735	494.69
426.958	542.69
427.18	576.69
427.402	663.69
427.625	722.69
427.847	632.69
428.069	571.69
428.292	532.69
428.514	476.69
428.736	464.69
428.958	478.69
429.181	444.69
429.403	438.69
429.625	474.69
429.847	481.69
430.069	503.69
430.292	523.69
430.514	450.69
430.736	435.69
430.958	438.69
431.18	428.69
431.402	426.69
431.624	427.69
431.846	436.69
432.068	429.69
432.29	427.69
432.512	449.69
432.734	443.69
432.956	436.69
433.178	461.69
433.4	452.69
433.622	428.69
433.844	442.69
434.066	450.69
434.287	420.69
434.509	446.69
434.731	482.69
434.953	438.69
435.175	448.69
435.397	475.69
435.618	481.69
435.84	496.69
436.062	587.69
436.284	630.69
436.505	532.69
436.727	478.69
436.949	484.69
437.17	454.69
437.392	467.69
437.614	434.69
437.835	470.69
438.057	535.69
438.278	632.69
438.5	620.69
438.721	647.69
438.943	644.69
439.165	535.69
439.386	484.69
439.608	487.69
439.829	491.69
440.05	498.69
440.272	532.69
440.493	483.69
440.715	479.69
440.936	464.69
441.158	456.69
441.379	454.69
441.6	459.69
441.822	492.69
442.043	514.69
442.264	556.69
442.486	598.69
442.707	518.69
442.928	508.69
443.149	490.69
443.371	511.69
443.592	540.69
443.813	619.69
444.034	636.69
444.255	524.69
444.476	516.69
444.698	512.69
444.919	495.69
445.14	576.69
445.361	520.69
445.582	524.69
445.803	555.69
446.024	601.69
446.245	619.69
446.466	567.69
446.687	500.69
446.908	487.69
447.129	465.69
447.35	436.69
447.571	434.69
447.792	434.69
448.013	461.69
448.234	452.69
448.455	483.69
448.675	572.69
448.896	650.69
449.117	561.69
449.338	529.69
449.559	624.69
449.779	657.69
450	546.69
450.221	460.69
450.442	452.69
450.662	432.69
450.883	430.69
451.104	440.69
451.324	434.69
451.545	426.69
451.766	407.69
451.986	423.69
452.207	385.69
452.428	389.69
452.648	417.69
452.869	386.69
453.089	405.69
453.31	391.69
453.53	407.69
453.751	396.69
453.971	378.69
454.192	386.69
454.412	395.69
454.633	391.69
454.853	358.69
455.073	392.69
455.294	422.69
455.514	467.69
455.734	447.69
455.955	386.69
456.175	396.69
456.395	389.69
456.616	379.69
456.836	375.69
457.056	382.69
457.276	365.69
457.497	383.69
457.717	380.69
457.937	387.69
458.157	397.69
458.377	394.69
458.598	412.69
458.818	434.69
459.038	475.69
459.258	503.69
459.478	448.69
459.698	420.69
459.918	438.69
460.138	429.69
460.358	423.69
460.578	458.69
460.798	460.69
461.018	446.69
461.238	443.69
461.458	439.69
461.678	431.69
461.898	449.69
462.118	442.69
462.338	461.69
462.558	468.69
462.777	480.69
462.997	485.69
463.217	518.69
463.437	501.69
463.657	489.69
463.876	482.69
464.096	493.69
464.316	480.69
464.536	470.69
464.755	462.69
464.975	491.69
465.195	483.69
465.414	512.69
465.634	470.69
465.854	450.69
466.073	418.69
466.293	429.69
466.512	419.69
466.732	404.69
466.951	412.69
467.171	414.69
467.391	425.69
467.61	420.69
467.829	412.69
468.049	413.69
468.268	412.69
468.488	414.69
468.707	407.69
468.927	412.69
469.146	390.69
469.365	401.69
469.585	420.69
469.804	408.69
470.023	428.69
470.243	421.69
470.462	427.69
470.681	430.69
470.901	414.69
471.12	420.69
471.339	402.69
471.558	416.69
471.777	416.69
471.997	391.69
472.216	408.69
472.435	434.69
472.654	424.69
472.873	409.69
473.092	422.69
473.311	416.69
473.53	417.69
473.749	419.69
473.968	475.69
474.187	522.69
474.406	526.69
474.625	446.69
474.844	421.69
475.063	413.69
475.282	407.69
475.501	435.69
475.72	430.69
475.939	438.69
476.158	417.69
476.377	430.69
476.596	422.69
476.814	415.69
477.033	447.69
477.252	422.69
477.471	444.69
477.69	432.69
477.908	451.69
478.127	481.69
478.346	475.69
478.564	478.69
478.783	473.69
479.002	483.69
479.22	454.69
479.439	486.69
479.658	486.69
479.876	498.69
480.095	502.69
480.313	527.69
480.532	488.69
480.751	511.69
480.969	510.69
481.188	551.69
481.406	530.69
481.624	514.69
481.843	508.69
482.061	469.69
482.28	493.69
482.498	472.69
482.717	470.69
482.935	469.69
483.153	474.69
483.372	467.69
483.59	469.69
483.808	482.69
484.027	498.69
484.245	489.69
484.463	461.69
484.681	487.69
484.9	473.69
485.118	497.69
485.336	482.69
485.554	487.69
485.772	476.69
485.99	484.69
486.209	486.69
486.427	492.69
486.645	517.69
486.863	508.69
487.081	516.69
487.299	510.69
487.517	531.69
487.735	502.69
487.953	499.69
488.171	480.69
488.389	522.69
488.607	493.69
488.825	512.69
489.043	510.69
489.261	499.69
489.479	484.69
489.696	524.69
489.914	483.69
490.132	515.69
490.35	505.69
490.568	521.69
490.786	494.69
491.003	526.69
491.221	537.69
491.439	526.69
491.657	550.69
491.874	549.69
492.092	578.69
492.31	564.69
492.527	572.69
492.745	575.69
492.963	571.69
493.18	556.69
493.398	568.69
493.615	575.69
493.833	573.69
494.05	584.69
494.268	583.69
494.485	565.69
494.703	576.69
494.92	578.69
495.138	578.69
495.355	567.69
495.573	569.69
495.79	572.69
496.008	595.69
496.225	605.69
496.442	586.69
496.66	585.69
496.877	582.69
497.094	582.69
497.312	592.69
497.529	621.69
497.746	610.69
497.963	621.69
498.181	626.69
498.398	654.69
498.615	670.69
498.832	684.69
499.049	679.69
499.267	721.69
499.484	731.69
499.701	795.69
499.918	807.69
500.135	861.69
500.352	893.69
500.569	907.69
500.786	876.69
501.003	894.69
501.22	855.69
501.437	816.69
501.654	797.69
501.871	776.69
