Data from 1964.PennyLincolnUp.Lamp.En5.5.200Scan.071719.P1._HRD10591_14-03-45-908.txt Node
Date: Thu Jul 18 14:03:45 EDT 2019
User: cochatt
Spectrometer: HR+D1059
Trigger mode: 1
Integration Time (sec): 1.000000E-1
Scans to average: 1
Electric dark correction enabled: true
Nonlinearity correction enabled: false
Boxcar width: 0
XAxis mode: Wavelengths
Number of Pixels in Spectrum: 2048
>>>>>Begin Spectral Data<<<<<
223.165	-13.75
223.4	-13.75
223.635	-13.75
223.869	-15.75
224.104	-12.75
224.338	-13.75
224.573	-11.75
224.808	-2.75
225.042	-14.75
225.277	-13.75
225.511	5.25
225.746	-2.75
225.98	8.25
226.215	3.25
226.449	18.25
226.683	10.25
226.918	26.25
227.152	30.25
227.387	26.25
227.621	33.25
227.856	44.25
228.09	43.25
228.324	43.25
228.559	58.25
228.793	64.25
229.027	86.25
229.262	89.25
229.496	95.25
229.73	122.25
229.964	122.25
230.199	102.25
230.433	102.25
230.667	101.25
230.901	95.25
231.136	91.25
231.37	98.25
231.604	105.25
231.838	110.25
232.072	101.25
232.306	103.25
232.541	118.25
232.775	117.25
233.009	115.25
233.243	113.25
233.477	110.25
233.711	109.25
233.945	92.25
234.179	114.25
234.413	115.25
234.647	115.25
234.881	125.25
235.115	126.25
235.349	113.25
235.583	109.25
235.817	108.25
236.051	104.25
236.285	114.25
236.519	115.25
236.753	127.25
236.987	139.25
237.221	157.25
237.455	173.25
237.689	159.25
237.922	129.25
238.156	118.25
238.39	126.25
238.624	124.25
238.858	122.25
239.091	115.25
239.325	111.25
239.559	125.25
239.793	115.25
240.027	127.25
240.26	129.25
240.494	135.25
240.728	129.25
240.961	139.25
241.195	131.25
241.429	127.25
241.662	122.25
241.896	129.25
242.13	132.25
242.363	115.25
242.597	134.25
242.83	134.25
243.064	134.25
243.298	130.25
243.531	119.25
243.765	156.25
243.998	153.25
244.232	144.25
244.465	136.25
244.699	150.25
244.932	133.25
245.166	149.25
245.399	119.25
245.633	161.25
245.866	137.25
246.099	131.25
246.333	153.25
246.566	139.25
246.8	139.25
247.033	145.25
247.266	174.25
247.5	138.25
247.733	153.25
247.966	152.25
248.2	166.25
248.433	156.25
248.666	179.25
248.899	174.25
249.133	184.25
249.366	172.25
249.599	175.25
249.832	163.25
250.066	171.25
250.299	193.25
250.532	172.25
250.765	200.25
250.998	196.25
251.231	182.25
251.465	209.25
251.698	209.25
251.931	192.25
252.164	180.25
252.397	204.25
252.63	186.25
252.863	188.25
253.096	191.25
253.329	206.25
253.562	210.25
253.795	194.25
254.028	212.25
254.261	202.25
254.494	198.25
254.727	217.25
254.96	251.25
255.193	224.25
255.426	221.25
255.659	225.25
255.892	222.25
256.124	209.25
256.357	217.25
256.59	221.25
256.823	208.25
257.056	202.25
257.289	203.25
257.521	199.25
257.754	213.25
257.987	223.25
258.22	225.25
258.452	210.25
258.685	199.25
258.918	190.25
259.151	197.25
259.383	214.25
259.616	206.25
259.849	213.25
260.081	227.25
260.314	244.25
260.547	245.25
260.779	226.25
261.012	231.25
261.244	210.25
261.477	199.25
261.71	203.25
261.942	221.25
262.175	225.25
262.407	225.25
262.64	204.25
262.872	222.25
263.105	206.25
263.337	204.25
263.57	206.25
263.802	205.25
264.035	227.25
264.267	225.25
264.499	212.25
264.732	221.25
264.964	239.25
265.197	222.25
265.429	221.25
265.661	226.25
265.894	229.25
266.126	223.25
266.358	205.25
266.591	225.25
266.823	237.25
267.055	231.25
267.287	229.25
267.52	241.25
267.752	225.25
267.984	248.25
268.216	213.25
268.448	235.25
268.681	232.25
268.913	252.25
269.145	263.25
269.377	269.25
269.609	258.25
269.841	263.25
270.073	274.25
270.306	274.25
270.538	282.25
270.77	297.25
271.002	285.25
271.234	294.25
271.466	295.25
271.698	297.25
271.93	283.25
272.162	301.25
272.394	302.25
272.626	295.25
272.858	272.25
273.09	275.25
273.322	271.25
273.553	266.25
273.785	264.25
274.017	271.25
274.249	268.25
274.481	279.25
274.713	278.25
274.945	272.25
275.176	278.25
275.408	269.25
275.64	271.25
275.872	271.25
276.104	267.25
276.335	292.25
276.567	282.25
276.799	297.25
277.031	286.25
277.262	305.25
277.494	306.25
277.726	298.25
277.957	266.25
278.189	276.25
278.421	273.25
278.652	281.25
278.884	262.25
279.115	256.25
279.347	286.25
279.579	309.25
279.81	290.25
280.042	288.25
280.273	271.25
280.505	277.25
280.736	283.25
280.968	276.25
281.199	287.25
281.431	263.25
281.662	275.25
281.894	280.25
282.125	289.25
282.356	290.25
282.588	289.25
282.819	285.25
283.051	268.25
283.282	293.25
283.513	300.25
283.745	298.25
283.976	283.25
284.207	285.25
284.439	302.25
284.67	314.25
284.901	303.25
285.132	295.25
285.364	291.25
285.595	298.25
285.826	302.25
286.057	310.25
286.288	302.25
286.52	298.25
286.751	294.25
286.982	298.25
287.213	307.25
287.444	297.25
287.675	299.25
287.906	318.25
288.138	305.25
288.369	317.25
288.6	305.25
288.831	311.25
289.062	337.25
289.293	315.25
289.524	309.25
289.755	310.25
289.986	334.25
290.217	309.25
290.448	320.25
290.679	299.25
290.91	299.25
291.141	292.25
291.371	329.25
291.602	298.25
291.833	309.25
292.064	317.25
292.295	301.25
292.526	311.25
292.757	295.25
292.987	302.25
293.218	315.25
293.449	326.25
293.68	308.25
293.91	299.25
294.141	315.25
294.372	332.25
294.603	303.25
294.833	329.25
295.064	330.25
295.295	322.25
295.525	315.25
295.756	323.25
295.987	317.25
296.217	317.25
296.448	331.25
296.679	310.25
296.909	313.25
297.14	321.25
297.37	342.25
297.601	312.25
297.831	337.25
298.062	313.25
298.292	340.25
298.523	350.25
298.753	314.25
298.984	347.25
299.214	322.25
299.445	353.25
299.675	319.25
299.905	335.25
300.136	350.25
300.366	348.25
300.597	340.25
300.827	340.25
301.057	334.25
301.288	363.25
301.518	341.25
301.748	336.25
301.979	365.25
302.209	359.25
302.439	358.25
302.669	353.25
302.9	366.25
303.13	371.25
303.36	350.25
303.59	355.25
303.82	361.25
304.051	365.25
304.281	333.25
304.511	355.25
304.741	356.25
304.971	365.25
305.201	344.25
305.431	361.25
305.661	351.25
305.891	366.25
306.121	347.25
306.352	363.25
306.582	357.25
306.812	333.25
307.042	365.25
307.272	358.25
307.502	354.25
307.731	375.25
307.961	365.25
308.191	338.25
308.421	356.25
308.651	374.25
308.881	340.25
309.111	359.25
309.341	342.25
309.571	378.25
309.8	364.25
310.03	369.25
310.26	369.25
310.49	370.25
310.72	388.25
310.949	371.25
311.179	385.25
311.409	366.25
311.639	374.25
311.868	387.25
312.098	380.25
312.328	381.25
312.557	381.25
312.787	389.25
313.017	385.25
313.246	377.25
313.476	391.25
313.706	381.25
313.935	376.25
314.165	394.25
314.394	389.25
314.624	393.25
314.853	397.25
315.083	388.25
315.312	396.25
315.542	395.25
315.771	364.25
316.001	383.25
316.23	408.25
316.46	379.25
316.689	395.25
316.919	389.25
317.148	406.25
317.377	389.25
317.607	395.25
317.836	400.25
318.065	391.25
318.295	371.25
318.524	393.25
318.753	387.25
318.983	375.25
319.212	379.25
319.441	408.25
319.67	387.25
319.9	381.25
320.129	405.25
320.358	398.25
320.587	395.25
320.816	405.25
321.046	370.25
321.275	422.25
321.504	387.25
321.733	393.25
321.962	394.25
322.191	406.25
322.42	418.25
322.649	436.25
322.878	418.25
323.108	415.25
323.337	456.25
323.566	448.25
323.795	476.25
324.024	474.25
324.253	566.25
324.482	723.25
324.71	1025.25
324.939	1385.25
325.168	1171.25
325.397	657.25
325.626	511.25
325.855	492.25
326.084	455.25
326.313	449.25
326.542	446.25
326.77	499.25
326.999	542.25
327.228	691.25
327.457	917.25
327.686	1047.25
327.914	757.25
328.143	552.25
328.372	507.25
328.6	474.25
328.829	479.25
329.058	498.25
329.287	489.25
329.515	488.25
329.744	469.25
329.972	469.25
330.201	447.25
330.43	491.25
330.658	509.25
330.887	519.25
331.115	512.25
331.344	465.25
331.572	478.25
331.801	475.25
332.03	456.25
332.258	440.25
332.486	468.25
332.715	480.25
332.943	424.25
333.172	465.25
333.4	471.25
333.629	478.25
333.857	492.25
334.085	508.25
334.314	497.25
334.542	523.25
334.771	513.25
334.999	501.25
335.227	495.25
335.455	484.25
335.684	473.25
335.912	474.25
336.14	458.25
336.369	440.25
336.597	468.25
336.825	454.25
337.053	466.25
337.281	469.25
337.51	429.25
337.738	459.25
337.966	452.25
338.194	450.25
338.422	450.25
338.65	453.25
338.878	449.25
339.106	438.25
339.334	451.25
339.562	441.25
339.79	426.25
340.018	446.25
340.246	428.25
340.474	442.25
340.702	441.25
340.93	443.25
341.158	412.25
341.386	442.25
341.614	444.25
341.842	438.25
342.07	415.25
342.298	413.25
342.526	420.25
342.754	417.25
342.981	415.25
343.209	419.25
343.437	427.25
343.665	427.25
343.893	460.25
344.12	457.25
344.348	470.25
344.576	464.25
344.804	452.25
345.031	434.25
345.259	450.25
345.487	414.25
345.714	427.25
345.942	435.25
346.17	420.25
346.397	406.25
346.625	415.25
346.853	412.25
347.08	408.25
347.308	402.25
347.535	420.25
347.763	421.25
347.99	422.25
348.218	391.25
348.445	415.25
348.673	409.25
348.9	402.25
349.128	417.25
349.355	391.25
349.583	411.25
349.81	405.25
350.037	404.25
350.265	393.25
350.492	421.25
350.72	399.25
350.947	395.25
351.174	427.25
351.402	392.25
351.629	416.25
351.856	416.25
352.083	413.25
352.311	422.25
352.538	419.25
352.765	419.25
352.992	402.25
353.22	406.25
353.447	387.25
353.674	418.25
353.901	380.25
354.128	396.25
354.355	389.25
354.583	383.25
354.81	381.25
355.037	408.25
355.264	406.25
355.491	378.25
355.718	388.25
355.945	383.25
356.172	389.25
356.399	383.25
356.626	383.25
356.853	393.25
357.08	369.25
357.307	375.25
357.534	395.25
357.761	404.25
357.988	387.25
358.215	381.25
358.441	379.25
358.668	366.25
358.895	395.25
359.122	399.25
359.349	396.25
359.576	407.25
359.802	411.25
360.029	437.25
360.256	421.25
360.483	421.25
360.709	389.25
360.936	390.25
361.163	382.25
361.39	404.25
361.616	395.25
361.843	391.25
362.07	383.25
362.296	387.25
362.523	401.25
362.749	392.25
362.976	391.25
363.203	404.25
363.429	383.25
363.656	400.25
363.882	394.25
364.109	392.25
364.335	380.25
364.562	383.25
364.788	371.25
365.015	384.25
365.241	380.25
365.468	371.25
365.694	380.25
365.92	389.25
366.147	385.25
366.373	388.25
366.599	385.25
366.826	375.25
367.052	354.25
367.278	379.25
367.505	387.25
367.731	371.25
367.957	381.25
368.184	400.25
368.41	372.25
368.636	402.25
368.862	371.25
369.089	379.25
369.315	391.25
369.541	369.25
369.767	369.25
369.993	376.25
370.219	378.25
370.445	365.25
370.672	385.25
370.898	367.25
371.124	358.25
371.35	388.25
371.576	377.25
371.802	381.25
372.028	396.25
372.254	406.25
372.48	373.25
372.706	373.25
372.932	387.25
373.158	400.25
373.384	395.25
373.61	393.25
373.835	396.25
374.061	392.25
374.287	397.25
374.513	389.25
374.739	411.25
374.965	402.25
375.191	411.25
375.416	424.25
375.642	385.25
375.868	398.25
376.094	388.25
376.319	388.25
376.545	360.25
376.771	383.25
376.997	370.25
377.222	402.25
377.448	375.25
377.674	364.25
377.899	385.25
378.125	397.25
378.35	389.25
378.576	374.25
378.802	362.25
379.027	381.25
379.253	388.25
379.478	389.25
379.704	377.25
379.929	393.25
380.155	399.25
380.38	378.25
380.606	373.25
380.831	380.25
381.057	373.25
381.282	364.25
381.507	379.25
381.733	370.25
381.958	385.25
382.184	383.25
382.409	351.25
382.634	405.25
382.86	389.25
383.085	417.25
383.31	398.25
383.535	429.25
383.761	384.25
383.986	395.25
384.211	422.25
384.436	409.25
384.662	425.25
384.887	392.25
385.112	411.25
385.337	414.25
385.562	424.25
385.787	403.25
386.013	422.25
386.238	430.25
386.463	428.25
386.688	436.25
386.913	435.25
387.138	425.25
387.363	426.25
387.588	396.25
387.813	438.25
388.038	415.25
388.263	420.25
388.488	422.25
388.713	418.25
388.938	402.25
389.163	421.25
389.387	398.25
389.612	413.25
389.837	414.25
390.062	395.25
390.287	443.25
390.512	415.25
390.736	421.25
390.961	437.25
391.186	413.25
391.411	425.25
391.636	403.25
391.86	457.25
392.085	443.25
392.31	438.25
392.534	451.25
392.759	426.25
392.984	435.25
393.208	433.25
393.433	436.25
393.658	416.25
393.882	431.25
394.107	411.25
394.331	417.25
394.556	421.25
394.78	412.25
395.005	416.25
395.229	418.25
395.454	445.25
395.678	426.25
395.903	449.25
396.127	453.25
396.352	450.25
396.576	432.25
396.801	417.25
397.025	425.25
397.249	434.25
397.474	446.25
397.698	448.25
397.922	464.25
398.147	438.25
398.371	461.25
398.595	477.25
398.82	467.25
399.044	481.25
399.268	494.25
399.492	526.25
399.717	553.25
399.941	585.25
400.165	566.25
400.389	569.25
400.613	508.25
400.837	491.25
401.062	486.25
401.286	485.25
401.51	471.25
401.734	450.25
401.958	464.25
402.182	452.25
402.406	481.25
402.63	482.25
402.854	466.25
403.078	491.25
403.302	486.25
403.526	470.25
403.75	468.25
403.974	512.25
404.198	487.25
404.422	484.25
404.645	510.25
404.869	501.25
405.093	526.25
405.317	539.25
405.541	595.25
405.765	514.25
405.988	502.25
406.212	518.25
406.436	517.25
406.66	525.25
406.883	531.25
407.107	555.25
407.331	559.25
407.555	618.25
407.778	580.25
408.002	555.25
408.226	521.25
408.449	532.25
408.673	523.25
408.896	541.25
409.12	561.25
409.344	557.25
409.567	493.25
409.791	502.25
410.014	487.25
410.238	481.25
410.461	476.25
410.685	496.25
410.908	473.25
411.132	527.25
411.355	526.25
411.578	500.25
411.802	489.25
412.025	485.25
412.249	493.25
412.472	482.25
412.695	533.25
412.919	494.25
413.142	488.25
413.365	483.25
413.589	512.25
413.812	469.25
414.035	463.25
414.258	475.25
414.482	471.25
414.705	429.25
414.928	467.25
415.151	439.25
415.374	469.25
415.597	459.25
415.821	457.25
416.044	460.25
416.267	450.25
416.49	443.25
416.713	458.25
416.936	430.25
417.159	460.25
417.382	441.25
417.605	461.25
417.828	451.25
418.051	474.25
418.274	462.25
418.497	467.25
418.72	449.25
418.943	458.25
419.166	477.25
419.389	487.25
419.611	469.25
419.834	488.25
420.057	480.25
420.28	479.25
420.503	455.25
420.726	472.25
420.948	471.25
421.171	481.25
421.394	498.25
421.617	465.25
421.839	465.25
422.062	471.25
422.285	475.25
422.507	501.25
422.73	558.25
422.953	553.25
423.175	494.25
423.398	470.25
423.621	483.25
423.843	468.25
424.066	492.25
424.288	472.25
424.511	497.25
424.733	551.25
424.956	571.25
425.178	561.25
425.401	575.25
425.623	604.25
425.846	508.25
426.068	468.25
426.291	469.25
426.513	490.25
426.735	473.25
426.958	509.25
427.18	573.25
427.402	651.25
427.625	694.25
427.847	611.25
428.069	533.25
428.292	495.25
428.514	489.25
428.736	459.25
428.958	445.25
429.181	433.25
429.403	445.25
429.625	459.25
429.847	485.25
430.069	505.25
430.292	484.25
430.514	440.25
430.736	447.25
430.958	441.25
431.18	434.25
431.402	425.25
431.624	432.25
431.846	438.25
432.068	413.25
432.29	437.25
432.512	419.25
432.734	414.25
432.956	398.25
433.178	430.25
433.4	410.25
433.622	436.25
433.844	398.25
434.066	420.25
434.287	417.25
434.509	435.25
434.731	446.25
434.953	437.25
435.175	461.25
435.397	478.25
435.618	469.25
435.84	505.25
436.062	550.25
436.284	636.25
436.505	497.25
436.727	478.25
436.949	459.25
437.17	439.25
437.392	443.25
437.614	443.25
437.835	460.25
438.057	519.25
438.278	596.25
438.5	588.25
438.721	645.25
438.943	611.25
439.165	508.25
439.386	467.25
439.608	468.25
439.829	461.25
440.05	474.25
440.272	494.25
440.493	478.25
440.715	433.25
440.936	419.25
441.158	428.25
441.379	438.25
441.6	453.25
441.822	470.25
442.043	488.25
442.264	561.25
442.486	563.25
442.707	507.25
442.928	482.25
443.149	458.25
443.371	489.25
443.592	544.25
443.813	583.25
444.034	629.25
444.255	528.25
444.476	500.25
444.698	486.25
444.919	475.25
445.14	605.25
445.361	530.25
445.582	488.25
445.803	516.25
446.024	593.25
446.245	590.25
446.466	565.25
446.687	490.25
446.908	444.25
447.129	449.25
447.35	449.25
447.571	426.25
447.792	423.25
448.013	437.25
448.234	444.25
448.455	458.25
448.675	564.25
448.896	643.25
449.117	557.25
449.338	497.25
449.559	570.25
449.779	667.25
450	532.25
450.221	437.25
450.442	408.25
450.662	401.25
450.883	413.25
451.104	417.25
451.324	401.25
451.545	398.25
451.766	385.25
451.986	385.25
452.207	374.25
452.428	391.25
452.648	392.25
452.869	385.25
453.089	395.25
453.31	409.25
453.53	385.25
453.751	391.25
453.971	369.25
454.192	398.25
454.412	372.25
454.633	391.25
454.853	387.25
455.073	375.25
455.294	388.25
455.514	434.25
455.734	415.25
455.955	377.25
456.175	380.25
456.395	362.25
456.616	371.25
456.836	372.25
457.056	395.25
457.276	375.25
457.497	359.25
457.717	365.25
457.937	377.25
458.157	382.25
458.377	385.25
458.598	389.25
458.818	439.25
459.038	457.25
459.258	476.25
459.478	420.25
459.698	415.25
459.918	417.25
460.138	422.25
460.358	435.25
460.578	411.25
460.798	441.25
461.018	434.25
461.238	445.25
461.458	446.25
461.678	457.25
461.898	438.25
462.118	437.25
462.338	449.25
462.558	479.25
462.777	449.25
462.997	477.25
463.217	471.25
463.437	473.25
463.657	503.25
463.876	462.25
464.096	463.25
464.316	455.25
464.536	483.25
464.755	462.25
464.975	469.25
465.195	476.25
465.414	490.25
465.634	437.25
465.854	431.25
466.073	412.25
466.293	433.25
466.512	394.25
466.732	378.25
466.951	388.25
467.171	406.25
467.391	420.25
467.61	407.25
467.829	401.25
468.049	402.25
468.268	382.25
468.488	382.25
468.707	394.25
468.927	392.25
469.146	387.25
469.365	369.25
469.585	399.25
469.804	401.25
470.023	413.25
470.243	403.25
470.462	414.25
470.681	391.25
470.901	423.25
471.12	431.25
471.339	421.25
471.558	404.25
471.777	426.25
471.997	410.25
472.216	427.25
472.435	435.25
472.654	406.25
472.873	399.25
473.092	393.25
473.311	395.25
473.53	398.25
473.749	398.25
473.968	434.25
474.187	491.25
474.406	493.25
474.625	442.25
474.844	400.25
475.063	405.25
475.282	406.25
475.501	420.25
475.72	399.25
475.939	389.25
476.158	404.25
476.377	407.25
476.596	413.25
476.814	407.25
477.033	426.25
477.252	434.25
477.471	445.25
477.69	445.25
477.908	442.25
478.127	454.25
478.346	448.25
478.564	443.25
478.783	422.25
479.002	449.25
479.22	469.25
479.439	467.25
479.658	475.25
479.876	473.25
480.095	481.25
480.313	510.25
480.532	515.25
480.751	483.25
480.969	467.25
481.188	529.25
481.406	530.25
481.624	502.25
481.843	477.25
482.061	448.25
482.28	464.25
482.498	481.25
482.717	464.25
482.935	466.25
483.153	463.25
483.372	458.25
483.59	477.25
483.808	455.25
484.027	448.25
484.245	460.25
484.463	450.25
484.681	478.25
484.9	443.25
485.118	467.25
485.336	489.25
485.554	456.25
485.772	490.25
485.99	477.25
486.209	467.25
486.427	480.25
486.645	481.25
486.863	498.25
487.081	508.25
487.299	498.25
487.517	493.25
487.735	508.25
487.953	509.25
488.171	471.25
488.389	494.25
488.607	491.25
488.825	486.25
489.043	486.25
489.261	499.25
489.479	495.25
489.696	489.25
489.914	508.25
490.132	510.25
490.35	524.25
490.568	484.25
490.786	521.25
491.003	505.25
491.221	514.25
491.439	525.25
491.657	533.25
491.874	540.25
492.092	545.25
492.31	551.25
492.527	548.25
492.745	530.25
492.963	571.25
493.18	541.25
493.398	558.25
493.615	545.25
493.833	565.25
494.05	569.25
494.268	556.25
494.485	568.25
494.703	552.25
494.92	570.25
495.138	565.25
495.355	563.25
495.573	567.25
495.79	551.25
496.008	566.25
496.225	553.25
496.442	579.25
496.66	569.25
496.877	578.25
497.094	547.25
497.312	595.25
497.529	614.25
497.746	600.25
497.963	605.25
498.181	625.25
498.398	655.25
498.615	656.25
498.832	673.25
499.049	673.25
499.267	700.25
499.484	746.25
499.701	750.25
499.918	807.25
500.135	840.25
500.352	890.25
500.569	888.25
500.786	856.25
501.003	870.25
501.22	859.25
501.437	827.25
501.654	749.25
501.871	737.25
502.088	729.25
