Data from 1964.PennyLincolnUp.Lamp.En5.5.200Scan.071719.P1._HRD10591_14-04-06-908.txt Node
Date: Thu Jul 18 14:04:06 EDT 2019
User: cochatt
Spectrometer: HR+D1059
Trigger mode: 1
Integration Time (sec): 1.000000E-1
Scans to average: 1
Electric dark correction enabled: true
Nonlinearity correction enabled: false
Boxcar width: 0
XAxis mode: Wavelengths
Number of Pixels in Spectrum: 2048
>>>>>Begin Spectral Data<<<<<
223.165	-9.88
223.4	-9.88
223.635	-9.88
223.869	-23.88
224.104	-20.88
224.338	-17.88
224.573	-29.88
224.808	-13.88
225.042	-6.88
225.277	-1.88
225.511	7.12
225.746	4.12
225.98	8.12
226.215	17.12
226.449	15.12
226.683	14.12
226.918	28.12
227.152	31.12
227.387	32.12
227.621	30.12
227.856	53.12
228.09	40.12
228.324	60.12
228.559	35.12
228.793	65.12
229.027	78.12
229.262	90.12
229.496	86.12
229.73	104.12
229.964	120.12
230.199	122.12
230.433	113.12
230.667	116.12
230.901	86.12
231.136	105.12
231.37	108.12
231.604	97.12
231.838	99.12
232.072	105.12
232.306	119.12
232.541	100.12
232.775	102.12
233.009	108.12
233.243	102.12
233.477	105.12
233.711	110.12
233.945	109.12
234.179	111.12
234.413	117.12
234.647	103.12
234.881	118.12
235.115	106.12
235.349	116.12
235.583	113.12
235.817	119.12
236.051	121.12
236.285	120.12
236.519	101.12
236.753	128.12
236.987	130.12
237.221	150.12
237.455	186.12
237.689	157.12
237.922	130.12
238.156	134.12
238.39	133.12
238.624	116.12
238.858	106.12
239.091	118.12
239.325	122.12
239.559	134.12
239.793	133.12
240.027	129.12
240.26	131.12
240.494	140.12
240.728	135.12
240.961	136.12
241.195	128.12
241.429	135.12
241.662	128.12
241.896	128.12
242.13	121.12
242.363	125.12
242.597	126.12
242.83	120.12
243.064	125.12
243.298	131.12
243.531	134.12
243.765	137.12
243.998	144.12
244.232	127.12
244.465	139.12
244.699	144.12
244.932	153.12
245.166	140.12
245.399	140.12
245.633	136.12
245.866	150.12
246.099	139.12
246.333	144.12
246.566	149.12
246.8	143.12
247.033	137.12
247.266	143.12
247.5	144.12
247.733	153.12
247.966	166.12
248.2	178.12
248.433	156.12
248.666	158.12
248.899	176.12
249.133	168.12
249.366	180.12
249.599	183.12
249.832	159.12
250.066	169.12
250.299	154.12
250.532	184.12
250.765	178.12
250.998	204.12
251.231	205.12
251.465	201.12
251.698	190.12
251.931	194.12
252.164	182.12
252.397	173.12
252.63	172.12
252.863	180.12
253.096	188.12
253.329	207.12
253.562	202.12
253.795	189.12
254.028	202.12
254.261	184.12
254.494	206.12
254.727	213.12
254.96	235.12
255.193	221.12
255.426	208.12
255.659	206.12
255.892	212.12
256.124	238.12
256.357	224.12
256.59	197.12
256.823	208.12
257.056	201.12
257.289	196.12
257.521	204.12
257.754	201.12
257.987	211.12
258.22	199.12
258.452	192.12
258.685	212.12
258.918	190.12
259.151	194.12
259.383	214.12
259.616	204.12
259.849	215.12
260.081	222.12
260.314	210.12
260.547	232.12
260.779	234.12
261.012	222.12
261.244	220.12
261.477	228.12
261.71	211.12
261.942	206.12
262.175	215.12
262.407	207.12
262.64	209.12
262.872	192.12
263.105	192.12
263.337	199.12
263.57	210.12
263.802	208.12
264.035	187.12
264.267	201.12
264.499	221.12
264.732	210.12
264.964	217.12
265.197	217.12
265.429	219.12
265.661	215.12
265.894	213.12
266.126	214.12
266.358	208.12
266.591	219.12
266.823	223.12
267.055	228.12
267.287	221.12
267.52	226.12
267.752	218.12
267.984	236.12
268.216	224.12
268.448	231.12
268.681	224.12
268.913	235.12
269.145	240.12
269.377	254.12
269.609	268.12
269.841	249.12
270.073	243.12
270.306	270.12
270.538	285.12
270.77	284.12
271.002	272.12
271.234	274.12
271.466	280.12
271.698	279.12
271.93	296.12
272.162	291.12
272.394	284.12
272.626	275.12
272.858	258.12
273.09	278.12
273.322	249.12
273.553	271.12
273.785	257.12
274.017	246.12
274.249	260.12
274.481	250.12
274.713	262.12
274.945	262.12
275.176	248.12
275.408	275.12
275.64	269.12
275.872	249.12
276.104	252.12
276.335	285.12
276.567	274.12
276.799	258.12
277.031	287.12
277.262	309.12
277.494	294.12
277.726	296.12
277.957	267.12
278.189	263.12
278.421	272.12
278.652	261.12
278.884	260.12
279.115	271.12
279.347	256.12
279.579	261.12
279.81	258.12
280.042	273.12
280.273	271.12
280.505	271.12
280.736	275.12
280.968	273.12
281.199	254.12
281.431	281.12
281.662	275.12
281.894	281.12
282.125	271.12
282.356	262.12
282.588	289.12
282.819	283.12
283.051	275.12
283.282	271.12
283.513	290.12
283.745	289.12
283.976	288.12
284.207	299.12
284.439	286.12
284.67	259.12
284.901	294.12
285.132	272.12
285.364	285.12
285.595	278.12
285.826	284.12
286.057	280.12
286.288	280.12
286.52	267.12
286.751	270.12
286.982	290.12
287.213	288.12
287.444	288.12
287.675	296.12
287.906	295.12
288.138	285.12
288.369	326.12
288.6	304.12
288.831	298.12
289.062	316.12
289.293	310.12
289.524	283.12
289.755	287.12
289.986	286.12
290.217	292.12
290.448	297.12
290.679	294.12
290.91	296.12
291.141	311.12
291.371	307.12
291.602	301.12
291.833	294.12
292.064	296.12
292.295	295.12
292.526	284.12
292.757	308.12
292.987	294.12
293.218	306.12
293.449	304.12
293.68	307.12
293.91	301.12
294.141	282.12
294.372	281.12
294.603	284.12
294.833	309.12
295.064	303.12
295.295	307.12
295.525	283.12
295.756	292.12
295.987	301.12
296.217	311.12
296.448	308.12
296.679	302.12
296.909	310.12
297.14	311.12
297.37	311.12
297.601	311.12
297.831	282.12
298.062	299.12
298.292	312.12
298.523	306.12
298.753	319.12
298.984	322.12
299.214	308.12
299.445	296.12
299.675	312.12
299.905	316.12
300.136	336.12
300.366	324.12
300.597	321.12
300.827	317.12
301.057	314.12
301.288	334.12
301.518	321.12
301.748	319.12
301.979	323.12
302.209	317.12
302.439	315.12
302.669	341.12
302.9	333.12
303.13	347.12
303.36	329.12
303.59	326.12
303.82	359.12
304.051	330.12
304.281	345.12
304.511	337.12
304.741	329.12
304.971	330.12
305.201	340.12
305.431	338.12
305.661	325.12
305.891	333.12
306.121	350.12
306.352	337.12
306.582	331.12
306.812	335.12
307.042	349.12
307.272	334.12
307.502	332.12
307.731	334.12
307.961	351.12
308.191	333.12
308.421	317.12
308.651	329.12
308.881	336.12
309.111	348.12
309.341	352.12
309.571	381.12
309.8	362.12
310.03	365.12
310.26	353.12
310.49	370.12
310.72	355.12
310.949	364.12
311.179	363.12
311.409	373.12
311.639	360.12
311.868	372.12
312.098	367.12
312.328	362.12
312.557	359.12
312.787	356.12
313.017	380.12
313.246	364.12
313.476	366.12
313.706	372.12
313.935	376.12
314.165	381.12
314.394	357.12
314.624	370.12
314.853	375.12
315.083	366.12
315.312	359.12
315.542	354.12
315.771	367.12
316.001	372.12
316.23	376.12
316.46	362.12
316.689	364.12
316.919	360.12
317.148	367.12
317.377	370.12
317.607	374.12
317.836	384.12
318.065	361.12
318.295	370.12
318.524	387.12
318.753	367.12
318.983	390.12
319.212	379.12
319.441	368.12
319.67	381.12
319.9	380.12
320.129	356.12
320.358	381.12
320.587	399.12
320.816	377.12
321.046	376.12
321.275	375.12
321.504	379.12
321.733	368.12
321.962	370.12
322.191	396.12
322.42	399.12
322.649	398.12
322.878	414.12
323.108	393.12
323.337	422.12
323.566	448.12
323.795	454.12
324.024	463.12
324.253	527.12
324.482	709.12
324.71	991.12
324.939	1340.12
325.168	1116.12
325.397	635.12
325.626	476.12
325.855	440.12
326.084	409.12
326.313	446.12
326.542	436.12
326.77	464.12
326.999	516.12
327.228	649.12
327.457	914.12
327.686	1020.12
327.914	715.12
328.143	532.12
328.372	487.12
328.6	463.12
328.829	469.12
329.058	450.12
329.287	461.12
329.515	459.12
329.744	445.12
329.972	429.12
330.201	431.12
330.43	486.12
330.658	470.12
330.887	507.12
331.115	486.12
331.344	447.12
331.572	455.12
331.801	458.12
332.03	456.12
332.258	434.12
332.486	432.12
332.715	438.12
332.943	434.12
333.172	439.12
333.4	447.12
333.629	457.12
333.857	465.12
334.085	478.12
334.314	465.12
334.542	516.12
334.771	487.12
334.999	479.12
335.227	464.12
335.455	436.12
335.684	457.12
335.912	429.12
336.14	413.12
336.369	434.12
336.597	448.12
336.825	426.12
337.053	442.12
337.281	425.12
337.51	436.12
337.738	444.12
337.966	431.12
338.194	433.12
338.422	434.12
338.65	396.12
338.878	399.12
339.106	408.12
339.334	430.12
339.562	419.12
339.79	415.12
340.018	413.12
340.246	411.12
340.474	428.12
340.702	405.12
340.93	430.12
341.158	417.12
341.386	413.12
341.614	411.12
341.842	406.12
342.07	394.12
342.298	397.12
342.526	398.12
342.754	395.12
342.981	395.12
343.209	387.12
343.437	395.12
343.665	407.12
343.893	430.12
344.12	435.12
344.348	427.12
344.576	436.12
344.804	436.12
345.031	423.12
345.259	422.12
345.487	414.12
345.714	406.12
345.942	407.12
346.17	395.12
346.397	394.12
346.625	387.12
346.853	415.12
347.08	367.12
347.308	381.12
347.535	402.12
347.763	416.12
347.99	397.12
348.218	387.12
348.445	390.12
348.673	377.12
348.9	398.12
349.128	381.12
349.355	386.12
349.583	380.12
349.81	386.12
350.037	386.12
350.265	377.12
350.492	393.12
350.72	377.12
350.947	372.12
351.174	396.12
351.402	378.12
351.629	392.12
351.856	371.12
352.083	392.12
352.311	385.12
352.538	367.12
352.765	398.12
352.992	378.12
353.22	362.12
353.447	363.12
353.674	378.12
353.901	395.12
354.128	374.12
354.355	377.12
354.583	372.12
354.81	374.12
355.037	364.12
355.264	384.12
355.491	354.12
355.718	378.12
355.945	383.12
356.172	379.12
356.399	365.12
356.626	342.12
356.853	389.12
357.08	380.12
357.307	367.12
357.534	361.12
357.761	363.12
357.988	376.12
358.215	386.12
358.441	370.12
358.668	365.12
358.895	380.12
359.122	365.12
359.349	376.12
359.576	374.12
359.802	377.12
360.029	388.12
360.256	384.12
360.483	386.12
360.709	380.12
360.936	366.12
361.163	386.12
361.39	380.12
361.616	379.12
361.843	372.12
362.07	378.12
362.296	402.12
362.523	376.12
362.749	394.12
362.976	367.12
363.203	356.12
363.429	360.12
363.656	365.12
363.882	354.12
364.109	373.12
364.335	381.12
364.562	383.12
364.788	376.12
365.015	373.12
365.241	382.12
365.468	378.12
365.694	372.12
365.92	360.12
366.147	378.12
366.373	356.12
366.599	370.12
366.826	360.12
367.052	350.12
367.278	352.12
367.505	359.12
367.731	364.12
367.957	362.12
368.184	342.12
368.41	367.12
368.636	376.12
368.862	385.12
369.089	372.12
369.315	370.12
369.541	348.12
369.767	377.12
369.993	367.12
370.219	364.12
370.445	383.12
370.672	376.12
370.898	366.12
371.124	374.12
371.35	359.12
371.576	374.12
371.802	372.12
372.028	364.12
372.254	358.12
372.48	369.12
372.706	346.12
372.932	356.12
373.158	364.12
373.384	374.12
373.61	352.12
373.835	358.12
374.061	349.12
374.287	370.12
374.513	375.12
374.739	383.12
374.965	396.12
375.191	375.12
375.416	382.12
375.642	370.12
375.868	384.12
376.094	374.12
376.319	371.12
376.545	374.12
376.771	359.12
376.997	363.12
377.222	352.12
377.448	357.12
377.674	366.12
377.899	363.12
378.125	348.12
378.35	359.12
378.576	375.12
378.802	363.12
379.027	366.12
379.253	349.12
379.478	378.12
379.704	364.12
379.929	357.12
380.155	362.12
380.38	340.12
380.606	372.12
380.831	361.12
381.057	374.12
381.282	374.12
381.507	365.12
381.733	375.12
381.958	373.12
382.184	376.12
382.409	364.12
382.634	380.12
382.86	375.12
383.085	365.12
383.31	376.12
383.535	358.12
383.761	376.12
383.986	378.12
384.211	376.12
384.436	390.12
384.662	395.12
384.887	394.12
385.112	389.12
385.337	397.12
385.562	401.12
385.787	409.12
386.013	407.12
386.238	400.12
386.463	403.12
386.688	422.12
386.913	389.12
387.138	388.12
387.363	388.12
387.588	380.12
387.813	409.12
388.038	387.12
388.263	375.12
388.488	404.12
388.713	382.12
388.938	413.12
389.163	406.12
389.387	389.12
389.612	380.12
389.837	396.12
390.062	389.12
390.287	395.12
390.512	401.12
390.736	390.12
390.961	402.12
391.186	378.12
391.411	397.12
391.636	421.12
391.86	416.12
392.085	435.12
392.31	424.12
392.534	412.12
392.759	420.12
392.984	420.12
393.208	406.12
393.433	405.12
393.658	395.12
393.882	395.12
394.107	404.12
394.331	396.12
394.556	384.12
394.78	414.12
395.005	397.12
395.229	395.12
395.454	421.12
395.678	418.12
395.903	419.12
396.127	430.12
396.352	414.12
396.576	424.12
396.801	417.12
397.025	391.12
397.249	409.12
397.474	417.12
397.698	414.12
397.922	431.12
398.147	441.12
398.371	440.12
398.595	434.12
398.82	454.12
399.044	463.12
399.268	467.12
399.492	526.12
399.717	538.12
399.941	524.12
400.165	540.12
400.389	554.12
400.613	502.12
400.837	463.12
401.062	470.12
401.286	444.12
401.51	456.12
401.734	451.12
401.958	440.12
402.182	456.12
402.406	458.12
402.63	436.12
402.854	470.12
403.078	441.12
403.302	458.12
403.526	468.12
403.75	468.12
403.974	468.12
404.198	470.12
404.422	486.12
404.645	467.12
404.869	470.12
405.093	492.12
405.317	527.12
405.541	542.12
405.765	513.12
405.988	476.12
406.212	477.12
406.436	484.12
406.66	495.12
406.883	506.12
407.107	503.12
407.331	536.12
407.555	590.12
407.778	581.12
408.002	533.12
408.226	509.12
408.449	487.12
408.673	494.12
408.896	510.12
409.12	526.12
409.344	503.12
409.567	471.12
409.791	475.12
410.014	471.12
410.238	479.12
410.461	462.12
410.685	450.12
410.908	470.12
411.132	496.12
411.355	475.12
411.578	493.12
411.802	454.12
412.025	448.12
412.249	460.12
412.472	468.12
412.695	502.12
412.919	509.12
413.142	475.12
413.365	466.12
413.589	456.12
413.812	435.12
414.035	443.12
414.258	425.12
414.482	430.12
414.705	443.12
414.928	406.12
415.151	413.12
415.374	404.12
415.597	413.12
415.821	410.12
416.044	427.12
416.267	435.12
416.49	432.12
416.713	422.12
416.936	421.12
417.159	443.12
417.382	432.12
417.605	440.12
417.828	454.12
418.051	434.12
418.274	455.12
418.497	419.12
418.72	426.12
418.943	412.12
419.166	436.12
419.389	461.12
419.611	464.12
419.834	470.12
420.057	460.12
420.28	446.12
420.503	464.12
420.726	437.12
420.948	446.12
421.171	463.12
421.394	475.12
421.617	444.12
421.839	426.12
422.062	428.12
422.285	435.12
422.507	488.12
422.73	501.12
422.953	520.12
423.175	474.12
423.398	448.12
423.621	449.12
423.843	472.12
424.066	460.12
424.288	455.12
424.511	474.12
424.733	506.12
424.956	565.12
425.178	529.12
425.401	528.12
425.623	530.12
425.846	465.12
426.068	443.12
426.291	456.12
426.513	478.12
426.735	462.12
426.958	477.12
427.18	525.12
427.402	610.12
427.625	638.12
427.847	559.12
428.069	501.12
428.292	457.12
428.514	442.12
428.736	430.12
428.958	427.12
429.181	434.12
429.403	392.12
429.625	415.12
429.847	442.12
430.069	477.12
430.292	470.12
430.514	408.12
430.736	419.12
430.958	408.12
431.18	408.12
431.402	424.12
431.624	389.12
431.846	393.12
432.068	391.12
432.29	423.12
432.512	400.12
432.734	405.12
432.956	393.12
433.178	405.12
433.4	417.12
433.622	416.12
433.844	400.12
434.066	386.12
434.287	410.12
434.509	406.12
434.731	393.12
434.953	416.12
435.175	452.12
435.397	434.12
435.618	451.12
435.84	450.12
436.062	519.12
436.284	589.12
436.505	490.12
436.727	463.12
436.949	437.12
437.17	424.12
437.392	422.12
437.614	413.12
437.835	450.12
438.057	477.12
438.278	591.12
438.5	595.12
438.721	617.12
438.943	596.12
439.165	472.12
439.386	431.12
439.608	432.12
439.829	430.12
440.05	469.12
440.272	491.12
440.493	455.12
440.715	418.12
440.936	420.12
441.158	414.12
441.379	422.12
441.6	430.12
441.822	420.12
442.043	466.12
442.264	531.12
442.486	541.12
442.707	476.12
442.928	456.12
443.149	444.12
443.371	464.12
443.592	511.12
443.813	562.12
444.034	600.12
444.255	517.12
444.476	465.12
444.698	469.12
444.919	468.12
445.14	565.12
445.361	513.12
445.582	477.12
445.803	516.12
446.024	586.12
446.245	574.12
446.466	541.12
446.687	457.12
446.908	445.12
447.129	429.12
447.35	420.12
447.571	422.12
447.792	398.12
448.013	394.12
448.234	409.12
448.455	454.12
448.675	518.12
448.896	592.12
449.117	516.12
449.338	492.12
449.559	576.12
449.779	612.12
450	488.12
450.221	431.12
450.442	402.12
450.662	379.12
450.883	385.12
451.104	405.12
451.324	404.12
451.545	379.12
451.766	361.12
451.986	360.12
452.207	369.12
452.428	382.12
452.648	348.12
452.869	370.12
453.089	358.12
453.31	378.12
453.53	378.12
453.751	351.12
453.971	357.12
454.192	360.12
454.412	367.12
454.633	365.12
454.853	366.12
455.073	364.12
455.294	376.12
455.514	418.12
455.734	408.12
455.955	374.12
456.175	372.12
456.395	333.12
456.616	336.12
456.836	367.12
457.056	346.12
457.276	357.12
457.497	365.12
457.717	366.12
457.937	355.12
458.157	374.12
458.377	353.12
458.598	366.12
458.818	419.12
459.038	460.12
459.258	475.12
459.478	428.12
459.698	393.12
459.918	412.12
460.138	406.12
460.358	408.12
460.578	412.12
460.798	412.12
461.018	424.12
461.238	422.12
461.458	400.12
461.678	409.12
461.898	405.12
462.118	420.12
462.338	421.12
462.558	444.12
462.777	432.12
462.997	461.12
463.217	475.12
463.437	454.12
463.657	459.12
463.876	432.12
464.096	439.12
464.316	434.12
464.536	465.12
464.755	449.12
464.975	397.12
465.195	440.12
465.414	451.12
465.634	424.12
465.854	415.12
466.073	410.12
466.293	383.12
466.512	395.12
466.732	391.12
466.951	389.12
467.171	377.12
467.391	356.12
467.61	378.12
467.829	391.12
468.049	396.12
468.268	374.12
468.488	370.12
468.707	382.12
468.927	391.12
469.146	375.12
469.365	369.12
469.585	372.12
469.804	383.12
470.023	400.12
470.243	379.12
470.462	390.12
470.681	404.12
470.901	400.12
471.12	374.12
471.339	379.12
471.558	382.12
471.777	394.12
471.997	374.12
472.216	393.12
472.435	390.12
472.654	371.12
472.873	373.12
473.092	375.12
473.311	363.12
473.53	381.12
473.749	399.12
473.968	415.12
474.187	462.12
474.406	494.12
474.625	404.12
474.844	404.12
475.063	382.12
475.282	382.12
475.501	396.12
475.72	385.12
475.939	390.12
476.158	380.12
476.377	393.12
476.596	395.12
476.814	383.12
477.033	404.12
477.252	412.12
477.471	394.12
477.69	421.12
477.908	421.12
478.127	428.12
478.346	416.12
478.564	431.12
478.783	422.12
479.002	415.12
479.22	432.12
479.439	439.12
479.658	450.12
479.876	455.12
480.095	470.12
480.313	483.12
480.532	472.12
480.751	444.12
480.969	457.12
481.188	481.12
481.406	521.12
481.624	475.12
481.843	463.12
482.061	452.12
482.28	439.12
482.498	430.12
482.717	434.12
482.935	422.12
483.153	442.12
483.372	438.12
483.59	428.12
483.808	446.12
484.027	423.12
484.245	429.12
484.463	449.12
484.681	461.12
484.9	447.12
485.118	451.12
485.336	443.12
485.554	460.12
485.772	462.12
485.99	460.12
486.209	452.12
486.427	461.12
486.645	476.12
486.863	464.12
487.081	459.12
487.299	448.12
487.517	446.12
487.735	436.12
487.953	452.12
488.171	476.12
488.389	461.12
488.607	480.12
488.825	453.12
489.043	468.12
489.261	487.12
489.479	484.12
489.696	454.12
489.914	471.12
490.132	500.12
490.35	469.12
490.568	475.12
490.786	495.12
491.003	481.12
491.221	498.12
491.439	513.12
491.657	481.12
491.874	505.12
492.092	507.12
492.31	525.12
492.527	493.12
492.745	543.12
492.963	535.12
493.18	539.12
493.398	533.12
493.615	528.12
493.833	531.12
494.05	523.12
494.268	522.12
494.485	539.12
494.703	522.12
494.92	543.12
495.138	541.12
495.355	521.12
495.573	543.12
495.79	532.12
496.008	542.12
496.225	551.12
496.442	535.12
496.66	539.12
496.877	560.12
497.094	566.12
497.312	541.12
497.529	568.12
497.746	570.12
497.963	583.12
498.181	582.12
498.398	589.12
498.615	605.12
498.832	626.12
499.049	636.12
499.267	664.12
499.484	672.12
499.701	701.12
499.918	754.12
500.135	788.12
500.352	819.12
500.569	830.12
500.786	856.12
501.003	834.12
501.22	798.12
501.437	773.12
501.654	733.12
501.871	724.12
502.088	684.12
