Data from 1964.PennyLincolnUp.Lamp.En5.5.200Scan.071719.P1._HRD10591_14-06-25-911.txt Node
Date: Thu Jul 18 14:06:25 EDT 2019
User: cochatt
Spectrometer: HR+D1059
Trigger mode: 1
Integration Time (sec): 1.000000E-1
Scans to average: 1
Electric dark correction enabled: true
Nonlinearity correction enabled: false
Boxcar width: 0
XAxis mode: Wavelengths
Number of Pixels in Spectrum: 2048
>>>>>Begin Spectral Data<<<<<
223.165	-21.81
223.4	-21.81
223.635	-21.81
223.869	-15.81
224.104	-18.81
224.338	-13.81
224.573	-17.81
224.808	-3.81
225.042	3.19
225.277	9.19
225.511	-3.81
225.746	-7.81
225.98	8.19
226.215	-0.81
226.449	18.19
226.683	11.19
226.918	31.19
227.152	23.19
227.387	28.19
227.621	29.19
227.856	40.19
228.09	45.19
228.324	41.19
228.559	56.19
228.793	61.19
229.027	92.19
229.262	115.19
229.496	115.19
229.73	113.19
229.964	142.19
230.199	117.19
230.433	104.19
230.667	106.19
230.901	96.19
231.136	101.19
231.37	116.19
231.604	119.19
231.838	118.19
232.072	118.19
232.306	118.19
232.541	105.19
232.775	110.19
233.009	118.19
233.243	120.19
233.477	121.19
233.711	119.19
233.945	103.19
234.179	120.19
234.413	110.19
234.647	115.19
234.881	113.19
235.115	118.19
235.349	104.19
235.583	119.19
235.817	121.19
236.051	113.19
236.285	115.19
236.519	124.19
236.753	133.19
236.987	133.19
237.221	148.19
237.455	200.19
237.689	166.19
237.922	145.19
238.156	127.19
238.39	123.19
238.624	123.19
238.858	135.19
239.091	128.19
239.325	117.19
239.559	115.19
239.793	123.19
240.027	129.19
240.26	139.19
240.494	148.19
240.728	129.19
240.961	140.19
241.195	153.19
241.429	140.19
241.662	135.19
241.896	145.19
242.13	143.19
242.363	129.19
242.597	146.19
242.83	153.19
243.064	141.19
243.298	139.19
243.531	119.19
243.765	147.19
243.998	139.19
244.232	145.19
244.465	157.19
244.699	155.19
244.932	147.19
245.166	143.19
245.399	159.19
245.633	145.19
245.866	152.19
246.099	145.19
246.333	151.19
246.566	165.19
246.8	152.19
247.033	137.19
247.266	146.19
247.5	167.19
247.733	167.19
247.966	176.19
248.2	169.19
248.433	177.19
248.666	181.19
248.899	181.19
249.133	185.19
249.366	221.19
249.599	196.19
249.832	188.19
250.066	178.19
250.299	186.19
250.532	195.19
250.765	220.19
250.998	224.19
251.231	199.19
251.465	227.19
251.698	196.19
251.931	214.19
252.164	206.19
252.397	205.19
252.63	198.19
252.863	209.19
253.096	233.19
253.329	218.19
253.562	220.19
253.795	214.19
254.028	209.19
254.261	210.19
254.494	230.19
254.727	271.19
254.96	271.19
255.193	265.19
255.426	239.19
255.659	244.19
255.892	234.19
256.124	225.19
256.357	234.19
256.59	241.19
256.823	225.19
257.056	218.19
257.289	215.19
257.521	203.19
257.754	232.19
257.987	222.19
258.22	211.19
258.452	191.19
258.685	213.19
258.918	212.19
259.151	219.19
259.383	235.19
259.616	220.19
259.849	228.19
260.081	238.19
260.314	239.19
260.547	261.19
260.779	258.19
261.012	241.19
261.244	231.19
261.477	233.19
261.71	231.19
261.942	224.19
262.175	221.19
262.407	228.19
262.64	223.19
262.872	225.19
263.105	235.19
263.337	219.19
263.57	217.19
263.802	239.19
264.035	211.19
264.267	216.19
264.499	226.19
264.732	210.19
264.964	216.19
265.197	205.19
265.429	226.19
265.661	228.19
265.894	231.19
266.126	219.19
266.358	241.19
266.591	240.19
266.823	228.19
267.055	249.19
267.287	234.19
267.52	242.19
267.752	236.19
267.984	262.19
268.216	238.19
268.448	238.19
268.681	259.19
268.913	283.19
269.145	277.19
269.377	285.19
269.609	289.19
269.841	280.19
270.073	294.19
270.306	304.19
270.538	330.19
270.77	326.19
271.002	308.19
271.234	317.19
271.466	314.19
271.698	329.19
271.93	325.19
272.162	335.19
272.394	301.19
272.626	310.19
272.858	295.19
273.09	303.19
273.322	295.19
273.553	284.19
273.785	284.19
274.017	280.19
274.249	284.19
274.481	271.19
274.713	294.19
274.945	292.19
275.176	292.19
275.408	288.19
275.64	300.19
275.872	283.19
276.104	286.19
276.335	303.19
276.567	304.19
276.799	297.19
277.031	317.19
277.262	343.19
277.494	341.19
277.726	340.19
277.957	317.19
278.189	321.19
278.421	293.19
278.652	297.19
278.884	313.19
279.115	303.19
279.347	305.19
279.579	313.19
279.81	302.19
280.042	306.19
280.273	288.19
280.505	292.19
280.736	286.19
280.968	297.19
281.199	309.19
281.431	279.19
281.662	282.19
281.894	293.19
282.125	288.19
282.356	301.19
282.588	341.19
282.819	331.19
283.051	287.19
283.282	297.19
283.513	295.19
283.745	304.19
283.976	305.19
284.207	314.19
284.439	311.19
284.67	311.19
284.901	313.19
285.132	301.19
285.364	282.19
285.595	291.19
285.826	318.19
286.057	319.19
286.288	324.19
286.52	321.19
286.751	305.19
286.982	309.19
287.213	328.19
287.444	333.19
287.675	333.19
287.906	329.19
288.138	341.19
288.369	342.19
288.6	317.19
288.831	345.19
289.062	334.19
289.293	339.19
289.524	317.19
289.755	310.19
289.986	326.19
290.217	320.19
290.448	328.19
290.679	311.19
290.91	312.19
291.141	322.19
291.371	337.19
291.602	328.19
291.833	336.19
292.064	329.19
292.295	341.19
292.526	323.19
292.757	339.19
292.987	314.19
293.218	320.19
293.449	342.19
293.68	311.19
293.91	322.19
294.141	305.19
294.372	323.19
294.603	324.19
294.833	325.19
295.064	307.19
295.295	338.19
295.525	334.19
295.756	343.19
295.987	344.19
296.217	324.19
296.448	335.19
296.679	341.19
296.909	337.19
297.14	360.19
297.37	330.19
297.601	345.19
297.831	346.19
298.062	345.19
298.292	340.19
298.523	349.19
298.753	348.19
298.984	323.19
299.214	334.19
299.445	333.19
299.675	338.19
299.905	353.19
300.136	354.19
300.366	331.19
300.597	361.19
300.827	359.19
301.057	361.19
301.288	371.19
301.518	369.19
301.748	354.19
301.979	354.19
302.209	380.19
302.439	373.19
302.669	370.19
302.9	355.19
303.13	365.19
303.36	359.19
303.59	371.19
303.82	393.19
304.051	385.19
304.281	380.19
304.511	363.19
304.741	365.19
304.971	359.19
305.201	365.19
305.431	365.19
305.661	384.19
305.891	378.19
306.121	381.19
306.352	365.19
306.582	373.19
306.812	350.19
307.042	368.19
307.272	373.19
307.502	386.19
307.731	359.19
307.961	377.19
308.191	393.19
308.421	390.19
308.651	370.19
308.881	387.19
309.111	380.19
309.341	385.19
309.571	381.19
309.8	383.19
310.03	384.19
310.26	410.19
310.49	409.19
310.72	425.19
310.949	430.19
311.179	432.19
311.409	396.19
311.639	395.19
311.868	398.19
312.098	415.19
312.328	403.19
312.557	424.19
312.787	421.19
313.017	427.19
313.246	429.19
313.476	408.19
313.706	404.19
313.935	424.19
314.165	414.19
314.394	422.19
314.624	416.19
314.853	403.19
315.083	411.19
315.312	411.19
315.542	415.19
315.771	393.19
316.001	415.19
316.23	422.19
316.46	393.19
316.689	407.19
316.919	416.19
317.148	429.19
317.377	434.19
317.607	444.19
317.836	414.19
318.065	415.19
318.295	413.19
318.524	421.19
318.753	419.19
318.983	417.19
319.212	408.19
319.441	416.19
319.67	424.19
319.9	410.19
320.129	426.19
320.358	429.19
320.587	409.19
320.816	424.19
321.046	426.19
321.275	420.19
321.504	429.19
321.733	433.19
321.962	441.19
322.191	443.19
322.42	441.19
322.649	469.19
322.878	473.19
323.108	449.19
323.337	473.19
323.566	485.19
323.795	514.19
324.024	530.19
324.253	639.19
324.482	887.19
324.71	1317.19
324.939	1814.19
325.168	1481.19
325.397	807.19
325.626	588.19
325.855	538.19
326.084	499.19
326.313	486.19
326.542	487.19
326.77	549.19
326.999	622.19
327.228	823.19
327.457	1141.19
327.686	1339.19
327.914	900.19
328.143	633.19
328.372	571.19
328.6	575.19
328.829	551.19
329.058	553.19
329.287	557.19
329.515	519.19
329.744	522.19
329.972	514.19
330.201	546.19
330.43	583.19
330.658	573.19
330.887	584.19
331.115	575.19
331.344	527.19
331.572	498.19
331.801	503.19
332.03	514.19
332.258	482.19
332.486	490.19
332.715	472.19
332.943	493.19
333.172	495.19
333.4	509.19
333.629	508.19
333.857	531.19
334.085	553.19
334.314	550.19
334.542	552.19
334.771	591.19
334.999	547.19
335.227	510.19
335.455	513.19
335.684	494.19
335.912	480.19
336.14	481.19
336.369	479.19
336.597	491.19
336.825	490.19
337.053	481.19
337.281	482.19
337.51	456.19
337.738	501.19
337.966	489.19
338.194	486.19
338.422	481.19
338.65	460.19
338.878	486.19
339.106	462.19
339.334	501.19
339.562	469.19
339.79	458.19
340.018	469.19
340.246	458.19
340.474	450.19
340.702	487.19
340.93	465.19
341.158	435.19
341.386	459.19
341.614	457.19
341.842	453.19
342.07	454.19
342.298	458.19
342.526	454.19
342.754	446.19
342.981	438.19
343.209	439.19
343.437	466.19
343.665	466.19
343.893	469.19
344.12	499.19
344.348	482.19
344.576	494.19
344.804	463.19
345.031	478.19
345.259	461.19
345.487	451.19
345.714	462.19
345.942	458.19
346.17	437.19
346.397	449.19
346.625	471.19
346.853	434.19
347.08	441.19
347.308	450.19
347.535	435.19
347.763	448.19
347.99	433.19
348.218	450.19
348.445	432.19
348.673	449.19
348.9	428.19
349.128	421.19
349.355	431.19
349.583	419.19
349.81	413.19
350.037	420.19
350.265	419.19
350.492	411.19
350.72	413.19
350.947	395.19
351.174	410.19
351.402	424.19
351.629	422.19
351.856	449.19
352.083	408.19
352.311	445.19
352.538	432.19
352.765	433.19
352.992	422.19
353.22	425.19
353.447	423.19
353.674	422.19
353.901	417.19
354.128	411.19
354.355	409.19
354.583	409.19
354.81	389.19
355.037	391.19
355.264	427.19
355.491	403.19
355.718	392.19
355.945	401.19
356.172	379.19
356.399	401.19
356.626	397.19
356.853	395.19
357.08	413.19
357.307	421.19
357.534	401.19
357.761	379.19
357.988	399.19
358.215	417.19
358.441	406.19
358.668	402.19
358.895	386.19
359.122	393.19
359.349	415.19
359.576	419.19
359.802	416.19
360.029	464.19
360.256	441.19
360.483	435.19
360.709	421.19
360.936	420.19
361.163	419.19
361.39	417.19
361.616	429.19
361.843	439.19
362.07	397.19
362.296	426.19
362.523	406.19
362.749	402.19
362.976	422.19
363.203	414.19
363.429	400.19
363.656	403.19
363.882	408.19
364.109	405.19
364.335	418.19
364.562	377.19
364.788	395.19
365.015	413.19
365.241	398.19
365.468	383.19
365.694	383.19
365.92	406.19
366.147	397.19
366.373	423.19
366.599	407.19
366.826	404.19
367.052	384.19
367.278	400.19
367.505	393.19
367.731	409.19
367.957	401.19
368.184	405.19
368.41	408.19
368.636	418.19
368.862	425.19
369.089	418.19
369.315	410.19
369.541	397.19
369.767	416.19
369.993	400.19
370.219	393.19
370.445	405.19
370.672	401.19
370.898	408.19
371.124	402.19
371.35	413.19
371.576	391.19
371.802	410.19
372.028	405.19
372.254	381.19
372.48	386.19
372.706	409.19
372.932	416.19
373.158	416.19
373.384	431.19
373.61	407.19
373.835	412.19
374.061	409.19
374.287	420.19
374.513	418.19
374.739	406.19
374.965	415.19
375.191	403.19
375.416	436.19
375.642	421.19
375.868	414.19
376.094	405.19
376.319	391.19
376.545	383.19
376.771	403.19
376.997	399.19
377.222	396.19
377.448	389.19
377.674	395.19
377.899	395.19
378.125	394.19
378.35	389.19
378.576	378.19
378.802	389.19
379.027	401.19
379.253	414.19
379.478	387.19
379.704	378.19
379.929	375.19
380.155	375.19
380.38	396.19
380.606	393.19
380.831	379.19
381.057	395.19
381.282	388.19
381.507	396.19
381.733	389.19
381.958	388.19
382.184	399.19
382.409	409.19
382.634	410.19
382.86	424.19
383.085	407.19
383.31	406.19
383.535	449.19
383.761	429.19
383.986	428.19
384.211	409.19
384.436	408.19
384.662	414.19
384.887	439.19
385.112	436.19
385.337	415.19
385.562	434.19
385.787	419.19
386.013	442.19
386.238	442.19
386.463	421.19
386.688	438.19
386.913	424.19
387.138	409.19
387.363	422.19
387.588	449.19
387.813	416.19
388.038	424.19
388.263	426.19
388.488	444.19
388.713	425.19
388.938	445.19
389.163	425.19
389.387	438.19
389.612	427.19
389.837	414.19
390.062	444.19
390.287	406.19
390.512	428.19
390.736	444.19
390.961	434.19
391.186	408.19
391.411	405.19
391.636	423.19
391.86	440.19
392.085	454.19
392.31	449.19
392.534	468.19
392.759	453.19
392.984	442.19
393.208	445.19
393.433	423.19
393.658	449.19
393.882	431.19
394.107	426.19
394.331	451.19
394.556	434.19
394.78	438.19
395.005	448.19
395.229	444.19
395.454	472.19
395.678	439.19
395.903	446.19
396.127	471.19
396.352	480.19
396.576	450.19
396.801	440.19
397.025	459.19
397.249	443.19
397.474	464.19
397.698	474.19
397.922	464.19
398.147	485.19
398.371	495.19
398.595	490.19
398.82	494.19
399.044	506.19
399.268	539.19
399.492	574.19
399.717	591.19
399.941	594.19
400.165	604.19
400.389	595.19
400.613	570.19
400.837	526.19
401.062	505.19
401.286	501.19
401.51	503.19
401.734	478.19
401.958	478.19
402.182	481.19
402.406	518.19
402.63	496.19
402.854	520.19
403.078	508.19
403.302	502.19
403.526	513.19
403.75	504.19
403.974	536.19
404.198	499.19
404.422	507.19
404.645	534.19
404.869	538.19
405.093	540.19
405.317	575.19
405.541	615.19
405.765	560.19
405.988	538.19
406.212	544.19
406.436	523.19
406.66	563.19
406.883	553.19
407.107	569.19
407.331	595.19
407.555	645.19
407.778	651.19
408.002	591.19
408.226	573.19
408.449	559.19
408.673	550.19
408.896	573.19
409.12	597.19
409.344	596.19
409.567	543.19
409.791	526.19
410.014	511.19
410.238	503.19
410.461	500.19
410.685	514.19
410.908	500.19
411.132	541.19
411.355	581.19
411.578	560.19
411.802	493.19
412.025	504.19
412.249	519.19
412.472	532.19
412.695	553.19
412.919	564.19
413.142	514.19
413.365	499.19
413.589	499.19
413.812	498.19
414.035	488.19
414.258	474.19
414.482	468.19
414.705	464.19
414.928	469.19
415.151	497.19
415.374	474.19
415.597	471.19
415.821	455.19
416.044	447.19
416.267	487.19
416.49	472.19
416.713	464.19
416.936	458.19
417.159	456.19
417.382	454.19
417.605	474.19
417.828	473.19
418.051	493.19
418.274	473.19
418.497	463.19
418.72	468.19
418.943	461.19
419.166	479.19
419.389	522.19
419.611	517.19
419.834	501.19
420.057	515.19
420.28	517.19
420.503	517.19
420.726	463.19
420.948	482.19
421.171	527.19
421.394	559.19
421.617	485.19
421.839	485.19
422.062	484.19
422.285	499.19
422.507	540.19
422.73	599.19
422.953	563.19
423.175	519.19
423.398	496.19
423.621	531.19
423.843	536.19
424.066	530.19
424.288	531.19
424.511	542.19
424.733	570.19
424.956	621.19
425.178	623.19
425.401	603.19
425.623	605.19
425.846	535.19
426.068	500.19
426.291	511.19
426.513	507.19
426.735	529.19
426.958	559.19
427.18	606.19
427.402	709.19
427.625	735.19
427.847	650.19
428.069	583.19
428.292	529.19
428.514	489.19
428.736	490.19
428.958	470.19
429.181	469.19
429.403	461.19
429.625	457.19
429.847	478.19
430.069	555.19
430.292	543.19
430.514	497.19
430.736	462.19
430.958	434.19
431.18	442.19
431.402	449.19
431.624	427.19
431.846	445.19
432.068	444.19
432.29	444.19
432.512	442.19
432.734	451.19
432.956	465.19
433.178	470.19
433.4	466.19
433.622	459.19
433.844	456.19
434.066	451.19
434.287	439.19
434.509	459.19
434.731	463.19
434.953	452.19
435.175	496.19
435.397	496.19
435.618	497.19
435.84	536.19
436.062	610.19
436.284	658.19
436.505	558.19
436.727	529.19
436.949	484.19
437.17	467.19
437.392	463.19
437.614	454.19
437.835	479.19
438.057	571.19
438.278	640.19
438.5	626.19
438.721	714.19
438.943	680.19
439.165	546.19
439.386	493.19
439.608	522.19
439.829	517.19
440.05	536.19
440.272	564.19
440.493	547.19
440.715	488.19
440.936	463.19
441.158	476.19
441.379	483.19
441.6	475.19
441.822	501.19
442.043	533.19
442.264	584.19
442.486	619.19
442.707	541.19
442.928	503.19
443.149	521.19
443.371	534.19
443.592	577.19
443.813	651.19
444.034	698.19
444.255	559.19
444.476	515.19
444.698	514.19
444.919	513.19
445.14	597.19
445.361	550.19
445.582	553.19
445.803	576.19
446.024	665.19
446.245	669.19
446.466	631.19
446.687	528.19
446.908	497.19
447.129	464.19
447.35	469.19
447.571	453.19
447.792	434.19
448.013	457.19
448.234	482.19
448.455	523.19
448.675	596.19
448.896	691.19
449.117	573.19
449.338	567.19
449.559	648.19
449.779	725.19
450	605.19
450.221	477.19
450.442	443.19
450.662	458.19
450.883	456.19
451.104	440.19
451.324	432.19
451.545	420.19
451.766	408.19
451.986	411.19
452.207	409.19
452.428	403.19
452.648	402.19
452.869	410.19
453.089	388.19
453.31	420.19
453.53	405.19
453.751	407.19
453.971	392.19
454.192	414.19
454.412	418.19
454.633	405.19
454.853	391.19
455.073	404.19
455.294	433.19
455.514	480.19
455.734	449.19
455.955	400.19
456.175	391.19
456.395	385.19
456.616	388.19
456.836	379.19
457.056	394.19
457.276	380.19
457.497	391.19
457.717	387.19
457.937	387.19
458.157	404.19
458.377	403.19
458.598	406.19
458.818	463.19
459.038	499.19
459.258	535.19
459.478	497.19
459.698	446.19
459.918	417.19
460.138	442.19
460.358	447.19
460.578	463.19
460.798	446.19
461.018	457.19
461.238	458.19
461.458	450.19
461.678	443.19
461.898	458.19
462.118	451.19
462.338	463.19
462.558	472.19
462.777	470.19
462.997	490.19
463.217	521.19
463.437	501.19
463.657	489.19
463.876	487.19
464.096	465.19
464.316	485.19
464.536	477.19
464.755	476.19
464.975	486.19
465.195	498.19
465.414	525.19
465.634	509.19
465.854	471.19
466.073	461.19
466.293	440.19
466.512	434.19
466.732	409.19
466.951	445.19
467.171	416.19
467.391	431.19
467.61	431.19
467.829	402.19
468.049	422.19
468.268	433.19
468.488	404.19
468.707	426.19
468.927	405.19
469.146	400.19
469.365	405.19
469.585	402.19
469.804	427.19
470.023	393.19
470.243	432.19
470.462	403.19
470.681	430.19
470.901	435.19
471.12	441.19
471.339	409.19
471.558	429.19
471.777	405.19
471.997	433.19
472.216	417.19
472.435	459.19
472.654	453.19
472.873	413.19
473.092	431.19
473.311	435.19
473.53	425.19
473.749	426.19
473.968	475.19
474.187	549.19
474.406	551.19
474.625	471.19
474.844	427.19
475.063	430.19
475.282	433.19
475.501	407.19
475.72	429.19
475.939	434.19
476.158	406.19
476.377	432.19
476.596	429.19
476.814	410.19
477.033	445.19
477.252	433.19
477.471	437.19
477.69	457.19
477.908	453.19
478.127	455.19
478.346	457.19
478.564	485.19
478.783	475.19
479.002	497.19
479.22	482.19
479.439	488.19
479.658	500.19
479.876	497.19
480.095	515.19
480.313	518.19
480.532	508.19
480.751	511.19
480.969	511.19
481.188	562.19
481.406	582.19
481.624	540.19
481.843	505.19
482.061	482.19
482.28	474.19
482.498	499.19
482.717	486.19
482.935	479.19
483.153	499.19
483.372	495.19
483.59	477.19
483.808	495.19
484.027	502.19
484.245	513.19
484.463	485.19
484.681	503.19
484.9	486.19
485.118	495.19
485.336	488.19
485.554	493.19
485.772	519.19
485.99	536.19
486.209	513.19
486.427	479.19
486.645	525.19
486.863	540.19
487.081	527.19
487.299	499.19
487.517	527.19
487.735	519.19
487.953	483.19
488.171	505.19
488.389	522.19
488.607	486.19
488.825	496.19
489.043	523.19
489.261	523.19
489.479	528.19
489.696	515.19
489.914	539.19
490.132	537.19
490.35	506.19
490.568	550.19
490.786	535.19
491.003	553.19
491.221	569.19
491.439	578.19
491.657	567.19
491.874	581.19
492.092	574.19
492.31	583.19
492.527	598.19
492.745	573.19
492.963	600.19
493.18	584.19
493.398	618.19
493.615	599.19
493.833	614.19
494.05	610.19
494.268	612.19
494.485	599.19
494.703	609.19
494.92	602.19
495.138	597.19
495.355	615.19
495.573	590.19
495.79	581.19
496.008	607.19
496.225	608.19
496.442	612.19
496.66	601.19
496.877	603.19
497.094	630.19
497.312	629.19
497.529	615.19
497.746	673.19
497.963	653.19
498.181	645.19
498.398	681.19
498.615	676.19
498.832	694.19
499.049	712.19
499.267	738.19
499.484	754.19
499.701	805.19
499.918	844.19
500.135	905.19
500.352	903.19
500.569	934.19
500.786	921.19
501.003	907.19
501.22	910.19
501.437	857.19
501.654	823.19
501.871	793.19
