Data from 1964.PennyLincolnUp.Lamp.En5.5.200Scan.071719.P1._HRD10591_14-04-35-909.txt Node
Date: Thu Jul 18 14:04:35 EDT 2019
User: cochatt
Spectrometer: HR+D1059
Trigger mode: 1
Integration Time (sec): 1.000000E-1
Scans to average: 1
Electric dark correction enabled: true
Nonlinearity correction enabled: false
Boxcar width: 0
XAxis mode: Wavelengths
Number of Pixels in Spectrum: 2048
>>>>>Begin Spectral Data<<<<<
223.165	-8.5
223.4	-8.5
223.635	-8.5
223.869	-21.5
224.104	-14.5
224.338	-5.5
224.573	-10.5
224.808	-15.5
225.042	-0.5
225.277	1.5
225.511	-6.5
225.746	-3.5
225.98	6.5
226.215	0.5
226.449	16.5
226.683	26.5
226.918	22.5
227.152	12.5
227.387	39.5
227.621	27.5
227.856	58.5
228.09	55.5
228.324	42.5
228.559	54.5
228.793	60.5
229.027	92.5
229.262	91.5
229.496	100.5
229.73	105.5
229.964	130.5
230.199	116.5
230.433	108.5
230.667	112.5
230.901	107.5
231.136	112.5
231.37	119.5
231.604	113.5
231.838	119.5
232.072	121.5
232.306	102.5
232.541	104.5
232.775	112.5
233.009	106.5
233.243	121.5
233.477	122.5
233.711	115.5
233.945	124.5
234.179	116.5
234.413	114.5
234.647	121.5
234.881	124.5
235.115	125.5
235.349	135.5
235.583	149.5
235.817	133.5
236.051	134.5
236.285	127.5
236.519	125.5
236.753	120.5
236.987	146.5
237.221	153.5
237.455	188.5
237.689	148.5
237.922	132.5
238.156	128.5
238.39	110.5
238.624	130.5
238.858	116.5
239.091	122.5
239.325	140.5
239.559	117.5
239.793	115.5
240.027	144.5
240.26	147.5
240.494	150.5
240.728	140.5
240.961	140.5
241.195	146.5
241.429	144.5
241.662	136.5
241.896	133.5
242.13	139.5
242.363	132.5
242.597	127.5
242.83	139.5
243.064	140.5
243.298	128.5
243.531	140.5
243.765	147.5
243.998	142.5
244.232	159.5
244.465	138.5
244.699	146.5
244.932	153.5
245.166	132.5
245.399	156.5
245.633	128.5
245.866	158.5
246.099	156.5
246.333	145.5
246.566	152.5
246.8	161.5
247.033	155.5
247.266	168.5
247.5	171.5
247.733	146.5
247.966	155.5
248.2	174.5
248.433	173.5
248.666	175.5
248.899	179.5
249.133	194.5
249.366	189.5
249.599	185.5
249.832	169.5
250.066	180.5
250.299	173.5
250.532	184.5
250.765	194.5
250.998	230.5
251.231	204.5
251.465	204.5
251.698	199.5
251.931	177.5
252.164	195.5
252.397	209.5
252.63	197.5
252.863	214.5
253.096	208.5
253.329	205.5
253.562	202.5
253.795	208.5
254.028	233.5
254.261	213.5
254.494	211.5
254.727	239.5
254.96	257.5
255.193	244.5
255.426	229.5
255.659	231.5
255.892	208.5
256.124	224.5
256.357	242.5
256.59	244.5
256.823	211.5
257.056	220.5
257.289	216.5
257.521	218.5
257.754	212.5
257.987	216.5
258.22	197.5
258.452	210.5
258.685	207.5
258.918	208.5
259.151	226.5
259.383	219.5
259.616	220.5
259.849	225.5
260.081	233.5
260.314	260.5
260.547	249.5
260.779	246.5
261.012	244.5
261.244	233.5
261.477	233.5
261.71	231.5
261.942	231.5
262.175	249.5
262.407	234.5
262.64	220.5
262.872	220.5
263.105	225.5
263.337	225.5
263.57	229.5
263.802	227.5
264.035	223.5
264.267	226.5
264.499	223.5
264.732	235.5
264.964	236.5
265.197	221.5
265.429	226.5
265.661	247.5
265.894	246.5
266.126	233.5
266.358	247.5
266.591	236.5
266.823	245.5
267.055	231.5
267.287	230.5
267.52	249.5
267.752	233.5
267.984	241.5
268.216	241.5
268.448	241.5
268.681	259.5
268.913	254.5
269.145	277.5
269.377	288.5
269.609	285.5
269.841	275.5
270.073	269.5
270.306	300.5
270.538	303.5
270.77	296.5
271.002	301.5
271.234	306.5
271.466	298.5
271.698	322.5
271.93	315.5
272.162	329.5
272.394	310.5
272.626	310.5
272.858	295.5
273.09	284.5
273.322	282.5
273.553	288.5
273.785	281.5
274.017	278.5
274.249	284.5
274.481	284.5
274.713	272.5
274.945	297.5
275.176	285.5
275.408	266.5
275.64	290.5
275.872	256.5
276.104	286.5
276.335	278.5
276.567	302.5
276.799	303.5
277.031	313.5
277.262	325.5
277.494	328.5
277.726	311.5
277.957	310.5
278.189	319.5
278.421	297.5
278.652	294.5
278.884	287.5
279.115	289.5
279.347	302.5
279.579	280.5
279.81	305.5
280.042	296.5
280.273	325.5
280.505	284.5
280.736	289.5
280.968	296.5
281.199	288.5
281.431	282.5
281.662	292.5
281.894	318.5
282.125	294.5
282.356	313.5
282.588	302.5
282.819	329.5
283.051	320.5
283.282	308.5
283.513	312.5
283.745	330.5
283.976	313.5
284.207	300.5
284.439	298.5
284.67	281.5
284.901	313.5
285.132	322.5
285.364	300.5
285.595	293.5
285.826	310.5
286.057	310.5
286.288	314.5
286.52	291.5
286.751	298.5
286.982	319.5
287.213	305.5
287.444	313.5
287.675	300.5
287.906	338.5
288.138	309.5
288.369	314.5
288.6	325.5
288.831	340.5
289.062	336.5
289.293	316.5
289.524	333.5
289.755	334.5
289.986	327.5
290.217	334.5
290.448	317.5
290.679	321.5
290.91	334.5
291.141	313.5
291.371	329.5
291.602	306.5
291.833	309.5
292.064	345.5
292.295	338.5
292.526	328.5
292.757	338.5
292.987	318.5
293.218	304.5
293.449	327.5
293.68	324.5
293.91	341.5
294.141	338.5
294.372	321.5
294.603	322.5
294.833	328.5
295.064	340.5
295.295	342.5
295.525	316.5
295.756	338.5
295.987	333.5
296.217	335.5
296.448	343.5
296.679	334.5
296.909	348.5
297.14	325.5
297.37	335.5
297.601	329.5
297.831	318.5
298.062	324.5
298.292	347.5
298.523	347.5
298.753	346.5
298.984	340.5
299.214	348.5
299.445	343.5
299.675	357.5
299.905	346.5
300.136	348.5
300.366	350.5
300.597	360.5
300.827	369.5
301.057	360.5
301.288	353.5
301.518	342.5
301.748	364.5
301.979	366.5
302.209	356.5
302.439	365.5
302.669	358.5
302.9	367.5
303.13	367.5
303.36	366.5
303.59	371.5
303.82	374.5
304.051	374.5
304.281	370.5
304.511	368.5
304.741	363.5
304.971	353.5
305.201	362.5
305.431	357.5
305.661	348.5
305.891	374.5
306.121	382.5
306.352	363.5
306.582	360.5
306.812	353.5
307.042	360.5
307.272	363.5
307.502	370.5
307.731	377.5
307.961	369.5
308.191	366.5
308.421	375.5
308.651	385.5
308.881	366.5
309.111	367.5
309.341	367.5
309.571	374.5
309.8	358.5
310.03	394.5
310.26	404.5
310.49	394.5
310.72	361.5
310.949	406.5
311.179	406.5
311.409	404.5
311.639	388.5
311.868	400.5
312.098	412.5
312.328	402.5
312.557	395.5
312.787	412.5
313.017	412.5
313.246	408.5
313.476	393.5
313.706	394.5
313.935	392.5
314.165	415.5
314.394	430.5
314.624	414.5
314.853	394.5
315.083	432.5
315.312	410.5
315.542	398.5
315.771	413.5
316.001	400.5
316.23	412.5
316.46	412.5
316.689	410.5
316.919	407.5
317.148	413.5
317.377	413.5
317.607	433.5
317.836	393.5
318.065	415.5
318.295	407.5
318.524	420.5
318.753	413.5
318.983	399.5
319.212	409.5
319.441	413.5
319.67	407.5
319.9	414.5
320.129	411.5
320.358	411.5
320.587	405.5
320.816	411.5
321.046	410.5
321.275	403.5
321.504	425.5
321.733	406.5
321.962	428.5
322.191	431.5
322.42	433.5
322.649	451.5
322.878	452.5
323.108	448.5
323.337	460.5
323.566	486.5
323.795	477.5
324.024	524.5
324.253	592.5
324.482	816.5
324.71	1097.5
324.939	1498.5
325.168	1272.5
325.397	711.5
325.626	538.5
325.855	497.5
326.084	468.5
326.313	466.5
326.542	486.5
326.77	517.5
326.999	558.5
327.228	721.5
327.457	993.5
327.686	1130.5
327.914	793.5
328.143	591.5
328.372	549.5
328.6	520.5
328.829	521.5
329.058	519.5
329.287	508.5
329.515	494.5
329.744	500.5
329.972	484.5
330.201	514.5
330.43	525.5
330.658	540.5
330.887	544.5
331.115	521.5
331.344	489.5
331.572	481.5
331.801	492.5
332.03	493.5
332.258	497.5
332.486	471.5
332.715	458.5
332.943	483.5
333.172	489.5
333.4	506.5
333.629	498.5
333.857	501.5
334.085	496.5
334.314	536.5
334.542	539.5
334.771	540.5
334.999	528.5
335.227	497.5
335.455	484.5
335.684	489.5
335.912	485.5
336.14	481.5
336.369	480.5
336.597	491.5
336.825	502.5
337.053	470.5
337.281	461.5
337.51	472.5
337.738	480.5
337.966	443.5
338.194	469.5
338.422	454.5
338.65	472.5
338.878	477.5
339.106	463.5
339.334	451.5
339.562	437.5
339.79	449.5
340.018	462.5
340.246	461.5
340.474	449.5
340.702	461.5
340.93	452.5
341.158	464.5
341.386	448.5
341.614	447.5
341.842	442.5
342.07	452.5
342.298	431.5
342.526	449.5
342.754	434.5
342.981	453.5
343.209	421.5
343.437	458.5
343.665	444.5
343.893	475.5
344.12	476.5
344.348	479.5
344.576	468.5
344.804	477.5
345.031	446.5
345.259	452.5
345.487	448.5
345.714	446.5
345.942	433.5
346.17	426.5
346.397	431.5
346.625	424.5
346.853	410.5
347.08	422.5
347.308	436.5
347.535	429.5
347.763	431.5
347.99	435.5
348.218	440.5
348.445	442.5
348.673	431.5
348.9	422.5
349.128	429.5
349.355	415.5
349.583	422.5
349.81	415.5
350.037	419.5
350.265	416.5
350.492	424.5
350.72	423.5
350.947	427.5
351.174	419.5
351.402	424.5
351.629	416.5
351.856	420.5
352.083	438.5
352.311	422.5
352.538	418.5
352.765	422.5
352.992	409.5
353.22	417.5
353.447	415.5
353.674	391.5
353.901	407.5
354.128	425.5
354.355	395.5
354.583	409.5
354.81	414.5
355.037	404.5
355.264	388.5
355.491	419.5
355.718	386.5
355.945	412.5
356.172	396.5
356.399	404.5
356.626	415.5
356.853	408.5
357.08	400.5
357.307	401.5
357.534	404.5
357.761	406.5
357.988	405.5
358.215	412.5
358.441	414.5
358.668	394.5
358.895	427.5
359.122	405.5
359.349	415.5
359.576	418.5
359.802	429.5
360.029	424.5
360.256	437.5
360.483	411.5
360.709	416.5
360.936	412.5
361.163	422.5
361.39	426.5
361.616	418.5
361.843	410.5
362.07	408.5
362.296	412.5
362.523	411.5
362.749	385.5
362.976	392.5
363.203	403.5
363.429	407.5
363.656	396.5
363.882	396.5
364.109	397.5
364.335	412.5
364.562	391.5
364.788	405.5
365.015	406.5
365.241	422.5
365.468	399.5
365.694	415.5
365.92	414.5
366.147	407.5
366.373	396.5
366.599	367.5
366.826	401.5
367.052	393.5
367.278	403.5
367.505	385.5
367.731	374.5
367.957	392.5
368.184	377.5
368.41	408.5
368.636	397.5
368.862	400.5
369.089	419.5
369.315	407.5
369.541	413.5
369.767	387.5
369.993	406.5
370.219	398.5
370.445	396.5
370.672	386.5
370.898	390.5
371.124	389.5
371.35	400.5
371.576	406.5
371.802	386.5
372.028	392.5
372.254	414.5
372.48	407.5
372.706	400.5
372.932	408.5
373.158	413.5
373.384	393.5
373.61	398.5
373.835	407.5
374.061	386.5
374.287	397.5
374.513	403.5
374.739	406.5
374.965	413.5
375.191	414.5
375.416	421.5
375.642	420.5
375.868	424.5
376.094	402.5
376.319	415.5
376.545	380.5
376.771	411.5
376.997	406.5
377.222	381.5
377.448	398.5
377.674	417.5
377.899	381.5
378.125	390.5
378.35	382.5
378.576	402.5
378.802	399.5
379.027	398.5
379.253	400.5
379.478	404.5
379.704	398.5
379.929	386.5
380.155	391.5
380.38	386.5
380.606	403.5
380.831	395.5
381.057	389.5
381.282	390.5
381.507	395.5
381.733	403.5
381.958	410.5
382.184	382.5
382.409	402.5
382.634	403.5
382.86	404.5
383.085	423.5
383.31	428.5
383.535	412.5
383.761	421.5
383.986	413.5
384.211	416.5
384.436	424.5
384.662	403.5
384.887	428.5
385.112	431.5
385.337	420.5
385.562	440.5
385.787	428.5
386.013	443.5
386.238	437.5
386.463	428.5
386.688	458.5
386.913	468.5
387.138	429.5
387.363	433.5
387.588	428.5
387.813	418.5
388.038	443.5
388.263	438.5
388.488	438.5
388.713	431.5
388.938	442.5
389.163	435.5
389.387	445.5
389.612	424.5
389.837	446.5
390.062	429.5
390.287	423.5
390.512	428.5
390.736	453.5
390.961	439.5
391.186	427.5
391.411	460.5
391.636	444.5
391.86	436.5
392.085	449.5
392.31	459.5
392.534	447.5
392.759	431.5
392.984	420.5
393.208	442.5
393.433	436.5
393.658	420.5
393.882	422.5
394.107	443.5
394.331	452.5
394.556	425.5
394.78	437.5
395.005	447.5
395.229	445.5
395.454	453.5
395.678	449.5
395.903	488.5
396.127	481.5
396.352	468.5
396.576	450.5
396.801	458.5
397.025	459.5
397.249	458.5
397.474	450.5
397.698	461.5
397.922	476.5
398.147	480.5
398.371	472.5
398.595	488.5
398.82	483.5
399.044	507.5
399.268	520.5
399.492	563.5
399.717	570.5
399.941	610.5
400.165	612.5
400.389	592.5
400.613	557.5
400.837	519.5
401.062	520.5
401.286	505.5
401.51	478.5
401.734	481.5
401.958	508.5
402.182	502.5
402.406	511.5
402.63	488.5
402.854	489.5
403.078	506.5
403.302	506.5
403.526	513.5
403.75	504.5
403.974	513.5
404.198	510.5
404.422	533.5
404.645	519.5
404.869	528.5
405.093	554.5
405.317	582.5
405.541	579.5
405.765	530.5
405.988	516.5
406.212	547.5
406.436	557.5
406.66	543.5
406.883	548.5
407.107	576.5
407.331	600.5
407.555	646.5
407.778	650.5
408.002	611.5
408.226	562.5
408.449	568.5
408.673	551.5
408.896	554.5
409.12	581.5
409.344	555.5
409.567	524.5
409.791	519.5
410.014	504.5
410.238	479.5
410.461	519.5
410.685	512.5
410.908	525.5
411.132	528.5
411.355	539.5
411.578	528.5
411.802	515.5
412.025	496.5
412.249	512.5
412.472	533.5
412.695	554.5
412.919	550.5
413.142	531.5
413.365	516.5
413.589	489.5
413.812	492.5
414.035	482.5
414.258	459.5
414.482	507.5
414.705	468.5
414.928	485.5
415.151	476.5
415.374	470.5
415.597	465.5
415.821	464.5
416.044	462.5
416.267	476.5
416.49	469.5
416.713	453.5
416.936	459.5
417.159	482.5
417.382	462.5
417.605	464.5
417.828	451.5
418.051	474.5
418.274	436.5
418.497	461.5
418.72	476.5
418.943	486.5
419.166	472.5
419.389	535.5
419.611	509.5
419.834	530.5
420.057	500.5
420.28	484.5
420.503	466.5
420.726	479.5
420.948	480.5
421.171	535.5
421.394	543.5
421.617	484.5
421.839	491.5
422.062	481.5
422.285	480.5
422.507	534.5
422.73	581.5
422.953	544.5
423.175	516.5
423.398	505.5
423.621	496.5
423.843	492.5
424.066	522.5
424.288	517.5
424.511	519.5
424.733	546.5
424.956	601.5
425.178	561.5
425.401	580.5
425.623	589.5
425.846	523.5
426.068	508.5
426.291	519.5
426.513	476.5
426.735	480.5
426.958	524.5
427.18	583.5
427.402	678.5
427.625	729.5
427.847	610.5
428.069	541.5
428.292	518.5
428.514	477.5
428.736	465.5
428.958	463.5
429.181	454.5
429.403	460.5
429.625	458.5
429.847	493.5
430.069	543.5
430.292	534.5
430.514	463.5
430.736	444.5
430.958	445.5
431.18	456.5
431.402	438.5
431.624	429.5
431.846	427.5
432.068	443.5
432.29	442.5
432.512	445.5
432.734	438.5
432.956	451.5
433.178	439.5
433.4	461.5
433.622	448.5
433.844	421.5
434.066	454.5
434.287	436.5
434.509	436.5
434.731	462.5
434.953	473.5
435.175	489.5
435.397	492.5
435.618	479.5
435.84	530.5
436.062	568.5
436.284	652.5
436.505	527.5
436.727	488.5
436.949	462.5
437.17	452.5
437.392	457.5
437.614	459.5
437.835	478.5
438.057	538.5
438.278	599.5
438.5	590.5
438.721	673.5
438.943	654.5
439.165	518.5
439.386	491.5
439.608	504.5
439.829	486.5
440.05	509.5
440.272	527.5
440.493	508.5
440.715	468.5
440.936	464.5
441.158	437.5
441.379	448.5
441.6	469.5
441.822	479.5
442.043	529.5
442.264	583.5
442.486	593.5
442.707	534.5
442.928	493.5
443.149	479.5
443.371	516.5
443.592	544.5
443.813	599.5
444.034	678.5
444.255	568.5
444.476	531.5
444.698	521.5
444.919	519.5
445.14	630.5
445.361	561.5
445.582	511.5
445.803	564.5
446.024	630.5
446.245	595.5
446.466	578.5
446.687	501.5
446.908	472.5
447.129	444.5
447.35	443.5
447.571	452.5
447.792	456.5
448.013	432.5
448.234	441.5
448.455	507.5
448.675	591.5
448.896	634.5
449.117	562.5
449.338	540.5
449.559	624.5
449.779	664.5
450	568.5
450.221	457.5
450.442	448.5
450.662	425.5
450.883	445.5
451.104	433.5
451.324	417.5
451.545	409.5
451.766	400.5
451.986	384.5
452.207	416.5
452.428	384.5
452.648	398.5
452.869	408.5
453.089	404.5
453.31	403.5
453.53	406.5
453.751	390.5
453.971	401.5
454.192	418.5
454.412	402.5
454.633	393.5
454.853	393.5
455.073	393.5
455.294	417.5
455.514	455.5
455.734	443.5
455.955	394.5
456.175	396.5
456.395	380.5
456.616	382.5
456.836	396.5
457.056	385.5
457.276	378.5
457.497	401.5
457.717	391.5
457.937	394.5
458.157	395.5
458.377	396.5
458.598	424.5
458.818	438.5
459.038	480.5
459.258	496.5
459.478	461.5
459.698	429.5
459.918	444.5
460.138	433.5
460.358	464.5
460.578	462.5
460.798	443.5
461.018	454.5
461.238	456.5
461.458	453.5
461.678	438.5
461.898	440.5
462.118	472.5
462.338	461.5
462.558	472.5
462.777	497.5
462.997	514.5
463.217	510.5
463.437	501.5
463.657	471.5
463.876	495.5
464.096	502.5
464.316	475.5
464.536	493.5
464.755	479.5
464.975	493.5
465.195	468.5
465.414	496.5
465.634	487.5
465.854	436.5
466.073	443.5
466.293	410.5
466.512	416.5
466.732	407.5
466.951	395.5
467.171	413.5
467.391	412.5
467.61	402.5
467.829	401.5
468.049	432.5
468.268	398.5
468.488	402.5
468.707	402.5
468.927	412.5
469.146	416.5
469.365	423.5
469.585	398.5
469.804	398.5
470.023	418.5
470.243	403.5
470.462	429.5
470.681	418.5
470.901	437.5
471.12	446.5
471.339	408.5
471.558	445.5
471.777	414.5
471.997	400.5
472.216	417.5
472.435	444.5
472.654	430.5
472.873	426.5
473.092	414.5
473.311	422.5
473.53	401.5
473.749	427.5
473.968	453.5
474.187	529.5
474.406	557.5
474.625	438.5
474.844	424.5
475.063	410.5
475.282	416.5
475.501	439.5
475.72	434.5
475.939	456.5
476.158	439.5
476.377	424.5
476.596	418.5
476.814	423.5
477.033	462.5
477.252	443.5
477.471	443.5
477.69	470.5
477.908	465.5
478.127	479.5
478.346	476.5
478.564	460.5
478.783	473.5
479.002	475.5
479.22	469.5
479.439	481.5
479.658	493.5
479.876	502.5
480.095	501.5
480.313	515.5
480.532	506.5
480.751	523.5
480.969	503.5
481.188	548.5
481.406	562.5
481.624	521.5
481.843	522.5
482.061	523.5
482.28	503.5
482.498	490.5
482.717	481.5
482.935	463.5
483.153	483.5
483.372	496.5
483.59	467.5
483.808	498.5
484.027	462.5
484.245	484.5
484.463	492.5
484.681	491.5
484.9	485.5
485.118	503.5
485.336	497.5
485.554	502.5
485.772	507.5
485.99	475.5
486.209	498.5
486.427	497.5
486.645	494.5
486.863	514.5
487.081	507.5
487.299	510.5
487.517	524.5
487.735	497.5
487.953	511.5
488.171	520.5
488.389	492.5
488.607	518.5
488.825	530.5
489.043	503.5
489.261	534.5
489.479	518.5
489.696	526.5
489.914	522.5
490.132	550.5
490.35	533.5
490.568	530.5
490.786	526.5
491.003	546.5
491.221	574.5
491.439	557.5
491.657	538.5
491.874	588.5
492.092	581.5
492.31	582.5
492.527	577.5
492.745	556.5
492.963	580.5
493.18	584.5
493.398	613.5
493.615	553.5
493.833	586.5
494.05	581.5
494.268	580.5
494.485	603.5
494.703	600.5
494.92	589.5
495.138	582.5
495.355	583.5
495.573	595.5
495.79	595.5
496.008	594.5
496.225	597.5
496.442	589.5
496.66	612.5
496.877	602.5
497.094	571.5
497.312	607.5
497.529	613.5
497.746	625.5
497.963	628.5
498.181	656.5
498.398	661.5
498.615	684.5
498.832	697.5
499.049	705.5
499.267	731.5
499.484	777.5
499.701	800.5
499.918	850.5
500.135	902.5
500.352	914.5
500.569	937.5
500.786	953.5
501.003	943.5
501.22	893.5
501.437	834.5
501.654	829.5
501.871	797.5
502.088	749.5
502.305	713.5
502.522	687.5
502.739	707.5
502.956	662.5
503.172	657.5
503.389	642.5
503.606	649.5
503.823	636.5
504.04	601.5
504.256	600.5
504.473	589.5
504.69	600.5
504.907	607.5
505.123	573.5
505.34	584.5
505.557	565.5
505.773	560.5
505.99	549.5
506.207	556.5
506.423	565.5
506.64	581.5
506.856	535.5
507.073	546.5
507.289	537.5
507.506	535.5
507.722	550.5
507.939	543.5
508.155	553.5
508.372	516.5
508.588	504.5
508.805	527.5
509.021	540.5
509.238	538.5
509.454	536.5
509.67	542.5
509.887	523.5
510.103	526.5
510.319	514.5
510.536	585.5
510.752	760.5
510.968	643.5
511.184	520.5
511.401	513.5
511.617	496.5
511.833	504.5
512.049	478.5
512.265	502.5
512.481	510.5
512.698	522.5
512.914	487.5
513.13	507.5
513.346	487.5
513.562	500.5
513.778	485.5
513.994	491.5
514.21	526.5
514.426	502.5
514.642	534.5
514.858	535.5
515.074	549.5
515.29	605.5
515.506	754.5
515.721	686.5
515.937	555.5
516.153	556.5
516.369	529.5
516.585	523.5
516.801	525.5
517.016	527.5
517.232	527.5
517.448	517.5
517.664	551.5
517.879	536.5
518.095	536.5
518.311	536.5
518.527	534.5
518.742	515.5
518.958	496.5
519.173	500.5
519.389	528.5
519.605	505.5
519.82	505.5
520.036	508.5
