Data from 1964.PennyLincolnUp.Lamp.En5.5.200Scan.071719.P1._HRD10591_14-06-40-910.txt Node
Date: Thu Jul 18 14:06:40 EDT 2019
User: cochatt
Spectrometer: HR+D1059
Trigger mode: 1
Integration Time (sec): 1.000000E-1
Scans to average: 1
Electric dark correction enabled: true
Nonlinearity correction enabled: false
Boxcar width: 0
XAxis mode: Wavelengths
Number of Pixels in Spectrum: 2048
>>>>>Begin Spectral Data<<<<<
223.165	-10.38
223.4	-10.38
223.635	-10.38
223.869	-11.38
224.104	-25.38
224.338	-28.38
224.573	-1.38
224.808	-12.38
225.042	9.62
225.277	-7.38
225.511	-6.38
225.746	0.62
225.98	5.62
226.215	20.62
226.449	12.62
226.683	15.62
226.918	11.62
227.152	26.62
227.387	28.62
227.621	42.62
227.856	38.62
228.09	40.62
228.324	50.62
228.559	40.62
228.793	71.62
229.027	79.62
229.262	105.62
229.496	103.62
229.73	125.62
229.964	134.62
230.199	117.62
230.433	90.62
230.667	107.62
230.901	105.62
231.136	121.62
231.37	132.62
231.604	113.62
231.838	106.62
232.072	116.62
232.306	119.62
232.541	98.62
232.775	112.62
233.009	117.62
233.243	108.62
233.477	112.62
233.711	118.62
233.945	129.62
234.179	118.62
234.413	108.62
234.647	120.62
234.881	121.62
235.115	118.62
235.349	113.62
235.583	120.62
235.817	132.62
236.051	118.62
236.285	130.62
236.519	126.62
236.753	129.62
236.987	155.62
237.221	189.62
237.455	191.62
237.689	171.62
237.922	134.62
238.156	123.62
238.39	122.62
238.624	112.62
238.858	120.62
239.091	125.62
239.325	122.62
239.559	128.62
239.793	128.62
240.027	125.62
240.26	136.62
240.494	155.62
240.728	153.62
240.961	152.62
241.195	138.62
241.429	138.62
241.662	129.62
241.896	137.62
242.13	145.62
242.363	127.62
242.597	148.62
242.83	153.62
243.064	150.62
243.298	149.62
243.531	145.62
243.765	135.62
243.998	142.62
244.232	140.62
244.465	145.62
244.699	144.62
244.932	152.62
245.166	135.62
245.399	122.62
245.633	146.62
245.866	154.62
246.099	163.62
246.333	156.62
246.566	139.62
246.8	156.62
247.033	157.62
247.266	169.62
247.5	164.62
247.733	160.62
247.966	155.62
248.2	161.62
248.433	163.62
248.666	184.62
248.899	172.62
249.133	212.62
249.366	199.62
249.599	203.62
249.832	190.62
250.066	190.62
250.299	203.62
250.532	189.62
250.765	211.62
250.998	228.62
251.231	231.62
251.465	212.62
251.698	203.62
251.931	195.62
252.164	207.62
252.397	208.62
252.63	211.62
252.863	197.62
253.096	211.62
253.329	221.62
253.562	216.62
253.795	226.62
254.028	206.62
254.261	233.62
254.494	222.62
254.727	237.62
254.96	270.62
255.193	281.62
255.426	248.62
255.659	228.62
255.892	217.62
256.124	234.62
256.357	244.62
256.59	248.62
256.823	231.62
257.056	234.62
257.289	228.62
257.521	221.62
257.754	222.62
257.987	199.62
258.22	216.62
258.452	210.62
258.685	215.62
258.918	209.62
259.151	224.62
259.383	226.62
259.616	254.62
259.849	222.62
260.081	233.62
260.314	265.62
260.547	258.62
260.779	266.62
261.012	243.62
261.244	234.62
261.477	237.62
261.71	240.62
261.942	249.62
262.175	257.62
262.407	237.62
262.64	216.62
262.872	227.62
263.105	232.62
263.337	236.62
263.57	240.62
263.802	245.62
264.035	220.62
264.267	241.62
264.499	226.62
264.732	242.62
264.964	222.62
265.197	236.62
265.429	245.62
265.661	222.62
265.894	234.62
266.126	232.62
266.358	240.62
266.591	248.62
266.823	244.62
267.055	258.62
267.287	242.62
267.52	237.62
267.752	243.62
267.984	258.62
268.216	267.62
268.448	270.62
268.681	266.62
268.913	277.62
269.145	274.62
269.377	282.62
269.609	292.62
269.841	290.62
270.073	284.62
270.306	313.62
270.538	330.62
270.77	333.62
271.002	322.62
271.234	322.62
271.466	307.62
271.698	327.62
271.93	329.62
272.162	346.62
272.394	327.62
272.626	321.62
272.858	317.62
273.09	314.62
273.322	307.62
273.553	284.62
273.785	283.62
274.017	297.62
274.249	303.62
274.481	277.62
274.713	275.62
274.945	294.62
275.176	295.62
275.408	292.62
275.64	316.62
275.872	307.62
276.104	296.62
276.335	289.62
276.567	315.62
276.799	323.62
277.031	327.62
277.262	314.62
277.494	332.62
277.726	325.62
277.957	327.62
278.189	308.62
278.421	301.62
278.652	318.62
278.884	330.62
279.115	297.62
279.347	305.62
279.579	314.62
279.81	303.62
280.042	284.62
280.273	291.62
280.505	284.62
280.736	295.62
280.968	299.62
281.199	277.62
281.431	300.62
281.662	321.62
281.894	307.62
282.125	304.62
282.356	324.62
282.588	330.62
282.819	323.62
283.051	295.62
283.282	307.62
283.513	316.62
283.745	309.62
283.976	318.62
284.207	329.62
284.439	335.62
284.67	321.62
284.901	310.62
285.132	292.62
285.364	316.62
285.595	299.62
285.826	309.62
286.057	329.62
286.288	332.62
286.52	316.62
286.751	313.62
286.982	309.62
287.213	321.62
287.444	325.62
287.675	323.62
287.906	307.62
288.138	345.62
288.369	343.62
288.6	348.62
288.831	344.62
289.062	338.62
289.293	342.62
289.524	334.62
289.755	341.62
289.986	334.62
290.217	338.62
290.448	333.62
290.679	330.62
290.91	336.62
291.141	333.62
291.371	333.62
291.602	336.62
291.833	336.62
292.064	334.62
292.295	324.62
292.526	338.62
292.757	329.62
292.987	334.62
293.218	324.62
293.449	331.62
293.68	338.62
293.91	328.62
294.141	345.62
294.372	337.62
294.603	330.62
294.833	340.62
295.064	316.62
295.295	343.62
295.525	344.62
295.756	332.62
295.987	351.62
296.217	344.62
296.448	356.62
296.679	346.62
296.909	364.62
297.14	339.62
297.37	344.62
297.601	328.62
297.831	333.62
298.062	372.62
298.292	334.62
298.523	354.62
298.753	350.62
298.984	343.62
299.214	334.62
299.445	333.62
299.675	353.62
299.905	367.62
300.136	362.62
300.366	344.62
300.597	370.62
300.827	378.62
301.057	363.62
301.288	378.62
301.518	386.62
301.748	368.62
301.979	388.62
302.209	377.62
302.439	383.62
302.669	391.62
302.9	368.62
303.13	364.62
303.36	376.62
303.59	373.62
303.82	374.62
304.051	380.62
304.281	385.62
304.511	389.62
304.741	388.62
304.971	378.62
305.201	376.62
305.431	380.62
305.661	393.62
305.891	370.62
306.121	379.62
306.352	374.62
306.582	382.62
306.812	374.62
307.042	369.62
307.272	388.62
307.502	368.62
307.731	365.62
307.961	370.62
308.191	387.62
308.421	382.62
308.651	372.62
308.881	387.62
309.111	378.62
309.341	377.62
309.571	392.62
309.8	406.62
310.03	404.62
310.26	421.62
310.49	401.62
310.72	412.62
310.949	406.62
311.179	427.62
311.409	403.62
311.639	409.62
311.868	426.62
312.098	412.62
312.328	421.62
312.557	421.62
312.787	430.62
313.017	426.62
313.246	429.62
313.476	416.62
313.706	417.62
313.935	424.62
314.165	432.62
314.394	423.62
314.624	434.62
314.853	438.62
315.083	435.62
315.312	425.62
315.542	424.62
315.771	422.62
316.001	422.62
316.23	416.62
316.46	400.62
316.689	409.62
316.919	427.62
317.148	440.62
317.377	436.62
317.607	446.62
317.836	417.62
318.065	410.62
318.295	409.62
318.524	416.62
318.753	405.62
318.983	402.62
319.212	420.62
319.441	429.62
319.67	445.62
319.9	424.62
320.129	416.62
320.358	424.62
320.587	428.62
320.816	448.62
321.046	453.62
321.275	442.62
321.504	458.62
321.733	437.62
321.962	450.62
322.191	436.62
322.42	449.62
322.649	456.62
322.878	478.62
323.108	499.62
323.337	499.62
323.566	519.62
323.795	525.62
324.024	578.62
324.253	667.62
324.482	894.62
324.71	1302.62
324.939	1856.62
325.168	1559.62
325.397	829.62
325.626	620.62
325.855	537.62
326.084	535.62
326.313	516.62
326.542	502.62
326.77	565.62
326.999	602.62
327.228	827.62
327.457	1164.62
327.686	1401.62
327.914	908.62
328.143	656.62
328.372	605.62
328.6	566.62
328.829	547.62
329.058	553.62
329.287	570.62
329.515	568.62
329.744	532.62
329.972	540.62
330.201	545.62
330.43	589.62
330.658	590.62
330.887	595.62
331.115	574.62
331.344	519.62
331.572	514.62
331.801	517.62
332.03	532.62
332.258	518.62
332.486	496.62
332.715	499.62
332.943	504.62
333.172	502.62
333.4	522.62
333.629	500.62
333.857	538.62
334.085	558.62
334.314	576.62
334.542	598.62
334.771	584.62
334.999	552.62
335.227	520.62
335.455	512.62
335.684	498.62
335.912	537.62
336.14	493.62
336.369	501.62
336.597	490.62
336.825	505.62
337.053	485.62
337.281	470.62
337.51	488.62
337.738	478.62
337.966	487.62
338.194	472.62
338.422	474.62
338.65	502.62
338.878	465.62
339.106	466.62
339.334	489.62
339.562	484.62
339.79	475.62
340.018	481.62
340.246	460.62
340.474	465.62
340.702	460.62
340.93	438.62
341.158	464.62
341.386	493.62
341.614	449.62
341.842	464.62
342.07	442.62
342.298	490.62
342.526	443.62
342.754	458.62
342.981	440.62
343.209	464.62
343.437	473.62
343.665	463.62
343.893	500.62
344.12	489.62
344.348	493.62
344.576	514.62
344.804	488.62
345.031	463.62
345.259	457.62
345.487	462.62
345.714	472.62
345.942	457.62
346.17	439.62
346.397	470.62
346.625	432.62
346.853	444.62
347.08	432.62
347.308	448.62
347.535	455.62
347.763	440.62
347.99	446.62
348.218	452.62
348.445	458.62
348.673	435.62
348.9	438.62
349.128	416.62
349.355	425.62
349.583	435.62
349.81	439.62
350.037	426.62
350.265	434.62
350.492	444.62
350.72	434.62
350.947	438.62
351.174	439.62
351.402	445.62
351.629	426.62
351.856	425.62
352.083	439.62
352.311	442.62
352.538	442.62
352.765	452.62
352.992	424.62
353.22	401.62
353.447	436.62
353.674	433.62
353.901	416.62
354.128	418.62
354.355	436.62
354.583	414.62
354.81	428.62
355.037	426.62
355.264	424.62
355.491	430.62
355.718	419.62
355.945	395.62
356.172	400.62
356.399	388.62
356.626	412.62
356.853	409.62
357.08	416.62
357.307	399.62
357.534	399.62
357.761	427.62
357.988	407.62
358.215	402.62
358.441	427.62
358.668	411.62
358.895	413.62
359.122	440.62
359.349	432.62
359.576	436.62
359.802	457.62
360.029	453.62
360.256	445.62
360.483	461.62
360.709	427.62
360.936	440.62
361.163	427.62
361.39	410.62
361.616	432.62
361.843	433.62
362.07	417.62
362.296	434.62
362.523	410.62
362.749	414.62
362.976	436.62
363.203	423.62
363.429	410.62
363.656	431.62
363.882	417.62
364.109	423.62
364.335	411.62
364.562	416.62
364.788	398.62
365.015	427.62
365.241	391.62
365.468	408.62
365.694	408.62
365.92	416.62
366.147	395.62
366.373	421.62
366.599	405.62
366.826	413.62
367.052	406.62
367.278	421.62
367.505	398.62
367.731	415.62
367.957	409.62
368.184	416.62
368.41	418.62
368.636	442.62
368.862	424.62
369.089	398.62
369.315	399.62
369.541	414.62
369.767	400.62
369.993	428.62
370.219	406.62
370.445	408.62
370.672	412.62
370.898	397.62
371.124	416.62
371.35	411.62
371.576	414.62
371.802	425.62
372.028	406.62
372.254	404.62
372.48	414.62
372.706	435.62
372.932	442.62
373.158	400.62
373.384	426.62
373.61	419.62
373.835	405.62
374.061	412.62
374.287	434.62
374.513	411.62
374.739	424.62
374.965	427.62
375.191	410.62
375.416	421.62
375.642	412.62
375.868	408.62
376.094	407.62
376.319	394.62
376.545	402.62
376.771	411.62
376.997	393.62
377.222	424.62
377.448	406.62
377.674	419.62
377.899	403.62
378.125	404.62
378.35	401.62
378.576	395.62
378.802	396.62
379.027	411.62
379.253	408.62
379.478	393.62
379.704	413.62
379.929	417.62
380.155	401.62
380.38	414.62
380.606	406.62
380.831	403.62
381.057	427.62
381.282	396.62
381.507	422.62
381.733	402.62
381.958	403.62
382.184	416.62
382.409	413.62
382.634	404.62
382.86	405.62
383.085	418.62
383.31	416.62
383.535	417.62
383.761	437.62
383.986	429.62
384.211	450.62
384.436	423.62
384.662	439.62
384.887	429.62
385.112	424.62
385.337	418.62
385.562	463.62
385.787	448.62
386.013	451.62
386.238	469.62
386.463	450.62
386.688	457.62
386.913	446.62
387.138	433.62
387.363	434.62
387.588	439.62
387.813	450.62
388.038	444.62
388.263	454.62
388.488	449.62
388.713	436.62
388.938	434.62
389.163	441.62
389.387	461.62
389.612	437.62
389.837	420.62
390.062	445.62
390.287	442.62
390.512	426.62
390.736	428.62
390.961	458.62
391.186	442.62
391.411	446.62
391.636	446.62
391.86	459.62
392.085	451.62
392.31	454.62
392.534	454.62
392.759	451.62
392.984	478.62
393.208	447.62
393.433	438.62
393.658	426.62
393.882	458.62
394.107	442.62
394.331	437.62
394.556	438.62
394.78	432.62
395.005	451.62
395.229	464.62
395.454	460.62
395.678	446.62
395.903	483.62
396.127	474.62
396.352	487.62
396.576	459.62
396.801	467.62
397.025	457.62
397.249	452.62
397.474	461.62
397.698	472.62
397.922	509.62
398.147	488.62
398.371	497.62
398.595	494.62
398.82	498.62
399.044	512.62
399.268	557.62
399.492	578.62
399.717	616.62
399.941	608.62
400.165	625.62
400.389	598.62
400.613	550.62
400.837	534.62
401.062	521.62
401.286	519.62
401.51	491.62
401.734	514.62
401.958	496.62
402.182	505.62
402.406	528.62
402.63	532.62
402.854	502.62
403.078	520.62
403.302	516.62
403.526	526.62
403.75	521.62
403.974	524.62
404.198	500.62
404.422	522.62
404.645	535.62
404.869	531.62
405.093	549.62
405.317	580.62
405.541	601.62
405.765	568.62
405.988	521.62
406.212	562.62
406.436	562.62
406.66	568.62
406.883	563.62
407.107	588.62
407.331	603.62
407.555	656.62
407.778	654.62
408.002	621.62
408.226	572.62
408.449	572.62
408.673	569.62
408.896	616.62
409.12	630.62
409.344	594.62
409.567	534.62
409.791	525.62
410.014	524.62
410.238	495.62
410.461	502.62
410.685	502.62
410.908	511.62
411.132	565.62
411.355	572.62
411.578	560.62
411.802	518.62
412.025	490.62
412.249	531.62
412.472	534.62
412.695	580.62
412.919	569.62
413.142	523.62
413.365	494.62
413.589	506.62
413.812	480.62
414.035	501.62
414.258	480.62
414.482	477.62
414.705	474.62
414.928	486.62
415.151	481.62
415.374	499.62
415.597	482.62
415.821	480.62
416.044	482.62
416.267	485.62
416.49	464.62
416.713	471.62
416.936	457.62
417.159	476.62
417.382	502.62
417.605	485.62
417.828	487.62
418.051	524.62
418.274	492.62
418.497	482.62
418.72	482.62
418.943	496.62
419.166	497.62
419.389	507.62
419.611	520.62
419.834	474.62
420.057	512.62
420.28	483.62
420.503	498.62
420.726	500.62
420.948	519.62
421.171	545.62
421.394	578.62
421.617	526.62
421.839	475.62
422.062	522.62
422.285	510.62
422.507	546.62
422.73	603.62
422.953	586.62
423.175	523.62
423.398	516.62
423.621	520.62
423.843	518.62
424.066	535.62
424.288	516.62
424.511	542.62
424.733	596.62
424.956	655.62
425.178	629.62
425.401	635.62
425.623	658.62
425.846	535.62
426.068	536.62
426.291	511.62
426.513	504.62
426.735	498.62
426.958	551.62
427.18	613.62
427.402	716.62
427.625	760.62
427.847	665.62
428.069	585.62
428.292	523.62
428.514	528.62
428.736	506.62
428.958	479.62
429.181	466.62
429.403	453.62
429.625	475.62
429.847	497.62
430.069	542.62
430.292	542.62
430.514	487.62
430.736	480.62
430.958	469.62
431.18	456.62
431.402	453.62
431.624	449.62
431.846	444.62
432.068	455.62
432.29	449.62
432.512	469.62
432.734	469.62
432.956	462.62
433.178	461.62
433.4	454.62
433.622	450.62
433.844	451.62
434.066	454.62
434.287	450.62
434.509	470.62
434.731	454.62
434.953	475.62
435.175	466.62
435.397	514.62
435.618	492.62
435.84	560.62
436.062	605.62
436.284	665.62
436.505	572.62
436.727	509.62
436.949	485.62
437.17	490.62
437.392	475.62
437.614	496.62
437.835	512.62
438.057	569.62
438.278	670.62
438.5	644.62
438.721	731.62
438.943	667.62
439.165	565.62
439.386	530.62
439.608	536.62
439.829	485.62
440.05	512.62
440.272	549.62
440.493	522.62
440.715	512.62
440.936	478.62
441.158	470.62
441.379	466.62
441.6	492.62
441.822	507.62
442.043	543.62
442.264	617.62
442.486	620.62
442.707	552.62
442.928	516.62
443.149	533.62
443.371	548.62
443.592	591.62
443.813	639.62
444.034	725.62
444.255	590.62
444.476	517.62
444.698	533.62
444.919	514.62
445.14	597.62
445.361	568.62
445.582	553.62
445.803	606.62
446.024	672.62
446.245	684.62
446.466	599.62
446.687	522.62
446.908	520.62
447.129	459.62
447.35	479.62
447.571	478.62
447.792	458.62
448.013	457.62
448.234	489.62
448.455	532.62
448.675	628.62
448.896	694.62
449.117	609.62
449.338	568.62
449.559	658.62
449.779	770.62
450	590.62
450.221	497.62
450.442	445.62
450.662	450.62
450.883	443.62
451.104	460.62
451.324	440.62
451.545	436.62
451.766	427.62
451.986	412.62
452.207	410.62
452.428	399.62
452.648	423.62
452.869	422.62
453.089	409.62
453.31	415.62
453.53	421.62
453.751	419.62
453.971	420.62
454.192	424.62
454.412	425.62
454.633	405.62
454.853	402.62
455.073	391.62
455.294	450.62
455.514	458.62
455.734	448.62
455.955	389.62
456.175	386.62
456.395	390.62
456.616	406.62
456.836	402.62
457.056	384.62
457.276	396.62
457.497	403.62
457.717	390.62
457.937	411.62
458.157	398.62
458.377	392.62
458.598	433.62
458.818	465.62
459.038	495.62
459.258	548.62
459.478	476.62
459.698	467.62
459.918	462.62
460.138	449.62
460.358	475.62
460.578	450.62
460.798	469.62
461.018	455.62
461.238	479.62
461.458	461.62
461.678	464.62
461.898	455.62
462.118	436.62
462.338	469.62
462.558	514.62
462.777	472.62
462.997	502.62
463.217	523.62
463.437	537.62
463.657	516.62
463.876	520.62
464.096	500.62
464.316	510.62
464.536	491.62
464.755	498.62
464.975	498.62
465.195	506.62
465.414	520.62
465.634	512.62
465.854	466.62
466.073	447.62
466.293	430.62
466.512	420.62
466.732	427.62
466.951	444.62
467.171	427.62
467.391	436.62
467.61	434.62
467.829	426.62
468.049	454.62
468.268	436.62
468.488	427.62
468.707	435.62
468.927	405.62
469.146	416.62
469.365	429.62
469.585	412.62
469.804	422.62
470.023	414.62
470.243	432.62
470.462	418.62
470.681	414.62
470.901	436.62
471.12	444.62
471.339	441.62
471.558	432.62
471.777	472.62
471.997	434.62
472.216	424.62
472.435	464.62
472.654	434.62
472.873	435.62
473.092	425.62
473.311	446.62
473.53	448.62
473.749	452.62
473.968	484.62
474.187	533.62
474.406	542.62
474.625	480.62
474.844	424.62
475.063	448.62
475.282	419.62
475.501	441.62
475.72	461.62
475.939	457.62
476.158	458.62
476.377	445.62
476.596	440.62
476.814	445.62
477.033	449.62
477.252	450.62
477.471	475.62
477.69	456.62
477.908	497.62
478.127	482.62
478.346	477.62
478.564	476.62
478.783	493.62
479.002	480.62
479.22	496.62
479.439	507.62
479.658	492.62
479.876	529.62
480.095	533.62
480.313	544.62
480.532	548.62
480.751	548.62
480.969	540.62
481.188	604.62
481.406	610.62
481.624	521.62
481.843	528.62
482.061	522.62
482.28	504.62
482.498	514.62
482.717	496.62
482.935	489.62
483.153	494.62
483.372	497.62
483.59	520.62
483.808	504.62
484.027	507.62
484.245	482.62
484.463	497.62
484.681	528.62
484.9	511.62
485.118	511.62
485.336	514.62
485.554	523.62
485.772	516.62
485.99	516.62
486.209	528.62
486.427	506.62
486.645	522.62
486.863	537.62
487.081	549.62
487.299	509.62
487.517	541.62
487.735	505.62
487.953	530.62
488.171	536.62
488.389	534.62
488.607	524.62
488.825	545.62
489.043	526.62
489.261	541.62
489.479	531.62
489.696	523.62
489.914	548.62
490.132	536.62
490.35	559.62
490.568	532.62
490.786	564.62
491.003	574.62
491.221	568.62
491.439	585.62
491.657	596.62
491.874	586.62
492.092	605.62
492.31	613.62
492.527	585.62
492.745	595.62
492.963	607.62
493.18	608.62
493.398	592.62
493.615	588.62
493.833	624.62
494.05	618.62
494.268	612.62
494.485	626.62
494.703	599.62
494.92	623.62
495.138	632.62
495.355	608.62
495.573	616.62
495.79	604.62
496.008	600.62
496.225	604.62
496.442	597.62
496.66	617.62
496.877	630.62
497.094	617.62
497.312	630.62
497.529	638.62
497.746	656.62
497.963	666.62
498.181	673.62
498.398	683.62
498.615	719.62
498.832	733.62
499.049	734.62
499.267	746.62
499.484	786.62
499.701	803.62
499.918	872.62
500.135	907.62
500.352	928.62
500.569	970.62
500.786	944.62
501.003	930.62
501.22	907.62
501.437	848.62
501.654	836.62
501.871	810.62
502.088	818.62
