Data from 1964.PennyLincolnUp.Lamp.En5.5.200Scan.071719.P1._HRD10591_14-05-31-909.txt Node
Date: Thu Jul 18 14:05:31 EDT 2019
User: cochatt
Spectrometer: HR+D1059
Trigger mode: 1
Integration Time (sec): 1.000000E-1
Scans to average: 1
Electric dark correction enabled: true
Nonlinearity correction enabled: false
Boxcar width: 0
XAxis mode: Wavelengths
Number of Pixels in Spectrum: 2048
>>>>>Begin Spectral Data<<<<<
223.165	-12.12
223.4	-12.12
223.635	-12.12
223.869	-22.12
224.104	-6.12
224.338	-28.12
224.573	-8.12
224.808	-4.12
225.042	-1.12
225.277	-9.12
225.511	-5.12
225.746	0.88
225.98	-8.12
226.215	3.88
226.449	19.88
226.683	16.88
226.918	23.88
227.152	38.88
227.387	46.88
227.621	31.88
227.856	50.88
228.09	52.88
228.324	55.88
228.559	55.88
228.793	57.88
229.027	86.88
229.262	98.88
229.496	103.88
229.73	117.88
229.964	131.88
230.199	122.88
230.433	106.88
230.667	91.88
230.901	99.88
231.136	110.88
231.37	109.88
231.604	102.88
231.838	87.88
232.072	88.88
232.306	108.88
232.541	116.88
232.775	110.88
233.009	106.88
233.243	121.88
233.477	124.88
233.711	123.88
233.945	119.88
234.179	111.88
234.413	103.88
234.647	118.88
234.881	105.88
235.115	96.88
235.349	117.88
235.583	126.88
235.817	126.88
236.051	127.88
236.285	118.88
236.519	132.88
236.753	125.88
236.987	138.88
237.221	168.88
237.455	198.88
237.689	164.88
237.922	141.88
238.156	132.88
238.39	126.88
238.624	125.88
238.858	123.88
239.091	123.88
239.325	132.88
239.559	135.88
239.793	133.88
240.027	127.88
240.26	144.88
240.494	144.88
240.728	140.88
240.961	150.88
241.195	133.88
241.429	134.88
241.662	131.88
241.896	132.88
242.13	141.88
242.363	142.88
242.597	145.88
242.83	130.88
243.064	140.88
243.298	146.88
243.531	128.88
243.765	125.88
243.998	144.88
244.232	145.88
244.465	147.88
244.699	151.88
244.932	155.88
245.166	150.88
245.399	155.88
245.633	140.88
245.866	135.88
246.099	138.88
246.333	148.88
246.566	159.88
246.8	150.88
247.033	140.88
247.266	161.88
247.5	165.88
247.733	162.88
247.966	165.88
248.2	180.88
248.433	184.88
248.666	182.88
248.899	174.88
249.133	170.88
249.366	196.88
249.599	198.88
249.832	179.88
250.066	186.88
250.299	188.88
250.532	178.88
250.765	191.88
250.998	221.88
251.231	219.88
251.465	209.88
251.698	214.88
251.931	187.88
252.164	198.88
252.397	186.88
252.63	202.88
252.863	192.88
253.096	212.88
253.329	220.88
253.562	216.88
253.795	219.88
254.028	214.88
254.261	220.88
254.494	218.88
254.727	256.88
254.96	250.88
255.193	247.88
255.426	240.88
255.659	217.88
255.892	224.88
256.124	223.88
256.357	239.88
256.59	216.88
256.823	220.88
257.056	227.88
257.289	221.88
257.521	227.88
257.754	212.88
257.987	216.88
258.22	223.88
258.452	200.88
258.685	203.88
258.918	217.88
259.151	208.88
259.383	224.88
259.616	221.88
259.849	239.88
260.081	222.88
260.314	250.88
260.547	268.88
260.779	264.88
261.012	262.88
261.244	229.88
261.477	227.88
261.71	230.88
261.942	214.88
262.175	230.88
262.407	222.88
262.64	223.88
262.872	230.88
263.105	213.88
263.337	218.88
263.57	220.88
263.802	228.88
264.035	220.88
264.267	221.88
264.499	215.88
264.732	229.88
264.964	224.88
265.197	229.88
265.429	230.88
265.661	213.88
265.894	226.88
266.126	228.88
266.358	230.88
266.591	238.88
266.823	225.88
267.055	208.88
267.287	240.88
267.52	227.88
267.752	227.88
267.984	237.88
268.216	254.88
268.448	244.88
268.681	258.88
268.913	256.88
269.145	259.88
269.377	266.88
269.609	296.88
269.841	266.88
270.073	280.88
270.306	318.88
270.538	324.88
270.77	296.88
271.002	324.88
271.234	282.88
271.466	306.88
271.698	311.88
271.93	330.88
272.162	317.88
272.394	340.88
272.626	301.88
272.858	295.88
273.09	283.88
273.322	300.88
273.553	287.88
273.785	270.88
274.017	291.88
274.249	278.88
274.481	268.88
274.713	284.88
274.945	295.88
275.176	272.88
275.408	275.88
275.64	285.88
275.872	278.88
276.104	294.88
276.335	276.88
276.567	286.88
276.799	302.88
277.031	308.88
277.262	310.88
277.494	319.88
277.726	312.88
277.957	292.88
278.189	310.88
278.421	288.88
278.652	286.88
278.884	286.88
279.115	285.88
279.347	288.88
279.579	294.88
279.81	276.88
280.042	280.88
280.273	288.88
280.505	307.88
280.736	279.88
280.968	294.88
281.199	292.88
281.431	298.88
281.662	312.88
281.894	290.88
282.125	297.88
282.356	315.88
282.588	306.88
282.819	326.88
283.051	296.88
283.282	301.88
283.513	303.88
283.745	300.88
283.976	300.88
284.207	316.88
284.439	331.88
284.67	329.88
284.901	303.88
285.132	301.88
285.364	308.88
285.595	324.88
285.826	302.88
286.057	317.88
286.288	290.88
286.52	298.88
286.751	308.88
286.982	300.88
287.213	308.88
287.444	294.88
287.675	326.88
287.906	318.88
288.138	334.88
288.369	326.88
288.6	329.88
288.831	314.88
289.062	329.88
289.293	334.88
289.524	309.88
289.755	334.88
289.986	315.88
290.217	323.88
290.448	319.88
290.679	326.88
290.91	310.88
291.141	324.88
291.371	336.88
291.602	328.88
291.833	326.88
292.064	316.88
292.295	319.88
292.526	322.88
292.757	330.88
292.987	327.88
293.218	303.88
293.449	332.88
293.68	310.88
293.91	314.88
294.141	335.88
294.372	308.88
294.603	323.88
294.833	339.88
295.064	309.88
295.295	343.88
295.525	347.88
295.756	324.88
295.987	322.88
296.217	364.88
296.448	349.88
296.679	326.88
296.909	333.88
297.14	338.88
297.37	325.88
297.601	322.88
297.831	327.88
298.062	338.88
298.292	343.88
298.523	330.88
298.753	340.88
298.984	336.88
299.214	321.88
299.445	340.88
299.675	336.88
299.905	336.88
300.136	335.88
300.366	346.88
300.597	342.88
300.827	352.88
301.057	369.88
301.288	340.88
301.518	353.88
301.748	348.88
301.979	372.88
302.209	372.88
302.439	381.88
302.669	369.88
302.9	361.88
303.13	349.88
303.36	370.88
303.59	350.88
303.82	374.88
304.051	364.88
304.281	362.88
304.511	389.88
304.741	359.88
304.971	354.88
305.201	357.88
305.431	340.88
305.661	366.88
305.891	359.88
306.121	347.88
306.352	348.88
306.582	354.88
306.812	356.88
307.042	357.88
307.272	364.88
307.502	361.88
307.731	370.88
307.961	356.88
308.191	371.88
308.421	363.88
308.651	370.88
308.881	372.88
309.111	389.88
309.341	379.88
309.571	372.88
309.8	387.88
310.03	391.88
310.26	398.88
310.49	385.88
310.72	396.88
310.949	390.88
311.179	394.88
311.409	395.88
311.639	407.88
311.868	398.88
312.098	406.88
312.328	406.88
312.557	400.88
312.787	435.88
313.017	408.88
313.246	396.88
313.476	394.88
313.706	394.88
313.935	389.88
314.165	418.88
314.394	413.88
314.624	424.88
314.853	404.88
315.083	410.88
315.312	394.88
315.542	394.88
315.771	399.88
316.001	397.88
316.23	382.88
316.46	403.88
316.689	403.88
316.919	404.88
317.148	382.88
317.377	422.88
317.607	411.88
317.836	390.88
318.065	414.88
318.295	414.88
318.524	410.88
318.753	402.88
318.983	410.88
319.212	418.88
319.441	406.88
319.67	420.88
319.9	402.88
320.129	400.88
320.358	410.88
320.587	418.88
320.816	391.88
321.046	415.88
321.275	410.88
321.504	407.88
321.733	427.88
321.962	434.88
322.191	438.88
322.42	431.88
322.649	414.88
322.878	446.88
323.108	452.88
323.337	464.88
323.566	466.88
323.795	485.88
324.024	518.88
324.253	586.88
324.482	798.88
324.71	1179.88
324.939	1632.88
325.168	1410.88
325.397	756.88
325.626	560.88
325.855	530.88
326.084	482.88
326.313	465.88
326.542	490.88
326.77	515.88
326.999	580.88
327.228	740.88
327.457	1061.88
327.686	1218.88
327.914	839.88
328.143	599.88
328.372	554.88
328.6	546.88
328.829	518.88
329.058	532.88
329.287	536.88
329.515	505.88
329.744	502.88
329.972	475.88
330.201	510.88
330.43	543.88
330.658	538.88
330.887	535.88
331.115	546.88
331.344	515.88
331.572	500.88
331.801	475.88
332.03	496.88
332.258	471.88
332.486	476.88
332.715	480.88
332.943	459.88
333.172	491.88
333.4	476.88
333.629	492.88
333.857	501.88
334.085	518.88
334.314	565.88
334.542	552.88
334.771	553.88
334.999	521.88
335.227	503.88
335.455	478.88
335.684	489.88
335.912	489.88
336.14	468.88
336.369	482.88
336.597	488.88
336.825	463.88
337.053	460.88
337.281	473.88
337.51	465.88
337.738	463.88
337.966	466.88
338.194	446.88
338.422	470.88
338.65	448.88
338.878	468.88
339.106	465.88
339.334	452.88
339.562	454.88
339.79	446.88
340.018	436.88
340.246	421.88
340.474	451.88
340.702	448.88
340.93	436.88
341.158	436.88
341.386	443.88
341.614	456.88
341.842	442.88
342.07	442.88
342.298	456.88
342.526	452.88
342.754	416.88
342.981	419.88
343.209	444.88
343.437	445.88
343.665	451.88
343.893	480.88
344.12	459.88
344.348	459.88
344.576	487.88
344.804	469.88
345.031	454.88
345.259	439.88
345.487	463.88
345.714	444.88
345.942	436.88
346.17	444.88
346.397	406.88
346.625	421.88
346.853	415.88
347.08	430.88
347.308	436.88
347.535	434.88
347.763	403.88
347.99	421.88
348.218	435.88
348.445	422.88
348.673	421.88
348.9	415.88
349.128	421.88
349.355	418.88
349.583	398.88
349.81	394.88
350.037	411.88
350.265	404.88
350.492	416.88
350.72	431.88
350.947	418.88
351.174	412.88
351.402	415.88
351.629	427.88
351.856	420.88
352.083	423.88
352.311	434.88
352.538	414.88
352.765	418.88
352.992	422.88
353.22	408.88
353.447	400.88
353.674	400.88
353.901	427.88
354.128	391.88
354.355	384.88
354.583	395.88
354.81	396.88
355.037	388.88
355.264	399.88
355.491	394.88
355.718	398.88
355.945	414.88
356.172	399.88
356.399	399.88
356.626	397.88
356.853	395.88
357.08	397.88
357.307	395.88
357.534	402.88
357.761	378.88
357.988	402.88
358.215	386.88
358.441	406.88
358.668	400.88
358.895	395.88
359.122	411.88
359.349	416.88
359.576	393.88
359.802	426.88
360.029	446.88
360.256	457.88
360.483	439.88
360.709	426.88
360.936	385.88
361.163	410.88
361.39	404.88
361.616	408.88
361.843	403.88
362.07	381.88
362.296	411.88
362.523	387.88
362.749	403.88
362.976	395.88
363.203	414.88
363.429	396.88
363.656	406.88
363.882	386.88
364.109	390.88
364.335	386.88
364.562	390.88
364.788	380.88
365.015	388.88
365.241	392.88
365.468	392.88
365.694	388.88
365.92	373.88
366.147	380.88
366.373	393.88
366.599	395.88
366.826	392.88
367.052	392.88
367.278	394.88
367.505	375.88
367.731	402.88
367.957	400.88
368.184	387.88
368.41	393.88
368.636	392.88
368.862	399.88
369.089	394.88
369.315	395.88
369.541	405.88
369.767	380.88
369.993	399.88
370.219	388.88
370.445	390.88
370.672	407.88
370.898	393.88
371.124	379.88
371.35	394.88
371.576	403.88
371.802	394.88
372.028	397.88
372.254	387.88
372.48	388.88
372.706	379.88
372.932	378.88
373.158	398.88
373.384	393.88
373.61	400.88
373.835	376.88
374.061	425.88
374.287	398.88
374.513	416.88
374.739	412.88
374.965	384.88
375.191	424.88
375.416	403.88
375.642	391.88
375.868	399.88
376.094	374.88
376.319	359.88
376.545	388.88
376.771	398.88
376.997	389.88
377.222	396.88
377.448	400.88
377.674	394.88
377.899	375.88
378.125	366.88
378.35	367.88
378.576	398.88
378.802	382.88
379.027	394.88
379.253	411.88
379.478	384.88
379.704	398.88
379.929	408.88
380.155	395.88
380.38	396.88
380.606	399.88
380.831	403.88
381.057	399.88
381.282	371.88
381.507	392.88
381.733	401.88
381.958	397.88
382.184	376.88
382.409	396.88
382.634	394.88
382.86	408.88
383.085	416.88
383.31	413.88
383.535	392.88
383.761	400.88
383.986	388.88
384.211	399.88
384.436	413.88
384.662	405.88
384.887	423.88
385.112	416.88
385.337	422.88
385.562	399.88
385.787	441.88
386.013	452.88
386.238	429.88
386.463	418.88
386.688	420.88
386.913	431.88
387.138	421.88
387.363	417.88
387.588	438.88
387.813	433.88
388.038	425.88
388.263	428.88
388.488	427.88
388.713	436.88
388.938	411.88
389.163	436.88
389.387	441.88
389.612	424.88
389.837	413.88
390.062	428.88
390.287	443.88
390.512	425.88
390.736	422.88
390.961	424.88
391.186	410.88
391.411	413.88
391.636	432.88
391.86	441.88
392.085	443.88
392.31	444.88
392.534	437.88
392.759	432.88
392.984	425.88
393.208	416.88
393.433	440.88
393.658	425.88
393.882	425.88
394.107	435.88
394.331	433.88
394.556	430.88
394.78	450.88
395.005	451.88
395.229	435.88
395.454	444.88
395.678	445.88
395.903	455.88
396.127	464.88
396.352	454.88
396.576	435.88
396.801	444.88
397.025	437.88
397.249	444.88
397.474	448.88
397.698	434.88
397.922	465.88
398.147	487.88
398.371	458.88
398.595	462.88
398.82	469.88
399.044	511.88
399.268	511.88
399.492	553.88
399.717	562.88
399.941	583.88
400.165	589.88
400.389	586.88
400.613	551.88
400.837	509.88
401.062	509.88
401.286	487.88
401.51	476.88
401.734	474.88
401.958	479.88
402.182	460.88
402.406	474.88
402.63	482.88
402.854	492.88
403.078	474.88
403.302	495.88
403.526	499.88
403.75	491.88
403.974	494.88
404.198	522.88
404.422	500.88
404.645	501.88
404.869	500.88
405.093	517.88
405.317	576.88
405.541	586.88
405.765	535.88
405.988	523.88
406.212	501.88
406.436	532.88
406.66	554.88
406.883	528.88
407.107	548.88
407.331	589.88
407.555	629.88
407.778	613.88
408.002	576.88
408.226	554.88
408.449	569.88
408.673	551.88
408.896	568.88
409.12	588.88
409.344	564.88
409.567	527.88
409.791	494.88
410.014	484.88
410.238	486.88
410.461	495.88
410.685	492.88
410.908	531.88
411.132	506.88
411.355	538.88
411.578	541.88
411.802	474.88
412.025	507.88
412.249	493.88
412.472	515.88
412.695	535.88
412.919	536.88
413.142	503.88
413.365	471.88
413.589	494.88
413.812	484.88
414.035	478.88
414.258	458.88
414.482	488.88
414.705	472.88
414.928	445.88
415.151	468.88
415.374	464.88
415.597	449.88
415.821	464.88
416.044	457.88
416.267	476.88
416.49	434.88
416.713	447.88
416.936	458.88
417.159	458.88
417.382	459.88
417.605	462.88
417.828	459.88
418.051	480.88
418.274	492.88
418.497	456.88
418.72	460.88
418.943	452.88
419.166	463.88
419.389	512.88
419.611	475.88
419.834	464.88
420.057	471.88
420.28	485.88
420.503	490.88
420.726	485.88
420.948	495.88
421.171	514.88
421.394	536.88
421.617	499.88
421.839	480.88
422.062	498.88
422.285	460.88
422.507	532.88
422.73	566.88
422.953	531.88
423.175	499.88
423.398	477.88
423.621	483.88
423.843	494.88
424.066	506.88
424.288	486.88
424.511	501.88
424.733	554.88
424.956	615.88
425.178	590.88
425.401	574.88
425.623	601.88
425.846	508.88
426.068	479.88
426.291	494.88
426.513	487.88
426.735	508.88
426.958	508.88
427.18	605.88
427.402	673.88
427.625	728.88
427.847	653.88
428.069	586.88
428.292	510.88
428.514	474.88
428.736	475.88
428.958	452.88
429.181	455.88
429.403	445.88
429.625	469.88
429.847	474.88
430.069	500.88
430.292	539.88
430.514	465.88
430.736	455.88
430.958	455.88
431.18	442.88
431.402	451.88
431.624	439.88
431.846	443.88
432.068	436.88
432.29	439.88
432.512	438.88
432.734	435.88
432.956	440.88
433.178	442.88
433.4	450.88
433.622	438.88
433.844	439.88
434.066	441.88
434.287	431.88
434.509	457.88
434.731	443.88
434.953	437.88
435.175	478.88
435.397	485.88
435.618	476.88
435.84	520.88
436.062	596.88
436.284	620.88
436.505	524.88
436.727	479.88
436.949	459.88
437.17	446.88
437.392	452.88
437.614	455.88
437.835	486.88
438.057	552.88
438.278	603.88
438.5	604.88
438.721	662.88
438.943	646.88
439.165	536.88
439.386	502.88
439.608	489.88
439.829	485.88
440.05	491.88
440.272	520.88
440.493	500.88
440.715	477.88
440.936	487.88
441.158	459.88
441.379	450.88
441.6	455.88
441.822	504.88
442.043	518.88
442.264	575.88
442.486	598.88
442.707	526.88
442.928	482.88
443.149	499.88
443.371	514.88
443.592	509.88
443.813	610.88
444.034	664.88
444.255	548.88
444.476	524.88
444.698	506.88
444.919	485.88
445.14	596.88
445.361	555.88
445.582	520.88
445.803	564.88
446.024	639.88
446.245	632.88
446.466	580.88
446.687	493.88
446.908	473.88
447.129	452.88
447.35	436.88
447.571	442.88
447.792	442.88
448.013	419.88
448.234	442.88
448.455	490.88
448.675	597.88
448.896	666.88
449.117	594.88
449.338	530.88
449.559	631.88
449.779	700.88
450	548.88
450.221	464.88
450.442	456.88
450.662	423.88
450.883	426.88
451.104	420.88
451.324	425.88
451.545	406.88
451.766	431.88
451.986	409.88
452.207	398.88
452.428	380.88
452.648	390.88
452.869	387.88
453.089	396.88
453.31	397.88
453.53	403.88
453.751	380.88
453.971	398.88
454.192	399.88
454.412	401.88
454.633	391.88
454.853	380.88
455.073	384.88
455.294	404.88
455.514	482.88
455.734	454.88
455.955	403.88
456.175	382.88
456.395	382.88
456.616	393.88
456.836	380.88
457.056	387.88
457.276	374.88
457.497	377.88
457.717	385.88
457.937	379.88
458.157	390.88
458.377	392.88
458.598	411.88
458.818	411.88
459.038	491.88
459.258	504.88
459.478	450.88
459.698	427.88
459.918	413.88
460.138	420.88
460.358	440.88
460.578	438.88
460.798	469.88
461.018	456.88
461.238	427.88
461.458	431.88
461.678	440.88
461.898	447.88
462.118	456.88
462.338	465.88
462.558	461.88
462.777	476.88
462.997	494.88
463.217	480.88
463.437	505.88
463.657	479.88
463.876	485.88
464.096	451.88
464.316	484.88
464.536	478.88
464.755	478.88
464.975	484.88
465.195	493.88
465.414	516.88
465.634	470.88
465.854	442.88
466.073	422.88
466.293	430.88
466.512	406.88
466.732	410.88
466.951	406.88
467.171	401.88
467.391	400.88
467.61	415.88
467.829	413.88
468.049	411.88
468.268	408.88
468.488	386.88
468.707	415.88
468.927	393.88
469.146	408.88
469.365	392.88
469.585	400.88
469.804	417.88
470.023	402.88
470.243	408.88
470.462	389.88
470.681	423.88
470.901	419.88
471.12	430.88
471.339	423.88
471.558	441.88
471.777	410.88
471.997	410.88
472.216	418.88
472.435	435.88
472.654	418.88
472.873	405.88
473.092	413.88
473.311	416.88
473.53	404.88
473.749	416.88
473.968	430.88
474.187	504.88
474.406	515.88
474.625	439.88
474.844	411.88
475.063	415.88
475.282	421.88
475.501	398.88
475.72	423.88
475.939	426.88
476.158	439.88
476.377	436.88
476.596	456.88
476.814	428.88
477.033	432.88
477.252	431.88
477.471	429.88
477.69	427.88
477.908	448.88
478.127	438.88
478.346	424.88
478.564	465.88
478.783	450.88
479.002	456.88
479.22	463.88
479.439	469.88
479.658	478.88
479.876	478.88
480.095	509.88
480.313	542.88
480.532	500.88
480.751	507.88
480.969	493.88
481.188	527.88
481.406	537.88
481.624	495.88
481.843	470.88
482.061	470.88
482.28	491.88
482.498	474.88
482.717	451.88
482.935	465.88
483.153	466.88
483.372	475.88
483.59	480.88
483.808	475.88
484.027	469.88
484.245	478.88
484.463	479.88
484.681	474.88
484.9	501.88
485.118	498.88
485.336	486.88
485.554	501.88
485.772	495.88
485.99	480.88
486.209	479.88
486.427	497.88
486.645	516.88
486.863	521.88
487.081	508.88
487.299	495.88
487.517	493.88
487.735	510.88
487.953	490.88
488.171	514.88
488.389	481.88
488.607	510.88
488.825	498.88
489.043	521.88
489.261	515.88
489.479	525.88
489.696	504.88
489.914	512.88
490.132	525.88
490.35	518.88
490.568	526.88
490.786	547.88
491.003	530.88
491.221	548.88
491.439	548.88
491.657	551.88
491.874	557.88
492.092	547.88
492.31	552.88
492.527	559.88
492.745	569.88
492.963	582.88
493.18	578.88
493.398	586.88
493.615	576.88
493.833	592.88
494.05	568.88
494.268	598.88
494.485	574.88
494.703	576.88
494.92	595.88
495.138	582.88
495.355	608.88
495.573	604.88
495.79	593.88
496.008	604.88
496.225	583.88
496.442	574.88
496.66	594.88
496.877	592.88
497.094	606.88
497.312	603.88
497.529	603.88
497.746	619.88
497.963	622.88
498.181	616.88
498.398	649.88
498.615	671.88
498.832	678.88
499.049	700.88
499.267	696.88
499.484	748.88
499.701	796.88
499.918	809.88
500.135	871.88
500.352	894.88
500.569	925.88
500.786	924.88
501.003	899.88
501.22	858.88
501.437	824.88
501.654	784.88
501.871	778.88
502.088	760.88
