Data from 1964.PennyLincolnUp.Lamp.En5.5.200Scan.071719.P1._HRD10591_14-06-26-914.txt Node
Date: Thu Jul 18 14:06:26 EDT 2019
User: cochatt
Spectrometer: HR+D1059
Trigger mode: 1
Integration Time (sec): 1.000000E-1
Scans to average: 1
Electric dark correction enabled: true
Nonlinearity correction enabled: false
Boxcar width: 0
XAxis mode: Wavelengths
Number of Pixels in Spectrum: 2048
>>>>>Begin Spectral Data<<<<<
223.165	-5.62
223.4	-5.62
223.635	-5.62
223.869	-24.62
224.104	-22.62
224.338	-9.62
224.573	-14.62
224.808	-16.62
225.042	-4.62
225.277	5.38
225.511	-13.62
225.746	5.38
225.98	15.38
226.215	4.38
226.449	11.38
226.683	21.38
226.918	17.38
227.152	31.38
227.387	31.38
227.621	42.38
227.856	39.38
228.09	49.38
228.324	51.38
228.559	65.38
228.793	62.38
229.027	94.38
229.262	91.38
229.496	114.38
229.73	130.38
229.964	147.38
230.199	121.38
230.433	101.38
230.667	113.38
230.901	118.38
231.136	111.38
231.37	123.38
231.604	122.38
231.838	115.38
232.072	122.38
232.306	111.38
232.541	107.38
232.775	110.38
233.009	118.38
233.243	117.38
233.477	122.38
233.711	124.38
233.945	110.38
234.179	119.38
234.413	119.38
234.647	115.38
234.881	118.38
235.115	100.38
235.349	112.38
235.583	125.38
235.817	120.38
236.051	111.38
236.285	119.38
236.519	127.38
236.753	126.38
236.987	134.38
237.221	167.38
237.455	209.38
237.689	158.38
237.922	139.38
238.156	123.38
238.39	137.38
238.624	125.38
238.858	110.38
239.091	131.38
239.325	117.38
239.559	119.38
239.793	125.38
240.027	117.38
240.26	135.38
240.494	141.38
240.728	133.38
240.961	166.38
241.195	149.38
241.429	151.38
241.662	136.38
241.896	133.38
242.13	139.38
242.363	135.38
242.597	139.38
242.83	138.38
243.064	133.38
243.298	132.38
243.531	138.38
243.765	132.38
243.998	147.38
244.232	153.38
244.465	151.38
244.699	119.38
244.932	151.38
245.166	153.38
245.399	150.38
245.633	155.38
245.866	151.38
246.099	142.38
246.333	159.38
246.566	151.38
246.8	135.38
247.033	171.38
247.266	165.38
247.5	153.38
247.733	179.38
247.966	172.38
248.2	174.38
248.433	168.38
248.666	181.38
248.899	185.38
249.133	183.38
249.366	200.38
249.599	187.38
249.832	197.38
250.066	189.38
250.299	187.38
250.532	187.38
250.765	204.38
250.998	215.38
251.231	226.38
251.465	217.38
251.698	206.38
251.931	193.38
252.164	203.38
252.397	189.38
252.63	205.38
252.863	212.38
253.096	214.38
253.329	227.38
253.562	228.38
253.795	220.38
254.028	229.38
254.261	225.38
254.494	222.38
254.727	261.38
254.96	263.38
255.193	265.38
255.426	236.38
255.659	232.38
255.892	241.38
256.124	236.38
256.357	236.38
256.59	247.38
256.823	225.38
257.056	228.38
257.289	199.38
257.521	217.38
257.754	223.38
257.987	210.38
258.22	203.38
258.452	215.38
258.685	213.38
258.918	207.38
259.151	218.38
259.383	215.38
259.616	224.38
259.849	233.38
260.081	246.38
260.314	241.38
260.547	249.38
260.779	245.38
261.012	259.38
261.244	245.38
261.477	235.38
261.71	221.38
261.942	225.38
262.175	221.38
262.407	231.38
262.64	224.38
262.872	238.38
263.105	224.38
263.337	228.38
263.57	226.38
263.802	235.38
264.035	221.38
264.267	212.38
264.499	232.38
264.732	232.38
264.964	231.38
265.197	228.38
265.429	233.38
265.661	231.38
265.894	245.38
266.126	213.38
266.358	221.38
266.591	242.38
266.823	234.38
267.055	232.38
267.287	248.38
267.52	261.38
267.752	237.38
267.984	247.38
268.216	259.38
268.448	250.38
268.681	261.38
268.913	262.38
269.145	282.38
269.377	291.38
269.609	283.38
269.841	281.38
270.073	275.38
270.306	310.38
270.538	333.38
270.77	315.38
271.002	324.38
271.234	321.38
271.466	300.38
271.698	315.38
271.93	317.38
272.162	333.38
272.394	306.38
272.626	305.38
272.858	317.38
273.09	311.38
273.322	297.38
273.553	276.38
273.785	287.38
274.017	281.38
274.249	275.38
274.481	275.38
274.713	274.38
274.945	291.38
275.176	291.38
275.408	293.38
275.64	281.38
275.872	290.38
276.104	281.38
276.335	287.38
276.567	293.38
276.799	297.38
277.031	313.38
277.262	315.38
277.494	330.38
277.726	333.38
277.957	311.38
278.189	311.38
278.421	302.38
278.652	301.38
278.884	306.38
279.115	305.38
279.347	303.38
279.579	303.38
279.81	283.38
280.042	297.38
280.273	300.38
280.505	291.38
280.736	292.38
280.968	286.38
281.199	309.38
281.431	294.38
281.662	292.38
281.894	291.38
282.125	314.38
282.356	314.38
282.588	326.38
282.819	335.38
283.051	325.38
283.282	323.38
283.513	294.38
283.745	301.38
283.976	321.38
284.207	318.38
284.439	327.38
284.67	318.38
284.901	295.38
285.132	324.38
285.364	331.38
285.595	320.38
285.826	319.38
286.057	308.38
286.288	305.38
286.52	309.38
286.751	315.38
286.982	323.38
287.213	326.38
287.444	326.38
287.675	314.38
287.906	338.38
288.138	339.38
288.369	330.38
288.6	326.38
288.831	335.38
289.062	326.38
289.293	333.38
289.524	326.38
289.755	338.38
289.986	327.38
290.217	320.38
290.448	340.38
290.679	325.38
290.91	315.38
291.141	327.38
291.371	332.38
291.602	353.38
291.833	338.38
292.064	332.38
292.295	329.38
292.526	316.38
292.757	331.38
292.987	331.38
293.218	333.38
293.449	334.38
293.68	330.38
293.91	328.38
294.141	323.38
294.372	341.38
294.603	324.38
294.833	334.38
295.064	327.38
295.295	330.38
295.525	336.38
295.756	347.38
295.987	348.38
296.217	358.38
296.448	370.38
296.679	347.38
296.909	335.38
297.14	352.38
297.37	331.38
297.601	362.38
297.831	372.38
298.062	341.38
298.292	352.38
298.523	342.38
298.753	345.38
298.984	340.38
299.214	330.38
299.445	332.38
299.675	344.38
299.905	342.38
300.136	359.38
300.366	342.38
300.597	348.38
300.827	343.38
301.057	353.38
301.288	354.38
301.518	364.38
301.748	369.38
301.979	346.38
302.209	371.38
302.439	369.38
302.669	373.38
302.9	374.38
303.13	365.38
303.36	377.38
303.59	381.38
303.82	378.38
304.051	371.38
304.281	386.38
304.511	375.38
304.741	378.38
304.971	369.38
305.201	393.38
305.431	369.38
305.661	373.38
305.891	375.38
306.121	373.38
306.352	374.38
306.582	381.38
306.812	373.38
307.042	381.38
307.272	392.38
307.502	389.38
307.731	383.38
307.961	389.38
308.191	360.38
308.421	395.38
308.651	367.38
308.881	389.38
309.111	363.38
309.341	369.38
309.571	379.38
309.8	396.38
310.03	406.38
310.26	393.38
310.49	409.38
310.72	401.38
310.949	420.38
311.179	387.38
311.409	423.38
311.639	390.38
311.868	394.38
312.098	425.38
312.328	419.38
312.557	438.38
312.787	419.38
313.017	406.38
313.246	426.38
313.476	437.38
313.706	404.38
313.935	431.38
314.165	422.38
314.394	437.38
314.624	407.38
314.853	413.38
315.083	414.38
315.312	403.38
315.542	412.38
315.771	400.38
316.001	399.38
316.23	407.38
316.46	413.38
316.689	406.38
316.919	418.38
317.148	428.38
317.377	425.38
317.607	420.38
317.836	408.38
318.065	403.38
318.295	416.38
318.524	422.38
318.753	411.38
318.983	417.38
319.212	413.38
319.441	415.38
319.67	417.38
319.9	412.38
320.129	397.38
320.358	425.38
320.587	407.38
320.816	421.38
321.046	421.38
321.275	433.38
321.504	434.38
321.733	430.38
321.962	427.38
322.191	451.38
322.42	445.38
322.649	461.38
322.878	438.38
323.108	454.38
323.337	497.38
323.566	492.38
323.795	508.38
324.024	538.38
324.253	629.38
324.482	890.38
324.71	1265.38
324.939	1789.38
325.168	1505.38
325.397	787.38
325.626	611.38
325.855	509.38
326.084	513.38
326.313	488.38
326.542	513.38
326.77	533.38
326.999	594.38
327.228	811.38
327.457	1171.38
327.686	1338.38
327.914	929.38
328.143	665.38
328.372	599.38
328.6	538.38
328.829	540.38
329.058	551.38
329.287	553.38
329.515	534.38
329.744	525.38
329.972	507.38
330.201	524.38
330.43	573.38
330.658	581.38
330.887	573.38
331.115	556.38
331.344	549.38
331.572	507.38
331.801	526.38
332.03	515.38
332.258	494.38
332.486	505.38
332.715	498.38
332.943	497.38
333.172	483.38
333.4	515.38
333.629	516.38
333.857	547.38
334.085	541.38
334.314	573.38
334.542	570.38
334.771	559.38
334.999	542.38
335.227	520.38
335.455	502.38
335.684	485.38
335.912	512.38
336.14	486.38
336.369	489.38
336.597	489.38
336.825	494.38
337.053	491.38
337.281	486.38
337.51	491.38
337.738	489.38
337.966	451.38
338.194	479.38
338.422	470.38
338.65	461.38
338.878	474.38
339.106	465.38
339.334	463.38
339.562	471.38
339.79	456.38
340.018	446.38
340.246	467.38
340.474	454.38
340.702	462.38
340.93	478.38
341.158	467.38
341.386	447.38
341.614	483.38
341.842	465.38
342.07	444.38
342.298	439.38
342.526	446.38
342.754	434.38
342.981	455.38
343.209	451.38
343.437	456.38
343.665	471.38
343.893	467.38
344.12	489.38
344.348	463.38
344.576	468.38
344.804	475.38
345.031	479.38
345.259	468.38
345.487	455.38
345.714	468.38
345.942	456.38
346.17	446.38
346.397	450.38
346.625	411.38
346.853	449.38
347.08	422.38
347.308	428.38
347.535	431.38
347.763	453.38
347.99	447.38
348.218	449.38
348.445	448.38
348.673	449.38
348.9	444.38
349.128	422.38
349.355	429.38
349.583	422.38
349.81	425.38
350.037	420.38
350.265	422.38
350.492	405.38
350.72	416.38
350.947	424.38
351.174	423.38
351.402	439.38
351.629	425.38
351.856	427.38
352.083	443.38
352.311	427.38
352.538	448.38
352.765	433.38
352.992	423.38
353.22	409.38
353.447	420.38
353.674	413.38
353.901	406.38
354.128	424.38
354.355	406.38
354.583	413.38
354.81	419.38
355.037	392.38
355.264	403.38
355.491	410.38
355.718	390.38
355.945	418.38
356.172	398.38
356.399	402.38
356.626	417.38
356.853	387.38
357.08	397.38
357.307	381.38
357.534	388.38
357.761	403.38
357.988	407.38
358.215	406.38
358.441	413.38
358.668	397.38
358.895	398.38
359.122	424.38
359.349	427.38
359.576	411.38
359.802	424.38
360.029	435.38
360.256	443.38
360.483	439.38
360.709	414.38
360.936	410.38
361.163	411.38
361.39	414.38
361.616	435.38
361.843	422.38
362.07	430.38
362.296	411.38
362.523	409.38
362.749	404.38
362.976	410.38
363.203	416.38
363.429	383.38
363.656	398.38
363.882	399.38
364.109	390.38
364.335	405.38
364.562	422.38
364.788	417.38
365.015	403.38
365.241	399.38
365.468	406.38
365.694	431.38
365.92	402.38
366.147	437.38
366.373	416.38
366.599	392.38
366.826	403.38
367.052	399.38
367.278	400.38
367.505	379.38
367.731	395.38
367.957	409.38
368.184	397.38
368.41	410.38
368.636	398.38
368.862	394.38
369.089	434.38
369.315	413.38
369.541	387.38
369.767	393.38
369.993	392.38
370.219	403.38
370.445	396.38
370.672	405.38
370.898	379.38
371.124	384.38
371.35	413.38
371.576	409.38
371.802	406.38
372.028	411.38
372.254	403.38
372.48	400.38
372.706	395.38
372.932	398.38
373.158	394.38
373.384	400.38
373.61	401.38
373.835	409.38
374.061	404.38
374.287	402.38
374.513	420.38
374.739	401.38
374.965	402.38
375.191	416.38
375.416	422.38
375.642	410.38
375.868	430.38
376.094	415.38
376.319	405.38
376.545	393.38
376.771	397.38
376.997	399.38
377.222	394.38
377.448	375.38
377.674	391.38
377.899	393.38
378.125	397.38
378.35	401.38
378.576	393.38
378.802	383.38
379.027	418.38
379.253	394.38
379.478	395.38
379.704	385.38
379.929	406.38
380.155	409.38
380.38	411.38
380.606	418.38
380.831	389.38
381.057	418.38
381.282	410.38
381.507	397.38
381.733	406.38
381.958	390.38
382.184	396.38
382.409	407.38
382.634	405.38
382.86	397.38
383.085	408.38
383.31	393.38
383.535	405.38
383.761	405.38
383.986	411.38
384.211	421.38
384.436	416.38
384.662	421.38
384.887	430.38
385.112	418.38
385.337	411.38
385.562	403.38
385.787	442.38
386.013	438.38
386.238	433.38
386.463	443.38
386.688	442.38
386.913	448.38
387.138	433.38
387.363	420.38
387.588	428.38
387.813	435.38
388.038	435.38
388.263	428.38
388.488	437.38
388.713	429.38
388.938	447.38
389.163	447.38
389.387	434.38
389.612	429.38
389.837	413.38
390.062	431.38
390.287	449.38
390.512	426.38
390.736	407.38
390.961	451.38
391.186	436.38
391.411	428.38
391.636	442.38
391.86	452.38
392.085	426.38
392.31	449.38
392.534	426.38
392.759	422.38
392.984	423.38
393.208	457.38
393.433	441.38
393.658	438.38
393.882	433.38
394.107	421.38
394.331	447.38
394.556	430.38
394.78	426.38
395.005	438.38
395.229	459.38
395.454	459.38
395.678	454.38
395.903	465.38
396.127	458.38
396.352	481.38
396.576	446.38
396.801	453.38
397.025	437.38
397.249	448.38
397.474	456.38
397.698	447.38
397.922	463.38
398.147	478.38
398.371	485.38
398.595	471.38
398.82	492.38
399.044	497.38
399.268	519.38
399.492	549.38
399.717	576.38
399.941	595.38
400.165	593.38
400.389	605.38
400.613	556.38
400.837	514.38
401.062	501.38
401.286	495.38
401.51	492.38
401.734	485.38
401.958	495.38
402.182	502.38
402.406	510.38
402.63	510.38
402.854	503.38
403.078	492.38
403.302	506.38
403.526	497.38
403.75	520.38
403.974	543.38
404.198	528.38
404.422	530.38
404.645	509.38
404.869	526.38
405.093	558.38
405.317	571.38
405.541	600.38
405.765	560.38
405.988	514.38
406.212	524.38
406.436	544.38
406.66	569.38
406.883	521.38
407.107	549.38
407.331	605.38
407.555	644.38
407.778	631.38
408.002	598.38
408.226	563.38
408.449	547.38
408.673	555.38
408.896	550.38
409.12	594.38
409.344	568.38
409.567	546.38
409.791	511.38
410.014	524.38
410.238	503.38
410.461	494.38
410.685	500.38
410.908	505.38
411.132	536.38
411.355	575.38
411.578	527.38
411.802	506.38
412.025	497.38
412.249	502.38
412.472	517.38
412.695	568.38
412.919	534.38
413.142	508.38
413.365	501.38
413.589	499.38
413.812	477.38
414.035	469.38
414.258	487.38
414.482	453.38
414.705	460.38
414.928	454.38
415.151	456.38
415.374	493.38
415.597	467.38
415.821	466.38
416.044	466.38
416.267	471.38
416.49	462.38
416.713	468.38
416.936	466.38
417.159	456.38
417.382	459.38
417.605	472.38
417.828	467.38
418.051	492.38
418.274	507.38
418.497	486.38
418.72	449.38
418.943	462.38
419.166	481.38
419.389	510.38
419.611	506.38
419.834	490.38
420.057	503.38
420.28	489.38
420.503	490.38
420.726	516.38
420.948	515.38
421.171	532.38
421.394	545.38
421.617	491.38
421.839	475.38
422.062	493.38
422.285	500.38
422.507	524.38
422.73	606.38
422.953	568.38
423.175	512.38
423.398	500.38
423.621	488.38
423.843	508.38
424.066	513.38
424.288	499.38
424.511	546.38
424.733	572.38
424.956	615.38
425.178	601.38
425.401	595.38
425.623	603.38
425.846	541.38
426.068	505.38
426.291	526.38
426.513	497.38
426.735	506.38
426.958	531.38
427.18	615.38
427.402	708.38
427.625	745.38
427.847	643.38
428.069	578.38
428.292	559.38
428.514	499.38
428.736	471.38
428.958	484.38
429.181	448.38
429.403	461.38
429.625	459.38
429.847	489.38
430.069	537.38
430.292	542.38
430.514	481.38
430.736	474.38
430.958	452.38
431.18	446.38
431.402	470.38
431.624	458.38
431.846	434.38
432.068	443.38
432.29	433.38
432.512	446.38
432.734	462.38
432.956	469.38
433.178	463.38
433.4	474.38
433.622	455.38
433.844	435.38
434.066	452.38
434.287	424.38
434.509	447.38
434.731	474.38
434.953	468.38
435.175	487.38
435.397	518.38
435.618	533.38
435.84	523.38
436.062	606.38
436.284	642.38
436.505	565.38
436.727	515.38
436.949	470.38
437.17	472.38
437.392	456.38
437.614	483.38
437.835	475.38
438.057	567.38
438.278	639.38
438.5	644.38
438.721	706.38
438.943	685.38
439.165	538.38
439.386	486.38
439.608	483.38
439.829	503.38
440.05	527.38
440.272	546.38
440.493	524.38
440.715	473.38
440.936	477.38
441.158	455.38
441.379	479.38
441.6	481.38
441.822	496.38
442.043	533.38
442.264	598.38
442.486	609.38
442.707	538.38
442.928	511.38
443.149	511.38
443.371	527.38
443.592	582.38
443.813	634.38
444.034	670.38
444.255	569.38
444.476	492.38
444.698	524.38
444.919	511.38
445.14	610.38
445.361	572.38
445.582	557.38
445.803	591.38
446.024	670.38
446.245	645.38
446.466	608.38
446.687	527.38
446.908	492.38
447.129	474.38
447.35	461.38
447.571	469.38
447.792	467.38
448.013	467.38
448.234	483.38
448.455	514.38
448.675	589.38
448.896	689.38
449.117	597.38
449.338	560.38
449.559	649.38
449.779	709.38
450	567.38
450.221	510.38
450.442	445.38
450.662	441.38
450.883	445.38
451.104	464.38
451.324	455.38
451.545	440.38
451.766	425.38
451.986	403.38
452.207	424.38
452.428	409.38
452.648	414.38
452.869	390.38
453.089	440.38
453.31	409.38
453.53	399.38
453.751	402.38
453.971	410.38
454.192	394.38
454.412	420.38
454.633	395.38
454.853	403.38
455.073	395.38
455.294	427.38
455.514	463.38
455.734	470.38
455.955	393.38
456.175	404.38
456.395	385.38
456.616	373.38
456.836	376.38
457.056	397.38
457.276	372.38
457.497	395.38
457.717	392.38
457.937	401.38
458.157	407.38
458.377	403.38
458.598	409.38
458.818	459.38
459.038	503.38
459.258	530.38
459.478	459.38
459.698	439.38
459.918	442.38
460.138	433.38
460.358	430.38
460.578	453.38
460.798	454.38
461.018	457.38
461.238	467.38
461.458	437.38
461.678	437.38
461.898	460.38
462.118	461.38
462.338	476.38
462.558	494.38
462.777	491.38
462.997	499.38
463.217	483.38
463.437	510.38
463.657	485.38
463.876	478.38
464.096	475.38
464.316	479.38
464.536	486.38
464.755	475.38
464.975	497.38
465.195	503.38
465.414	526.38
465.634	489.38
465.854	451.38
466.073	442.38
466.293	417.38
466.512	424.38
466.732	411.38
466.951	416.38
467.171	404.38
467.391	423.38
467.61	425.38
467.829	438.38
468.049	430.38
468.268	437.38
468.488	411.38
468.707	422.38
468.927	397.38
469.146	389.38
469.365	397.38
469.585	406.38
469.804	409.38
470.023	427.38
470.243	425.38
470.462	438.38
470.681	435.38
470.901	417.38
471.12	418.38
471.339	413.38
471.558	421.38
471.777	415.38
471.997	430.38
472.216	405.38
472.435	463.38
472.654	431.38
472.873	404.38
473.092	419.38
473.311	419.38
473.53	419.38
473.749	416.38
473.968	451.38
474.187	523.38
474.406	539.38
474.625	445.38
474.844	427.38
475.063	420.38
475.282	421.38
475.501	439.38
475.72	429.38
475.939	409.38
476.158	417.38
476.377	422.38
476.596	437.38
476.814	447.38
477.033	458.38
477.252	445.38
477.471	437.38
477.69	460.38
477.908	457.38
478.127	469.38
478.346	471.38
478.564	450.38
478.783	473.38
479.002	481.38
479.22	474.38
479.439	495.38
479.658	501.38
479.876	514.38
480.095	506.38
480.313	538.38
480.532	514.38
480.751	530.38
480.969	543.38
481.188	550.38
481.406	572.38
481.624	580.38
481.843	514.38
482.061	506.38
482.28	474.38
482.498	513.38
482.717	481.38
482.935	505.38
483.153	451.38
483.372	488.38
483.59	461.38
483.808	489.38
484.027	490.38
484.245	490.38
484.463	487.38
484.681	501.38
484.9	513.38
485.118	495.38
485.336	504.38
485.554	501.38
485.772	515.38
485.99	495.38
486.209	492.38
486.427	506.38
486.645	489.38
486.863	525.38
487.081	520.38
487.299	528.38
487.517	519.38
487.735	523.38
487.953	505.38
488.171	519.38
488.389	489.38
488.607	533.38
488.825	531.38
489.043	523.38
489.261	527.38
489.479	535.38
489.696	535.38
489.914	531.38
490.132	533.38
490.35	529.38
490.568	544.38
490.786	533.38
491.003	549.38
491.221	552.38
491.439	563.38
491.657	565.38
491.874	559.38
492.092	596.38
492.31	565.38
492.527	582.38
492.745	587.38
492.963	580.38
493.18	590.38
493.398	594.38
493.615	616.38
493.833	591.38
494.05	582.38
494.268	582.38
494.485	605.38
494.703	590.38
494.92	596.38
495.138	601.38
495.355	595.38
495.573	626.38
495.79	622.38
496.008	589.38
496.225	600.38
496.442	626.38
496.66	601.38
496.877	594.38
497.094	614.38
497.312	608.38
497.529	622.38
497.746	635.38
497.963	639.38
498.181	670.38
498.398	677.38
498.615	675.38
498.832	711.38
499.049	691.38
499.267	736.38
499.484	759.38
499.701	808.38
499.918	845.38
500.135	847.38
500.352	961.38
500.569	899.38
500.786	979.38
501.003	903.38
501.22	874.38
501.437	843.38
501.654	813.38
501.871	793.38
502.088	766.38
