Data from 1964.PennyLincolnUp.Lamp.En5.5.200Scan.071719.P1._HRD10591_14-03-31-908.txt Node
Date: Thu Jul 18 14:03:31 EDT 2019
User: cochatt
Spectrometer: HR+D1059
Trigger mode: 1
Integration Time (sec): 1.000000E-1
Scans to average: 1
Electric dark correction enabled: true
Nonlinearity correction enabled: false
Boxcar width: 0
XAxis mode: Wavelengths
Number of Pixels in Spectrum: 2048
>>>>>Begin Spectral Data<<<<<
223.165	-22.38
223.4	-22.38
223.635	-22.38
223.869	-10.38
224.104	-28.38
224.338	-14.38
224.573	-0.38
224.808	-12.38
225.042	-4.38
225.277	5.62
225.511	3.62
225.746	7.62
225.98	6.62
226.215	6.62
226.449	12.62
226.683	5.62
226.918	7.62
227.152	36.62
227.387	43.62
227.621	33.62
227.856	33.62
228.09	44.62
228.324	61.62
228.559	63.62
228.793	67.62
229.027	86.62
229.262	96.62
229.496	95.62
229.73	118.62
229.964	130.62
230.199	119.62
230.433	106.62
230.667	96.62
230.901	105.62
231.136	99.62
231.37	102.62
231.604	110.62
231.838	96.62
232.072	103.62
232.306	108.62
232.541	110.62
232.775	107.62
233.009	105.62
233.243	106.62
233.477	103.62
233.711	111.62
233.945	111.62
234.179	119.62
234.413	103.62
234.647	99.62
234.881	117.62
235.115	124.62
235.349	106.62
235.583	91.62
235.817	113.62
236.051	110.62
236.285	105.62
236.519	112.62
236.753	108.62
236.987	119.62
237.221	149.62
237.455	174.62
237.689	143.62
237.922	131.62
238.156	117.62
238.39	123.62
238.624	107.62
238.858	114.62
239.091	112.62
239.325	98.62
239.559	121.62
239.793	129.62
240.027	123.62
240.26	132.62
240.494	141.62
240.728	139.62
240.961	146.62
241.195	151.62
241.429	140.62
241.662	136.62
241.896	146.62
242.13	125.62
242.363	120.62
242.597	117.62
242.83	116.62
243.064	133.62
243.298	146.62
243.531	139.62
243.765	115.62
243.998	144.62
244.232	151.62
244.465	138.62
244.699	135.62
244.932	133.62
245.166	145.62
245.399	137.62
245.633	137.62
245.866	159.62
246.099	147.62
246.333	150.62
246.566	139.62
246.8	138.62
247.033	138.62
247.266	150.62
247.5	157.62
247.733	149.62
247.966	174.62
248.2	159.62
248.433	171.62
248.666	154.62
248.899	168.62
249.133	184.62
249.366	190.62
249.599	174.62
249.832	164.62
250.066	180.62
250.299	160.62
250.532	166.62
250.765	171.62
250.998	179.62
251.231	207.62
251.465	183.62
251.698	168.62
251.931	191.62
252.164	183.62
252.397	191.62
252.63	193.62
252.863	186.62
253.096	176.62
253.329	205.62
253.562	208.62
253.795	190.62
254.028	201.62
254.261	187.62
254.494	208.62
254.727	216.62
254.96	230.62
255.193	216.62
255.426	214.62
255.659	219.62
255.892	203.62
256.124	209.62
256.357	192.62
256.59	191.62
256.823	218.62
257.056	201.62
257.289	208.62
257.521	193.62
257.754	196.62
257.987	207.62
258.22	194.62
258.452	181.62
258.685	204.62
258.918	187.62
259.151	211.62
259.383	200.62
259.616	193.62
259.849	206.62
260.081	203.62
260.314	226.62
260.547	231.62
260.779	211.62
261.012	204.62
261.244	208.62
261.477	223.62
261.71	198.62
261.942	207.62
262.175	222.62
262.407	204.62
262.64	200.62
262.872	203.62
263.105	203.62
263.337	203.62
263.57	209.62
263.802	209.62
264.035	211.62
264.267	215.62
264.499	206.62
264.732	210.62
264.964	204.62
265.197	215.62
265.429	216.62
265.661	212.62
265.894	209.62
266.126	223.62
266.358	212.62
266.591	231.62
266.823	215.62
267.055	215.62
267.287	234.62
267.52	221.62
267.752	217.62
267.984	230.62
268.216	223.62
268.448	232.62
268.681	238.62
268.913	237.62
269.145	244.62
269.377	267.62
269.609	253.62
269.841	263.62
270.073	248.62
270.306	283.62
270.538	278.62
270.77	268.62
271.002	274.62
271.234	272.62
271.466	267.62
271.698	283.62
271.93	271.62
272.162	288.62
272.394	283.62
272.626	283.62
272.858	278.62
273.09	267.62
273.322	273.62
273.553	254.62
273.785	252.62
274.017	258.62
274.249	257.62
274.481	257.62
274.713	263.62
274.945	261.62
275.176	254.62
275.408	239.62
275.64	248.62
275.872	260.62
276.104	255.62
276.335	273.62
276.567	260.62
276.799	271.62
277.031	278.62
277.262	302.62
277.494	289.62
277.726	291.62
277.957	286.62
278.189	277.62
278.421	264.62
278.652	275.62
278.884	260.62
279.115	286.62
279.347	271.62
279.579	270.62
279.81	278.62
280.042	289.62
280.273	275.62
280.505	282.62
280.736	277.62
280.968	271.62
281.199	285.62
281.431	273.62
281.662	272.62
281.894	276.62
282.125	276.62
282.356	274.62
282.588	296.62
282.819	306.62
283.051	294.62
283.282	302.62
283.513	279.62
283.745	276.62
283.976	289.62
284.207	279.62
284.439	279.62
284.67	280.62
284.901	284.62
285.132	288.62
285.364	299.62
285.595	285.62
285.826	301.62
286.057	305.62
286.288	293.62
286.52	286.62
286.751	286.62
286.982	298.62
287.213	309.62
287.444	300.62
287.675	295.62
287.906	295.62
288.138	316.62
288.369	295.62
288.6	287.62
288.831	297.62
289.062	305.62
289.293	308.62
289.524	302.62
289.755	299.62
289.986	303.62
290.217	303.62
290.448	291.62
290.679	310.62
290.91	284.62
291.141	303.62
291.371	320.62
291.602	300.62
291.833	289.62
292.064	302.62
292.295	311.62
292.526	294.62
292.757	290.62
292.987	308.62
293.218	296.62
293.449	315.62
293.68	291.62
293.91	277.62
294.141	303.62
294.372	323.62
294.603	311.62
294.833	312.62
295.064	309.62
295.295	309.62
295.525	307.62
295.756	311.62
295.987	284.62
296.217	315.62
296.448	336.62
296.679	305.62
296.909	299.62
297.14	304.62
297.37	312.62
297.601	308.62
297.831	308.62
298.062	312.62
298.292	326.62
298.523	313.62
298.753	328.62
298.984	317.62
299.214	338.62
299.445	300.62
299.675	305.62
299.905	330.62
300.136	325.62
300.366	319.62
300.597	320.62
300.827	334.62
301.057	334.62
301.288	337.62
301.518	338.62
301.748	323.62
301.979	344.62
302.209	331.62
302.439	339.62
302.669	329.62
302.9	338.62
303.13	344.62
303.36	342.62
303.59	324.62
303.82	340.62
304.051	330.62
304.281	352.62
304.511	348.62
304.741	331.62
304.971	346.62
305.201	325.62
305.431	340.62
305.661	341.62
305.891	328.62
306.121	341.62
306.352	330.62
306.582	350.62
306.812	316.62
307.042	349.62
307.272	330.62
307.502	338.62
307.731	323.62
307.961	346.62
308.191	328.62
308.421	331.62
308.651	347.62
308.881	317.62
309.111	359.62
309.341	342.62
309.571	348.62
309.8	364.62
310.03	355.62
310.26	365.62
310.49	360.62
310.72	363.62
310.949	360.62
311.179	365.62
311.409	359.62
311.639	367.62
311.868	360.62
312.098	387.62
312.328	386.62
312.557	365.62
312.787	367.62
313.017	383.62
313.246	368.62
313.476	383.62
313.706	382.62
313.935	345.62
314.165	381.62
314.394	387.62
314.624	376.62
314.853	398.62
315.083	383.62
315.312	381.62
315.542	357.62
315.771	385.62
316.001	379.62
316.23	348.62
316.46	374.62
316.689	379.62
316.919	361.62
317.148	371.62
317.377	376.62
317.607	379.62
317.836	383.62
318.065	374.62
318.295	380.62
318.524	375.62
318.753	381.62
318.983	374.62
319.212	379.62
319.441	378.62
319.67	371.62
319.9	368.62
320.129	391.62
320.358	372.62
320.587	374.62
320.816	398.62
321.046	388.62
321.275	389.62
321.504	369.62
321.733	389.62
321.962	396.62
322.191	391.62
322.42	397.62
322.649	396.62
322.878	412.62
323.108	430.62
323.337	399.62
323.566	440.62
323.795	425.62
324.024	465.62
324.253	537.62
324.482	652.62
324.71	939.62
324.939	1315.62
325.168	1102.62
325.397	624.62
325.626	458.62
325.855	455.62
326.084	425.62
326.313	432.62
326.542	446.62
326.77	462.62
326.999	487.62
327.228	632.62
327.457	865.62
327.686	968.62
327.914	685.62
328.143	516.62
328.372	486.62
328.6	475.62
328.829	475.62
329.058	465.62
329.287	464.62
329.515	450.62
329.744	434.62
329.972	424.62
330.201	430.62
330.43	444.62
330.658	473.62
330.887	475.62
331.115	497.62
331.344	468.62
331.572	439.62
331.801	419.62
332.03	446.62
332.258	432.62
332.486	426.62
332.715	423.62
332.943	436.62
333.172	457.62
333.4	447.62
333.629	453.62
333.857	453.62
334.085	465.62
334.314	472.62
334.542	492.62
334.771	501.62
334.999	462.62
335.227	475.62
335.455	457.62
335.684	452.62
335.912	438.62
336.14	449.62
336.369	436.62
336.597	434.62
336.825	415.62
337.053	412.62
337.281	441.62
337.51	422.62
337.738	427.62
337.966	421.62
338.194	440.62
338.422	411.62
338.65	432.62
338.878	427.62
339.106	430.62
339.334	418.62
339.562	440.62
339.79	415.62
340.018	407.62
340.246	403.62
340.474	410.62
340.702	426.62
340.93	418.62
341.158	417.62
341.386	400.62
341.614	394.62
341.842	404.62
342.07	408.62
342.298	404.62
342.526	418.62
342.754	398.62
342.981	387.62
343.209	411.62
343.437	425.62
343.665	413.62
343.893	423.62
344.12	451.62
344.348	426.62
344.576	418.62
344.804	417.62
345.031	410.62
345.259	423.62
345.487	387.62
345.714	405.62
345.942	413.62
346.17	407.62
346.397	399.62
346.625	397.62
346.853	406.62
347.08	398.62
347.308	386.62
347.535	360.62
347.763	384.62
347.99	396.62
348.218	402.62
348.445	395.62
348.673	408.62
348.9	372.62
349.128	391.62
349.355	385.62
349.583	366.62
349.81	379.62
350.037	385.62
350.265	373.62
350.492	404.62
350.72	377.62
350.947	365.62
351.174	376.62
351.402	389.62
351.629	387.62
351.856	392.62
352.083	399.62
352.311	400.62
352.538	380.62
352.765	365.62
352.992	380.62
353.22	362.62
353.447	383.62
353.674	363.62
353.901	378.62
354.128	381.62
354.355	378.62
354.583	393.62
354.81	380.62
355.037	380.62
355.264	376.62
355.491	375.62
355.718	355.62
355.945	367.62
356.172	354.62
356.399	376.62
356.626	379.62
356.853	370.62
357.08	384.62
357.307	357.62
357.534	364.62
357.761	378.62
357.988	388.62
358.215	381.62
358.441	364.62
358.668	375.62
358.895	379.62
359.122	374.62
359.349	377.62
359.576	355.62
359.802	385.62
360.029	410.62
360.256	411.62
360.483	382.62
360.709	374.62
360.936	404.62
361.163	394.62
361.39	373.62
361.616	361.62
361.843	385.62
362.07	392.62
362.296	391.62
362.523	377.62
362.749	373.62
362.976	367.62
363.203	359.62
363.429	355.62
363.656	377.62
363.882	365.62
364.109	372.62
364.335	358.62
364.562	377.62
364.788	352.62
365.015	359.62
365.241	362.62
365.468	369.62
365.694	350.62
365.92	383.62
366.147	376.62
366.373	372.62
366.599	361.62
366.826	365.62
367.052	364.62
367.278	353.62
367.505	372.62
367.731	373.62
367.957	379.62
368.184	382.62
368.41	374.62
368.636	364.62
368.862	383.62
369.089	353.62
369.315	375.62
369.541	366.62
369.767	371.62
369.993	366.62
370.219	365.62
370.445	362.62
370.672	397.62
370.898	366.62
371.124	364.62
371.35	375.62
371.576	379.62
371.802	353.62
372.028	371.62
372.254	371.62
372.48	375.62
372.706	401.62
372.932	367.62
373.158	365.62
373.384	376.62
373.61	376.62
373.835	373.62
374.061	381.62
374.287	381.62
374.513	383.62
374.739	396.62
374.965	371.62
375.191	388.62
375.416	389.62
375.642	370.62
375.868	357.62
376.094	380.62
376.319	379.62
376.545	375.62
376.771	372.62
376.997	369.62
377.222	363.62
377.448	356.62
377.674	367.62
377.899	373.62
378.125	365.62
378.35	365.62
378.576	367.62
378.802	365.62
379.027	365.62
379.253	368.62
379.478	378.62
379.704	377.62
379.929	357.62
380.155	357.62
380.38	384.62
380.606	383.62
380.831	357.62
381.057	363.62
381.282	370.62
381.507	356.62
381.733	363.62
381.958	381.62
382.184	381.62
382.409	396.62
382.634	377.62
382.86	371.62
383.085	368.62
383.31	368.62
383.535	380.62
383.761	380.62
383.986	398.62
384.211	399.62
384.436	378.62
384.662	397.62
384.887	418.62
385.112	391.62
385.337	381.62
385.562	395.62
385.787	395.62
386.013	432.62
386.238	407.62
386.463	399.62
386.688	402.62
386.913	408.62
387.138	381.62
387.363	385.62
387.588	409.62
387.813	406.62
388.038	413.62
388.263	415.62
388.488	407.62
388.713	390.62
388.938	428.62
389.163	395.62
389.387	397.62
389.612	391.62
389.837	405.62
390.062	391.62
390.287	388.62
390.512	386.62
390.736	397.62
390.961	397.62
391.186	402.62
391.411	405.62
391.636	415.62
391.86	410.62
392.085	401.62
392.31	429.62
392.534	433.62
392.759	416.62
392.984	416.62
393.208	429.62
393.433	411.62
393.658	407.62
393.882	395.62
394.107	414.62
394.331	400.62
394.556	403.62
394.78	404.62
395.005	425.62
395.229	389.62
395.454	438.62
395.678	414.62
395.903	407.62
396.127	422.62
396.352	416.62
396.576	407.62
396.801	415.62
397.025	424.62
397.249	447.62
397.474	414.62
397.698	425.62
397.922	435.62
398.147	440.62
398.371	441.62
398.595	446.62
398.82	445.62
399.044	495.62
399.268	500.62
399.492	525.62
399.717	540.62
399.941	559.62
400.165	526.62
400.389	553.62
400.613	494.62
400.837	499.62
401.062	487.62
401.286	456.62
401.51	443.62
401.734	446.62
401.958	455.62
402.182	457.62
402.406	445.62
402.63	455.62
402.854	456.62
403.078	465.62
403.302	447.62
403.526	467.62
403.75	485.62
403.974	463.62
404.198	449.62
404.422	447.62
404.645	471.62
404.869	473.62
405.093	483.62
405.317	491.62
405.541	512.62
405.765	503.62
405.988	478.62
406.212	490.62
406.436	476.62
406.66	475.62
406.883	493.62
407.107	517.62
407.331	547.62
407.555	590.62
407.778	583.62
408.002	515.62
408.226	527.62
408.449	481.62
408.673	507.62
408.896	503.62
409.12	533.62
409.344	499.62
409.567	479.62
409.791	448.62
410.014	452.62
410.238	444.62
410.461	467.62
410.685	484.62
410.908	477.62
411.132	490.62
411.355	517.62
411.578	491.62
411.802	462.62
412.025	474.62
412.249	478.62
412.472	461.62
412.695	522.62
412.919	475.62
413.142	441.62
413.365	474.62
413.589	455.62
413.812	441.62
414.035	439.62
414.258	452.62
414.482	430.62
414.705	428.62
414.928	450.62
415.151	444.62
415.374	439.62
415.597	428.62
415.821	424.62
416.044	447.62
416.267	445.62
416.49	432.62
416.713	452.62
416.936	432.62
417.159	435.62
417.382	424.62
417.605	417.62
417.828	438.62
418.051	443.62
418.274	444.62
418.497	416.62
418.72	437.62
418.943	423.62
419.166	446.62
419.389	469.62
419.611	475.62
419.834	450.62
420.057	460.62
420.28	460.62
420.503	454.62
420.726	446.62
420.948	449.62
421.171	481.62
421.394	479.62
421.617	442.62
421.839	444.62
422.062	448.62
422.285	460.62
422.507	478.62
422.73	513.62
422.953	502.62
423.175	432.62
423.398	437.62
423.621	455.62
423.843	446.62
424.066	477.62
424.288	468.62
424.511	466.62
424.733	519.62
424.956	555.62
425.178	516.62
425.401	541.62
425.623	573.62
425.846	463.62
426.068	459.62
426.291	441.62
426.513	456.62
426.735	456.62
426.958	484.62
427.18	527.62
427.402	616.62
427.625	676.62
427.847	567.62
428.069	519.62
428.292	468.62
428.514	443.62
428.736	436.62
428.958	444.62
429.181	433.62
429.403	421.62
429.625	420.62
429.847	442.62
430.069	479.62
430.292	475.62
430.514	432.62
430.736	434.62
430.958	413.62
431.18	411.62
431.402	391.62
431.624	424.62
431.846	416.62
432.068	407.62
432.29	402.62
432.512	406.62
432.734	416.62
432.956	384.62
433.178	400.62
433.4	432.62
433.622	411.62
433.844	418.62
434.066	391.62
434.287	400.62
434.509	420.62
434.731	408.62
434.953	422.62
435.175	433.62
435.397	437.62
435.618	445.62
435.84	484.62
436.062	528.62
436.284	571.62
436.505	484.62
436.727	449.62
436.949	449.62
437.17	418.62
437.392	407.62
437.614	414.62
437.835	439.62
438.057	510.62
438.278	543.62
438.5	526.62
438.721	589.62
438.943	568.62
439.165	461.62
439.386	445.62
439.608	436.62
439.829	447.62
440.05	441.62
440.272	460.62
440.493	447.62
440.715	423.62
440.936	425.62
441.158	430.62
441.379	413.62
441.6	433.62
441.822	439.62
442.043	471.62
442.264	506.62
442.486	545.62
442.707	486.62
442.928	428.62
443.149	448.62
443.371	447.62
443.592	471.62
443.813	552.62
444.034	600.62
444.255	498.62
444.476	467.62
444.698	478.62
444.919	458.62
445.14	561.62
445.361	492.62
445.582	447.62
445.803	499.62
446.024	559.62
446.245	577.62
446.466	508.62
446.687	461.62
446.908	423.62
447.129	443.62
447.35	397.62
447.571	397.62
447.792	378.62
448.013	397.62
448.234	436.62
448.455	450.62
448.675	523.62
448.896	581.62
449.117	512.62
449.338	491.62
449.559	561.62
449.779	632.62
450	506.62
450.221	427.62
450.442	403.62
450.662	380.62
450.883	395.62
451.104	401.62
451.324	379.62
451.545	375.62
451.766	375.62
451.986	360.62
452.207	369.62
452.428	376.62
452.648	356.62
452.869	370.62
453.089	367.62
453.31	392.62
453.53	384.62
453.751	381.62
453.971	380.62
454.192	381.62
454.412	350.62
454.633	369.62
454.853	376.62
455.073	359.62
455.294	387.62
455.514	403.62
455.734	414.62
455.955	357.62
456.175	366.62
456.395	348.62
456.616	349.62
456.836	348.62
457.056	355.62
457.276	336.62
457.497	357.62
457.717	368.62
457.937	348.62
458.157	355.62
458.377	373.62
458.598	357.62
458.818	403.62
459.038	453.62
459.258	464.62
459.478	426.62
459.698	421.62
459.918	392.62
460.138	396.62
460.358	407.62
460.578	402.62
460.798	422.62
461.018	414.62
461.238	426.62
461.458	420.62
461.678	423.62
461.898	427.62
462.118	404.62
462.338	435.62
462.558	443.62
462.777	446.62
462.997	462.62
463.217	466.62
463.437	476.62
463.657	455.62
463.876	441.62
464.096	451.62
464.316	456.62
464.536	439.62
464.755	447.62
464.975	441.62
465.195	453.62
465.414	469.62
465.634	438.62
465.854	423.62
466.073	393.62
466.293	400.62
466.512	399.62
466.732	385.62
466.951	388.62
467.171	385.62
467.391	377.62
467.61	382.62
467.829	391.62
468.049	389.62
468.268	364.62
468.488	379.62
468.707	384.62
468.927	390.62
469.146	375.62
469.365	365.62
469.585	365.62
469.804	380.62
470.023	389.62
470.243	390.62
470.462	389.62
470.681	393.62
470.901	375.62
471.12	386.62
471.339	386.62
471.558	387.62
471.777	394.62
471.997	384.62
472.216	389.62
472.435	395.62
472.654	382.62
472.873	391.62
473.092	374.62
473.311	367.62
473.53	369.62
473.749	411.62
473.968	416.62
474.187	466.62
474.406	480.62
474.625	427.62
474.844	389.62
475.063	386.62
475.282	375.62
475.501	398.62
475.72	375.62
475.939	394.62
476.158	393.62
476.377	407.62
476.596	408.62
476.814	395.62
477.033	399.62
477.252	393.62
477.471	413.62
477.69	415.62
477.908	408.62
478.127	420.62
478.346	415.62
478.564	424.62
478.783	431.62
479.002	439.62
479.22	432.62
479.439	461.62
479.658	455.62
479.876	463.62
480.095	456.62
480.313	481.62
480.532	483.62
480.751	459.62
480.969	471.62
481.188	491.62
481.406	505.62
481.624	476.62
481.843	433.62
482.061	455.62
482.28	463.62
482.498	444.62
482.717	442.62
482.935	435.62
483.153	453.62
483.372	433.62
483.59	426.62
483.808	453.62
484.027	420.62
484.245	450.62
484.463	447.62
484.681	443.62
484.9	460.62
485.118	454.62
485.336	442.62
485.554	437.62
485.772	466.62
485.99	448.62
486.209	454.62
486.427	460.62
486.645	470.62
486.863	461.62
487.081	470.62
487.299	454.62
487.517	460.62
487.735	473.62
487.953	464.62
488.171	466.62
488.389	467.62
488.607	464.62
488.825	476.62
489.043	459.62
489.261	476.62
489.479	462.62
489.696	478.62
489.914	467.62
490.132	485.62
490.35	497.62
490.568	481.62
490.786	479.62
491.003	487.62
491.221	515.62
491.439	523.62
491.657	508.62
491.874	503.62
492.092	507.62
492.31	533.62
492.527	521.62
492.745	525.62
492.963	517.62
493.18	511.62
493.398	506.62
493.615	527.62
493.833	524.62
494.05	533.62
494.268	521.62
494.485	542.62
494.703	545.62
494.92	536.62
495.138	529.62
495.355	533.62
495.573	529.62
495.79	546.62
496.008	537.62
496.225	533.62
496.442	512.62
496.66	551.62
496.877	561.62
497.094	559.62
497.312	566.62
497.529	569.62
497.746	585.62
497.963	596.62
498.181	583.62
498.398	600.62
498.615	612.62
498.832	642.62
499.049	651.62
499.267	663.62
499.484	698.62
499.701	727.62
499.918	794.62
500.135	823.62
500.352	852.62
500.569	851.62
500.786	847.62
501.003	830.62
501.22	831.62
501.437	738.62
501.654	736.62
501.871	728.62
502.088	676.62
