Data from 1964.PennyLincolnUp.Lamp.En5.5.200Scan.071719.P1._HRD10591_14-05-08-909.txt Node
Date: Thu Jul 18 14:05:08 EDT 2019
User: cochatt
Spectrometer: HR+D1059
Trigger mode: 1
Integration Time (sec): 1.000000E-1
Scans to average: 1
Electric dark correction enabled: true
Nonlinearity correction enabled: false
Boxcar width: 0
XAxis mode: Wavelengths
Number of Pixels in Spectrum: 2048
>>>>>Begin Spectral Data<<<<<
223.165	-12.88
223.4	-12.88
223.635	-12.88
223.869	-7.88
224.104	-21.88
224.338	-17.88
224.573	-33.88
224.808	1.12
225.042	-5.88
225.277	-4.88
225.511	-7.88
225.746	11.12
225.98	0.12
226.215	14.12
226.449	13.12
226.683	24.12
226.918	26.12
227.152	23.12
227.387	28.12
227.621	23.12
227.856	63.12
228.09	46.12
228.324	25.12
228.559	59.12
228.793	67.12
229.027	87.12
229.262	91.12
229.496	96.12
229.73	105.12
229.964	127.12
230.199	129.12
230.433	112.12
230.667	117.12
230.901	103.12
231.136	89.12
231.37	119.12
231.604	105.12
231.838	103.12
232.072	101.12
232.306	108.12
232.541	118.12
232.775	108.12
233.009	135.12
233.243	116.12
233.477	121.12
233.711	105.12
233.945	117.12
234.179	127.12
234.413	133.12
234.647	124.12
234.881	137.12
235.115	110.12
235.349	120.12
235.583	120.12
235.817	108.12
236.051	133.12
236.285	119.12
236.519	137.12
236.753	121.12
236.987	136.12
237.221	160.12
237.455	179.12
237.689	168.12
237.922	132.12
238.156	138.12
238.39	123.12
238.624	120.12
238.858	127.12
239.091	137.12
239.325	125.12
239.559	117.12
239.793	126.12
240.027	121.12
240.26	144.12
240.494	125.12
240.728	142.12
240.961	139.12
241.195	142.12
241.429	134.12
241.662	136.12
241.896	118.12
242.13	122.12
242.363	142.12
242.597	129.12
242.83	140.12
243.064	134.12
243.298	139.12
243.531	132.12
243.765	132.12
243.998	149.12
244.232	145.12
244.465	153.12
244.699	144.12
244.932	150.12
245.166	137.12
245.399	135.12
245.633	142.12
245.866	141.12
246.099	152.12
246.333	146.12
246.566	151.12
246.8	157.12
247.033	154.12
247.266	164.12
247.5	145.12
247.733	188.12
247.966	173.12
248.2	168.12
248.433	163.12
248.666	183.12
248.899	178.12
249.133	186.12
249.366	186.12
249.599	186.12
249.832	178.12
250.066	171.12
250.299	182.12
250.532	188.12
250.765	205.12
250.998	204.12
251.231	213.12
251.465	212.12
251.698	194.12
251.931	193.12
252.164	183.12
252.397	188.12
252.63	193.12
252.863	186.12
253.096	193.12
253.329	215.12
253.562	203.12
253.795	214.12
254.028	209.12
254.261	206.12
254.494	206.12
254.727	225.12
254.96	248.12
255.193	236.12
255.426	239.12
255.659	231.12
255.892	237.12
256.124	224.12
256.357	230.12
256.59	231.12
256.823	223.12
257.056	198.12
257.289	211.12
257.521	214.12
257.754	223.12
257.987	231.12
258.22	210.12
258.452	215.12
258.685	208.12
258.918	221.12
259.151	215.12
259.383	232.12
259.616	225.12
259.849	229.12
260.081	243.12
260.314	251.12
260.547	253.12
260.779	221.12
261.012	223.12
261.244	212.12
261.477	234.12
261.71	225.12
261.942	212.12
262.175	223.12
262.407	213.12
262.64	224.12
262.872	227.12
263.105	212.12
263.337	235.12
263.57	228.12
263.802	206.12
264.035	217.12
264.267	225.12
264.499	222.12
264.732	220.12
264.964	220.12
265.197	240.12
265.429	220.12
265.661	235.12
265.894	233.12
266.126	225.12
266.358	236.12
266.591	221.12
266.823	231.12
267.055	258.12
267.287	225.12
267.52	231.12
267.752	227.12
267.984	225.12
268.216	241.12
268.448	246.12
268.681	241.12
268.913	259.12
269.145	253.12
269.377	276.12
269.609	276.12
269.841	276.12
270.073	260.12
270.306	286.12
270.538	309.12
270.77	306.12
271.002	292.12
271.234	299.12
271.466	275.12
271.698	297.12
271.93	295.12
272.162	316.12
272.394	314.12
272.626	296.12
272.858	285.12
273.09	280.12
273.322	279.12
273.553	262.12
273.785	289.12
274.017	262.12
274.249	285.12
274.481	277.12
274.713	279.12
274.945	301.12
275.176	291.12
275.408	285.12
275.64	258.12
275.872	270.12
276.104	283.12
276.335	297.12
276.567	266.12
276.799	290.12
277.031	302.12
277.262	333.12
277.494	319.12
277.726	307.12
277.957	310.12
278.189	287.12
278.421	294.12
278.652	296.12
278.884	282.12
279.115	291.12
279.347	269.12
279.579	264.12
279.81	289.12
280.042	299.12
280.273	284.12
280.505	291.12
280.736	302.12
280.968	297.12
281.199	303.12
281.431	280.12
281.662	273.12
281.894	292.12
282.125	277.12
282.356	272.12
282.588	291.12
282.819	311.12
283.051	300.12
283.282	291.12
283.513	301.12
283.745	314.12
283.976	309.12
284.207	293.12
284.439	307.12
284.67	322.12
284.901	316.12
285.132	313.12
285.364	300.12
285.595	298.12
285.826	303.12
286.057	308.12
286.288	305.12
286.52	299.12
286.751	326.12
286.982	291.12
287.213	301.12
287.444	319.12
287.675	308.12
287.906	321.12
288.138	313.12
288.369	334.12
288.6	321.12
288.831	312.12
289.062	313.12
289.293	324.12
289.524	319.12
289.755	310.12
289.986	320.12
290.217	335.12
290.448	317.12
290.679	313.12
290.91	295.12
291.141	316.12
291.371	311.12
291.602	298.12
291.833	322.12
292.064	312.12
292.295	312.12
292.526	308.12
292.757	298.12
292.987	307.12
293.218	319.12
293.449	315.12
293.68	344.12
293.91	311.12
294.141	310.12
294.372	316.12
294.603	337.12
294.833	337.12
295.064	333.12
295.295	321.12
295.525	325.12
295.756	336.12
295.987	321.12
296.217	334.12
296.448	339.12
296.679	331.12
296.909	332.12
297.14	328.12
297.37	339.12
297.601	324.12
297.831	349.12
298.062	341.12
298.292	332.12
298.523	326.12
298.753	346.12
298.984	327.12
299.214	331.12
299.445	343.12
299.675	336.12
299.905	359.12
300.136	332.12
300.366	326.12
300.597	337.12
300.827	361.12
301.057	359.12
301.288	365.12
301.518	346.12
301.748	346.12
301.979	351.12
302.209	358.12
302.439	361.12
302.669	374.12
302.9	355.12
303.13	363.12
303.36	362.12
303.59	349.12
303.82	367.12
304.051	365.12
304.281	371.12
304.511	371.12
304.741	344.12
304.971	345.12
305.201	373.12
305.431	350.12
305.661	375.12
305.891	357.12
306.121	357.12
306.352	377.12
306.582	367.12
306.812	356.12
307.042	372.12
307.272	356.12
307.502	364.12
307.731	356.12
307.961	356.12
308.191	364.12
308.421	344.12
308.651	359.12
308.881	368.12
309.111	369.12
309.341	360.12
309.571	371.12
309.8	373.12
310.03	383.12
310.26	394.12
310.49	395.12
310.72	387.12
310.949	398.12
311.179	377.12
311.409	384.12
311.639	386.12
311.868	386.12
312.098	394.12
312.328	405.12
312.557	409.12
312.787	422.12
313.017	404.12
313.246	388.12
313.476	387.12
313.706	410.12
313.935	413.12
314.165	416.12
314.394	413.12
314.624	401.12
314.853	405.12
315.083	385.12
315.312	417.12
315.542	371.12
315.771	404.12
316.001	389.12
316.23	388.12
316.46	405.12
316.689	391.12
316.919	407.12
317.148	388.12
317.377	401.12
317.607	403.12
317.836	382.12
318.065	389.12
318.295	393.12
318.524	400.12
318.753	393.12
318.983	391.12
319.212	407.12
319.441	397.12
319.67	399.12
319.9	397.12
320.129	398.12
320.358	411.12
320.587	415.12
320.816	396.12
321.046	396.12
321.275	425.12
321.504	403.12
321.733	431.12
321.962	433.12
322.191	430.12
322.42	430.12
322.649	438.12
322.878	434.12
323.108	440.12
323.337	465.12
323.566	474.12
323.795	479.12
324.024	513.12
324.253	573.12
324.482	782.12
324.71	1116.12
324.939	1512.12
325.168	1275.12
325.397	717.12
325.626	519.12
325.855	506.12
326.084	485.12
326.313	453.12
326.542	465.12
326.77	509.12
326.999	558.12
327.228	727.12
327.457	982.12
327.686	1157.12
327.914	803.12
328.143	597.12
328.372	521.12
328.6	517.12
328.829	501.12
329.058	517.12
329.287	512.12
329.515	506.12
329.744	469.12
329.972	482.12
330.201	517.12
330.43	532.12
330.658	537.12
330.887	542.12
331.115	546.12
331.344	471.12
331.572	473.12
331.801	450.12
332.03	470.12
332.258	469.12
332.486	462.12
332.715	470.12
332.943	462.12
333.172	470.12
333.4	477.12
333.629	509.12
333.857	526.12
334.085	500.12
334.314	522.12
334.542	555.12
334.771	554.12
334.999	520.12
335.227	504.12
335.455	484.12
335.684	465.12
335.912	479.12
336.14	467.12
336.369	457.12
336.597	450.12
336.825	442.12
337.053	463.12
337.281	449.12
337.51	441.12
337.738	465.12
337.966	460.12
338.194	442.12
338.422	469.12
338.65	487.12
338.878	452.12
339.106	438.12
339.334	458.12
339.562	460.12
339.79	419.12
340.018	448.12
340.246	433.12
340.474	440.12
340.702	455.12
340.93	426.12
341.158	431.12
341.386	446.12
341.614	425.12
341.842	447.12
342.07	424.12
342.298	417.12
342.526	445.12
342.754	402.12
342.981	428.12
343.209	432.12
343.437	431.12
343.665	441.12
343.893	458.12
344.12	452.12
344.348	465.12
344.576	464.12
344.804	439.12
345.031	444.12
345.259	436.12
345.487	435.12
345.714	434.12
345.942	424.12
346.17	401.12
346.397	415.12
346.625	422.12
346.853	431.12
347.08	421.12
347.308	427.12
347.535	426.12
347.763	402.12
347.99	409.12
348.218	442.12
348.445	411.12
348.673	425.12
348.9	430.12
349.128	405.12
349.355	422.12
349.583	395.12
349.81	426.12
350.037	403.12
350.265	410.12
350.492	391.12
350.72	382.12
350.947	406.12
351.174	405.12
351.402	427.12
351.629	407.12
351.856	412.12
352.083	401.12
352.311	428.12
352.538	419.12
352.765	403.12
352.992	418.12
353.22	401.12
353.447	419.12
353.674	395.12
353.901	396.12
354.128	402.12
354.355	383.12
354.583	378.12
354.81	392.12
355.037	385.12
355.264	387.12
355.491	379.12
355.718	379.12
355.945	407.12
356.172	392.12
356.399	399.12
356.626	399.12
356.853	403.12
357.08	388.12
357.307	379.12
357.534	397.12
357.761	392.12
357.988	371.12
358.215	384.12
358.441	398.12
358.668	428.12
358.895	383.12
359.122	404.12
359.349	393.12
359.576	413.12
359.802	435.12
360.029	410.12
360.256	424.12
360.483	429.12
360.709	414.12
360.936	391.12
361.163	393.12
361.39	399.12
361.616	428.12
361.843	397.12
362.07	409.12
362.296	378.12
362.523	389.12
362.749	392.12
362.976	402.12
363.203	399.12
363.429	387.12
363.656	385.12
363.882	400.12
364.109	395.12
364.335	401.12
364.562	390.12
364.788	395.12
365.015	401.12
365.241	396.12
365.468	401.12
365.694	391.12
365.92	390.12
366.147	388.12
366.373	390.12
366.599	386.12
366.826	397.12
367.052	379.12
367.278	381.12
367.505	390.12
367.731	384.12
367.957	378.12
368.184	383.12
368.41	398.12
368.636	398.12
368.862	398.12
369.089	403.12
369.315	387.12
369.541	394.12
369.767	389.12
369.993	379.12
370.219	383.12
370.445	380.12
370.672	388.12
370.898	395.12
371.124	377.12
371.35	409.12
371.576	396.12
371.802	389.12
372.028	381.12
372.254	390.12
372.48	385.12
372.706	408.12
372.932	420.12
373.158	412.12
373.384	400.12
373.61	365.12
373.835	402.12
374.061	387.12
374.287	392.12
374.513	388.12
374.739	392.12
374.965	389.12
375.191	383.12
375.416	407.12
375.642	392.12
375.868	389.12
376.094	389.12
376.319	400.12
376.545	376.12
376.771	369.12
376.997	379.12
377.222	397.12
377.448	393.12
377.674	384.12
377.899	397.12
378.125	382.12
378.35	391.12
378.576	389.12
378.802	395.12
379.027	381.12
379.253	404.12
379.478	379.12
379.704	388.12
379.929	401.12
380.155	377.12
380.38	379.12
380.606	383.12
380.831	385.12
381.057	384.12
381.282	383.12
381.507	365.12
381.733	372.12
381.958	384.12
382.184	385.12
382.409	382.12
382.634	398.12
382.86	385.12
383.085	379.12
383.31	387.12
383.535	425.12
383.761	412.12
383.986	412.12
384.211	409.12
384.436	413.12
384.662	409.12
384.887	410.12
385.112	427.12
385.337	426.12
385.562	429.12
385.787	432.12
386.013	422.12
386.238	429.12
386.463	427.12
386.688	410.12
386.913	401.12
387.138	407.12
387.363	422.12
387.588	433.12
387.813	431.12
388.038	421.12
388.263	438.12
388.488	416.12
388.713	415.12
388.938	413.12
389.163	415.12
389.387	431.12
389.612	420.12
389.837	416.12
390.062	406.12
390.287	428.12
390.512	417.12
390.736	428.12
390.961	409.12
391.186	421.12
391.411	428.12
391.636	430.12
391.86	443.12
392.085	433.12
392.31	442.12
392.534	424.12
392.759	430.12
392.984	425.12
393.208	414.12
393.433	433.12
393.658	440.12
393.882	425.12
394.107	400.12
394.331	422.12
394.556	420.12
394.78	431.12
395.005	423.12
395.229	421.12
395.454	419.12
395.678	456.12
395.903	450.12
396.127	451.12
396.352	452.12
396.576	456.12
396.801	421.12
397.025	440.12
397.249	440.12
397.474	446.12
397.698	450.12
397.922	451.12
398.147	470.12
398.371	484.12
398.595	470.12
398.82	462.12
399.044	481.12
399.268	500.12
399.492	553.12
399.717	575.12
399.941	582.12
400.165	582.12
400.389	592.12
400.613	551.12
400.837	507.12
401.062	508.12
401.286	486.12
401.51	471.12
401.734	459.12
401.958	472.12
402.182	456.12
402.406	488.12
402.63	480.12
402.854	497.12
403.078	460.12
403.302	479.12
403.526	502.12
403.75	486.12
403.974	510.12
404.198	484.12
404.422	492.12
404.645	479.12
404.869	509.12
405.093	513.12
405.317	542.12
405.541	548.12
405.765	518.12
405.988	504.12
406.212	504.12
406.436	521.12
406.66	540.12
406.883	522.12
407.107	545.12
407.331	551.12
407.555	629.12
407.778	617.12
408.002	569.12
408.226	529.12
408.449	535.12
408.673	541.12
408.896	538.12
409.12	572.12
409.344	542.12
409.567	523.12
409.791	513.12
410.014	494.12
410.238	470.12
410.461	474.12
410.685	496.12
410.908	505.12
411.132	541.12
411.355	541.12
411.578	524.12
411.802	495.12
412.025	477.12
412.249	483.12
412.472	493.12
412.695	537.12
412.919	544.12
413.142	501.12
413.365	503.12
413.589	475.12
413.812	445.12
414.035	464.12
414.258	464.12
414.482	439.12
414.705	461.12
414.928	448.12
415.151	443.12
415.374	462.12
415.597	453.12
415.821	443.12
416.044	429.12
416.267	463.12
416.49	465.12
416.713	460.12
416.936	452.12
417.159	440.12
417.382	456.12
417.605	453.12
417.828	455.12
418.051	477.12
418.274	471.12
418.497	455.12
418.72	461.12
418.943	468.12
419.166	464.12
419.389	510.12
419.611	485.12
419.834	492.12
420.057	490.12
420.28	471.12
420.503	500.12
420.726	455.12
420.948	487.12
421.171	509.12
421.394	521.12
421.617	471.12
421.839	471.12
422.062	481.12
422.285	494.12
422.507	514.12
422.73	573.12
422.953	524.12
423.175	479.12
423.398	469.12
423.621	474.12
423.843	489.12
424.066	474.12
424.288	493.12
424.511	509.12
424.733	537.12
424.956	612.12
425.178	576.12
425.401	553.12
425.623	596.12
425.846	510.12
426.068	511.12
426.291	500.12
426.513	464.12
426.735	484.12
426.958	519.12
427.18	570.12
427.402	657.12
427.625	733.12
427.847	618.12
428.069	549.12
428.292	475.12
428.514	478.12
428.736	447.12
428.958	446.12
429.181	447.12
429.403	445.12
429.625	446.12
429.847	491.12
430.069	522.12
430.292	525.12
430.514	445.12
430.736	460.12
430.958	448.12
431.18	457.12
431.402	452.12
431.624	415.12
431.846	412.12
432.068	424.12
432.29	436.12
432.512	439.12
432.734	430.12
432.956	415.12
433.178	418.12
433.4	429.12
433.622	447.12
433.844	425.12
434.066	438.12
434.287	424.12
434.509	446.12
434.731	438.12
434.953	452.12
435.175	473.12
435.397	492.12
435.618	491.12
435.84	496.12
436.062	587.12
436.284	610.12
436.505	532.12
436.727	477.12
436.949	462.12
437.17	444.12
437.392	448.12
437.614	456.12
437.835	471.12
438.057	537.12
438.278	600.12
438.5	620.12
438.721	638.12
438.943	643.12
439.165	511.12
439.386	480.12
439.608	499.12
439.829	465.12
440.05	501.12
440.272	498.12
440.493	479.12
440.715	453.12
440.936	452.12
441.158	441.12
441.379	451.12
441.6	467.12
441.822	460.12
442.043	491.12
442.264	569.12
442.486	587.12
442.707	506.12
442.928	495.12
443.149	489.12
443.371	518.12
443.592	525.12
443.813	599.12
444.034	643.12
444.255	548.12
444.476	488.12
444.698	509.12
444.919	499.12
445.14	607.12
445.361	531.12
445.582	515.12
445.803	548.12
446.024	603.12
446.245	599.12
446.466	564.12
446.687	502.12
446.908	461.12
447.129	447.12
447.35	449.12
447.571	445.12
447.792	425.12
448.013	433.12
448.234	468.12
448.455	483.12
448.675	570.12
448.896	621.12
449.117	550.12
449.338	517.12
449.559	589.12
449.779	651.12
450	544.12
450.221	463.12
450.442	423.12
450.662	437.12
450.883	410.12
451.104	426.12
451.324	439.12
451.545	422.12
451.766	384.12
451.986	372.12
452.207	406.12
452.428	380.12
452.648	398.12
452.869	379.12
453.089	407.12
453.31	394.12
453.53	395.12
453.751	390.12
453.971	383.12
454.192	406.12
454.412	390.12
454.633	382.12
454.853	364.12
455.073	391.12
455.294	402.12
455.514	448.12
455.734	430.12
455.955	383.12
456.175	390.12
456.395	383.12
456.616	371.12
456.836	402.12
457.056	368.12
457.276	379.12
457.497	367.12
457.717	392.12
457.937	395.12
458.157	367.12
458.377	390.12
458.598	393.12
458.818	439.12
459.038	461.12
459.258	484.12
459.478	459.12
459.698	420.12
459.918	405.12
460.138	408.12
460.358	430.12
460.578	449.12
460.798	455.12
461.018	448.12
461.238	416.12
461.458	446.12
461.678	437.12
461.898	435.12
462.118	460.12
462.338	467.12
462.558	454.12
462.777	469.12
462.997	482.12
463.217	478.12
463.437	500.12
463.657	483.12
463.876	483.12
464.096	471.12
464.316	465.12
464.536	473.12
464.755	463.12
464.975	475.12
465.195	477.12
465.414	511.12
465.634	469.12
465.854	451.12
466.073	445.12
466.293	423.12
466.512	417.12
466.732	419.12
466.951	415.12
467.171	410.12
467.391	420.12
467.61	417.12
467.829	405.12
468.049	415.12
468.268	412.12
468.488	373.12
468.707	409.12
468.927	408.12
469.146	398.12
469.365	411.12
469.585	405.12
469.804	407.12
470.023	409.12
470.243	408.12
470.462	419.12
470.681	424.12
470.901	422.12
471.12	407.12
471.339	424.12
471.558	416.12
471.777	411.12
471.997	414.12
472.216	405.12
472.435	425.12
472.654	414.12
472.873	408.12
473.092	416.12
473.311	409.12
473.53	401.12
473.749	418.12
473.968	435.12
474.187	488.12
474.406	513.12
474.625	431.12
474.844	424.12
475.063	417.12
475.282	417.12
475.501	415.12
475.72	431.12
475.939	419.12
476.158	440.12
476.377	429.12
476.596	413.12
476.814	435.12
477.033	425.12
477.252	432.12
477.471	450.12
477.69	438.12
477.908	441.12
478.127	456.12
478.346	473.12
478.564	462.12
478.783	457.12
479.002	464.12
479.22	467.12
479.439	460.12
479.658	470.12
479.876	476.12
480.095	483.12
480.313	518.12
480.532	521.12
480.751	509.12
480.969	494.12
481.188	558.12
481.406	541.12
481.624	506.12
481.843	483.12
482.061	508.12
482.28	481.12
482.498	465.12
482.717	470.12
482.935	467.12
483.153	473.12
483.372	466.12
483.59	475.12
483.808	456.12
484.027	470.12
484.245	481.12
484.463	488.12
484.681	487.12
484.9	487.12
485.118	493.12
485.336	481.12
485.554	487.12
485.772	492.12
485.99	475.12
486.209	481.12
486.427	492.12
486.645	492.12
486.863	486.12
487.081	501.12
487.299	506.12
487.517	503.12
487.735	502.12
487.953	495.12
488.171	473.12
488.389	479.12
488.607	490.12
488.825	493.12
489.043	500.12
489.261	491.12
489.479	519.12
489.696	525.12
489.914	503.12
490.132	530.12
490.35	521.12
490.568	541.12
490.786	531.12
491.003	534.12
491.221	541.12
491.439	543.12
491.657	549.12
491.874	550.12
492.092	548.12
492.31	547.12
492.527	564.12
492.745	549.12
492.963	564.12
493.18	555.12
493.398	550.12
493.615	571.12
493.833	573.12
494.05	587.12
494.268	583.12
494.485	583.12
494.703	584.12
494.92	593.12
495.138	570.12
495.355	600.12
495.573	576.12
495.79	583.12
496.008	572.12
496.225	592.12
496.442	570.12
496.66	573.12
496.877	578.12
497.094	590.12
497.312	563.12
497.529	610.12
497.746	622.12
497.963	612.12
498.181	623.12
498.398	666.12
498.615	657.12
498.832	678.12
499.049	704.12
499.267	750.12
499.484	748.12
499.701	784.12
499.918	813.12
500.135	849.12
500.352	906.12
500.569	930.12
500.786	891.12
501.003	883.12
501.22	855.12
501.437	836.12
501.654	793.12
501.871	763.12
502.088	747.12
