Data from 1964.PennyLincolnUp.Lamp.En5.5.200Scan.071719.P1._HRD10591_14-04-48-909.txt Node
Date: Thu Jul 18 14:04:48 EDT 2019
User: cochatt
Spectrometer: HR+D1059
Trigger mode: 1
Integration Time (sec): 1.000000E-1
Scans to average: 1
Electric dark correction enabled: true
Nonlinearity correction enabled: false
Boxcar width: 0
XAxis mode: Wavelengths
Number of Pixels in Spectrum: 2048
>>>>>Begin Spectral Data<<<<<
223.165	-16.25
223.4	-16.25
223.635	-16.25
223.869	-15.25
224.104	-22.25
224.338	-14.25
224.573	-13.25
224.808	-10.25
225.042	-26.25
225.277	5.75
225.511	13.75
225.746	12.75
225.98	3.75
226.215	7.75
226.449	0.75
226.683	12.75
226.918	24.75
227.152	35.75
227.387	41.75
227.621	40.75
227.856	43.75
228.09	37.75
228.324	56.75
228.559	56.75
228.793	71.75
229.027	76.75
229.262	92.75
229.496	104.75
229.73	117.75
229.964	130.75
230.199	116.75
230.433	101.75
230.667	113.75
230.901	99.75
231.136	115.75
231.37	119.75
231.604	107.75
231.838	96.75
232.072	89.75
232.306	95.75
232.541	105.75
232.775	113.75
233.009	91.75
233.243	109.75
233.477	110.75
233.711	120.75
233.945	116.75
234.179	109.75
234.413	120.75
234.647	109.75
234.881	109.75
235.115	118.75
235.349	113.75
235.583	111.75
235.817	124.75
236.051	127.75
236.285	121.75
236.519	109.75
236.753	124.75
236.987	128.75
237.221	154.75
237.455	183.75
237.689	168.75
237.922	143.75
238.156	114.75
238.39	113.75
238.624	119.75
238.858	119.75
239.091	128.75
239.325	133.75
239.559	130.75
239.793	121.75
240.027	148.75
240.26	147.75
240.494	126.75
240.728	139.75
240.961	135.75
241.195	137.75
241.429	155.75
241.662	149.75
241.896	130.75
242.13	134.75
242.363	125.75
242.597	141.75
242.83	136.75
243.064	136.75
243.298	129.75
243.531	137.75
243.765	148.75
243.998	139.75
244.232	153.75
244.465	145.75
244.699	141.75
244.932	151.75
245.166	145.75
245.399	136.75
245.633	139.75
245.866	154.75
246.099	158.75
246.333	159.75
246.566	143.75
246.8	153.75
247.033	159.75
247.266	134.75
247.5	144.75
247.733	170.75
247.966	169.75
248.2	166.75
248.433	161.75
248.666	152.75
248.899	188.75
249.133	181.75
249.366	183.75
249.599	175.75
249.832	170.75
250.066	180.75
250.299	192.75
250.532	187.75
250.765	195.75
250.998	220.75
251.231	194.75
251.465	205.75
251.698	202.75
251.931	184.75
252.164	193.75
252.397	201.75
252.63	200.75
252.863	205.75
253.096	210.75
253.329	216.75
253.562	217.75
253.795	222.75
254.028	218.75
254.261	193.75
254.494	215.75
254.727	241.75
254.96	258.75
255.193	246.75
255.426	245.75
255.659	215.75
255.892	206.75
256.124	233.75
256.357	218.75
256.59	220.75
256.823	214.75
257.056	196.75
257.289	196.75
257.521	223.75
257.754	223.75
257.987	204.75
258.22	208.75
258.452	220.75
258.685	212.75
258.918	210.75
259.151	201.75
259.383	214.75
259.616	233.75
259.849	222.75
260.081	239.75
260.314	257.75
260.547	245.75
260.779	230.75
261.012	221.75
261.244	232.75
261.477	224.75
261.71	213.75
261.942	213.75
262.175	229.75
262.407	235.75
262.64	226.75
262.872	223.75
263.105	197.75
263.337	210.75
263.57	217.75
263.802	218.75
264.035	212.75
264.267	221.75
264.499	217.75
264.732	232.75
264.964	217.75
265.197	223.75
265.429	208.75
265.661	228.75
265.894	232.75
266.126	236.75
266.358	231.75
266.591	204.75
266.823	243.75
267.055	244.75
267.287	234.75
267.52	236.75
267.752	228.75
267.984	239.75
268.216	245.75
268.448	243.75
268.681	247.75
268.913	253.75
269.145	258.75
269.377	267.75
269.609	276.75
269.841	259.75
270.073	257.75
270.306	287.75
270.538	313.75
270.77	294.75
271.002	289.75
271.234	286.75
271.466	304.75
271.698	308.75
271.93	316.75
272.162	304.75
272.394	298.75
272.626	297.75
272.858	285.75
273.09	289.75
273.322	297.75
273.553	277.75
273.785	289.75
274.017	273.75
274.249	290.75
274.481	269.75
274.713	272.75
274.945	281.75
275.176	255.75
275.408	272.75
275.64	267.75
275.872	255.75
276.104	280.75
276.335	261.75
276.567	264.75
276.799	283.75
277.031	312.75
277.262	313.75
277.494	306.75
277.726	300.75
277.957	309.75
278.189	308.75
278.421	276.75
278.652	278.75
278.884	284.75
279.115	272.75
279.347	288.75
279.579	281.75
279.81	269.75
280.042	281.75
280.273	290.75
280.505	281.75
280.736	284.75
280.968	291.75
281.199	280.75
281.431	273.75
281.662	276.75
281.894	276.75
282.125	296.75
282.356	293.75
282.588	305.75
282.819	292.75
283.051	297.75
283.282	303.75
283.513	293.75
283.745	297.75
283.976	306.75
284.207	297.75
284.439	303.75
284.67	317.75
284.901	318.75
285.132	287.75
285.364	294.75
285.595	290.75
285.826	320.75
286.057	314.75
286.288	307.75
286.52	306.75
286.751	300.75
286.982	320.75
287.213	291.75
287.444	299.75
287.675	298.75
287.906	317.75
288.138	339.75
288.369	314.75
288.6	326.75
288.831	323.75
289.062	303.75
289.293	324.75
289.524	320.75
289.755	325.75
289.986	317.75
290.217	309.75
290.448	305.75
290.679	306.75
290.91	308.75
291.141	308.75
291.371	327.75
291.602	323.75
291.833	312.75
292.064	325.75
292.295	300.75
292.526	305.75
292.757	310.75
292.987	303.75
293.218	307.75
293.449	323.75
293.68	312.75
293.91	329.75
294.141	312.75
294.372	308.75
294.603	312.75
294.833	313.75
295.064	341.75
295.295	337.75
295.525	336.75
295.756	322.75
295.987	324.75
296.217	330.75
296.448	329.75
296.679	338.75
296.909	325.75
297.14	320.75
297.37	331.75
297.601	336.75
297.831	331.75
298.062	326.75
298.292	341.75
298.523	324.75
298.753	343.75
298.984	332.75
299.214	335.75
299.445	328.75
299.675	335.75
299.905	355.75
300.136	325.75
300.366	336.75
300.597	338.75
300.827	342.75
301.057	359.75
301.288	356.75
301.518	343.75
301.748	348.75
301.979	368.75
302.209	352.75
302.439	352.75
302.669	359.75
302.9	354.75
303.13	368.75
303.36	351.75
303.59	353.75
303.82	363.75
304.051	375.75
304.281	358.75
304.511	345.75
304.741	346.75
304.971	338.75
305.201	358.75
305.431	353.75
305.661	348.75
305.891	356.75
306.121	348.75
306.352	378.75
306.582	363.75
306.812	363.75
307.042	363.75
307.272	368.75
307.502	363.75
307.731	367.75
307.961	379.75
308.191	363.75
308.421	348.75
308.651	360.75
308.881	368.75
309.111	371.75
309.341	377.75
309.571	363.75
309.8	354.75
310.03	381.75
310.26	386.75
310.49	382.75
310.72	388.75
310.949	391.75
311.179	412.75
311.409	380.75
311.639	380.75
311.868	406.75
312.098	380.75
312.328	397.75
312.557	385.75
312.787	409.75
313.017	414.75
313.246	383.75
313.476	394.75
313.706	405.75
313.935	399.75
314.165	396.75
314.394	395.75
314.624	395.75
314.853	376.75
315.083	395.75
315.312	391.75
315.542	393.75
315.771	386.75
316.001	372.75
316.23	380.75
316.46	378.75
316.689	390.75
316.919	422.75
317.148	388.75
317.377	396.75
317.607	392.75
317.836	397.75
318.065	387.75
318.295	391.75
318.524	382.75
318.753	394.75
318.983	385.75
319.212	393.75
319.441	393.75
319.67	403.75
319.9	411.75
320.129	403.75
320.358	402.75
320.587	401.75
320.816	397.75
321.046	410.75
321.275	421.75
321.504	404.75
321.733	412.75
321.962	378.75
322.191	402.75
322.42	423.75
322.649	410.75
322.878	421.75
323.108	451.75
323.337	450.75
323.566	448.75
323.795	484.75
324.024	528.75
324.253	572.75
324.482	777.75
324.71	1095.75
324.939	1495.75
325.168	1276.75
325.397	706.75
325.626	528.75
325.855	497.75
326.084	460.75
326.313	471.75
326.542	463.75
326.77	490.75
326.999	576.75
327.228	719.75
327.457	986.75
327.686	1135.75
327.914	788.75
328.143	580.75
328.372	522.75
328.6	506.75
328.829	484.75
329.058	518.75
329.287	519.75
329.515	484.75
329.744	498.75
329.972	471.75
330.201	502.75
330.43	503.75
330.658	525.75
330.887	556.75
331.115	517.75
331.344	486.75
331.572	472.75
331.801	498.75
332.03	468.75
332.258	471.75
332.486	486.75
332.715	456.75
332.943	464.75
333.172	478.75
333.4	480.75
333.629	507.75
333.857	514.75
334.085	508.75
334.314	536.75
334.542	545.75
334.771	530.75
334.999	516.75
335.227	485.75
335.455	469.75
335.684	489.75
335.912	468.75
336.14	463.75
336.369	455.75
336.597	467.75
336.825	488.75
337.053	461.75
337.281	479.75
337.51	460.75
337.738	455.75
337.966	463.75
338.194	463.75
338.422	459.75
338.65	441.75
338.878	450.75
339.106	448.75
339.334	472.75
339.562	438.75
339.79	429.75
340.018	443.75
340.246	436.75
340.474	437.75
340.702	432.75
340.93	423.75
341.158	437.75
341.386	455.75
341.614	426.75
341.842	448.75
342.07	456.75
342.298	440.75
342.526	454.75
342.754	438.75
342.981	433.75
343.209	442.75
343.437	442.75
343.665	451.75
343.893	459.75
344.12	470.75
344.348	457.75
344.576	449.75
344.804	444.75
345.031	452.75
345.259	433.75
345.487	431.75
345.714	415.75
345.942	417.75
346.17	425.75
346.397	447.75
346.625	417.75
346.853	429.75
347.08	408.75
347.308	408.75
347.535	432.75
347.763	412.75
347.99	410.75
348.218	421.75
348.445	415.75
348.673	419.75
348.9	404.75
349.128	413.75
349.355	387.75
349.583	393.75
349.81	416.75
350.037	396.75
350.265	404.75
350.492	408.75
350.72	388.75
350.947	401.75
351.174	413.75
351.402	408.75
351.629	405.75
351.856	401.75
352.083	418.75
352.311	416.75
352.538	433.75
352.765	428.75
352.992	390.75
353.22	411.75
353.447	426.75
353.674	424.75
353.901	411.75
354.128	401.75
354.355	394.75
354.583	401.75
354.81	399.75
355.037	380.75
355.264	380.75
355.491	396.75
355.718	389.75
355.945	389.75
356.172	375.75
356.399	374.75
356.626	389.75
356.853	406.75
357.08	397.75
357.307	383.75
357.534	380.75
357.761	381.75
357.988	396.75
358.215	420.75
358.441	406.75
358.668	387.75
358.895	394.75
359.122	388.75
359.349	384.75
359.576	390.75
359.802	424.75
360.029	415.75
360.256	424.75
360.483	439.75
360.709	411.75
360.936	406.75
361.163	412.75
361.39	406.75
361.616	393.75
361.843	394.75
362.07	396.75
362.296	400.75
362.523	388.75
362.749	392.75
362.976	406.75
363.203	393.75
363.429	396.75
363.656	418.75
363.882	408.75
364.109	394.75
364.335	398.75
364.562	386.75
364.788	400.75
365.015	415.75
365.241	405.75
365.468	401.75
365.694	387.75
365.92	391.75
366.147	372.75
366.373	385.75
366.599	391.75
366.826	371.75
367.052	377.75
367.278	364.75
367.505	394.75
367.731	389.75
367.957	397.75
368.184	397.75
368.41	385.75
368.636	379.75
368.862	389.75
369.089	387.75
369.315	378.75
369.541	374.75
369.767	395.75
369.993	392.75
370.219	381.75
370.445	389.75
370.672	392.75
370.898	385.75
371.124	394.75
371.35	389.75
371.576	376.75
371.802	375.75
372.028	405.75
372.254	412.75
372.48	404.75
372.706	394.75
372.932	390.75
373.158	375.75
373.384	382.75
373.61	398.75
373.835	383.75
374.061	381.75
374.287	407.75
374.513	380.75
374.739	407.75
374.965	403.75
375.191	393.75
375.416	391.75
375.642	408.75
375.868	385.75
376.094	378.75
376.319	407.75
376.545	382.75
376.771	376.75
376.997	381.75
377.222	388.75
377.448	371.75
377.674	378.75
377.899	381.75
378.125	380.75
378.35	383.75
378.576	384.75
378.802	386.75
379.027	394.75
379.253	389.75
379.478	371.75
379.704	387.75
379.929	381.75
380.155	366.75
380.38	373.75
380.606	389.75
380.831	391.75
381.057	397.75
381.282	374.75
381.507	393.75
381.733	383.75
381.958	381.75
382.184	402.75
382.409	391.75
382.634	398.75
382.86	397.75
383.085	381.75
383.31	395.75
383.535	391.75
383.761	388.75
383.986	403.75
384.211	417.75
384.436	389.75
384.662	413.75
384.887	402.75
385.112	406.75
385.337	436.75
385.562	409.75
385.787	407.75
386.013	436.75
386.238	423.75
386.463	439.75
386.688	415.75
386.913	416.75
387.138	411.75
387.363	423.75
387.588	437.75
387.813	432.75
388.038	408.75
388.263	439.75
388.488	407.75
388.713	401.75
388.938	420.75
389.163	429.75
389.387	432.75
389.612	420.75
389.837	416.75
390.062	417.75
390.287	415.75
390.512	419.75
390.736	414.75
390.961	407.75
391.186	428.75
391.411	419.75
391.636	444.75
391.86	439.75
392.085	417.75
392.31	421.75
392.534	440.75
392.759	425.75
392.984	417.75
393.208	428.75
393.433	416.75
393.658	424.75
393.882	417.75
394.107	420.75
394.331	441.75
394.556	418.75
394.78	420.75
395.005	420.75
395.229	422.75
395.454	440.75
395.678	444.75
395.903	441.75
396.127	464.75
396.352	483.75
396.576	455.75
396.801	432.75
397.025	445.75
397.249	439.75
397.474	459.75
397.698	434.75
397.922	456.75
398.147	484.75
398.371	470.75
398.595	458.75
398.82	459.75
399.044	482.75
399.268	515.75
399.492	545.75
399.717	586.75
399.941	585.75
400.165	572.75
400.389	583.75
400.613	525.75
400.837	509.75
401.062	479.75
401.286	473.75
401.51	478.75
401.734	457.75
401.958	466.75
402.182	481.75
402.406	477.75
402.63	484.75
402.854	467.75
403.078	480.75
403.302	484.75
403.526	487.75
403.75	497.75
403.974	514.75
404.198	502.75
404.422	513.75
404.645	484.75
404.869	504.75
405.093	522.75
405.317	541.75
405.541	578.75
405.765	500.75
405.988	513.75
406.212	527.75
406.436	521.75
406.66	536.75
406.883	513.75
407.107	552.75
407.331	584.75
407.555	612.75
407.778	620.75
408.002	584.75
408.226	550.75
408.449	551.75
408.673	535.75
408.896	568.75
409.12	565.75
409.344	552.75
409.567	505.75
409.791	486.75
410.014	495.75
410.238	474.75
410.461	479.75
410.685	474.75
410.908	491.75
411.132	514.75
411.355	549.75
411.578	513.75
411.802	497.75
412.025	486.75
412.249	499.75
412.472	525.75
412.695	569.75
412.919	551.75
413.142	499.75
413.365	477.75
413.589	482.75
413.812	460.75
414.035	500.75
414.258	441.75
414.482	452.75
414.705	460.75
414.928	449.75
415.151	451.75
415.374	456.75
415.597	441.75
415.821	448.75
416.044	449.75
416.267	456.75
416.49	452.75
416.713	447.75
416.936	455.75
417.159	461.75
417.382	434.75
417.605	458.75
417.828	465.75
418.051	465.75
418.274	451.75
418.497	492.75
418.72	488.75
418.943	436.75
419.166	472.75
419.389	502.75
419.611	487.75
419.834	486.75
420.057	489.75
420.28	484.75
420.503	472.75
420.726	474.75
420.948	481.75
421.171	507.75
421.394	508.75
421.617	475.75
421.839	470.75
422.062	467.75
422.285	487.75
422.507	521.75
422.73	569.75
422.953	567.75
423.175	499.75
423.398	476.75
423.621	468.75
423.843	476.75
424.066	500.75
424.288	465.75
424.511	521.75
424.733	520.75
424.956	589.75
425.178	577.75
425.401	564.75
425.623	597.75
425.846	518.75
426.068	477.75
426.291	460.75
426.513	455.75
426.735	480.75
426.958	515.75
427.18	577.75
427.402	676.75
427.625	705.75
427.847	614.75
428.069	543.75
428.292	489.75
428.514	467.75
428.736	451.75
428.958	443.75
429.181	440.75
429.403	432.75
429.625	458.75
429.847	453.75
430.069	516.75
430.292	521.75
430.514	459.75
430.736	440.75
430.958	431.75
431.18	429.75
431.402	423.75
431.624	426.75
431.846	426.75
432.068	415.75
432.29	434.75
432.512	427.75
432.734	426.75
432.956	441.75
433.178	440.75
433.4	419.75
433.622	436.75
433.844	435.75
434.066	424.75
434.287	419.75
434.509	417.75
434.731	432.75
434.953	442.75
435.175	467.75
435.397	467.75
435.618	480.75
435.84	514.75
436.062	555.75
436.284	596.75
436.505	529.75
436.727	490.75
436.949	453.75
437.17	448.75
437.392	437.75
437.614	447.75
437.835	471.75
438.057	535.75
438.278	612.75
438.5	609.75
438.721	666.75
438.943	606.75
439.165	511.75
439.386	478.75
439.608	483.75
439.829	472.75
440.05	483.75
440.272	496.75
440.493	496.75
440.715	460.75
440.936	440.75
441.158	454.75
441.379	459.75
441.6	445.75
441.822	470.75
442.043	518.75
442.264	569.75
442.486	600.75
442.707	508.75
442.928	489.75
443.149	492.75
443.371	501.75
443.592	533.75
443.813	592.75
444.034	631.75
444.255	543.75
444.476	511.75
444.698	511.75
444.919	484.75
445.14	575.75
445.361	570.75
445.582	512.75
445.803	533.75
446.024	617.75
446.245	616.75
446.466	569.75
446.687	488.75
446.908	470.75
447.129	440.75
447.35	424.75
447.571	441.75
447.792	424.75
448.013	434.75
448.234	446.75
448.455	482.75
448.675	554.75
448.896	636.75
449.117	554.75
449.338	511.75
449.559	599.75
449.779	671.75
450	536.75
450.221	463.75
450.442	427.75
450.662	417.75
450.883	456.75
451.104	419.75
451.324	407.75
451.545	412.75
451.766	417.75
451.986	397.75
452.207	383.75
452.428	394.75
452.648	389.75
452.869	375.75
453.089	399.75
453.31	388.75
453.53	388.75
453.751	386.75
453.971	401.75
454.192	384.75
454.412	386.75
454.633	381.75
454.853	382.75
455.073	405.75
455.294	417.75
455.514	457.75
455.734	446.75
455.955	386.75
456.175	392.75
456.395	381.75
456.616	381.75
456.836	373.75
457.056	371.75
457.276	380.75
457.497	382.75
457.717	361.75
457.937	387.75
458.157	397.75
458.377	393.75
458.598	395.75
458.818	421.75
459.038	488.75
459.258	482.75
459.478	468.75
459.698	441.75
459.918	418.75
460.138	459.75
460.358	440.75
460.578	435.75
460.798	441.75
461.018	461.75
461.238	441.75
461.458	440.75
461.678	457.75
461.898	452.75
462.118	443.75
462.338	458.75
462.558	472.75
462.777	452.75
462.997	480.75
463.217	504.75
463.437	481.75
463.657	491.75
463.876	474.75
464.096	477.75
464.316	456.75
464.536	472.75
464.755	486.75
464.975	465.75
465.195	465.75
465.414	481.75
465.634	445.75
465.854	424.75
466.073	420.75
466.293	411.75
466.512	418.75
466.732	400.75
466.951	398.75
467.171	401.75
467.391	417.75
467.61	401.75
467.829	381.75
468.049	399.75
468.268	427.75
468.488	401.75
468.707	405.75
468.927	383.75
469.146	381.75
469.365	398.75
469.585	377.75
469.804	400.75
470.023	383.75
470.243	391.75
470.462	412.75
470.681	412.75
470.901	417.75
471.12	411.75
471.339	403.75
471.558	400.75
471.777	413.75
471.997	405.75
472.216	404.75
472.435	434.75
472.654	424.75
472.873	413.75
473.092	415.75
473.311	407.75
473.53	394.75
473.749	394.75
473.968	414.75
474.187	487.75
474.406	507.75
474.625	447.75
474.844	439.75
475.063	394.75
475.282	417.75
475.501	401.75
475.72	418.75
475.939	430.75
476.158	419.75
476.377	417.75
476.596	423.75
476.814	435.75
477.033	413.75
477.252	435.75
477.471	425.75
477.69	454.75
477.908	425.75
478.127	433.75
478.346	437.75
478.564	446.75
478.783	475.75
479.002	487.75
479.22	466.75
479.439	476.75
479.658	467.75
479.876	475.75
480.095	472.75
480.313	521.75
480.532	489.75
480.751	490.75
480.969	483.75
481.188	541.75
481.406	559.75
481.624	520.75
481.843	472.75
482.061	492.75
482.28	468.75
482.498	460.75
482.717	464.75
482.935	464.75
483.153	471.75
483.372	473.75
483.59	464.75
483.808	472.75
484.027	459.75
484.245	477.75
484.463	475.75
484.681	470.75
484.9	480.75
485.118	496.75
485.336	473.75
485.554	483.75
485.772	473.75
485.99	487.75
486.209	485.75
486.427	474.75
486.645	487.75
486.863	522.75
487.081	486.75
487.299	482.75
487.517	485.75
487.735	499.75
487.953	498.75
488.171	521.75
488.389	498.75
488.607	473.75
488.825	508.75
489.043	496.75
489.261	505.75
489.479	499.75
489.696	508.75
489.914	515.75
490.132	521.75
490.35	528.75
490.568	499.75
490.786	524.75
491.003	529.75
491.221	570.75
491.439	563.75
491.657	553.75
491.874	567.75
492.092	554.75
492.31	558.75
492.527	565.75
492.745	547.75
492.963	567.75
493.18	572.75
493.398	571.75
493.615	555.75
493.833	561.75
494.05	561.75
494.268	563.75
494.485	565.75
494.703	578.75
494.92	582.75
495.138	594.75
495.355	575.75
495.573	565.75
495.79	572.75
496.008	574.75
496.225	585.75
496.442	596.75
496.66	589.75
496.877	582.75
497.094	601.75
497.312	596.75
497.529	597.75
497.746	588.75
497.963	615.75
498.181	645.75
498.398	637.75
498.615	660.75
498.832	682.75
499.049	695.75
499.267	764.75
499.484	757.75
499.701	798.75
499.918	781.75
500.135	845.75
500.352	910.75
500.569	885.75
500.786	903.75
501.003	917.75
501.22	882.75
501.437	827.75
501.654	805.75
501.871	785.75
502.088	731.75
