Data from 1964.PennyLincolnUp.Lamp.En5.5.200Scan.071719.P1._HRD10591_14-03-40-908.txt Node
Date: Thu Jul 18 14:03:40 EDT 2019
User: cochatt
Spectrometer: HR+D1059
Trigger mode: 1
Integration Time (sec): 1.000000E-1
Scans to average: 1
Electric dark correction enabled: true
Nonlinearity correction enabled: false
Boxcar width: 0
XAxis mode: Wavelengths
Number of Pixels in Spectrum: 2048
>>>>>Begin Spectral Data<<<<<
223.165	-23.88
223.4	-23.88
223.635	-23.88
223.869	4.12
224.104	-19.88
224.338	-13.88
224.573	-12.88
224.808	-8.88
225.042	-1.88
225.277	-6.88
225.511	-12.88
225.746	-0.88
225.98	-3.88
226.215	8.12
226.449	20.12
226.683	17.12
226.918	23.12
227.152	33.12
227.387	35.12
227.621	42.12
227.856	46.12
228.09	36.12
228.324	40.12
228.559	69.12
228.793	61.12
229.027	84.12
229.262	115.12
229.496	107.12
229.73	117.12
229.964	127.12
230.199	121.12
230.433	109.12
230.667	106.12
230.901	89.12
231.136	103.12
231.37	119.12
231.604	106.12
231.838	103.12
232.072	100.12
232.306	119.12
232.541	99.12
232.775	113.12
233.009	111.12
233.243	109.12
233.477	118.12
233.711	117.12
233.945	109.12
234.179	107.12
234.413	117.12
234.647	116.12
234.881	112.12
235.115	107.12
235.349	121.12
235.583	133.12
235.817	117.12
236.051	120.12
236.285	123.12
236.519	107.12
236.753	126.12
236.987	145.12
237.221	139.12
237.455	173.12
237.689	156.12
237.922	142.12
238.156	113.12
238.39	126.12
238.624	126.12
238.858	122.12
239.091	131.12
239.325	125.12
239.559	120.12
239.793	125.12
240.027	117.12
240.26	127.12
240.494	139.12
240.728	132.12
240.961	141.12
241.195	129.12
241.429	139.12
241.662	124.12
241.896	127.12
242.13	136.12
242.363	123.12
242.597	145.12
242.83	131.12
243.064	127.12
243.298	128.12
243.531	129.12
243.765	135.12
243.998	142.12
244.232	148.12
244.465	146.12
244.699	144.12
244.932	144.12
245.166	134.12
245.399	151.12
245.633	131.12
245.866	160.12
246.099	135.12
246.333	142.12
246.566	159.12
246.8	151.12
247.033	168.12
247.266	153.12
247.5	143.12
247.733	164.12
247.966	173.12
248.2	169.12
248.433	181.12
248.666	169.12
248.899	169.12
249.133	191.12
249.366	191.12
249.599	165.12
249.832	186.12
250.066	183.12
250.299	170.12
250.532	183.12
250.765	205.12
250.998	204.12
251.231	206.12
251.465	205.12
251.698	184.12
251.931	192.12
252.164	203.12
252.397	189.12
252.63	193.12
252.863	191.12
253.096	201.12
253.329	213.12
253.562	205.12
253.795	223.12
254.028	222.12
254.261	203.12
254.494	221.12
254.727	225.12
254.96	260.12
255.193	239.12
255.426	238.12
255.659	215.12
255.892	219.12
256.124	199.12
256.357	213.12
256.59	212.12
256.823	220.12
257.056	201.12
257.289	204.12
257.521	204.12
257.754	206.12
257.987	202.12
258.22	218.12
258.452	204.12
258.685	195.12
258.918	211.12
259.151	221.12
259.383	220.12
259.616	212.12
259.849	232.12
260.081	220.12
260.314	243.12
260.547	233.12
260.779	255.12
261.012	238.12
261.244	225.12
261.477	207.12
261.71	223.12
261.942	214.12
262.175	204.12
262.407	219.12
262.64	233.12
262.872	204.12
263.105	228.12
263.337	229.12
263.57	217.12
263.802	212.12
264.035	235.12
264.267	225.12
264.499	229.12
264.732	204.12
264.964	217.12
265.197	207.12
265.429	231.12
265.661	212.12
265.894	213.12
266.126	224.12
266.358	241.12
266.591	229.12
266.823	235.12
267.055	227.12
267.287	232.12
267.52	220.12
267.752	217.12
267.984	222.12
268.216	240.12
268.448	246.12
268.681	248.12
268.913	240.12
269.145	247.12
269.377	267.12
269.609	275.12
269.841	265.12
270.073	278.12
270.306	289.12
270.538	297.12
270.77	299.12
271.002	273.12
271.234	299.12
271.466	299.12
271.698	292.12
271.93	281.12
272.162	284.12
272.394	300.12
272.626	290.12
272.858	276.12
273.09	290.12
273.322	295.12
273.553	256.12
273.785	283.12
274.017	270.12
274.249	271.12
274.481	264.12
274.713	262.12
274.945	261.12
275.176	277.12
275.408	267.12
275.64	251.12
275.872	283.12
276.104	262.12
276.335	255.12
276.567	264.12
276.799	275.12
277.031	298.12
277.262	299.12
277.494	298.12
277.726	297.12
277.957	296.12
278.189	285.12
278.421	281.12
278.652	287.12
278.884	285.12
279.115	280.12
279.347	293.12
279.579	289.12
279.81	280.12
280.042	284.12
280.273	277.12
280.505	281.12
280.736	296.12
280.968	281.12
281.199	299.12
281.431	288.12
281.662	289.12
281.894	284.12
282.125	300.12
282.356	276.12
282.588	286.12
282.819	300.12
283.051	291.12
283.282	273.12
283.513	283.12
283.745	296.12
283.976	303.12
284.207	311.12
284.439	291.12
284.67	296.12
284.901	295.12
285.132	310.12
285.364	276.12
285.595	299.12
285.826	284.12
286.057	323.12
286.288	290.12
286.52	317.12
286.751	303.12
286.982	307.12
287.213	307.12
287.444	291.12
287.675	289.12
287.906	325.12
288.138	294.12
288.369	329.12
288.6	318.12
288.831	292.12
289.062	304.12
289.293	294.12
289.524	316.12
289.755	298.12
289.986	314.12
290.217	301.12
290.448	313.12
290.679	310.12
290.91	324.12
291.141	323.12
291.371	327.12
291.602	291.12
291.833	311.12
292.064	304.12
292.295	309.12
292.526	303.12
292.757	311.12
292.987	318.12
293.218	317.12
293.449	327.12
293.68	321.12
293.91	308.12
294.141	309.12
294.372	293.12
294.603	301.12
294.833	321.12
295.064	316.12
295.295	334.12
295.525	323.12
295.756	323.12
295.987	328.12
296.217	333.12
296.448	342.12
296.679	319.12
296.909	331.12
297.14	323.12
297.37	327.12
297.601	330.12
297.831	334.12
298.062	327.12
298.292	315.12
298.523	312.12
298.753	342.12
298.984	328.12
299.214	332.12
299.445	339.12
299.675	338.12
299.905	325.12
300.136	342.12
300.366	326.12
300.597	324.12
300.827	333.12
301.057	353.12
301.288	356.12
301.518	334.12
301.748	336.12
301.979	335.12
302.209	356.12
302.439	356.12
302.669	360.12
302.9	338.12
303.13	347.12
303.36	347.12
303.59	354.12
303.82	351.12
304.051	365.12
304.281	353.12
304.511	352.12
304.741	334.12
304.971	327.12
305.201	357.12
305.431	352.12
305.661	341.12
305.891	333.12
306.121	347.12
306.352	357.12
306.582	357.12
306.812	353.12
307.042	348.12
307.272	357.12
307.502	340.12
307.731	350.12
307.961	355.12
308.191	350.12
308.421	364.12
308.651	359.12
308.881	375.12
309.111	359.12
309.341	361.12
309.571	357.12
309.8	381.12
310.03	377.12
310.26	390.12
310.49	380.12
310.72	394.12
310.949	383.12
311.179	412.12
311.409	375.12
311.639	374.12
311.868	367.12
312.098	386.12
312.328	379.12
312.557	378.12
312.787	391.12
313.017	401.12
313.246	393.12
313.476	396.12
313.706	389.12
313.935	383.12
314.165	382.12
314.394	387.12
314.624	397.12
314.853	389.12
315.083	388.12
315.312	371.12
315.542	400.12
315.771	396.12
316.001	377.12
316.23	388.12
316.46	378.12
316.689	380.12
316.919	380.12
317.148	385.12
317.377	389.12
317.607	390.12
317.836	403.12
318.065	380.12
318.295	372.12
318.524	396.12
318.753	364.12
318.983	375.12
319.212	377.12
319.441	409.12
319.67	409.12
319.9	389.12
320.129	393.12
320.358	392.12
320.587	379.12
320.816	375.12
321.046	398.12
321.275	399.12
321.504	398.12
321.733	395.12
321.962	400.12
322.191	410.12
322.42	442.12
322.649	432.12
322.878	447.12
323.108	435.12
323.337	439.12
323.566	449.12
323.795	476.12
324.024	478.12
324.253	550.12
324.482	720.12
324.71	1041.12
324.939	1398.12
325.168	1166.12
325.397	678.12
325.626	506.12
325.855	465.12
326.084	458.12
326.313	446.12
326.542	481.12
326.77	473.12
326.999	549.12
327.228	644.12
327.457	937.12
327.686	1059.12
327.914	749.12
328.143	518.12
328.372	495.12
328.6	487.12
328.829	475.12
329.058	499.12
329.287	483.12
329.515	476.12
329.744	452.12
329.972	457.12
330.201	480.12
330.43	508.12
330.658	484.12
330.887	505.12
331.115	488.12
331.344	458.12
331.572	453.12
331.801	454.12
332.03	461.12
332.258	440.12
332.486	453.12
332.715	444.12
332.943	455.12
333.172	438.12
333.4	464.12
333.629	494.12
333.857	485.12
334.085	491.12
334.314	509.12
334.542	508.12
334.771	513.12
334.999	489.12
335.227	471.12
335.455	472.12
335.684	461.12
335.912	460.12
336.14	445.12
336.369	443.12
336.597	455.12
336.825	456.12
337.053	461.12
337.281	458.12
337.51	440.12
337.738	445.12
337.966	453.12
338.194	446.12
338.422	456.12
338.65	437.12
338.878	441.12
339.106	453.12
339.334	439.12
339.562	455.12
339.79	458.12
340.018	429.12
340.246	443.12
340.474	430.12
340.702	401.12
340.93	450.12
341.158	430.12
341.386	437.12
341.614	437.12
341.842	422.12
342.07	443.12
342.298	419.12
342.526	416.12
342.754	414.12
342.981	431.12
343.209	421.12
343.437	420.12
343.665	446.12
343.893	429.12
344.12	443.12
344.348	439.12
344.576	439.12
344.804	416.12
345.031	432.12
345.259	429.12
345.487	429.12
345.714	413.12
345.942	419.12
346.17	424.12
346.397	399.12
346.625	419.12
346.853	419.12
347.08	399.12
347.308	413.12
347.535	403.12
347.763	391.12
347.99	419.12
348.218	410.12
348.445	430.12
348.673	409.12
348.9	391.12
349.128	402.12
349.355	388.12
349.583	411.12
349.81	388.12
350.037	379.12
350.265	397.12
350.492	386.12
350.72	385.12
350.947	407.12
351.174	409.12
351.402	411.12
351.629	413.12
351.856	404.12
352.083	407.12
352.311	417.12
352.538	414.12
352.765	411.12
352.992	407.12
353.22	385.12
353.447	392.12
353.674	401.12
353.901	386.12
354.128	400.12
354.355	376.12
354.583	389.12
354.81	401.12
355.037	388.12
355.264	379.12
355.491	384.12
355.718	383.12
355.945	384.12
356.172	377.12
356.399	388.12
356.626	392.12
356.853	381.12
357.08	372.12
357.307	373.12
357.534	389.12
357.761	385.12
357.988	371.12
358.215	365.12
358.441	371.12
358.668	389.12
358.895	377.12
359.122	376.12
359.349	393.12
359.576	412.12
359.802	404.12
360.029	414.12
360.256	406.12
360.483	397.12
360.709	395.12
360.936	401.12
361.163	383.12
361.39	387.12
361.616	406.12
361.843	406.12
362.07	409.12
362.296	391.12
362.523	389.12
362.749	380.12
362.976	373.12
363.203	392.12
363.429	383.12
363.656	379.12
363.882	389.12
364.109	381.12
364.335	388.12
364.562	383.12
364.788	377.12
365.015	397.12
365.241	368.12
365.468	383.12
365.694	390.12
365.92	381.12
366.147	393.12
366.373	379.12
366.599	364.12
366.826	383.12
367.052	381.12
367.278	374.12
367.505	390.12
367.731	389.12
367.957	387.12
368.184	376.12
368.41	368.12
368.636	377.12
368.862	389.12
369.089	388.12
369.315	399.12
369.541	388.12
369.767	395.12
369.993	376.12
370.219	374.12
370.445	386.12
370.672	386.12
370.898	374.12
371.124	376.12
371.35	394.12
371.576	393.12
371.802	403.12
372.028	379.12
372.254	379.12
372.48	404.12
372.706	378.12
372.932	376.12
373.158	384.12
373.384	386.12
373.61	385.12
373.835	392.12
374.061	398.12
374.287	388.12
374.513	388.12
374.739	399.12
374.965	397.12
375.191	413.12
375.416	404.12
375.642	407.12
375.868	390.12
376.094	393.12
376.319	376.12
376.545	373.12
376.771	368.12
376.997	377.12
377.222	376.12
377.448	367.12
377.674	377.12
377.899	387.12
378.125	400.12
378.35	381.12
378.576	390.12
378.802	376.12
379.027	381.12
379.253	384.12
379.478	380.12
379.704	375.12
379.929	356.12
380.155	407.12
380.38	389.12
380.606	372.12
380.831	388.12
381.057	395.12
381.282	383.12
381.507	386.12
381.733	376.12
381.958	380.12
382.184	392.12
382.409	400.12
382.634	391.12
382.86	379.12
383.085	384.12
383.31	402.12
383.535	395.12
383.761	382.12
383.986	379.12
384.211	403.12
384.436	413.12
384.662	384.12
384.887	424.12
385.112	401.12
385.337	424.12
385.562	403.12
385.787	419.12
386.013	414.12
386.238	417.12
386.463	419.12
386.688	417.12
386.913	419.12
387.138	415.12
387.363	413.12
387.588	409.12
387.813	430.12
388.038	420.12
388.263	426.12
388.488	402.12
388.713	430.12
388.938	435.12
389.163	411.12
389.387	416.12
389.612	408.12
389.837	414.12
390.062	432.12
390.287	408.12
390.512	409.12
390.736	401.12
390.961	412.12
391.186	414.12
391.411	425.12
391.636	417.12
391.86	448.12
392.085	428.12
392.31	427.12
392.534	447.12
392.759	416.12
392.984	411.12
393.208	430.12
393.433	444.12
393.658	410.12
393.882	428.12
394.107	405.12
394.331	414.12
394.556	414.12
394.78	433.12
395.005	413.12
395.229	412.12
395.454	425.12
395.678	428.12
395.903	448.12
396.127	455.12
396.352	454.12
396.576	463.12
396.801	437.12
397.025	428.12
397.249	430.12
397.474	443.12
397.698	421.12
397.922	450.12
398.147	454.12
398.371	477.12
398.595	439.12
398.82	473.12
399.044	484.12
399.268	511.12
399.492	524.12
399.717	553.12
399.941	569.12
400.165	583.12
400.389	570.12
400.613	525.12
400.837	507.12
401.062	482.12
401.286	499.12
401.51	468.12
401.734	487.12
401.958	462.12
402.182	471.12
402.406	471.12
402.63	485.12
402.854	458.12
403.078	484.12
403.302	497.12
403.526	491.12
403.75	492.12
403.974	470.12
404.198	488.12
404.422	475.12
404.645	484.12
404.869	498.12
405.093	513.12
405.317	552.12
405.541	574.12
405.765	523.12
405.988	497.12
406.212	492.12
406.436	518.12
406.66	541.12
406.883	512.12
407.107	545.12
407.331	550.12
407.555	603.12
407.778	633.12
408.002	549.12
408.226	535.12
408.449	503.12
408.673	537.12
408.896	534.12
409.12	561.12
409.344	520.12
409.567	501.12
409.791	495.12
410.014	503.12
410.238	494.12
410.461	474.12
410.685	490.12
410.908	513.12
411.132	523.12
411.355	539.12
411.578	491.12
411.802	464.12
412.025	473.12
412.249	485.12
412.472	515.12
412.695	519.12
412.919	526.12
413.142	480.12
413.365	478.12
413.589	458.12
413.812	468.12
414.035	458.12
414.258	438.12
414.482	464.12
414.705	452.12
414.928	460.12
415.151	449.12
415.374	445.12
415.597	440.12
415.821	435.12
416.044	448.12
416.267	450.12
416.49	440.12
416.713	445.12
416.936	428.12
417.159	446.12
417.382	456.12
417.605	432.12
417.828	462.12
418.051	461.12
418.274	462.12
418.497	440.12
418.72	456.12
418.943	428.12
419.166	476.12
419.389	492.12
419.611	467.12
419.834	467.12
420.057	446.12
420.28	461.12
420.503	456.12
420.726	462.12
420.948	483.12
421.171	478.12
421.394	495.12
421.617	486.12
421.839	454.12
422.062	435.12
422.285	479.12
422.507	509.12
422.73	559.12
422.953	548.12
423.175	505.12
423.398	455.12
423.621	469.12
423.843	461.12
424.066	487.12
424.288	486.12
424.511	490.12
424.733	549.12
424.956	569.12
425.178	555.12
425.401	537.12
425.623	571.12
425.846	489.12
426.068	477.12
426.291	475.12
426.513	464.12
426.735	492.12
426.958	479.12
427.18	562.12
427.402	637.12
427.625	705.12
427.847	599.12
428.069	525.12
428.292	484.12
428.514	459.12
428.736	451.12
428.958	436.12
429.181	446.12
429.403	430.12
429.625	431.12
429.847	472.12
430.069	497.12
430.292	505.12
430.514	451.12
430.736	443.12
430.958	448.12
431.18	422.12
431.402	410.12
431.624	415.12
431.846	419.12
432.068	433.12
432.29	430.12
432.512	427.12
432.734	428.12
432.956	422.12
433.178	433.12
433.4	416.12
433.622	414.12
433.844	429.12
434.066	423.12
434.287	430.12
434.509	430.12
434.731	444.12
434.953	453.12
435.175	454.12
435.397	446.12
435.618	457.12
435.84	488.12
436.062	555.12
436.284	591.12
436.505	501.12
436.727	462.12
436.949	443.12
437.17	443.12
437.392	411.12
437.614	438.12
437.835	447.12
438.057	525.12
438.278	578.12
438.5	592.12
438.721	642.12
438.943	610.12
439.165	490.12
439.386	459.12
439.608	455.12
439.829	452.12
440.05	494.12
440.272	501.12
440.493	470.12
440.715	441.12
440.936	445.12
441.158	440.12
441.379	444.12
441.6	453.12
441.822	474.12
442.043	518.12
442.264	549.12
442.486	559.12
442.707	495.12
442.928	478.12
443.149	496.12
443.371	476.12
443.592	533.12
443.813	585.12
444.034	615.12
444.255	535.12
444.476	483.12
444.698	493.12
444.919	487.12
445.14	596.12
445.361	539.12
445.582	492.12
445.803	527.12
446.024	591.12
446.245	583.12
446.466	547.12
446.687	465.12
446.908	467.12
447.129	443.12
447.35	437.12
447.571	429.12
447.792	415.12
448.013	422.12
448.234	446.12
448.455	471.12
448.675	542.12
448.896	630.12
449.117	521.12
449.338	515.12
449.559	590.12
449.779	651.12
450	527.12
450.221	440.12
450.442	428.12
450.662	404.12
450.883	401.12
451.104	409.12
451.324	406.12
451.545	412.12
451.766	401.12
451.986	377.12
452.207	374.12
452.428	391.12
452.648	375.12
452.869	366.12
453.089	376.12
453.31	382.12
453.53	405.12
453.751	399.12
453.971	384.12
454.192	396.12
454.412	362.12
454.633	377.12
454.853	381.12
455.073	392.12
455.294	405.12
455.514	420.12
455.734	417.12
455.955	388.12
456.175	377.12
456.395	375.12
456.616	366.12
456.836	385.12
457.056	371.12
457.276	364.12
457.497	355.12
457.717	385.12
457.937	391.12
458.157	395.12
458.377	370.12
458.598	398.12
458.818	418.12
459.038	452.12
459.258	477.12
459.478	451.12
459.698	410.12
459.918	419.12
460.138	421.12
460.358	437.12
460.578	412.12
460.798	417.12
461.018	431.12
461.238	440.12
461.458	445.12
461.678	432.12
461.898	451.12
462.118	445.12
462.338	444.12
462.558	436.12
462.777	451.12
462.997	469.12
463.217	469.12
463.437	488.12
463.657	483.12
463.876	476.12
464.096	463.12
464.316	474.12
464.536	480.12
464.755	463.12
464.975	450.12
465.195	465.12
465.414	500.12
465.634	456.12
465.854	420.12
466.073	424.12
466.293	425.12
466.512	417.12
466.732	389.12
466.951	387.12
467.171	409.12
467.391	410.12
467.61	407.12
467.829	403.12
468.049	412.12
468.268	389.12
468.488	392.12
468.707	404.12
468.927	383.12
469.146	373.12
469.365	391.12
469.585	397.12
469.804	407.12
470.023	407.12
470.243	408.12
470.462	394.12
470.681	398.12
470.901	396.12
471.12	409.12
471.339	409.12
471.558	404.12
471.777	411.12
471.997	391.12
472.216	395.12
472.435	397.12
472.654	398.12
472.873	404.12
473.092	407.12
473.311	396.12
473.53	400.12
473.749	397.12
473.968	439.12
474.187	487.12
474.406	491.12
474.625	423.12
474.844	413.12
475.063	379.12
475.282	407.12
475.501	412.12
475.72	410.12
475.939	398.12
476.158	408.12
476.377	400.12
476.596	405.12
476.814	419.12
477.033	431.12
477.252	396.12
477.471	425.12
477.69	436.12
477.908	429.12
478.127	461.12
478.346	443.12
478.564	427.12
478.783	437.12
479.002	469.12
479.22	462.12
479.439	468.12
479.658	474.12
479.876	462.12
480.095	505.12
480.313	503.12
480.532	489.12
480.751	478.12
480.969	462.12
481.188	527.12
481.406	521.12
481.624	493.12
481.843	478.12
482.061	469.12
482.28	459.12
482.498	477.12
482.717	472.12
482.935	462.12
483.153	465.12
483.372	453.12
483.59	436.12
483.808	484.12
484.027	463.12
484.245	474.12
484.463	465.12
484.681	478.12
484.9	471.12
485.118	484.12
485.336	473.12
485.554	471.12
485.772	489.12
485.99	496.12
486.209	473.12
486.427	459.12
486.645	483.12
486.863	494.12
487.081	472.12
487.299	487.12
487.517	481.12
487.735	470.12
487.953	481.12
488.171	492.12
488.389	508.12
488.607	477.12
488.825	486.12
489.043	487.12
489.261	484.12
489.479	489.12
489.696	491.12
489.914	484.12
490.132	493.12
490.35	501.12
490.568	500.12
490.786	496.12
491.003	507.12
491.221	529.12
491.439	526.12
491.657	548.12
491.874	546.12
492.092	541.12
492.31	559.12
492.527	547.12
492.745	541.12
492.963	556.12
493.18	554.12
493.398	555.12
493.615	549.12
493.833	542.12
494.05	555.12
494.268	577.12
494.485	575.12
494.703	546.12
494.92	565.12
495.138	547.12
495.355	534.12
495.573	563.12
495.79	549.12
496.008	576.12
496.225	558.12
496.442	569.12
496.66	557.12
496.877	576.12
497.094	580.12
497.312	600.12
497.529	575.12
497.746	597.12
497.963	612.12
498.181	617.12
498.398	635.12
498.615	647.12
498.832	652.12
499.049	696.12
499.267	721.12
499.484	735.12
499.701	775.12
499.918	795.12
500.135	822.12
500.352	877.12
500.569	887.12
500.786	903.12
501.003	904.12
501.22	848.12
501.437	811.12
501.654	771.12
501.871	729.12
502.088	703.12
