Data from 1964.PennyLincolnUp.Lamp.En5.5.200Scan.071719.P1._HRD10591_14-05-38-909.txt Node
Date: Thu Jul 18 14:05:38 EDT 2019
User: cochatt
Spectrometer: HR+D1059
Trigger mode: 1
Integration Time (sec): 1.000000E-1
Scans to average: 1
Electric dark correction enabled: true
Nonlinearity correction enabled: false
Boxcar width: 0
XAxis mode: Wavelengths
Number of Pixels in Spectrum: 2048
>>>>>Begin Spectral Data<<<<<
223.165	-17.88
223.4	-17.88
223.635	-17.88
223.869	-12.88
224.104	-25.88
224.338	-11.88
224.573	-9.88
224.808	-15.88
225.042	0.12
225.277	5.12
225.511	7.12
225.746	6.12
225.98	12.12
226.215	3.12
226.449	13.12
226.683	23.12
226.918	12.12
227.152	12.12
227.387	51.12
227.621	38.12
227.856	48.12
228.09	42.12
228.324	48.12
228.559	43.12
228.793	72.12
229.027	89.12
229.262	90.12
229.496	101.12
229.73	92.12
229.964	128.12
230.199	104.12
230.433	107.12
230.667	97.12
230.901	105.12
231.136	98.12
231.37	98.12
231.604	109.12
231.838	121.12
232.072	118.12
232.306	112.12
232.541	110.12
232.775	108.12
233.009	115.12
233.243	116.12
233.477	120.12
233.711	111.12
233.945	110.12
234.179	119.12
234.413	118.12
234.647	106.12
234.881	121.12
235.115	101.12
235.349	112.12
235.583	126.12
235.817	120.12
236.051	117.12
236.285	127.12
236.519	122.12
236.753	128.12
236.987	128.12
237.221	150.12
237.455	189.12
237.689	172.12
237.922	150.12
238.156	131.12
238.39	133.12
238.624	122.12
238.858	116.12
239.091	116.12
239.325	124.12
239.559	121.12
239.793	121.12
240.027	133.12
240.26	134.12
240.494	160.12
240.728	154.12
240.961	131.12
241.195	142.12
241.429	130.12
241.662	129.12
241.896	136.12
242.13	138.12
242.363	145.12
242.597	132.12
242.83	128.12
243.064	128.12
243.298	136.12
243.531	138.12
243.765	147.12
243.998	135.12
244.232	151.12
244.465	148.12
244.699	151.12
244.932	134.12
245.166	140.12
245.399	140.12
245.633	130.12
245.866	151.12
246.099	158.12
246.333	155.12
246.566	149.12
246.8	173.12
247.033	153.12
247.266	156.12
247.5	155.12
247.733	178.12
247.966	180.12
248.2	174.12
248.433	179.12
248.666	174.12
248.899	198.12
249.133	206.12
249.366	203.12
249.599	194.12
249.832	182.12
250.066	186.12
250.299	193.12
250.532	200.12
250.765	192.12
250.998	224.12
251.231	218.12
251.465	207.12
251.698	205.12
251.931	204.12
252.164	192.12
252.397	179.12
252.63	201.12
252.863	205.12
253.096	213.12
253.329	222.12
253.562	224.12
253.795	216.12
254.028	218.12
254.261	215.12
254.494	225.12
254.727	254.12
254.96	274.12
255.193	270.12
255.426	249.12
255.659	241.12
255.892	224.12
256.124	236.12
256.357	240.12
256.59	238.12
256.823	227.12
257.056	221.12
257.289	229.12
257.521	230.12
257.754	211.12
257.987	199.12
258.22	228.12
258.452	211.12
258.685	228.12
258.918	218.12
259.151	208.12
259.383	226.12
259.616	223.12
259.849	224.12
260.081	243.12
260.314	255.12
260.547	247.12
260.779	245.12
261.012	224.12
261.244	234.12
261.477	243.12
261.71	234.12
261.942	245.12
262.175	264.12
262.407	228.12
262.64	212.12
262.872	230.12
263.105	228.12
263.337	236.12
263.57	236.12
263.802	226.12
264.035	235.12
264.267	231.12
264.499	236.12
264.732	240.12
264.964	229.12
265.197	228.12
265.429	224.12
265.661	221.12
265.894	228.12
266.126	209.12
266.358	238.12
266.591	245.12
266.823	246.12
267.055	249.12
267.287	278.12
267.52	241.12
267.752	261.12
267.984	250.12
268.216	258.12
268.448	235.12
268.681	267.12
268.913	262.12
269.145	263.12
269.377	290.12
269.609	292.12
269.841	292.12
270.073	283.12
270.306	304.12
270.538	312.12
270.77	325.12
271.002	311.12
271.234	298.12
271.466	303.12
271.698	314.12
271.93	338.12
272.162	339.12
272.394	305.12
272.626	311.12
272.858	306.12
273.09	292.12
273.322	280.12
273.553	264.12
273.785	293.12
274.017	304.12
274.249	302.12
274.481	284.12
274.713	276.12
274.945	299.12
275.176	309.12
275.408	281.12
275.64	291.12
275.872	278.12
276.104	286.12
276.335	273.12
276.567	309.12
276.799	301.12
277.031	328.12
277.262	332.12
277.494	335.12
277.726	321.12
277.957	315.12
278.189	305.12
278.421	302.12
278.652	292.12
278.884	298.12
279.115	274.12
279.347	304.12
279.579	322.12
279.81	297.12
280.042	282.12
280.273	288.12
280.505	285.12
280.736	297.12
280.968	295.12
281.199	302.12
281.431	299.12
281.662	307.12
281.894	285.12
282.125	281.12
282.356	314.12
282.588	325.12
282.819	297.12
283.051	311.12
283.282	312.12
283.513	323.12
283.745	298.12
283.976	308.12
284.207	304.12
284.439	310.12
284.67	306.12
284.901	304.12
285.132	317.12
285.364	315.12
285.595	319.12
285.826	309.12
286.057	331.12
286.288	341.12
286.52	330.12
286.751	340.12
286.982	304.12
287.213	310.12
287.444	328.12
287.675	324.12
287.906	333.12
288.138	337.12
288.369	323.12
288.6	339.12
288.831	334.12
289.062	342.12
289.293	341.12
289.524	349.12
289.755	327.12
289.986	329.12
290.217	339.12
290.448	331.12
290.679	348.12
290.91	316.12
291.141	336.12
291.371	328.12
291.602	331.12
291.833	325.12
292.064	321.12
292.295	334.12
292.526	337.12
292.757	331.12
292.987	330.12
293.218	339.12
293.449	330.12
293.68	315.12
293.91	335.12
294.141	342.12
294.372	348.12
294.603	335.12
294.833	327.12
295.064	313.12
295.295	322.12
295.525	322.12
295.756	353.12
295.987	342.12
296.217	360.12
296.448	344.12
296.679	345.12
296.909	335.12
297.14	328.12
297.37	342.12
297.601	347.12
297.831	354.12
298.062	334.12
298.292	330.12
298.523	343.12
298.753	362.12
298.984	353.12
299.214	342.12
299.445	340.12
299.675	351.12
299.905	379.12
300.136	371.12
300.366	351.12
300.597	351.12
300.827	360.12
301.057	368.12
301.288	378.12
301.518	360.12
301.748	352.12
301.979	363.12
302.209	375.12
302.439	371.12
302.669	376.12
302.9	371.12
303.13	388.12
303.36	377.12
303.59	399.12
303.82	379.12
304.051	366.12
304.281	402.12
304.511	364.12
304.741	365.12
304.971	360.12
305.201	367.12
305.431	370.12
305.661	377.12
305.891	362.12
306.121	375.12
306.352	372.12
306.582	359.12
306.812	378.12
307.042	364.12
307.272	382.12
307.502	355.12
307.731	378.12
307.961	396.12
308.191	378.12
308.421	377.12
308.651	370.12
308.881	386.12
309.111	378.12
309.341	391.12
309.571	387.12
309.8	404.12
310.03	373.12
310.26	395.12
310.49	410.12
310.72	408.12
310.949	411.12
311.179	426.12
311.409	402.12
311.639	389.12
311.868	414.12
312.098	420.12
312.328	408.12
312.557	432.12
312.787	435.12
313.017	436.12
313.246	418.12
313.476	412.12
313.706	429.12
313.935	420.12
314.165	419.12
314.394	433.12
314.624	421.12
314.853	398.12
315.083	412.12
315.312	423.12
315.542	408.12
315.771	405.12
316.001	418.12
316.23	411.12
316.46	398.12
316.689	401.12
316.919	419.12
317.148	438.12
317.377	442.12
317.607	418.12
317.836	437.12
318.065	419.12
318.295	428.12
318.524	412.12
318.753	388.12
318.983	398.12
319.212	397.12
319.441	409.12
319.67	424.12
319.9	431.12
320.129	417.12
320.358	416.12
320.587	432.12
320.816	432.12
321.046	432.12
321.275	407.12
321.504	436.12
321.733	429.12
321.962	438.12
322.191	430.12
322.42	445.12
322.649	460.12
322.878	451.12
323.108	456.12
323.337	475.12
323.566	484.12
323.795	504.12
324.024	545.12
324.253	627.12
324.482	869.12
324.71	1246.12
324.939	1724.12
325.168	1459.12
325.397	763.12
325.626	589.12
325.855	533.12
326.084	485.12
326.313	488.12
326.542	482.12
326.77	538.12
326.999	618.12
327.228	784.12
327.457	1116.12
327.686	1321.12
327.914	875.12
328.143	620.12
328.372	587.12
328.6	552.12
328.829	536.12
329.058	551.12
329.287	549.12
329.515	536.12
329.744	516.12
329.972	502.12
330.201	520.12
330.43	560.12
330.658	581.12
330.887	550.12
331.115	541.12
331.344	537.12
331.572	525.12
331.801	503.12
332.03	525.12
332.258	512.12
332.486	475.12
332.715	499.12
332.943	494.12
333.172	499.12
333.4	500.12
333.629	517.12
333.857	521.12
334.085	531.12
334.314	544.12
334.542	553.12
334.771	596.12
334.999	545.12
335.227	506.12
335.455	515.12
335.684	501.12
335.912	486.12
336.14	488.12
336.369	492.12
336.597	491.12
336.825	487.12
337.053	498.12
337.281	514.12
337.51	484.12
337.738	490.12
337.966	487.12
338.194	477.12
338.422	467.12
338.65	469.12
338.878	483.12
339.106	427.12
339.334	478.12
339.562	453.12
339.79	489.12
340.018	460.12
340.246	468.12
340.474	459.12
340.702	448.12
340.93	452.12
341.158	458.12
341.386	453.12
341.614	440.12
341.842	432.12
342.07	462.12
342.298	426.12
342.526	441.12
342.754	470.12
342.981	451.12
343.209	451.12
343.437	457.12
343.665	480.12
343.893	481.12
344.12	482.12
344.348	488.12
344.576	490.12
344.804	485.12
345.031	466.12
345.259	474.12
345.487	457.12
345.714	423.12
345.942	438.12
346.17	434.12
346.397	437.12
346.625	428.12
346.853	461.12
347.08	428.12
347.308	437.12
347.535	455.12
347.763	458.12
347.99	446.12
348.218	430.12
348.445	448.12
348.673	442.12
348.9	447.12
349.128	427.12
349.355	436.12
349.583	416.12
349.81	423.12
350.037	420.12
350.265	432.12
350.492	408.12
350.72	419.12
350.947	426.12
351.174	424.12
351.402	443.12
351.629	426.12
351.856	449.12
352.083	459.12
352.311	424.12
352.538	418.12
352.765	433.12
352.992	425.12
353.22	421.12
353.447	416.12
353.674	427.12
353.901	421.12
354.128	397.12
354.355	413.12
354.583	411.12
354.81	420.12
355.037	412.12
355.264	396.12
355.491	392.12
355.718	421.12
355.945	398.12
356.172	393.12
356.399	402.12
356.626	410.12
356.853	404.12
357.08	409.12
357.307	416.12
357.534	397.12
357.761	411.12
357.988	416.12
358.215	417.12
358.441	396.12
358.668	418.12
358.895	420.12
359.122	401.12
359.349	401.12
359.576	417.12
359.802	419.12
360.029	465.12
360.256	440.12
360.483	435.12
360.709	428.12
360.936	429.12
361.163	427.12
361.39	412.12
361.616	417.12
361.843	422.12
362.07	418.12
362.296	429.12
362.523	428.12
362.749	445.12
362.976	421.12
363.203	402.12
363.429	412.12
363.656	405.12
363.882	416.12
364.109	412.12
364.335	395.12
364.562	406.12
364.788	397.12
365.015	402.12
365.241	380.12
365.468	414.12
365.694	414.12
365.92	398.12
366.147	408.12
366.373	399.12
366.599	414.12
366.826	398.12
367.052	404.12
367.278	411.12
367.505	412.12
367.731	407.12
367.957	406.12
368.184	394.12
368.41	395.12
368.636	388.12
368.862	415.12
369.089	405.12
369.315	407.12
369.541	396.12
369.767	396.12
369.993	411.12
370.219	401.12
370.445	401.12
370.672	401.12
370.898	410.12
371.124	417.12
371.35	418.12
371.576	398.12
371.802	401.12
372.028	404.12
372.254	386.12
372.48	396.12
372.706	429.12
372.932	421.12
373.158	421.12
373.384	414.12
373.61	394.12
373.835	411.12
374.061	423.12
374.287	430.12
374.513	406.12
374.739	427.12
374.965	418.12
375.191	408.12
375.416	419.12
375.642	403.12
375.868	405.12
376.094	408.12
376.319	401.12
376.545	390.12
376.771	379.12
376.997	426.12
377.222	393.12
377.448	405.12
377.674	397.12
377.899	399.12
378.125	386.12
378.35	410.12
378.576	409.12
378.802	408.12
379.027	412.12
379.253	410.12
379.478	413.12
379.704	395.12
379.929	395.12
380.155	401.12
380.38	411.12
380.606	399.12
380.831	391.12
381.057	421.12
381.282	390.12
381.507	387.12
381.733	409.12
381.958	403.12
382.184	414.12
382.409	397.12
382.634	411.12
382.86	403.12
383.085	408.12
383.31	428.12
383.535	424.12
383.761	411.12
383.986	442.12
384.211	417.12
384.436	418.12
384.662	445.12
384.887	428.12
385.112	424.12
385.337	426.12
385.562	438.12
385.787	446.12
386.013	423.12
386.238	452.12
386.463	429.12
386.688	437.12
386.913	434.12
387.138	438.12
387.363	428.12
387.588	452.12
387.813	436.12
388.038	421.12
388.263	458.12
388.488	447.12
388.713	432.12
388.938	436.12
389.163	422.12
389.387	434.12
389.612	423.12
389.837	422.12
390.062	440.12
390.287	420.12
390.512	430.12
390.736	436.12
390.961	456.12
391.186	434.12
391.411	441.12
391.636	435.12
391.86	465.12
392.085	462.12
392.31	460.12
392.534	451.12
392.759	428.12
392.984	416.12
393.208	451.12
393.433	432.12
393.658	430.12
393.882	443.12
394.107	411.12
394.331	457.12
394.556	441.12
394.78	471.12
395.005	445.12
395.229	458.12
395.454	467.12
395.678	475.12
395.903	465.12
396.127	476.12
396.352	463.12
396.576	430.12
396.801	446.12
397.025	460.12
397.249	465.12
397.474	466.12
397.698	456.12
397.922	483.12
398.147	476.12
398.371	492.12
398.595	495.12
398.82	485.12
399.044	497.12
399.268	540.12
399.492	574.12
399.717	588.12
399.941	619.12
400.165	633.12
400.389	642.12
400.613	571.12
400.837	532.12
401.062	512.12
401.286	526.12
401.51	498.12
401.734	512.12
401.958	487.12
402.182	500.12
402.406	521.12
402.63	542.12
402.854	514.12
403.078	498.12
403.302	516.12
403.526	530.12
403.75	518.12
403.974	528.12
404.198	510.12
404.422	526.12
404.645	530.12
404.869	530.12
405.093	565.12
405.317	563.12
405.541	590.12
405.765	562.12
405.988	532.12
406.212	545.12
406.436	550.12
406.66	530.12
406.883	532.12
407.107	589.12
407.331	603.12
407.555	662.12
407.778	640.12
408.002	581.12
408.226	546.12
408.449	562.12
408.673	548.12
408.896	582.12
409.12	608.12
409.344	598.12
409.567	521.12
409.791	508.12
410.014	509.12
410.238	506.12
410.461	536.12
410.685	535.12
410.908	540.12
411.132	553.12
411.355	562.12
411.578	534.12
411.802	494.12
412.025	485.12
412.249	528.12
412.472	527.12
412.695	563.12
412.919	557.12
413.142	512.12
413.365	475.12
413.589	480.12
413.812	476.12
414.035	475.12
414.258	478.12
414.482	483.12
414.705	470.12
414.928	464.12
415.151	488.12
415.374	497.12
415.597	464.12
415.821	479.12
416.044	448.12
416.267	470.12
416.49	466.12
416.713	473.12
416.936	458.12
417.159	468.12
417.382	472.12
417.605	481.12
417.828	484.12
418.051	512.12
418.274	477.12
418.497	461.12
418.72	462.12
418.943	478.12
419.166	483.12
419.389	506.12
419.611	509.12
419.834	493.12
420.057	492.12
420.28	513.12
420.503	478.12
420.726	478.12
420.948	513.12
421.171	528.12
421.394	540.12
421.617	498.12
421.839	502.12
422.062	503.12
422.285	512.12
422.507	545.12
422.73	596.12
422.953	598.12
423.175	515.12
423.398	516.12
423.621	490.12
423.843	512.12
424.066	499.12
424.288	521.12
424.511	524.12
424.733	575.12
424.956	605.12
425.178	601.12
425.401	606.12
425.623	638.12
425.846	531.12
426.068	527.12
426.291	506.12
426.513	488.12
426.735	496.12
426.958	549.12
427.18	617.12
427.402	691.12
427.625	762.12
427.847	656.12
428.069	602.12
428.292	527.12
428.514	510.12
428.736	490.12
428.958	463.12
429.181	461.12
429.403	458.12
429.625	470.12
429.847	504.12
430.069	557.12
430.292	545.12
430.514	476.12
430.736	476.12
430.958	456.12
431.18	443.12
431.402	445.12
431.624	448.12
431.846	444.12
432.068	444.12
432.29	454.12
432.512	466.12
432.734	460.12
432.956	459.12
433.178	438.12
433.4	430.12
433.622	478.12
433.844	472.12
434.066	464.12
434.287	445.12
434.509	443.12
434.731	453.12
434.953	476.12
435.175	482.12
435.397	506.12
435.618	499.12
435.84	526.12
436.062	587.12
436.284	640.12
436.505	521.12
436.727	496.12
436.949	453.12
437.17	447.12
437.392	470.12
437.614	473.12
437.835	495.12
438.057	558.12
438.278	661.12
438.5	624.12
438.721	706.12
438.943	680.12
439.165	534.12
439.386	497.12
439.608	477.12
439.829	487.12
440.05	507.12
440.272	555.12
440.493	518.12
440.715	463.12
440.936	484.12
441.158	455.12
441.379	480.12
441.6	475.12
441.822	483.12
442.043	544.12
442.264	596.12
442.486	609.12
442.707	530.12
442.928	518.12
443.149	515.12
443.371	518.12
443.592	581.12
443.813	647.12
444.034	665.12
444.255	558.12
444.476	536.12
444.698	506.12
444.919	522.12
445.14	630.12
445.361	559.12
445.582	526.12
445.803	573.12
446.024	654.12
446.245	629.12
446.466	632.12
446.687	545.12
446.908	490.12
447.129	470.12
447.35	461.12
447.571	427.12
447.792	434.12
448.013	456.12
448.234	475.12
448.455	520.12
448.675	588.12
448.896	651.12
449.117	578.12
449.338	548.12
449.559	640.12
449.779	714.12
450	568.12
450.221	488.12
450.442	455.12
450.662	442.12
450.883	433.12
451.104	455.12
451.324	449.12
451.545	439.12
451.766	415.12
451.986	416.12
452.207	415.12
452.428	405.12
452.648	387.12
452.869	413.12
453.089	412.12
453.31	419.12
453.53	412.12
453.751	405.12
453.971	398.12
454.192	400.12
454.412	424.12
454.633	405.12
454.853	406.12
455.073	390.12
455.294	436.12
455.514	488.12
455.734	482.12
455.955	415.12
456.175	388.12
456.395	378.12
456.616	383.12
456.836	406.12
457.056	390.12
457.276	391.12
457.497	387.12
457.717	391.12
457.937	393.12
458.157	393.12
458.377	377.12
458.598	424.12
458.818	457.12
459.038	499.12
459.258	512.12
459.478	473.12
459.698	440.12
459.918	449.12
460.138	449.12
460.358	454.12
460.578	472.12
460.798	461.12
461.018	467.12
461.238	477.12
461.458	451.12
461.678	443.12
461.898	445.12
462.118	450.12
462.338	470.12
462.558	454.12
462.777	498.12
462.997	524.12
463.217	526.12
463.437	523.12
463.657	498.12
463.876	469.12
464.096	470.12
464.316	497.12
464.536	501.12
464.755	488.12
464.975	492.12
465.195	477.12
465.414	500.12
465.634	485.12
465.854	444.12
466.073	450.12
466.293	426.12
466.512	411.12
466.732	436.12
466.951	424.12
467.171	418.12
467.391	423.12
467.61	413.12
467.829	417.12
468.049	429.12
468.268	429.12
468.488	412.12
468.707	416.12
468.927	402.12
469.146	390.12
469.365	430.12
469.585	413.12
469.804	420.12
470.023	425.12
470.243	437.12
470.462	436.12
470.681	445.12
470.901	443.12
471.12	436.12
471.339	422.12
471.558	425.12
471.777	434.12
471.997	418.12
472.216	400.12
472.435	451.12
472.654	409.12
472.873	406.12
473.092	403.12
473.311	430.12
473.53	429.12
473.749	426.12
473.968	444.12
474.187	506.12
474.406	545.12
474.625	459.12
474.844	434.12
475.063	443.12
475.282	418.12
475.501	421.12
475.72	450.12
475.939	415.12
476.158	436.12
476.377	448.12
476.596	448.12
476.814	464.12
477.033	425.12
477.252	454.12
477.471	448.12
477.69	460.12
477.908	458.12
478.127	443.12
478.346	486.12
478.564	489.12
478.783	487.12
479.002	497.12
479.22	496.12
479.439	474.12
479.658	510.12
479.876	503.12
480.095	525.12
480.313	545.12
480.532	551.12
480.751	533.12
480.969	526.12
481.188	567.12
481.406	549.12
481.624	520.12
481.843	517.12
482.061	489.12
482.28	500.12
482.498	482.12
482.717	484.12
482.935	497.12
483.153	509.12
483.372	470.12
483.59	480.12
483.808	507.12
484.027	514.12
484.245	474.12
484.463	501.12
484.681	502.12
484.9	494.12
485.118	488.12
485.336	500.12
485.554	487.12
485.772	503.12
485.99	510.12
486.209	510.12
486.427	520.12
486.645	509.12
486.863	520.12
487.081	505.12
487.299	533.12
487.517	540.12
487.735	498.12
487.953	519.12
488.171	552.12
488.389	527.12
488.607	530.12
488.825	521.12
489.043	538.12
489.261	512.12
489.479	522.12
489.696	521.12
489.914	537.12
490.132	529.12
490.35	541.12
490.568	545.12
490.786	550.12
491.003	550.12
491.221	572.12
491.439	560.12
491.657	549.12
491.874	600.12
492.092	612.12
492.31	567.12
492.527	612.12
492.745	563.12
492.963	582.12
493.18	575.12
493.398	571.12
493.615	608.12
493.833	622.12
494.05	574.12
494.268	593.12
494.485	608.12
494.703	584.12
494.92	594.12
495.138	598.12
495.355	612.12
495.573	626.12
495.79	616.12
496.008	641.12
496.225	601.12
496.442	590.12
496.66	593.12
496.877	626.12
497.094	621.12
497.312	635.12
497.529	628.12
497.746	630.12
497.963	661.12
498.181	688.12
498.398	699.12
498.615	694.12
498.832	732.12
499.049	705.12
499.267	737.12
499.484	775.12
499.701	802.12
499.918	841.12
500.135	902.12
500.352	928.12
500.569	965.12
500.786	944.12
501.003	933.12
501.22	884.12
501.437	852.12
501.654	820.12
501.871	804.12
502.088	754.12
