Data from 1964.PennyLincolnUp.Lamp.En5.5.200Scan.071719.P1._HRD10591_14-04-58-909.txt Node
Date: Thu Jul 18 14:04:58 EDT 2019
User: cochatt
Spectrometer: HR+D1059
Trigger mode: 1
Integration Time (sec): 1.000000E-1
Scans to average: 1
Electric dark correction enabled: true
Nonlinearity correction enabled: false
Boxcar width: 0
XAxis mode: Wavelengths
Number of Pixels in Spectrum: 2048
>>>>>Begin Spectral Data<<<<<
223.165	-17.44
223.4	-17.44
223.635	-17.44
223.869	-8.44
224.104	-7.44
224.338	-11.44
224.573	-10.44
224.808	-3.44
225.042	-23.44
225.277	-9.44
225.511	2.56
225.746	4.56
225.98	-0.44
226.215	2.56
226.449	22.56
226.683	10.56
226.918	14.56
227.152	34.56
227.387	28.56
227.621	30.56
227.856	36.56
228.09	58.56
228.324	54.56
228.559	76.56
228.793	67.56
229.027	87.56
229.262	104.56
229.496	116.56
229.73	132.56
229.964	142.56
230.199	124.56
230.433	109.56
230.667	102.56
230.901	98.56
231.136	110.56
231.37	105.56
231.604	99.56
231.838	109.56
232.072	110.56
232.306	109.56
232.541	98.56
232.775	111.56
233.009	115.56
233.243	134.56
233.477	109.56
233.711	100.56
233.945	108.56
234.179	114.56
234.413	112.56
234.647	128.56
234.881	120.56
235.115	109.56
235.349	120.56
235.583	131.56
235.817	119.56
236.051	108.56
236.285	124.56
236.519	118.56
236.753	124.56
236.987	127.56
237.221	161.56
237.455	193.56
237.689	162.56
237.922	149.56
238.156	136.56
238.39	132.56
238.624	145.56
238.858	140.56
239.091	126.56
239.325	126.56
239.559	144.56
239.793	122.56
240.027	134.56
240.26	143.56
240.494	145.56
240.728	141.56
240.961	147.56
241.195	130.56
241.429	145.56
241.662	118.56
241.896	134.56
242.13	137.56
242.363	125.56
242.597	133.56
242.83	144.56
243.064	140.56
243.298	131.56
243.531	157.56
243.765	129.56
243.998	129.56
244.232	142.56
244.465	144.56
244.699	127.56
244.932	140.56
245.166	131.56
245.399	140.56
245.633	153.56
245.866	138.56
246.099	147.56
246.333	150.56
246.566	155.56
246.8	160.56
247.033	164.56
247.266	164.56
247.5	167.56
247.733	169.56
247.966	173.56
248.2	169.56
248.433	174.56
248.666	186.56
248.899	200.56
249.133	198.56
249.366	179.56
249.599	196.56
249.832	183.56
250.066	176.56
250.299	182.56
250.532	205.56
250.765	192.56
250.998	221.56
251.231	208.56
251.465	196.56
251.698	200.56
251.931	193.56
252.164	196.56
252.397	205.56
252.63	198.56
252.863	199.56
253.096	211.56
253.329	226.56
253.562	224.56
253.795	209.56
254.028	218.56
254.261	227.56
254.494	222.56
254.727	254.56
254.96	254.56
255.193	276.56
255.426	244.56
255.659	231.56
255.892	221.56
256.124	236.56
256.357	220.56
256.59	220.56
256.823	230.56
257.056	220.56
257.289	216.56
257.521	211.56
257.754	217.56
257.987	216.56
258.22	213.56
258.452	206.56
258.685	220.56
258.918	215.56
259.151	226.56
259.383	235.56
259.616	210.56
259.849	223.56
260.081	241.56
260.314	262.56
260.547	235.56
260.779	248.56
261.012	246.56
261.244	232.56
261.477	223.56
261.71	223.56
261.942	220.56
262.175	228.56
262.407	234.56
262.64	211.56
262.872	226.56
263.105	211.56
263.337	234.56
263.57	220.56
263.802	219.56
264.035	235.56
264.267	213.56
264.499	223.56
264.732	221.56
264.964	227.56
265.197	233.56
265.429	238.56
265.661	216.56
265.894	241.56
266.126	256.56
266.358	220.56
266.591	226.56
266.823	248.56
267.055	232.56
267.287	251.56
267.52	244.56
267.752	260.56
267.984	260.56
268.216	243.56
268.448	245.56
268.681	279.56
268.913	246.56
269.145	273.56
269.377	291.56
269.609	262.56
269.841	276.56
270.073	294.56
270.306	294.56
270.538	319.56
270.77	306.56
271.002	326.56
271.234	301.56
271.466	289.56
271.698	321.56
271.93	319.56
272.162	327.56
272.394	337.56
272.626	297.56
272.858	299.56
273.09	298.56
273.322	282.56
273.553	283.56
273.785	278.56
274.017	278.56
274.249	281.56
274.481	277.56
274.713	281.56
274.945	284.56
275.176	283.56
275.408	289.56
275.64	284.56
275.872	294.56
276.104	278.56
276.335	308.56
276.567	284.56
276.799	304.56
277.031	317.56
277.262	315.56
277.494	327.56
277.726	311.56
277.957	315.56
278.189	287.56
278.421	311.56
278.652	289.56
278.884	280.56
279.115	296.56
279.347	303.56
279.579	310.56
279.81	309.56
280.042	289.56
280.273	287.56
280.505	291.56
280.736	298.56
280.968	284.56
281.199	302.56
281.431	289.56
281.662	299.56
281.894	306.56
282.125	294.56
282.356	291.56
282.588	314.56
282.819	314.56
283.051	295.56
283.282	299.56
283.513	291.56
283.745	311.56
283.976	322.56
284.207	311.56
284.439	317.56
284.67	312.56
284.901	316.56
285.132	316.56
285.364	316.56
285.595	312.56
285.826	327.56
286.057	306.56
286.288	306.56
286.52	325.56
286.751	311.56
286.982	309.56
287.213	312.56
287.444	312.56
287.675	325.56
287.906	312.56
288.138	316.56
288.369	336.56
288.6	338.56
288.831	318.56
289.062	319.56
289.293	318.56
289.524	324.56
289.755	323.56
289.986	297.56
290.217	323.56
290.448	333.56
290.679	320.56
290.91	298.56
291.141	320.56
291.371	330.56
291.602	332.56
291.833	320.56
292.064	346.56
292.295	324.56
292.526	312.56
292.757	336.56
292.987	326.56
293.218	331.56
293.449	342.56
293.68	332.56
293.91	332.56
294.141	315.56
294.372	323.56
294.603	331.56
294.833	332.56
295.064	336.56
295.295	329.56
295.525	340.56
295.756	335.56
295.987	326.56
296.217	356.56
296.448	349.56
296.679	347.56
296.909	311.56
297.14	341.56
297.37	325.56
297.601	349.56
297.831	349.56
298.062	332.56
298.292	326.56
298.523	316.56
298.753	346.56
298.984	338.56
299.214	330.56
299.445	355.56
299.675	360.56
299.905	341.56
300.136	357.56
300.366	361.56
300.597	349.56
300.827	343.56
301.057	360.56
301.288	347.56
301.518	348.56
301.748	353.56
301.979	374.56
302.209	360.56
302.439	365.56
302.669	354.56
302.9	366.56
303.13	356.56
303.36	379.56
303.59	366.56
303.82	364.56
304.051	372.56
304.281	367.56
304.511	375.56
304.741	373.56
304.971	366.56
305.201	368.56
305.431	372.56
305.661	362.56
305.891	354.56
306.121	367.56
306.352	394.56
306.582	382.56
306.812	389.56
307.042	362.56
307.272	357.56
307.502	368.56
307.731	358.56
307.961	378.56
308.191	392.56
308.421	357.56
308.651	361.56
308.881	374.56
309.111	382.56
309.341	355.56
309.571	378.56
309.8	387.56
310.03	390.56
310.26	405.56
310.49	366.56
310.72	369.56
310.949	404.56
311.179	404.56
311.409	391.56
311.639	408.56
311.868	396.56
312.098	387.56
312.328	404.56
312.557	411.56
312.787	418.56
313.017	408.56
313.246	411.56
313.476	366.56
313.706	405.56
313.935	414.56
314.165	403.56
314.394	416.56
314.624	423.56
314.853	406.56
315.083	402.56
315.312	406.56
315.542	414.56
315.771	404.56
316.001	402.56
316.23	412.56
316.46	396.56
316.689	408.56
316.919	406.56
317.148	415.56
317.377	421.56
317.607	409.56
317.836	419.56
318.065	418.56
318.295	421.56
318.524	404.56
318.753	404.56
318.983	419.56
319.212	416.56
319.441	425.56
319.67	403.56
319.9	424.56
320.129	421.56
320.358	423.56
320.587	444.56
320.816	413.56
321.046	408.56
321.275	427.56
321.504	402.56
321.733	406.56
321.962	427.56
322.191	402.56
322.42	460.56
322.649	434.56
322.878	436.56
323.108	461.56
323.337	470.56
323.566	478.56
323.795	488.56
324.024	527.56
324.253	617.56
324.482	835.56
324.71	1208.56
324.939	1609.56
325.168	1312.56
325.397	727.56
325.626	546.56
325.855	496.56
326.084	469.56
326.313	474.56
326.542	473.56
326.77	515.56
326.999	596.56
327.228	754.56
327.457	1059.56
327.686	1192.56
327.914	818.56
328.143	591.56
328.372	562.56
328.6	522.56
328.829	499.56
329.058	532.56
329.287	530.56
329.515	492.56
329.744	512.56
329.972	508.56
330.201	507.56
330.43	528.56
330.658	545.56
330.887	531.56
331.115	547.56
331.344	502.56
331.572	486.56
331.801	475.56
332.03	487.56
332.258	467.56
332.486	491.56
332.715	488.56
332.943	502.56
333.172	476.56
333.4	509.56
333.629	504.56
333.857	518.56
334.085	488.56
334.314	522.56
334.542	548.56
334.771	552.56
334.999	549.56
335.227	503.56
335.455	500.56
335.684	485.56
335.912	500.56
336.14	475.56
336.369	460.56
336.597	481.56
336.825	494.56
337.053	460.56
337.281	469.56
337.51	489.56
337.738	478.56
337.966	472.56
338.194	470.56
338.422	469.56
338.65	461.56
338.878	449.56
339.106	435.56
339.334	456.56
339.562	464.56
339.79	454.56
340.018	435.56
340.246	470.56
340.474	448.56
340.702	438.56
340.93	475.56
341.158	445.56
341.386	454.56
341.614	458.56
341.842	446.56
342.07	425.56
342.298	443.56
342.526	453.56
342.754	440.56
342.981	462.56
343.209	456.56
343.437	455.56
343.665	443.56
343.893	462.56
344.12	470.56
344.348	468.56
344.576	463.56
344.804	453.56
345.031	470.56
345.259	479.56
345.487	459.56
345.714	451.56
345.942	461.56
346.17	451.56
346.397	441.56
346.625	483.56
346.853	430.56
347.08	441.56
347.308	449.56
347.535	441.56
347.763	439.56
347.99	422.56
348.218	422.56
348.445	420.56
348.673	428.56
348.9	428.56
349.128	411.56
349.355	405.56
349.583	418.56
349.81	416.56
350.037	418.56
350.265	410.56
350.492	410.56
350.72	421.56
350.947	419.56
351.174	423.56
351.402	424.56
351.629	422.56
351.856	445.56
352.083	428.56
352.311	428.56
352.538	422.56
352.765	423.56
352.992	423.56
353.22	407.56
353.447	390.56
353.674	402.56
353.901	408.56
354.128	422.56
354.355	410.56
354.583	394.56
354.81	414.56
355.037	406.56
355.264	404.56
355.491	395.56
355.718	397.56
355.945	410.56
356.172	405.56
356.399	411.56
356.626	402.56
356.853	400.56
357.08	384.56
357.307	407.56
357.534	389.56
357.761	385.56
357.988	400.56
358.215	407.56
358.441	406.56
358.668	404.56
358.895	394.56
359.122	388.56
359.349	411.56
359.576	438.56
359.802	434.56
360.029	420.56
360.256	450.56
360.483	443.56
360.709	420.56
360.936	407.56
361.163	408.56
361.39	428.56
361.616	411.56
361.843	408.56
362.07	429.56
362.296	434.56
362.523	400.56
362.749	420.56
362.976	394.56
363.203	405.56
363.429	402.56
363.656	410.56
363.882	431.56
364.109	399.56
364.335	410.56
364.562	400.56
364.788	406.56
365.015	410.56
365.241	397.56
365.468	384.56
365.694	393.56
365.92	404.56
366.147	388.56
366.373	405.56
366.599	412.56
366.826	390.56
367.052	392.56
367.278	418.56
367.505	403.56
367.731	406.56
367.957	397.56
368.184	389.56
368.41	403.56
368.636	403.56
368.862	405.56
369.089	398.56
369.315	392.56
369.541	415.56
369.767	386.56
369.993	413.56
370.219	396.56
370.445	394.56
370.672	399.56
370.898	384.56
371.124	405.56
371.35	385.56
371.576	397.56
371.802	397.56
372.028	386.56
372.254	389.56
372.48	394.56
372.706	402.56
372.932	407.56
373.158	418.56
373.384	422.56
373.61	400.56
373.835	396.56
374.061	418.56
374.287	410.56
374.513	393.56
374.739	413.56
374.965	397.56
375.191	434.56
375.416	398.56
375.642	392.56
375.868	405.56
376.094	424.56
376.319	394.56
376.545	396.56
376.771	400.56
376.997	402.56
377.222	375.56
377.448	374.56
377.674	383.56
377.899	406.56
378.125	397.56
378.35	390.56
378.576	390.56
378.802	385.56
379.027	400.56
379.253	386.56
379.478	394.56
379.704	399.56
379.929	393.56
380.155	407.56
380.38	405.56
380.606	405.56
380.831	383.56
381.057	410.56
381.282	380.56
381.507	379.56
381.733	385.56
381.958	429.56
382.184	400.56
382.409	411.56
382.634	422.56
382.86	412.56
383.085	406.56
383.31	423.56
383.535	412.56
383.761	409.56
383.986	422.56
384.211	409.56
384.436	405.56
384.662	411.56
384.887	439.56
385.112	430.56
385.337	421.56
385.562	426.56
385.787	424.56
386.013	446.56
386.238	441.56
386.463	416.56
386.688	436.56
386.913	461.56
387.138	420.56
387.363	432.56
387.588	435.56
387.813	410.56
388.038	440.56
388.263	434.56
388.488	447.56
388.713	438.56
388.938	443.56
389.163	453.56
389.387	413.56
389.612	436.56
389.837	426.56
390.062	420.56
390.287	430.56
390.512	456.56
390.736	434.56
390.961	440.56
391.186	428.56
391.411	434.56
391.636	430.56
391.86	459.56
392.085	445.56
392.31	442.56
392.534	448.56
392.759	434.56
392.984	437.56
393.208	455.56
393.433	446.56
393.658	431.56
393.882	433.56
394.107	440.56
394.331	439.56
394.556	431.56
394.78	447.56
395.005	450.56
395.229	443.56
395.454	446.56
395.678	438.56
395.903	463.56
396.127	457.56
396.352	459.56
396.576	467.56
396.801	442.56
397.025	456.56
397.249	424.56
397.474	469.56
397.698	456.56
397.922	475.56
398.147	484.56
398.371	499.56
398.595	486.56
398.82	490.56
399.044	495.56
399.268	511.56
399.492	567.56
399.717	590.56
399.941	593.56
400.165	614.56
400.389	585.56
400.613	554.56
400.837	546.56
401.062	527.56
401.286	500.56
401.51	484.56
401.734	459.56
401.958	489.56
402.182	465.56
402.406	491.56
402.63	492.56
402.854	499.56
403.078	511.56
403.302	523.56
403.526	508.56
403.75	526.56
403.974	491.56
404.198	516.56
404.422	512.56
404.645	523.56
404.869	511.56
405.093	555.56
405.317	578.56
405.541	601.56
405.765	555.56
405.988	536.56
406.212	529.56
406.436	542.56
406.66	524.56
406.883	514.56
407.107	570.56
407.331	590.56
407.555	640.56
407.778	634.56
408.002	581.56
408.226	569.56
408.449	562.56
408.673	541.56
408.896	568.56
409.12	596.56
409.344	565.56
409.567	510.56
409.791	488.56
410.014	498.56
410.238	500.56
410.461	490.56
410.685	496.56
410.908	536.56
411.132	546.56
411.355	542.56
411.578	558.56
411.802	514.56
412.025	477.56
412.249	478.56
412.472	518.56
412.695	542.56
412.919	539.56
413.142	522.56
413.365	485.56
413.589	492.56
413.812	458.56
414.035	477.56
414.258	472.56
414.482	464.56
414.705	467.56
414.928	439.56
415.151	461.56
415.374	473.56
415.597	468.56
415.821	450.56
416.044	455.56
416.267	475.56
416.49	468.56
416.713	459.56
416.936	453.56
417.159	465.56
417.382	473.56
417.605	472.56
417.828	481.56
418.051	483.56
418.274	493.56
418.497	471.56
418.72	482.56
418.943	475.56
419.166	511.56
419.389	502.56
419.611	479.56
419.834	505.56
420.057	499.56
420.28	497.56
420.503	487.56
420.726	485.56
420.948	506.56
421.171	522.56
421.394	523.56
421.617	502.56
421.839	484.56
422.062	481.56
422.285	486.56
422.507	532.56
422.73	604.56
422.953	532.56
423.175	525.56
423.398	487.56
423.621	495.56
423.843	515.56
424.066	507.56
424.288	512.56
424.511	520.56
424.733	582.56
424.956	592.56
425.178	575.56
425.401	615.56
425.623	589.56
425.846	525.56
426.068	498.56
426.291	479.56
426.513	486.56
426.735	491.56
426.958	520.56
427.18	596.56
427.402	690.56
427.625	747.56
427.847	631.56
428.069	560.56
428.292	514.56
428.514	490.56
428.736	462.56
428.958	464.56
429.181	478.56
429.403	458.56
429.625	458.56
429.847	493.56
430.069	538.56
430.292	534.56
430.514	474.56
430.736	468.56
430.958	452.56
431.18	436.56
431.402	438.56
431.624	439.56
431.846	431.56
432.068	438.56
432.29	462.56
432.512	459.56
432.734	463.56
432.956	443.56
433.178	461.56
433.4	448.56
433.622	455.56
433.844	421.56
434.066	454.56
434.287	448.56
434.509	480.56
434.731	467.56
434.953	466.56
435.175	484.56
435.397	494.56
435.618	507.56
435.84	520.56
436.062	559.56
436.284	647.56
436.505	542.56
436.727	484.56
436.949	440.56
437.17	464.56
437.392	459.56
437.614	469.56
437.835	489.56
438.057	535.56
438.278	629.56
438.5	620.56
438.721	682.56
438.943	655.56
439.165	527.56
439.386	482.56
439.608	506.56
439.829	486.56
440.05	516.56
440.272	517.56
440.493	508.56
440.715	481.56
440.936	450.56
441.158	456.56
441.379	467.56
441.6	475.56
441.822	480.56
442.043	523.56
442.264	564.56
442.486	579.56
442.707	539.56
442.928	497.56
443.149	503.56
443.371	517.56
443.592	531.56
443.813	602.56
444.034	665.56
444.255	555.56
444.476	535.56
444.698	519.56
444.919	501.56
445.14	634.56
445.361	566.56
445.582	532.56
445.803	546.56
446.024	641.56
446.245	640.56
446.466	597.56
446.687	526.56
446.908	481.56
447.129	460.56
447.35	444.56
447.571	428.56
447.792	450.56
448.013	460.56
448.234	446.56
448.455	486.56
448.675	582.56
448.896	676.56
449.117	560.56
449.338	538.56
449.559	615.56
449.779	697.56
450	546.56
450.221	465.56
450.442	449.56
450.662	437.56
450.883	423.56
451.104	427.56
451.324	419.56
451.545	397.56
451.766	401.56
451.986	416.56
452.207	407.56
452.428	402.56
452.648	391.56
452.869	405.56
453.089	412.56
453.31	418.56
453.53	411.56
453.751	394.56
453.971	398.56
454.192	407.56
454.412	404.56
454.633	395.56
454.853	403.56
455.073	401.56
455.294	404.56
455.514	444.56
455.734	467.56
455.955	416.56
456.175	399.56
456.395	382.56
456.616	363.56
456.836	388.56
457.056	382.56
457.276	389.56
457.497	387.56
457.717	383.56
457.937	393.56
458.157	386.56
458.377	425.56
458.598	422.56
458.818	452.56
459.038	491.56
459.258	520.56
459.478	448.56
459.698	442.56
459.918	430.56
460.138	412.56
460.358	432.56
460.578	462.56
460.798	463.56
461.018	460.56
461.238	443.56
461.458	448.56
461.678	447.56
461.898	448.56
462.118	461.56
462.338	477.56
462.558	459.56
462.777	492.56
462.997	495.56
463.217	529.56
463.437	516.56
463.657	504.56
463.876	492.56
464.096	487.56
464.316	492.56
464.536	482.56
464.755	489.56
464.975	473.56
465.195	482.56
465.414	502.56
465.634	460.56
465.854	434.56
466.073	437.56
466.293	445.56
466.512	428.56
466.732	407.56
466.951	418.56
467.171	424.56
467.391	414.56
467.61	426.56
467.829	406.56
468.049	431.56
468.268	404.56
468.488	410.56
468.707	399.56
468.927	407.56
469.146	382.56
469.365	404.56
469.585	410.56
469.804	437.56
470.023	425.56
470.243	419.56
470.462	414.56
470.681	434.56
470.901	424.56
471.12	409.56
471.339	432.56
471.558	446.56
471.777	435.56
471.997	411.56
472.216	443.56
472.435	464.56
472.654	442.56
472.873	424.56
473.092	431.56
473.311	410.56
473.53	436.56
473.749	423.56
473.968	452.56
474.187	531.56
474.406	526.56
474.625	446.56
474.844	427.56
475.063	413.56
475.282	415.56
475.501	427.56
475.72	420.56
475.939	435.56
476.158	446.56
476.377	424.56
476.596	441.56
476.814	448.56
477.033	424.56
477.252	448.56
477.471	446.56
477.69	466.56
477.908	452.56
478.127	445.56
478.346	454.56
478.564	450.56
478.783	489.56
479.002	482.56
479.22	487.56
479.439	499.56
479.658	460.56
479.876	488.56
480.095	518.56
480.313	518.56
480.532	501.56
480.751	503.56
480.969	504.56
481.188	540.56
481.406	563.56
481.624	519.56
481.843	508.56
482.061	512.56
482.28	466.56
482.498	488.56
482.717	487.56
482.935	489.56
483.153	488.56
483.372	478.56
483.59	463.56
483.808	478.56
484.027	484.56
484.245	484.56
484.463	475.56
484.681	469.56
484.9	479.56
485.118	512.56
485.336	500.56
485.554	493.56
485.772	520.56
485.99	503.56
486.209	485.56
486.427	496.56
486.645	505.56
486.863	518.56
487.081	517.56
487.299	500.56
487.517	510.56
487.735	495.56
487.953	498.56
488.171	503.56
488.389	529.56
488.607	523.56
488.825	514.56
489.043	516.56
489.261	503.56
489.479	521.56
489.696	532.56
489.914	512.56
490.132	523.56
490.35	513.56
490.568	531.56
490.786	539.56
491.003	534.56
491.221	583.56
491.439	568.56
491.657	559.56
491.874	564.56
492.092	573.56
492.31	559.56
492.527	579.56
492.745	566.56
492.963	570.56
493.18	580.56
493.398	584.56
493.615	583.56
493.833	575.56
494.05	599.56
494.268	607.56
494.485	589.56
494.703	584.56
494.92	583.56
495.138	596.56
495.355	604.56
495.573	586.56
495.79	575.56
496.008	607.56
496.225	599.56
496.442	582.56
496.66	588.56
496.877	584.56
497.094	613.56
497.312	633.56
497.529	632.56
497.746	629.56
497.963	628.56
498.181	655.56
498.398	660.56
498.615	676.56
498.832	715.56
499.049	708.56
499.267	749.56
499.484	771.56
499.701	790.56
499.918	848.56
500.135	898.56
500.352	901.56
500.569	913.56
500.786	916.56
501.003	912.56
501.22	890.56
501.437	837.56
501.654	809.56
501.871	815.56
502.088	759.56
