Data from 1964.PennyLincolnUp.Lamp.En5.5.200Scan.071719.P1._HRD10591_14-04-34-909.txt Node
Date: Thu Jul 18 14:04:34 EDT 2019
User: cochatt
Spectrometer: HR+D1059
Trigger mode: 1
Integration Time (sec): 1.000000E-1
Scans to average: 1
Electric dark correction enabled: true
Nonlinearity correction enabled: false
Boxcar width: 0
XAxis mode: Wavelengths
Number of Pixels in Spectrum: 2048
>>>>>Begin Spectral Data<<<<<
223.165	-11.12
223.4	-11.12
223.635	-11.12
223.869	-23.12
224.104	-23.12
224.338	-22.12
224.573	-23.12
224.808	-8.12
225.042	-7.12
225.277	-2.12
225.511	0.88
225.746	-0.12
225.98	-7.12
226.215	0.88
226.449	16.88
226.683	25.88
226.918	37.88
227.152	44.88
227.387	32.88
227.621	40.88
227.856	52.88
228.09	57.88
228.324	48.88
228.559	51.88
228.793	53.88
229.027	90.88
229.262	102.88
229.496	114.88
229.73	120.88
229.964	131.88
230.199	117.88
230.433	121.88
230.667	107.88
230.901	109.88
231.136	96.88
231.37	119.88
231.604	106.88
231.838	113.88
232.072	108.88
232.306	114.88
232.541	119.88
232.775	107.88
233.009	117.88
233.243	110.88
233.477	129.88
233.711	106.88
233.945	115.88
234.179	125.88
234.413	108.88
234.647	119.88
234.881	101.88
235.115	122.88
235.349	120.88
235.583	124.88
235.817	124.88
236.051	125.88
236.285	116.88
236.519	118.88
236.753	135.88
236.987	144.88
237.221	146.88
237.455	195.88
237.689	158.88
237.922	136.88
238.156	125.88
238.39	121.88
238.624	111.88
238.858	133.88
239.091	122.88
239.325	128.88
239.559	135.88
239.793	150.88
240.027	129.88
240.26	123.88
240.494	152.88
240.728	159.88
240.961	128.88
241.195	150.88
241.429	143.88
241.662	136.88
241.896	141.88
242.13	134.88
242.363	145.88
242.597	126.88
242.83	131.88
243.064	127.88
243.298	142.88
243.531	134.88
243.765	145.88
243.998	153.88
244.232	145.88
244.465	138.88
244.699	136.88
244.932	152.88
245.166	135.88
245.399	140.88
245.633	163.88
245.866	150.88
246.099	163.88
246.333	161.88
246.566	144.88
246.8	157.88
247.033	155.88
247.266	155.88
247.5	160.88
247.733	179.88
247.966	174.88
248.2	172.88
248.433	170.88
248.666	156.88
248.899	172.88
249.133	193.88
249.366	204.88
249.599	182.88
249.832	168.88
250.066	172.88
250.299	197.88
250.532	181.88
250.765	180.88
250.998	201.88
251.231	204.88
251.465	205.88
251.698	197.88
251.931	204.88
252.164	191.88
252.397	193.88
252.63	194.88
252.863	188.88
253.096	208.88
253.329	214.88
253.562	207.88
253.795	206.88
254.028	197.88
254.261	207.88
254.494	225.88
254.727	239.88
254.96	257.88
255.193	251.88
255.426	226.88
255.659	245.88
255.892	232.88
256.124	225.88
256.357	208.88
256.59	213.88
256.823	213.88
257.056	199.88
257.289	227.88
257.521	224.88
257.754	202.88
257.987	220.88
258.22	213.88
258.452	223.88
258.685	199.88
258.918	209.88
259.151	220.88
259.383	205.88
259.616	199.88
259.849	232.88
260.081	237.88
260.314	238.88
260.547	249.88
260.779	238.88
261.012	231.88
261.244	241.88
261.477	220.88
261.71	220.88
261.942	228.88
262.175	232.88
262.407	236.88
262.64	218.88
262.872	221.88
263.105	219.88
263.337	215.88
263.57	226.88
263.802	231.88
264.035	230.88
264.267	220.88
264.499	218.88
264.732	231.88
264.964	225.88
265.197	234.88
265.429	232.88
265.661	215.88
265.894	232.88
266.126	231.88
266.358	233.88
266.591	239.88
266.823	228.88
267.055	227.88
267.287	236.88
267.52	236.88
267.752	252.88
267.984	246.88
268.216	235.88
268.448	239.88
268.681	260.88
268.913	260.88
269.145	275.88
269.377	275.88
269.609	279.88
269.841	286.88
270.073	279.88
270.306	265.88
270.538	299.88
270.77	298.88
271.002	304.88
271.234	301.88
271.466	305.88
271.698	304.88
271.93	320.88
272.162	298.88
272.394	309.88
272.626	285.88
272.858	291.88
273.09	283.88
273.322	279.88
273.553	275.88
273.785	267.88
274.017	287.88
274.249	280.88
274.481	281.88
274.713	296.88
274.945	285.88
275.176	263.88
275.408	270.88
275.64	282.88
275.872	284.88
276.104	282.88
276.335	280.88
276.567	275.88
276.799	312.88
277.031	296.88
277.262	308.88
277.494	319.88
277.726	317.88
277.957	303.88
278.189	291.88
278.421	298.88
278.652	299.88
278.884	289.88
279.115	285.88
279.347	284.88
279.579	285.88
279.81	286.88
280.042	291.88
280.273	293.88
280.505	292.88
280.736	283.88
280.968	312.88
281.199	300.88
281.431	303.88
281.662	296.88
281.894	303.88
282.125	304.88
282.356	328.88
282.588	312.88
282.819	307.88
283.051	290.88
283.282	296.88
283.513	299.88
283.745	303.88
283.976	295.88
284.207	299.88
284.439	320.88
284.67	300.88
284.901	299.88
285.132	327.88
285.364	338.88
285.595	315.88
285.826	310.88
286.057	286.88
286.288	304.88
286.52	326.88
286.751	303.88
286.982	319.88
287.213	307.88
287.444	321.88
287.675	323.88
287.906	325.88
288.138	309.88
288.369	342.88
288.6	344.88
288.831	323.88
289.062	328.88
289.293	331.88
289.524	327.88
289.755	327.88
289.986	323.88
290.217	332.88
290.448	329.88
290.679	334.88
290.91	315.88
291.141	302.88
291.371	318.88
291.602	316.88
291.833	321.88
292.064	333.88
292.295	312.88
292.526	330.88
292.757	332.88
292.987	314.88
293.218	320.88
293.449	321.88
293.68	343.88
293.91	326.88
294.141	338.88
294.372	334.88
294.603	336.88
294.833	317.88
295.064	332.88
295.295	328.88
295.525	329.88
295.756	333.88
295.987	315.88
296.217	348.88
296.448	365.88
296.679	345.88
296.909	330.88
297.14	335.88
297.37	328.88
297.601	350.88
297.831	334.88
298.062	352.88
298.292	327.88
298.523	335.88
298.753	342.88
298.984	346.88
299.214	357.88
299.445	337.88
299.675	345.88
299.905	342.88
300.136	355.88
300.366	347.88
300.597	349.88
300.827	357.88
301.057	371.88
301.288	377.88
301.518	368.88
301.748	375.88
301.979	359.88
302.209	364.88
302.439	374.88
302.669	373.88
302.9	375.88
303.13	350.88
303.36	355.88
303.59	381.88
303.82	374.88
304.051	372.88
304.281	377.88
304.511	379.88
304.741	372.88
304.971	368.88
305.201	367.88
305.431	375.88
305.661	377.88
305.891	337.88
306.121	356.88
306.352	371.88
306.582	377.88
306.812	366.88
307.042	371.88
307.272	351.88
307.502	361.88
307.731	361.88
307.961	361.88
308.191	381.88
308.421	367.88
308.651	358.88
308.881	385.88
309.111	359.88
309.341	365.88
309.571	352.88
309.8	383.88
310.03	389.88
310.26	403.88
310.49	392.88
310.72	395.88
310.949	421.88
311.179	391.88
311.409	421.88
311.639	401.88
311.868	393.88
312.098	404.88
312.328	401.88
312.557	429.88
312.787	410.88
313.017	413.88
313.246	409.88
313.476	394.88
313.706	393.88
313.935	397.88
314.165	422.88
314.394	427.88
314.624	412.88
314.853	388.88
315.083	389.88
315.312	408.88
315.542	433.88
315.771	402.88
316.001	400.88
316.23	408.88
316.46	396.88
316.689	392.88
316.919	397.88
317.148	414.88
317.377	426.88
317.607	435.88
317.836	407.88
318.065	409.88
318.295	400.88
318.524	409.88
318.753	414.88
318.983	412.88
319.212	429.88
319.441	428.88
319.67	413.88
319.9	402.88
320.129	398.88
320.358	427.88
320.587	423.88
320.816	411.88
321.046	436.88
321.275	412.88
321.504	414.88
321.733	442.88
321.962	411.88
322.191	440.88
322.42	440.88
322.649	431.88
322.878	432.88
323.108	453.88
323.337	473.88
323.566	473.88
323.795	494.88
324.024	509.88
324.253	584.88
324.482	760.88
324.71	1105.88
324.939	1520.88
325.168	1257.88
325.397	697.88
325.626	549.88
325.855	478.88
326.084	483.88
326.313	472.88
326.542	474.88
326.77	512.88
326.999	583.88
327.228	731.88
327.457	1019.88
327.686	1159.88
327.914	783.88
328.143	584.88
328.372	541.88
328.6	527.88
328.829	524.88
329.058	532.88
329.287	539.88
329.515	497.88
329.744	492.88
329.972	494.88
330.201	520.88
330.43	535.88
330.658	563.88
330.887	577.88
331.115	529.88
331.344	521.88
331.572	485.88
331.801	468.88
332.03	491.88
332.258	506.88
332.486	476.88
332.715	474.88
332.943	466.88
333.172	479.88
333.4	489.88
333.629	487.88
333.857	524.88
334.085	523.88
334.314	554.88
334.542	563.88
334.771	576.88
334.999	530.88
335.227	516.88
335.455	508.88
335.684	484.88
335.912	483.88
336.14	476.88
336.369	471.88
336.597	495.88
336.825	473.88
337.053	490.88
337.281	468.88
337.51	478.88
337.738	459.88
337.966	464.88
338.194	475.88
338.422	447.88
338.65	469.88
338.878	471.88
339.106	469.88
339.334	474.88
339.562	454.88
339.79	452.88
340.018	465.88
340.246	438.88
340.474	445.88
340.702	445.88
340.93	447.88
341.158	452.88
341.386	460.88
341.614	453.88
341.842	467.88
342.07	435.88
342.298	457.88
342.526	443.88
342.754	444.88
342.981	454.88
343.209	442.88
343.437	455.88
343.665	465.88
343.893	463.88
344.12	475.88
344.348	460.88
344.576	479.88
344.804	469.88
345.031	451.88
345.259	456.88
345.487	457.88
345.714	452.88
345.942	452.88
346.17	422.88
346.397	449.88
346.625	415.88
346.853	430.88
347.08	428.88
347.308	426.88
347.535	429.88
347.763	428.88
347.99	427.88
348.218	432.88
348.445	422.88
348.673	429.88
348.9	439.88
349.128	421.88
349.355	397.88
349.583	439.88
349.81	429.88
350.037	405.88
350.265	421.88
350.492	408.88
350.72	422.88
350.947	414.88
351.174	433.88
351.402	429.88
351.629	406.88
351.856	431.88
352.083	426.88
352.311	419.88
352.538	417.88
352.765	417.88
352.992	433.88
353.22	420.88
353.447	417.88
353.674	421.88
353.901	407.88
354.128	394.88
354.355	401.88
354.583	395.88
354.81	395.88
355.037	410.88
355.264	417.88
355.491	383.88
355.718	413.88
355.945	396.88
356.172	411.88
356.399	405.88
356.626	378.88
356.853	390.88
357.08	376.88
357.307	400.88
357.534	391.88
357.761	407.88
357.988	392.88
358.215	414.88
358.441	412.88
358.668	406.88
358.895	426.88
359.122	405.88
359.349	419.88
359.576	393.88
359.802	433.88
360.029	433.88
360.256	433.88
360.483	429.88
360.709	420.88
360.936	405.88
361.163	400.88
361.39	423.88
361.616	421.88
361.843	392.88
362.07	393.88
362.296	411.88
362.523	416.88
362.749	428.88
362.976	409.88
363.203	391.88
363.429	395.88
363.656	400.88
363.882	431.88
364.109	398.88
364.335	401.88
364.562	402.88
364.788	391.88
365.015	377.88
365.241	388.88
365.468	413.88
365.694	400.88
365.92	404.88
366.147	391.88
366.373	397.88
366.599	407.88
366.826	392.88
367.052	396.88
367.278	396.88
367.505	392.88
367.731	396.88
367.957	399.88
368.184	408.88
368.41	407.88
368.636	408.88
368.862	411.88
369.089	396.88
369.315	398.88
369.541	394.88
369.767	406.88
369.993	409.88
370.219	413.88
370.445	396.88
370.672	384.88
370.898	386.88
371.124	393.88
371.35	395.88
371.576	402.88
371.802	398.88
372.028	402.88
372.254	398.88
372.48	402.88
372.706	424.88
372.932	421.88
373.158	408.88
373.384	385.88
373.61	397.88
373.835	411.88
374.061	421.88
374.287	400.88
374.513	395.88
374.739	407.88
374.965	398.88
375.191	433.88
375.416	420.88
375.642	401.88
375.868	428.88
376.094	413.88
376.319	409.88
376.545	415.88
376.771	407.88
376.997	414.88
377.222	391.88
377.448	390.88
377.674	387.88
377.899	381.88
378.125	397.88
378.35	405.88
378.576	378.88
378.802	380.88
379.027	387.88
379.253	387.88
379.478	386.88
379.704	402.88
379.929	383.88
380.155	412.88
380.38	387.88
380.606	393.88
380.831	372.88
381.057	391.88
381.282	389.88
381.507	402.88
381.733	398.88
381.958	404.88
382.184	411.88
382.409	415.88
382.634	397.88
382.86	388.88
383.085	400.88
383.31	402.88
383.535	397.88
383.761	407.88
383.986	424.88
384.211	422.88
384.436	427.88
384.662	437.88
384.887	445.88
385.112	445.88
385.337	426.88
385.562	428.88
385.787	435.88
386.013	451.88
386.238	440.88
386.463	453.88
386.688	457.88
386.913	446.88
387.138	430.88
387.363	443.88
387.588	449.88
387.813	438.88
388.038	432.88
388.263	441.88
388.488	443.88
388.713	444.88
388.938	455.88
389.163	432.88
389.387	417.88
389.612	415.88
389.837	450.88
390.062	443.88
390.287	410.88
390.512	420.88
390.736	408.88
390.961	443.88
391.186	430.88
391.411	441.88
391.636	430.88
391.86	456.88
392.085	439.88
392.31	455.88
392.534	455.88
392.759	438.88
392.984	427.88
393.208	441.88
393.433	448.88
393.658	445.88
393.882	418.88
394.107	437.88
394.331	441.88
394.556	452.88
394.78	457.88
395.005	446.88
395.229	450.88
395.454	438.88
395.678	447.88
395.903	474.88
396.127	461.88
396.352	483.88
396.576	448.88
396.801	458.88
397.025	439.88
397.249	473.88
397.474	436.88
397.698	453.88
397.922	468.88
398.147	466.88
398.371	492.88
398.595	475.88
398.82	491.88
399.044	474.88
399.268	510.88
399.492	558.88
399.717	606.88
399.941	602.88
400.165	612.88
400.389	610.88
400.613	556.88
400.837	522.88
401.062	520.88
401.286	499.88
401.51	474.88
401.734	487.88
401.958	502.88
402.182	490.88
402.406	492.88
402.63	472.88
402.854	507.88
403.078	507.88
403.302	503.88
403.526	520.88
403.75	509.88
403.974	504.88
404.198	489.88
404.422	496.88
404.645	501.88
404.869	527.88
405.093	533.88
405.317	582.88
405.541	599.88
405.765	553.88
405.988	543.88
406.212	527.88
406.436	523.88
406.66	552.88
406.883	541.88
407.107	557.88
407.331	581.88
407.555	639.88
407.778	639.88
408.002	612.88
408.226	571.88
408.449	551.88
408.673	550.88
408.896	570.88
409.12	573.88
409.344	550.88
409.567	523.88
409.791	502.88
410.014	494.88
410.238	517.88
410.461	498.88
410.685	484.88
410.908	507.88
411.132	538.88
411.355	554.88
411.578	523.88
411.802	520.88
412.025	491.88
412.249	512.88
412.472	509.88
412.695	535.88
412.919	540.88
413.142	520.88
413.365	481.88
413.589	492.88
413.812	452.88
414.035	485.88
414.258	456.88
414.482	458.88
414.705	459.88
414.928	470.88
415.151	471.88
415.374	463.88
415.597	478.88
415.821	474.88
416.044	465.88
416.267	458.88
416.49	462.88
416.713	453.88
416.936	472.88
417.159	456.88
417.382	460.88
417.605	473.88
417.828	488.88
418.051	476.88
418.274	494.88
418.497	473.88
418.72	470.88
418.943	449.88
419.166	475.88
419.389	509.88
419.611	498.88
419.834	499.88
420.057	491.88
420.28	476.88
420.503	481.88
420.726	487.88
420.948	495.88
421.171	521.88
421.394	549.88
421.617	475.88
421.839	490.88
422.062	483.88
422.285	482.88
422.507	544.88
422.73	581.88
422.953	568.88
423.175	535.88
423.398	503.88
423.621	516.88
423.843	519.88
424.066	505.88
424.288	490.88
424.511	527.88
424.733	563.88
424.956	590.88
425.178	585.88
425.401	591.88
425.623	581.88
425.846	523.88
426.068	501.88
426.291	493.88
426.513	491.88
426.735	504.88
426.958	542.88
427.18	593.88
427.402	695.88
427.625	736.88
427.847	615.88
428.069	569.88
428.292	523.88
428.514	468.88
428.736	456.88
428.958	450.88
429.181	454.88
429.403	451.88
429.625	462.88
429.847	474.88
430.069	518.88
430.292	535.88
430.514	463.88
430.736	453.88
430.958	429.88
431.18	438.88
431.402	435.88
431.624	428.88
431.846	436.88
432.068	412.88
432.29	440.88
432.512	430.88
432.734	437.88
432.956	449.88
433.178	441.88
433.4	454.88
433.622	440.88
433.844	455.88
434.066	454.88
434.287	447.88
434.509	450.88
434.731	464.88
434.953	462.88
435.175	497.88
435.397	488.88
435.618	489.88
435.84	513.88
436.062	600.88
436.284	630.88
436.505	527.88
436.727	491.88
436.949	460.88
437.17	453.88
437.392	455.88
437.614	482.88
437.835	469.88
438.057	543.88
438.278	600.88
438.5	594.88
438.721	670.88
438.943	631.88
439.165	547.88
439.386	496.88
439.608	457.88
439.829	481.88
440.05	494.88
440.272	513.88
440.493	497.88
440.715	467.88
440.936	450.88
441.158	461.88
441.379	454.88
441.6	485.88
441.822	486.88
442.043	525.88
442.264	587.88
442.486	623.88
442.707	515.88
442.928	484.88
443.149	505.88
443.371	518.88
443.592	544.88
443.813	614.88
444.034	620.88
444.255	543.88
444.476	523.88
444.698	505.88
444.919	504.88
445.14	637.88
445.361	538.88
445.582	529.88
445.803	571.88
446.024	606.88
446.245	603.88
446.466	569.88
446.687	502.88
446.908	481.88
447.129	463.88
447.35	432.88
447.571	466.88
447.792	431.88
448.013	448.88
448.234	492.88
448.455	508.88
448.675	549.88
448.896	648.88
449.117	577.88
449.338	541.88
449.559	606.88
449.779	679.88
450	569.88
450.221	484.88
450.442	447.88
450.662	448.88
450.883	424.88
451.104	441.88
451.324	432.88
451.545	432.88
451.766	404.88
451.986	389.88
452.207	390.88
452.428	407.88
452.648	401.88
452.869	391.88
453.089	399.88
453.31	401.88
453.53	399.88
453.751	415.88
453.971	404.88
454.192	412.88
454.412	404.88
454.633	399.88
454.853	403.88
455.073	412.88
455.294	434.88
455.514	448.88
455.734	441.88
455.955	396.88
456.175	391.88
456.395	393.88
456.616	387.88
456.836	384.88
457.056	393.88
457.276	371.88
457.497	392.88
457.717	387.88
457.937	389.88
458.157	395.88
458.377	399.88
458.598	428.88
458.818	456.88
459.038	500.88
459.258	515.88
459.478	435.88
459.698	438.88
459.918	449.88
460.138	447.88
460.358	436.88
460.578	445.88
460.798	453.88
461.018	463.88
461.238	454.88
461.458	457.88
461.678	445.88
461.898	453.88
462.118	465.88
462.338	477.88
462.558	476.88
462.777	475.88
462.997	516.88
463.217	522.88
463.437	526.88
463.657	487.88
463.876	472.88
464.096	490.88
464.316	488.88
464.536	490.88
464.755	475.88
464.975	476.88
465.195	510.88
465.414	516.88
465.634	480.88
465.854	451.88
466.073	443.88
466.293	423.88
466.512	413.88
466.732	409.88
466.951	399.88
467.171	401.88
467.391	411.88
467.61	443.88
467.829	408.88
468.049	395.88
468.268	414.88
468.488	413.88
468.707	423.88
468.927	397.88
469.146	389.88
469.365	392.88
469.585	409.88
469.804	415.88
470.023	428.88
470.243	380.88
470.462	400.88
470.681	433.88
470.901	439.88
471.12	411.88
471.339	429.88
471.558	420.88
471.777	406.88
471.997	415.88
472.216	418.88
472.435	433.88
472.654	463.88
472.873	414.88
473.092	419.88
473.311	417.88
473.53	425.88
473.749	425.88
473.968	431.88
474.187	517.88
474.406	541.88
474.625	465.88
474.844	429.88
475.063	428.88
475.282	419.88
475.501	395.88
475.72	431.88
475.939	433.88
476.158	422.88
476.377	448.88
476.596	415.88
476.814	453.88
477.033	446.88
477.252	450.88
477.471	416.88
477.69	457.88
477.908	455.88
478.127	447.88
478.346	465.88
478.564	456.88
478.783	475.88
479.002	486.88
479.22	491.88
479.439	469.88
479.658	490.88
479.876	492.88
480.095	527.88
480.313	531.88
480.532	519.88
480.751	491.88
480.969	523.88
481.188	545.88
481.406	578.88
481.624	517.88
481.843	496.88
482.061	483.88
482.28	493.88
482.498	480.88
482.717	472.88
482.935	506.88
483.153	473.88
483.372	475.88
483.59	463.88
483.808	485.88
484.027	477.88
484.245	465.88
484.463	472.88
484.681	483.88
484.9	499.88
485.118	474.88
485.336	492.88
485.554	495.88
485.772	485.88
485.99	496.88
486.209	492.88
486.427	493.88
486.645	502.88
486.863	517.88
487.081	489.88
487.299	501.88
487.517	517.88
487.735	495.88
487.953	519.88
488.171	514.88
488.389	517.88
488.607	510.88
488.825	506.88
489.043	520.88
489.261	521.88
489.479	494.88
489.696	525.88
489.914	500.88
490.132	508.88
490.35	540.88
490.568	525.88
490.786	536.88
491.003	557.88
491.221	530.88
491.439	538.88
491.657	559.88
491.874	573.88
492.092	553.88
492.31	569.88
492.527	576.88
492.745	574.88
492.963	580.88
493.18	572.88
493.398	570.88
493.615	591.88
493.833	594.88
494.05	589.88
494.268	588.88
494.485	588.88
494.703	582.88
494.92	613.88
495.138	590.88
495.355	605.88
495.573	587.88
495.79	605.88
496.008	567.88
496.225	600.88
496.442	605.88
496.66	600.88
496.877	587.88
497.094	608.88
497.312	565.88
497.529	616.88
497.746	638.88
497.963	629.88
498.181	623.88
498.398	657.88
498.615	677.88
498.832	699.88
499.049	696.88
499.267	740.88
499.484	782.88
499.701	775.88
499.918	831.88
500.135	872.88
500.352	934.88
500.569	935.88
500.786	928.88
501.003	918.88
501.22	879.88
501.437	850.88
501.654	821.88
501.871	776.88
