Data from 1964.PennyLincolnUp.Lamp.En5.5.200Scan.071719.P1._HRD10591_14-03-57-908.txt Node
Date: Thu Jul 18 14:03:57 EDT 2019
User: cochatt
Spectrometer: HR+D1059
Trigger mode: 1
Integration Time (sec): 1.000000E-1
Scans to average: 1
Electric dark correction enabled: true
Nonlinearity correction enabled: false
Boxcar width: 0
XAxis mode: Wavelengths
Number of Pixels in Spectrum: 2048
>>>>>Begin Spectral Data<<<<<
223.165	-14.19
223.4	-14.19
223.635	-14.19
223.869	-17.19
224.104	-14.19
224.338	-13.19
224.573	-9.19
224.808	-15.19
225.042	-26.19
225.277	-6.19
225.511	-7.19
225.746	3.81
225.98	2.81
226.215	14.81
226.449	26.81
226.683	30.81
226.918	25.81
227.152	17.81
227.387	32.81
227.621	33.81
227.856	34.81
228.09	54.81
228.324	69.81
228.559	49.81
228.793	59.81
229.027	98.81
229.262	101.81
229.496	95.81
229.73	92.81
229.964	103.81
230.199	100.81
230.433	94.81
230.667	95.81
230.901	97.81
231.136	101.81
231.37	108.81
231.604	108.81
231.838	109.81
232.072	105.81
232.306	117.81
232.541	95.81
232.775	124.81
233.009	95.81
233.243	120.81
233.477	113.81
233.711	119.81
233.945	118.81
234.179	111.81
234.413	118.81
234.647	107.81
234.881	108.81
235.115	89.81
235.349	105.81
235.583	125.81
235.817	130.81
236.051	122.81
236.285	105.81
236.519	110.81
236.753	125.81
236.987	130.81
237.221	148.81
237.455	196.81
237.689	167.81
237.922	138.81
238.156	124.81
238.39	129.81
238.624	118.81
238.858	114.81
239.091	115.81
239.325	121.81
239.559	116.81
239.793	129.81
240.027	126.81
240.26	134.81
240.494	140.81
240.728	143.81
240.961	133.81
241.195	139.81
241.429	123.81
241.662	120.81
241.896	133.81
242.13	125.81
242.363	134.81
242.597	124.81
242.83	125.81
243.064	131.81
243.298	115.81
243.531	132.81
243.765	124.81
243.998	142.81
244.232	147.81
244.465	128.81
244.699	120.81
244.932	152.81
245.166	146.81
245.399	138.81
245.633	142.81
245.866	135.81
246.099	140.81
246.333	140.81
246.566	149.81
246.8	158.81
247.033	165.81
247.266	142.81
247.5	139.81
247.733	164.81
247.966	157.81
248.2	166.81
248.433	169.81
248.666	173.81
248.899	184.81
249.133	187.81
249.366	178.81
249.599	184.81
249.832	165.81
250.066	180.81
250.299	166.81
250.532	198.81
250.765	190.81
250.998	183.81
251.231	205.81
251.465	196.81
251.698	193.81
251.931	176.81
252.164	203.81
252.397	186.81
252.63	171.81
252.863	182.81
253.096	195.81
253.329	217.81
253.562	197.81
253.795	215.81
254.028	194.81
254.261	192.81
254.494	219.81
254.727	224.81
254.96	229.81
255.193	228.81
255.426	234.81
255.659	215.81
255.892	210.81
256.124	236.81
256.357	207.81
256.59	217.81
256.823	208.81
257.056	210.81
257.289	189.81
257.521	210.81
257.754	197.81
257.987	202.81
258.22	222.81
258.452	208.81
258.685	208.81
258.918	214.81
259.151	196.81
259.383	216.81
259.616	209.81
259.849	212.81
260.081	220.81
260.314	235.81
260.547	234.81
260.779	230.81
261.012	232.81
261.244	212.81
261.477	217.81
261.71	216.81
261.942	198.81
262.175	213.81
262.407	211.81
262.64	202.81
262.872	213.81
263.105	204.81
263.337	218.81
263.57	205.81
263.802	209.81
264.035	214.81
264.267	217.81
264.499	221.81
264.732	221.81
264.964	217.81
265.197	227.81
265.429	212.81
265.661	222.81
265.894	215.81
266.126	233.81
266.358	229.81
266.591	217.81
266.823	209.81
267.055	232.81
267.287	236.81
267.52	228.81
267.752	243.81
267.984	221.81
268.216	238.81
268.448	230.81
268.681	237.81
268.913	249.81
269.145	268.81
269.377	258.81
269.609	275.81
269.841	256.81
270.073	263.81
270.306	285.81
270.538	275.81
270.77	280.81
271.002	293.81
271.234	260.81
271.466	282.81
271.698	291.81
271.93	288.81
272.162	288.81
272.394	309.81
272.626	302.81
272.858	268.81
273.09	270.81
273.322	272.81
273.553	274.81
273.785	264.81
274.017	275.81
274.249	274.81
274.481	256.81
274.713	262.81
274.945	268.81
275.176	268.81
275.408	277.81
275.64	272.81
275.872	276.81
276.104	270.81
276.335	253.81
276.567	263.81
276.799	286.81
277.031	290.81
277.262	305.81
277.494	326.81
277.726	302.81
277.957	316.81
278.189	279.81
278.421	280.81
278.652	273.81
278.884	276.81
279.115	255.81
279.347	275.81
279.579	272.81
279.81	268.81
280.042	301.81
280.273	284.81
280.505	266.81
280.736	272.81
280.968	265.81
281.199	294.81
281.431	296.81
281.662	289.81
281.894	274.81
282.125	284.81
282.356	316.81
282.588	319.81
282.819	290.81
283.051	301.81
283.282	306.81
283.513	300.81
283.745	288.81
283.976	294.81
284.207	289.81
284.439	303.81
284.67	292.81
284.901	288.81
285.132	314.81
285.364	308.81
285.595	298.81
285.826	282.81
286.057	303.81
286.288	312.81
286.52	298.81
286.751	290.81
286.982	325.81
287.213	305.81
287.444	310.81
287.675	302.81
287.906	304.81
288.138	328.81
288.369	324.81
288.6	306.81
288.831	312.81
289.062	311.81
289.293	292.81
289.524	313.81
289.755	315.81
289.986	304.81
290.217	323.81
290.448	302.81
290.679	321.81
290.91	299.81
291.141	321.81
291.371	306.81
291.602	315.81
291.833	298.81
292.064	308.81
292.295	301.81
292.526	315.81
292.757	297.81
292.987	287.81
293.218	304.81
293.449	324.81
293.68	317.81
293.91	318.81
294.141	329.81
294.372	312.81
294.603	309.81
294.833	314.81
295.064	315.81
295.295	334.81
295.525	319.81
295.756	326.81
295.987	315.81
296.217	321.81
296.448	314.81
296.679	322.81
296.909	304.81
297.14	314.81
297.37	327.81
297.601	325.81
297.831	318.81
298.062	314.81
298.292	325.81
298.523	320.81
298.753	313.81
298.984	312.81
299.214	339.81
299.445	336.81
299.675	324.81
299.905	334.81
300.136	335.81
300.366	340.81
300.597	325.81
300.827	340.81
301.057	325.81
301.288	344.81
301.518	326.81
301.748	335.81
301.979	347.81
302.209	350.81
302.439	329.81
302.669	348.81
302.9	338.81
303.13	348.81
303.36	355.81
303.59	347.81
303.82	354.81
304.051	359.81
304.281	369.81
304.511	337.81
304.741	345.81
304.971	357.81
305.201	357.81
305.431	352.81
305.661	337.81
305.891	350.81
306.121	354.81
306.352	348.81
306.582	356.81
306.812	344.81
307.042	348.81
307.272	374.81
307.502	354.81
307.731	352.81
307.961	352.81
308.191	351.81
308.421	355.81
308.651	357.81
308.881	356.81
309.111	369.81
309.341	348.81
309.571	370.81
309.8	384.81
310.03	348.81
310.26	370.81
310.49	350.81
310.72	380.81
310.949	374.81
311.179	381.81
311.409	388.81
311.639	375.81
311.868	376.81
312.098	377.81
312.328	373.81
312.557	402.81
312.787	382.81
313.017	379.81
313.246	396.81
313.476	398.81
313.706	390.81
313.935	377.81
314.165	406.81
314.394	375.81
314.624	392.81
314.853	376.81
315.083	374.81
315.312	393.81
315.542	388.81
315.771	367.81
316.001	374.81
316.23	366.81
316.46	400.81
316.689	396.81
316.919	388.81
317.148	398.81
317.377	401.81
317.607	416.81
317.836	374.81
318.065	348.81
318.295	410.81
318.524	376.81
318.753	393.81
318.983	385.81
319.212	400.81
319.441	388.81
319.67	377.81
319.9	370.81
320.129	373.81
320.358	399.81
320.587	395.81
320.816	391.81
321.046	392.81
321.275	413.81
321.504	392.81
321.733	396.81
321.962	414.81
322.191	417.81
322.42	439.81
322.649	424.81
322.878	405.81
323.108	422.81
323.337	439.81
323.566	436.81
323.795	454.81
324.024	484.81
324.253	557.81
324.482	737.81
324.71	1028.81
324.939	1408.81
325.168	1221.81
325.397	664.81
325.626	502.81
325.855	448.81
326.084	425.81
326.313	432.81
326.542	456.81
326.77	490.81
326.999	557.81
327.228	683.81
327.457	932.81
327.686	1071.81
327.914	724.81
328.143	529.81
328.372	492.81
328.6	489.81
328.829	500.81
329.058	482.81
329.287	487.81
329.515	468.81
329.744	465.81
329.972	485.81
330.201	477.81
330.43	492.81
330.658	496.81
330.887	514.81
331.115	502.81
331.344	471.81
331.572	477.81
331.801	468.81
332.03	445.81
332.258	465.81
332.486	452.81
332.715	454.81
332.943	457.81
333.172	456.81
333.4	480.81
333.629	478.81
333.857	499.81
334.085	507.81
334.314	513.81
334.542	519.81
334.771	522.81
334.999	498.81
335.227	473.81
335.455	468.81
335.684	489.81
335.912	468.81
336.14	472.81
336.369	446.81
336.597	470.81
336.825	459.81
337.053	455.81
337.281	444.81
337.51	434.81
337.738	446.81
337.966	453.81
338.194	426.81
338.422	423.81
338.65	436.81
338.878	445.81
339.106	421.81
339.334	432.81
339.562	442.81
339.79	433.81
340.018	408.81
340.246	432.81
340.474	434.81
340.702	420.81
340.93	430.81
341.158	424.81
341.386	421.81
341.614	412.81
341.842	425.81
342.07	416.81
342.298	426.81
342.526	406.81
342.754	400.81
342.981	424.81
343.209	428.81
343.437	445.81
343.665	442.81
343.893	432.81
344.12	435.81
344.348	472.81
344.576	454.81
344.804	440.81
345.031	458.81
345.259	461.81
345.487	427.81
345.714	402.81
345.942	406.81
346.17	425.81
346.397	394.81
346.625	419.81
346.853	410.81
347.08	414.81
347.308	396.81
347.535	406.81
347.763	391.81
347.99	410.81
348.218	407.81
348.445	411.81
348.673	401.81
348.9	423.81
349.128	399.81
349.355	399.81
349.583	409.81
349.81	389.81
350.037	385.81
350.265	383.81
350.492	386.81
350.72	387.81
350.947	388.81
351.174	403.81
351.402	398.81
351.629	401.81
351.856	414.81
352.083	412.81
352.311	401.81
352.538	408.81
352.765	427.81
352.992	384.81
353.22	408.81
353.447	396.81
353.674	391.81
353.901	405.81
354.128	413.81
354.355	373.81
354.583	379.81
354.81	382.81
355.037	403.81
355.264	389.81
355.491	388.81
355.718	377.81
355.945	386.81
356.172	387.81
356.399	382.81
356.626	404.81
356.853	388.81
357.08	385.81
357.307	389.81
357.534	377.81
357.761	385.81
357.988	387.81
358.215	390.81
358.441	376.81
358.668	368.81
358.895	375.81
359.122	397.81
359.349	373.81
359.576	394.81
359.802	410.81
360.029	423.81
360.256	405.81
360.483	407.81
360.709	396.81
360.936	402.81
361.163	392.81
361.39	364.81
361.616	396.81
361.843	384.81
362.07	391.81
362.296	382.81
362.523	384.81
362.749	380.81
362.976	382.81
363.203	384.81
363.429	380.81
363.656	413.81
363.882	398.81
364.109	375.81
364.335	371.81
364.562	390.81
364.788	401.81
365.015	389.81
365.241	375.81
365.468	403.81
365.694	388.81
365.92	377.81
366.147	376.81
366.373	378.81
366.599	370.81
366.826	354.81
367.052	384.81
367.278	365.81
367.505	375.81
367.731	366.81
367.957	382.81
368.184	378.81
368.41	387.81
368.636	384.81
368.862	387.81
369.089	394.81
369.315	381.81
369.541	390.81
369.767	395.81
369.993	383.81
370.219	373.81
370.445	396.81
370.672	382.81
370.898	369.81
371.124	379.81
371.35	399.81
371.576	376.81
371.802	391.81
372.028	392.81
372.254	371.81
372.48	389.81
372.706	405.81
372.932	396.81
373.158	374.81
373.384	377.81
373.61	377.81
373.835	373.81
374.061	392.81
374.287	408.81
374.513	397.81
374.739	382.81
374.965	396.81
375.191	380.81
375.416	393.81
375.642	379.81
375.868	406.81
376.094	397.81
376.319	393.81
376.545	374.81
376.771	372.81
376.997	382.81
377.222	399.81
377.448	379.81
377.674	371.81
377.899	381.81
378.125	386.81
378.35	378.81
378.576	390.81
378.802	374.81
379.027	377.81
379.253	386.81
379.478	367.81
379.704	376.81
379.929	376.81
380.155	386.81
380.38	384.81
380.606	381.81
380.831	376.81
381.057	388.81
381.282	392.81
381.507	396.81
381.733	386.81
381.958	378.81
382.184	386.81
382.409	399.81
382.634	390.81
382.86	412.81
383.085	400.81
383.31	381.81
383.535	395.81
383.761	381.81
383.986	388.81
384.211	388.81
384.436	411.81
384.662	404.81
384.887	416.81
385.112	428.81
385.337	405.81
385.562	403.81
385.787	384.81
386.013	428.81
386.238	422.81
386.463	433.81
386.688	426.81
386.913	415.81
387.138	426.81
387.363	423.81
387.588	424.81
387.813	412.81
388.038	408.81
388.263	410.81
388.488	403.81
388.713	414.81
388.938	417.81
389.163	420.81
389.387	408.81
389.612	403.81
389.837	406.81
390.062	417.81
390.287	419.81
390.512	406.81
390.736	403.81
390.961	419.81
391.186	405.81
391.411	420.81
391.636	428.81
391.86	414.81
392.085	431.81
392.31	434.81
392.534	416.81
392.759	438.81
392.984	412.81
393.208	436.81
393.433	419.81
393.658	413.81
393.882	427.81
394.107	432.81
394.331	406.81
394.556	394.81
394.78	426.81
395.005	426.81
395.229	427.81
395.454	441.81
395.678	440.81
395.903	436.81
396.127	480.81
396.352	450.81
396.576	439.81
396.801	412.81
397.025	424.81
397.249	444.81
397.474	432.81
397.698	421.81
397.922	453.81
398.147	457.81
398.371	467.81
398.595	458.81
398.82	473.81
399.044	486.81
399.268	507.81
399.492	531.81
399.717	558.81
399.941	594.81
400.165	578.81
400.389	577.81
400.613	521.81
400.837	483.81
401.062	490.81
401.286	468.81
401.51	477.81
401.734	474.81
401.958	469.81
402.182	456.81
402.406	456.81
402.63	452.81
402.854	472.81
403.078	473.81
403.302	483.81
403.526	477.81
403.75	488.81
403.974	477.81
404.198	497.81
404.422	473.81
404.645	483.81
404.869	481.81
405.093	523.81
405.317	553.81
405.541	572.81
405.765	536.81
405.988	514.81
406.212	510.81
406.436	514.81
406.66	509.81
406.883	524.81
407.107	524.81
407.331	571.81
407.555	609.81
407.778	612.81
408.002	548.81
408.226	527.81
408.449	518.81
408.673	503.81
408.896	531.81
409.12	572.81
409.344	523.81
409.567	497.81
409.791	476.81
410.014	475.81
410.238	478.81
410.461	488.81
410.685	458.81
410.908	500.81
411.132	514.81
411.355	528.81
411.578	490.81
411.802	475.81
412.025	493.81
412.249	461.81
412.472	501.81
412.695	538.81
412.919	520.81
413.142	479.81
413.365	466.81
413.589	452.81
413.812	445.81
414.035	466.81
414.258	453.81
414.482	445.81
414.705	453.81
414.928	421.81
415.151	435.81
415.374	448.81
415.597	443.81
415.821	433.81
416.044	444.81
416.267	430.81
416.49	430.81
416.713	432.81
416.936	462.81
417.159	449.81
417.382	467.81
417.605	429.81
417.828	443.81
418.051	464.81
418.274	459.81
418.497	450.81
418.72	456.81
418.943	431.81
419.166	455.81
419.389	473.81
419.611	489.81
419.834	474.81
420.057	470.81
420.28	478.81
420.503	464.81
420.726	472.81
420.948	485.81
421.171	512.81
421.394	511.81
421.617	475.81
421.839	453.81
422.062	459.81
422.285	472.81
422.507	515.81
422.73	570.81
422.953	536.81
423.175	482.81
423.398	457.81
423.621	489.81
423.843	487.81
424.066	482.81
424.288	457.81
424.511	488.81
424.733	535.81
424.956	574.81
425.178	562.81
425.401	546.81
425.623	568.81
425.846	489.81
426.068	486.81
426.291	470.81
426.513	463.81
426.735	469.81
426.958	494.81
427.18	555.81
427.402	638.81
427.625	689.81
427.847	601.81
428.069	535.81
428.292	502.81
428.514	482.81
428.736	444.81
428.958	446.81
429.181	436.81
429.403	449.81
429.625	429.81
429.847	425.81
430.069	493.81
430.292	501.81
430.514	434.81
430.736	445.81
430.958	421.81
431.18	422.81
431.402	425.81
431.624	410.81
431.846	422.81
432.068	423.81
432.29	407.81
432.512	440.81
432.734	423.81
432.956	406.81
433.178	427.81
433.4	428.81
433.622	445.81
433.844	419.81
434.066	429.81
434.287	422.81
434.509	446.81
434.731	438.81
434.953	435.81
435.175	438.81
435.397	484.81
435.618	450.81
435.84	489.81
436.062	555.81
436.284	615.81
436.505	542.81
436.727	449.81
436.949	443.81
437.17	420.81
437.392	424.81
437.614	447.81
437.835	472.81
438.057	522.81
438.278	597.81
438.5	578.81
438.721	668.81
438.943	597.81
439.165	488.81
439.386	479.81
439.608	451.81
439.829	456.81
440.05	458.81
440.272	499.81
440.493	475.81
440.715	449.81
440.936	454.81
441.158	448.81
441.379	413.81
441.6	449.81
441.822	460.81
442.043	490.81
442.264	531.81
442.486	581.81
442.707	520.81
442.928	484.81
443.149	450.81
443.371	505.81
443.592	540.81
443.813	581.81
444.034	608.81
444.255	537.81
444.476	503.81
444.698	509.81
444.919	505.81
445.14	604.81
445.361	532.81
445.582	482.81
445.803	518.81
446.024	602.81
446.245	597.81
446.466	544.81
446.687	474.81
446.908	469.81
447.129	427.81
447.35	417.81
447.571	438.81
447.792	428.81
448.013	406.81
448.234	433.81
448.455	474.81
448.675	532.81
448.896	631.81
449.117	537.81
449.338	498.81
449.559	601.81
449.779	637.81
450	524.81
450.221	436.81
450.442	409.81
450.662	412.81
450.883	417.81
451.104	414.81
451.324	412.81
451.545	393.81
451.766	393.81
451.986	368.81
452.207	384.81
452.428	368.81
452.648	385.81
452.869	372.81
453.089	396.81
453.31	391.81
453.53	378.81
453.751	373.81
453.971	373.81
454.192	399.81
454.412	385.81
454.633	378.81
454.853	360.81
455.073	374.81
455.294	392.81
455.514	454.81
455.734	432.81
455.955	386.81
456.175	369.81
456.395	356.81
456.616	347.81
456.836	372.81
457.056	351.81
457.276	379.81
457.497	359.81
457.717	377.81
457.937	378.81
458.157	381.81
458.377	364.81
458.598	373.81
458.818	420.81
459.038	457.81
459.258	479.81
459.478	420.81
459.698	421.81
459.918	427.81
460.138	418.81
460.358	442.81
460.578	440.81
460.798	429.81
461.018	414.81
461.238	440.81
461.458	451.81
461.678	446.81
461.898	432.81
462.118	438.81
462.338	441.81
462.558	452.81
462.777	455.81
462.997	465.81
463.217	486.81
463.437	464.81
463.657	483.81
463.876	475.81
464.096	459.81
464.316	450.81
464.536	480.81
464.755	468.81
464.975	457.81
465.195	463.81
465.414	480.81
465.634	444.81
465.854	416.81
466.073	401.81
466.293	406.81
466.512	415.81
466.732	394.81
466.951	385.81
467.171	387.81
467.391	407.81
467.61	390.81
467.829	394.81
468.049	417.81
468.268	383.81
468.488	399.81
468.707	384.81
468.927	384.81
469.146	373.81
469.365	409.81
469.585	404.81
469.804	393.81
470.023	385.81
470.243	399.81
470.462	401.81
470.681	406.81
470.901	401.81
471.12	411.81
471.339	409.81
471.558	410.81
471.777	410.81
471.997	400.81
472.216	396.81
472.435	435.81
472.654	416.81
472.873	418.81
473.092	403.81
473.311	423.81
473.53	399.81
473.749	403.81
473.968	429.81
474.187	472.81
474.406	507.81
474.625	442.81
474.844	395.81
475.063	402.81
475.282	385.81
475.501	388.81
475.72	399.81
475.939	390.81
476.158	405.81
476.377	411.81
476.596	421.81
476.814	428.81
477.033	434.81
477.252	430.81
477.471	438.81
477.69	440.81
477.908	430.81
478.127	442.81
478.346	448.81
478.564	424.81
478.783	444.81
479.002	469.81
479.22	454.81
479.439	458.81
479.658	482.81
479.876	476.81
480.095	469.81
480.313	482.81
480.532	501.81
480.751	486.81
480.969	488.81
481.188	519.81
481.406	544.81
481.624	507.81
481.843	477.81
482.061	474.81
482.28	468.81
482.498	462.81
482.717	472.81
482.935	476.81
483.153	466.81
483.372	477.81
483.59	449.81
483.808	462.81
484.027	456.81
484.245	469.81
484.463	450.81
484.681	471.81
484.9	462.81
485.118	468.81
485.336	464.81
485.554	485.81
485.772	483.81
485.99	475.81
486.209	486.81
486.427	485.81
486.645	492.81
486.863	484.81
487.081	485.81
487.299	484.81
487.517	500.81
487.735	490.81
487.953	478.81
488.171	473.81
488.389	467.81
488.607	464.81
488.825	471.81
489.043	496.81
489.261	478.81
489.479	483.81
489.696	503.81
489.914	492.81
490.132	512.81
490.35	498.81
490.568	497.81
490.786	519.81
491.003	512.81
491.221	533.81
491.439	526.81
491.657	523.81
491.874	536.81
492.092	518.81
492.31	537.81
492.527	547.81
492.745	554.81
492.963	550.81
493.18	549.81
493.398	534.81
493.615	545.81
493.833	556.81
494.05	556.81
494.268	559.81
494.485	551.81
494.703	557.81
494.92	569.81
495.138	552.81
495.355	548.81
495.573	590.81
495.79	555.81
496.008	566.81
496.225	594.81
496.442	553.81
496.66	581.81
496.877	595.81
497.094	604.81
497.312	585.81
497.529	575.81
497.746	597.81
497.963	604.81
498.181	611.81
498.398	633.81
498.615	657.81
498.832	677.81
499.049	685.81
499.267	706.81
499.484	744.81
499.701	768.81
499.918	796.81
500.135	866.81
500.352	896.81
500.569	905.81
500.786	881.81
501.003	870.81
501.22	829.81
501.437	812.81
501.654	789.81
501.871	749.81
502.088	729.81
