Data from 1964.PennyLincolnUp.Lamp.En5.5.200Scan.071719.P1._HRD10591_14-04-38-909.txt Node
Date: Thu Jul 18 14:04:38 EDT 2019
User: cochatt
Spectrometer: HR+D1059
Trigger mode: 1
Integration Time (sec): 1.000000E-1
Scans to average: 1
Electric dark correction enabled: true
Nonlinearity correction enabled: false
Boxcar width: 0
XAxis mode: Wavelengths
Number of Pixels in Spectrum: 2048
>>>>>Begin Spectral Data<<<<<
223.165	-19.5
223.4	-19.5
223.635	-19.5
223.869	-28.5
224.104	-12.5
224.338	-18.5
224.573	-14.5
224.808	-20.5
225.042	-13.5
225.277	1.5
225.511	-1.5
225.746	5.5
225.98	3.5
226.215	16.5
226.449	13.5
226.683	24.5
226.918	33.5
227.152	30.5
227.387	36.5
227.621	28.5
227.856	46.5
228.09	41.5
228.324	46.5
228.559	53.5
228.793	62.5
229.027	90.5
229.262	93.5
229.496	96.5
229.73	108.5
229.964	118.5
230.199	95.5
230.433	109.5
230.667	100.5
230.901	114.5
231.136	93.5
231.37	100.5
231.604	107.5
231.838	107.5
232.072	106.5
232.306	104.5
232.541	103.5
232.775	109.5
233.009	110.5
233.243	98.5
233.477	117.5
233.711	113.5
233.945	121.5
234.179	111.5
234.413	113.5
234.647	108.5
234.881	119.5
235.115	125.5
235.349	120.5
235.583	119.5
235.817	120.5
236.051	113.5
236.285	113.5
236.519	111.5
236.753	129.5
236.987	149.5
237.221	148.5
237.455	177.5
237.689	156.5
237.922	125.5
238.156	125.5
238.39	116.5
238.624	122.5
238.858	124.5
239.091	120.5
239.325	131.5
239.559	119.5
239.793	123.5
240.027	118.5
240.26	127.5
240.494	147.5
240.728	126.5
240.961	137.5
241.195	130.5
241.429	135.5
241.662	126.5
241.896	130.5
242.13	123.5
242.363	139.5
242.597	135.5
242.83	134.5
243.064	136.5
243.298	139.5
243.531	147.5
243.765	148.5
243.998	130.5
244.232	139.5
244.465	145.5
244.699	135.5
244.932	149.5
245.166	131.5
245.399	144.5
245.633	151.5
245.866	145.5
246.099	150.5
246.333	140.5
246.566	142.5
246.8	143.5
247.033	162.5
247.266	158.5
247.5	163.5
247.733	157.5
247.966	168.5
248.2	162.5
248.433	181.5
248.666	169.5
248.899	181.5
249.133	202.5
249.366	177.5
249.599	191.5
249.832	176.5
250.066	169.5
250.299	183.5
250.532	190.5
250.765	185.5
250.998	205.5
251.231	215.5
251.465	197.5
251.698	198.5
251.931	195.5
252.164	182.5
252.397	198.5
252.63	194.5
252.863	183.5
253.096	202.5
253.329	215.5
253.562	207.5
253.795	211.5
254.028	207.5
254.261	214.5
254.494	219.5
254.727	234.5
254.96	231.5
255.193	261.5
255.426	222.5
255.659	238.5
255.892	224.5
256.124	234.5
256.357	238.5
256.59	218.5
256.823	200.5
257.056	214.5
257.289	206.5
257.521	201.5
257.754	217.5
257.987	215.5
258.22	210.5
258.452	211.5
258.685	206.5
258.918	221.5
259.151	226.5
259.383	199.5
259.616	226.5
259.849	225.5
260.081	238.5
260.314	253.5
260.547	245.5
260.779	222.5
261.012	229.5
261.244	241.5
261.477	231.5
261.71	205.5
261.942	227.5
262.175	234.5
262.407	234.5
262.64	224.5
262.872	225.5
263.105	216.5
263.337	233.5
263.57	206.5
263.802	205.5
264.035	211.5
264.267	217.5
264.499	222.5
264.732	209.5
264.964	221.5
265.197	218.5
265.429	215.5
265.661	222.5
265.894	201.5
266.126	230.5
266.358	230.5
266.591	225.5
266.823	226.5
267.055	244.5
267.287	250.5
267.52	221.5
267.752	229.5
267.984	236.5
268.216	217.5
268.448	243.5
268.681	249.5
268.913	262.5
269.145	251.5
269.377	270.5
269.609	269.5
269.841	267.5
270.073	265.5
270.306	295.5
270.538	314.5
270.77	313.5
271.002	311.5
271.234	289.5
271.466	288.5
271.698	301.5
271.93	319.5
272.162	312.5
272.394	306.5
272.626	286.5
272.858	304.5
273.09	301.5
273.322	276.5
273.553	257.5
273.785	259.5
274.017	278.5
274.249	273.5
274.481	263.5
274.713	276.5
274.945	259.5
275.176	289.5
275.408	281.5
275.64	265.5
275.872	273.5
276.104	283.5
276.335	279.5
276.567	273.5
276.799	292.5
277.031	284.5
277.262	328.5
277.494	308.5
277.726	306.5
277.957	294.5
278.189	285.5
278.421	302.5
278.652	286.5
278.884	303.5
279.115	271.5
279.347	285.5
279.579	277.5
279.81	281.5
280.042	276.5
280.273	277.5
280.505	297.5
280.736	292.5
280.968	296.5
281.199	301.5
281.431	258.5
281.662	285.5
281.894	283.5
282.125	277.5
282.356	301.5
282.588	293.5
282.819	281.5
283.051	282.5
283.282	299.5
283.513	318.5
283.745	292.5
283.976	290.5
284.207	289.5
284.439	296.5
284.67	312.5
284.901	303.5
285.132	301.5
285.364	303.5
285.595	318.5
285.826	301.5
286.057	315.5
286.288	309.5
286.52	308.5
286.751	312.5
286.982	306.5
287.213	320.5
287.444	293.5
287.675	311.5
287.906	310.5
288.138	334.5
288.369	347.5
288.6	321.5
288.831	293.5
289.062	333.5
289.293	323.5
289.524	306.5
289.755	306.5
289.986	309.5
290.217	302.5
290.448	314.5
290.679	318.5
290.91	312.5
291.141	326.5
291.371	303.5
291.602	315.5
291.833	300.5
292.064	306.5
292.295	312.5
292.526	331.5
292.757	309.5
292.987	313.5
293.218	314.5
293.449	306.5
293.68	332.5
293.91	318.5
294.141	306.5
294.372	335.5
294.603	319.5
294.833	313.5
295.064	314.5
295.295	319.5
295.525	310.5
295.756	318.5
295.987	309.5
296.217	337.5
296.448	334.5
296.679	330.5
296.909	333.5
297.14	335.5
297.37	347.5
297.601	315.5
297.831	334.5
298.062	338.5
298.292	339.5
298.523	338.5
298.753	335.5
298.984	329.5
299.214	334.5
299.445	316.5
299.675	342.5
299.905	351.5
300.136	328.5
300.366	337.5
300.597	333.5
300.827	338.5
301.057	341.5
301.288	346.5
301.518	352.5
301.748	339.5
301.979	354.5
302.209	362.5
302.439	363.5
302.669	348.5
302.9	354.5
303.13	350.5
303.36	353.5
303.59	355.5
303.82	377.5
304.051	359.5
304.281	375.5
304.511	342.5
304.741	369.5
304.971	355.5
305.201	339.5
305.431	353.5
305.661	365.5
305.891	357.5
306.121	364.5
306.352	354.5
306.582	344.5
306.812	347.5
307.042	346.5
307.272	331.5
307.502	345.5
307.731	349.5
307.961	366.5
308.191	362.5
308.421	371.5
308.651	365.5
308.881	354.5
309.111	365.5
309.341	362.5
309.571	387.5
309.8	372.5
310.03	363.5
310.26	395.5
310.49	361.5
310.72	377.5
310.949	399.5
311.179	403.5
311.409	382.5
311.639	387.5
311.868	380.5
312.098	403.5
312.328	420.5
312.557	399.5
312.787	408.5
313.017	410.5
313.246	402.5
313.476	399.5
313.706	386.5
313.935	399.5
314.165	389.5
314.394	406.5
314.624	395.5
314.853	409.5
315.083	397.5
315.312	383.5
315.542	394.5
315.771	399.5
316.001	389.5
316.23	376.5
316.46	395.5
316.689	402.5
316.919	413.5
317.148	413.5
317.377	398.5
317.607	421.5
317.836	407.5
318.065	377.5
318.295	387.5
318.524	383.5
318.753	395.5
318.983	393.5
319.212	395.5
319.441	396.5
319.67	394.5
319.9	392.5
320.129	392.5
320.358	408.5
320.587	391.5
320.816	407.5
321.046	406.5
321.275	395.5
321.504	419.5
321.733	407.5
321.962	400.5
322.191	425.5
322.42	446.5
322.649	441.5
322.878	439.5
323.108	447.5
323.337	444.5
323.566	466.5
323.795	482.5
324.024	526.5
324.253	584.5
324.482	776.5
324.71	1126.5
324.939	1495.5
325.168	1255.5
325.397	722.5
325.626	533.5
325.855	472.5
326.084	466.5
326.313	487.5
326.542	473.5
326.77	505.5
326.999	571.5
327.228	742.5
327.457	995.5
327.686	1143.5
327.914	795.5
328.143	596.5
328.372	524.5
328.6	507.5
328.829	514.5
329.058	522.5
329.287	493.5
329.515	473.5
329.744	473.5
329.972	476.5
330.201	520.5
330.43	515.5
330.658	524.5
330.887	537.5
331.115	526.5
331.344	470.5
331.572	462.5
331.801	473.5
332.03	485.5
332.258	474.5
332.486	455.5
332.715	449.5
332.943	449.5
333.172	458.5
333.4	488.5
333.629	492.5
333.857	503.5
334.085	481.5
334.314	492.5
334.542	520.5
334.771	529.5
334.999	518.5
335.227	484.5
335.455	490.5
335.684	457.5
335.912	489.5
336.14	459.5
336.369	465.5
336.597	472.5
336.825	469.5
337.053	452.5
337.281	444.5
337.51	453.5
337.738	461.5
337.966	443.5
338.194	428.5
338.422	441.5
338.65	458.5
338.878	462.5
339.106	468.5
339.334	443.5
339.562	434.5
339.79	427.5
340.018	452.5
340.246	444.5
340.474	451.5
340.702	423.5
340.93	434.5
341.158	428.5
341.386	427.5
341.614	416.5
341.842	452.5
342.07	417.5
342.298	413.5
342.526	423.5
342.754	425.5
342.981	439.5
343.209	441.5
343.437	444.5
343.665	431.5
343.893	454.5
344.12	461.5
344.348	467.5
344.576	467.5
344.804	447.5
345.031	453.5
345.259	444.5
345.487	441.5
345.714	430.5
345.942	439.5
346.17	427.5
346.397	391.5
346.625	419.5
346.853	415.5
347.08	426.5
347.308	420.5
347.535	409.5
347.763	414.5
347.99	443.5
348.218	405.5
348.445	431.5
348.673	417.5
348.9	430.5
349.128	409.5
349.355	411.5
349.583	415.5
349.81	412.5
350.037	423.5
350.265	428.5
350.492	383.5
350.72	397.5
350.947	406.5
351.174	412.5
351.402	440.5
351.629	416.5
351.856	420.5
352.083	427.5
352.311	405.5
352.538	405.5
352.765	415.5
352.992	414.5
353.22	394.5
353.447	398.5
353.674	418.5
353.901	392.5
354.128	398.5
354.355	405.5
354.583	403.5
354.81	383.5
355.037	382.5
355.264	386.5
355.491	393.5
355.718	386.5
355.945	397.5
356.172	389.5
356.399	383.5
356.626	377.5
356.853	359.5
357.08	395.5
357.307	379.5
357.534	398.5
357.761	396.5
357.988	378.5
358.215	397.5
358.441	389.5
358.668	396.5
358.895	382.5
359.122	388.5
359.349	391.5
359.576	403.5
359.802	398.5
360.029	422.5
360.256	417.5
360.483	413.5
360.709	420.5
360.936	408.5
361.163	394.5
361.39	417.5
361.616	408.5
361.843	390.5
362.07	391.5
362.296	381.5
362.523	421.5
362.749	387.5
362.976	403.5
363.203	377.5
363.429	397.5
363.656	381.5
363.882	386.5
364.109	394.5
364.335	391.5
364.562	396.5
364.788	378.5
365.015	401.5
365.241	405.5
365.468	398.5
365.694	383.5
365.92	411.5
366.147	389.5
366.373	373.5
366.599	398.5
366.826	387.5
367.052	377.5
367.278	384.5
367.505	366.5
367.731	392.5
367.957	387.5
368.184	371.5
368.41	399.5
368.636	405.5
368.862	394.5
369.089	381.5
369.315	391.5
369.541	405.5
369.767	394.5
369.993	392.5
370.219	391.5
370.445	375.5
370.672	392.5
370.898	371.5
371.124	394.5
371.35	389.5
371.576	402.5
371.802	379.5
372.028	396.5
372.254	380.5
372.48	406.5
372.706	406.5
372.932	418.5
373.158	414.5
373.384	382.5
373.61	382.5
373.835	404.5
374.061	407.5
374.287	389.5
374.513	388.5
374.739	415.5
374.965	393.5
375.191	411.5
375.416	410.5
375.642	423.5
375.868	379.5
376.094	392.5
376.319	409.5
376.545	377.5
376.771	369.5
376.997	378.5
377.222	377.5
377.448	380.5
377.674	359.5
377.899	385.5
378.125	385.5
378.35	373.5
378.576	362.5
378.802	381.5
379.027	383.5
379.253	369.5
379.478	400.5
379.704	390.5
379.929	396.5
380.155	384.5
380.38	397.5
380.606	382.5
380.831	392.5
381.057	379.5
381.282	394.5
381.507	382.5
381.733	365.5
381.958	379.5
382.184	391.5
382.409	389.5
382.634	418.5
382.86	393.5
383.085	393.5
383.31	402.5
383.535	385.5
383.761	410.5
383.986	414.5
384.211	397.5
384.436	403.5
384.662	429.5
384.887	428.5
385.112	424.5
385.337	445.5
385.562	423.5
385.787	427.5
386.013	444.5
386.238	416.5
386.463	412.5
386.688	447.5
386.913	435.5
387.138	438.5
387.363	428.5
387.588	423.5
387.813	424.5
388.038	414.5
388.263	417.5
388.488	439.5
388.713	402.5
388.938	439.5
389.163	419.5
389.387	433.5
389.612	415.5
389.837	403.5
390.062	406.5
390.287	440.5
390.512	418.5
390.736	443.5
390.961	438.5
391.186	404.5
391.411	442.5
391.636	432.5
391.86	439.5
392.085	441.5
392.31	443.5
392.534	445.5
392.759	442.5
392.984	422.5
393.208	421.5
393.433	430.5
393.658	423.5
393.882	419.5
394.107	421.5
394.331	433.5
394.556	418.5
394.78	432.5
395.005	447.5
395.229	429.5
395.454	415.5
395.678	449.5
395.903	438.5
396.127	465.5
396.352	481.5
396.576	454.5
396.801	422.5
397.025	454.5
397.249	438.5
397.474	454.5
397.698	447.5
397.922	450.5
398.147	464.5
398.371	456.5
398.595	482.5
398.82	477.5
399.044	491.5
399.268	495.5
399.492	541.5
399.717	585.5
399.941	601.5
400.165	594.5
400.389	597.5
400.613	551.5
400.837	509.5
401.062	484.5
401.286	483.5
401.51	468.5
401.734	449.5
401.958	473.5
402.182	475.5
402.406	477.5
402.63	478.5
402.854	479.5
403.078	491.5
403.302	482.5
403.526	497.5
403.75	483.5
403.974	509.5
404.198	477.5
404.422	503.5
404.645	507.5
404.869	521.5
405.093	543.5
405.317	568.5
405.541	602.5
405.765	538.5
405.988	509.5
406.212	522.5
406.436	539.5
406.66	542.5
406.883	500.5
407.107	522.5
407.331	569.5
407.555	638.5
407.778	623.5
408.002	595.5
408.226	537.5
408.449	534.5
408.673	550.5
408.896	582.5
409.12	577.5
409.344	567.5
409.567	509.5
409.791	492.5
410.014	497.5
410.238	505.5
410.461	479.5
410.685	463.5
410.908	487.5
411.132	503.5
411.355	538.5
411.578	511.5
411.802	489.5
412.025	509.5
412.249	492.5
412.472	497.5
412.695	527.5
412.919	506.5
413.142	486.5
413.365	466.5
413.589	469.5
413.812	467.5
414.035	471.5
414.258	455.5
414.482	455.5
414.705	447.5
414.928	469.5
415.151	451.5
415.374	448.5
415.597	456.5
415.821	468.5
416.044	446.5
416.267	437.5
416.49	460.5
416.713	438.5
416.936	446.5
417.159	461.5
417.382	441.5
417.605	453.5
417.828	467.5
418.051	463.5
418.274	476.5
418.497	449.5
418.72	449.5
418.943	452.5
419.166	451.5
419.389	513.5
419.611	490.5
419.834	467.5
420.057	463.5
420.28	474.5
420.503	479.5
420.726	467.5
420.948	474.5
421.171	501.5
421.394	533.5
421.617	469.5
421.839	462.5
422.062	480.5
422.285	472.5
422.507	525.5
422.73	591.5
422.953	568.5
423.175	518.5
423.398	486.5
423.621	466.5
423.843	469.5
424.066	484.5
424.288	496.5
424.511	509.5
424.733	551.5
424.956	614.5
425.178	551.5
425.401	573.5
425.623	595.5
425.846	519.5
426.068	486.5
426.291	483.5
426.513	471.5
426.735	488.5
426.958	517.5
427.18	572.5
427.402	676.5
427.625	685.5
427.847	612.5
428.069	545.5
428.292	521.5
428.514	474.5
428.736	443.5
428.958	445.5
429.181	459.5
429.403	430.5
429.625	447.5
429.847	467.5
430.069	524.5
430.292	505.5
430.514	447.5
430.736	429.5
430.958	439.5
431.18	425.5
431.402	433.5
431.624	415.5
431.846	420.5
432.068	425.5
432.29	409.5
432.512	434.5
432.734	442.5
432.956	428.5
433.178	438.5
433.4	405.5
433.622	426.5
433.844	423.5
434.066	419.5
434.287	418.5
434.509	438.5
434.731	427.5
434.953	469.5
435.175	458.5
435.397	486.5
435.618	476.5
435.84	503.5
436.062	572.5
436.284	602.5
436.505	518.5
436.727	502.5
436.949	458.5
437.17	441.5
437.392	438.5
437.614	471.5
437.835	494.5
438.057	536.5
438.278	589.5
438.5	586.5
438.721	652.5
438.943	622.5
439.165	514.5
439.386	461.5
439.608	490.5
439.829	475.5
440.05	490.5
440.272	526.5
440.493	506.5
440.715	462.5
440.936	462.5
441.158	442.5
441.379	437.5
441.6	461.5
441.822	470.5
442.043	513.5
442.264	591.5
442.486	570.5
442.707	503.5
442.928	499.5
443.149	506.5
443.371	508.5
443.592	536.5
443.813	588.5
444.034	646.5
444.255	562.5
444.476	503.5
444.698	500.5
444.919	487.5
445.14	623.5
445.361	555.5
445.582	524.5
445.803	543.5
446.024	611.5
446.245	628.5
446.466	545.5
446.687	497.5
446.908	486.5
447.129	446.5
447.35	427.5
447.571	441.5
447.792	430.5
448.013	429.5
448.234	454.5
448.455	461.5
448.675	557.5
448.896	648.5
449.117	540.5
449.338	519.5
449.559	603.5
449.779	673.5
450	533.5
450.221	461.5
450.442	455.5
450.662	418.5
450.883	430.5
451.104	423.5
451.324	411.5
451.545	397.5
451.766	386.5
451.986	409.5
452.207	377.5
452.428	386.5
452.648	377.5
452.869	388.5
453.089	395.5
453.31	407.5
453.53	387.5
453.751	377.5
453.971	395.5
454.192	400.5
454.412	379.5
454.633	383.5
454.853	381.5
455.073	384.5
455.294	414.5
455.514	463.5
455.734	451.5
455.955	411.5
456.175	375.5
456.395	376.5
456.616	366.5
456.836	367.5
457.056	384.5
457.276	361.5
457.497	385.5
457.717	348.5
457.937	355.5
458.157	377.5
458.377	391.5
458.598	411.5
458.818	422.5
459.038	450.5
459.258	512.5
459.478	459.5
459.698	431.5
459.918	418.5
460.138	434.5
460.358	422.5
460.578	430.5
460.798	429.5
461.018	460.5
461.238	450.5
461.458	428.5
461.678	430.5
461.898	412.5
462.118	431.5
462.338	434.5
462.558	458.5
462.777	462.5
462.997	472.5
463.217	488.5
463.437	486.5
463.657	462.5
463.876	470.5
464.096	502.5
464.316	476.5
464.536	492.5
464.755	474.5
464.975	463.5
465.195	466.5
465.414	517.5
465.634	465.5
465.854	451.5
466.073	422.5
466.293	420.5
466.512	407.5
466.732	420.5
466.951	407.5
467.171	379.5
467.391	404.5
467.61	400.5
467.829	405.5
468.049	409.5
468.268	399.5
468.488	386.5
468.707	394.5
468.927	409.5
469.146	406.5
469.365	392.5
469.585	394.5
469.804	397.5
470.023	391.5
470.243	419.5
470.462	435.5
470.681	431.5
470.901	415.5
471.12	394.5
471.339	405.5
471.558	394.5
471.777	391.5
471.997	395.5
472.216	407.5
472.435	418.5
472.654	398.5
472.873	397.5
473.092	395.5
473.311	394.5
473.53	411.5
473.749	409.5
473.968	443.5
474.187	504.5
474.406	489.5
474.625	446.5
474.844	427.5
475.063	422.5
475.282	417.5
475.501	424.5
475.72	414.5
475.939	418.5
476.158	422.5
476.377	429.5
476.596	434.5
476.814	427.5
477.033	399.5
477.252	432.5
477.471	437.5
477.69	447.5
477.908	441.5
478.127	442.5
478.346	457.5
478.564	453.5
478.783	454.5
479.002	455.5
479.22	468.5
479.439	457.5
479.658	467.5
479.876	475.5
480.095	502.5
480.313	515.5
480.532	504.5
480.751	508.5
480.969	517.5
481.188	523.5
481.406	562.5
481.624	473.5
481.843	482.5
482.061	483.5
482.28	454.5
482.498	470.5
482.717	461.5
482.935	463.5
483.153	461.5
483.372	463.5
483.59	474.5
483.808	457.5
484.027	453.5
484.245	450.5
484.463	458.5
484.681	466.5
484.9	469.5
485.118	492.5
485.336	477.5
485.554	468.5
485.772	495.5
485.99	464.5
486.209	480.5
486.427	462.5
486.645	477.5
486.863	471.5
487.081	514.5
487.299	499.5
487.517	514.5
487.735	469.5
487.953	505.5
488.171	502.5
488.389	486.5
488.607	491.5
488.825	482.5
489.043	501.5
489.261	499.5
489.479	495.5
489.696	493.5
489.914	499.5
490.132	509.5
490.35	531.5
490.568	501.5
490.786	549.5
491.003	523.5
491.221	529.5
491.439	541.5
491.657	554.5
491.874	566.5
492.092	543.5
492.31	578.5
492.527	557.5
492.745	563.5
492.963	555.5
493.18	576.5
493.398	553.5
493.615	581.5
493.833	578.5
494.05	572.5
494.268	577.5
494.485	567.5
494.703	550.5
494.92	571.5
495.138	565.5
495.355	559.5
495.573	558.5
495.79	556.5
496.008	577.5
496.225	552.5
496.442	582.5
496.66	602.5
496.877	589.5
497.094	571.5
497.312	589.5
497.529	595.5
497.746	619.5
497.963	633.5
498.181	629.5
498.398	641.5
498.615	669.5
498.832	662.5
499.049	674.5
499.267	711.5
499.484	715.5
499.701	780.5
499.918	809.5
500.135	856.5
500.352	882.5
500.569	889.5
500.786	897.5
501.003	878.5
501.22	845.5
501.437	830.5
501.654	774.5
501.871	742.5
502.088	718.5
502.305	693.5
502.522	681.5
502.739	660.5
502.956	649.5
503.172	643.5
503.389	615.5
503.606	618.5
503.823	635.5
504.04	581.5
504.256	604.5
504.473	610.5
504.69	596.5
504.907	600.5
505.123	591.5
505.34	571.5
505.557	573.5
505.773	563.5
505.99	561.5
506.207	550.5
506.423	535.5
506.64	541.5
506.856	539.5
507.073	531.5
507.289	554.5
507.506	525.5
507.722	532.5
507.939	526.5
508.155	518.5
508.372	512.5
508.588	518.5
508.805	513.5
509.021	511.5
509.238	531.5
509.454	510.5
509.67	503.5
509.887	540.5
510.103	492.5
510.319	506.5
510.536	548.5
510.752	751.5
510.968	637.5
511.184	500.5
511.401	487.5
511.617	485.5
511.833	471.5
512.049	467.5
512.265	485.5
512.481	494.5
512.698	473.5
512.914	467.5
513.13	473.5
513.346	473.5
513.562	482.5
513.778	465.5
513.994	482.5
514.21	499.5
514.426	499.5
514.642	507.5
514.858	504.5
515.074	525.5
515.29	583.5
515.506	763.5
515.721	641.5
515.937	546.5
516.153	492.5
516.369	495.5
516.585	497.5
516.801	492.5
517.016	501.5
517.232	516.5
517.448	501.5
517.664	518.5
517.879	505.5
518.095	511.5
518.311	519.5
518.527	522.5
518.742	511.5
518.958	489.5
519.173	487.5
519.389	477.5
519.605	486.5
519.82	479.5
520.036	498.5
