Data from 1964.PennyLincolnUp.Lamp.En5.5.200Scan.071719.P1._HRD10591_14-03-56-908.txt Node
Date: Thu Jul 18 14:03:56 EDT 2019
User: cochatt
Spectrometer: HR+D1059
Trigger mode: 1
Integration Time (sec): 1.000000E-1
Scans to average: 1
Electric dark correction enabled: true
Nonlinearity correction enabled: false
Boxcar width: 0
XAxis mode: Wavelengths
Number of Pixels in Spectrum: 2048
>>>>>Begin Spectral Data<<<<<
223.165	-20.94
223.4	-20.94
223.635	-20.94
223.869	-17.94
224.104	-7.94
224.338	-10.94
224.573	-27.94
224.808	-15.94
225.042	1.06
225.277	-7.94
225.511	-1.94
225.746	3.06
225.98	6.06
226.215	17.06
226.449	13.06
226.683	22.06
226.918	29.06
227.152	20.06
227.387	34.06
227.621	23.06
227.856	36.06
228.09	45.06
228.324	32.06
228.559	60.06
228.793	67.06
229.027	95.06
229.262	96.06
229.496	98.06
229.73	117.06
229.964	123.06
230.199	112.06
230.433	97.06
230.667	107.06
230.901	112.06
231.136	100.06
231.37	100.06
231.604	105.06
231.838	96.06
232.072	113.06
232.306	99.06
232.541	100.06
232.775	115.06
233.009	125.06
233.243	122.06
233.477	101.06
233.711	122.06
233.945	115.06
234.179	124.06
234.413	113.06
234.647	118.06
234.881	120.06
235.115	106.06
235.349	102.06
235.583	112.06
235.817	128.06
236.051	107.06
236.285	114.06
236.519	131.06
236.753	112.06
236.987	148.06
237.221	151.06
237.455	189.06
237.689	163.06
237.922	112.06
238.156	123.06
238.39	116.06
238.624	135.06
238.858	109.06
239.091	109.06
239.325	94.06
239.559	105.06
239.793	128.06
240.027	133.06
240.26	161.06
240.494	139.06
240.728	133.06
240.961	152.06
241.195	134.06
241.429	141.06
241.662	123.06
241.896	125.06
242.13	118.06
242.363	127.06
242.597	129.06
242.83	136.06
243.064	134.06
243.298	134.06
243.531	127.06
243.765	130.06
243.998	124.06
244.232	125.06
244.465	144.06
244.699	140.06
244.932	147.06
245.166	142.06
245.399	143.06
245.633	144.06
245.866	150.06
246.099	132.06
246.333	136.06
246.566	152.06
246.8	142.06
247.033	157.06
247.266	152.06
247.5	151.06
247.733	173.06
247.966	181.06
248.2	155.06
248.433	164.06
248.666	165.06
248.899	165.06
249.133	178.06
249.366	188.06
249.599	191.06
249.832	186.06
250.066	166.06
250.299	192.06
250.532	188.06
250.765	178.06
250.998	215.06
251.231	213.06
251.465	183.06
251.698	191.06
251.931	201.06
252.164	204.06
252.397	176.06
252.63	192.06
252.863	212.06
253.096	223.06
253.329	199.06
253.562	216.06
253.795	201.06
254.028	211.06
254.261	203.06
254.494	229.06
254.727	212.06
254.96	256.06
255.193	244.06
255.426	229.06
255.659	215.06
255.892	227.06
256.124	198.06
256.357	216.06
256.59	226.06
256.823	213.06
257.056	216.06
257.289	201.06
257.521	233.06
257.754	209.06
257.987	197.06
258.22	217.06
258.452	211.06
258.685	220.06
258.918	190.06
259.151	210.06
259.383	190.06
259.616	213.06
259.849	204.06
260.081	221.06
260.314	243.06
260.547	233.06
260.779	221.06
261.012	218.06
261.244	230.06
261.477	227.06
261.71	216.06
261.942	225.06
262.175	208.06
262.407	227.06
262.64	207.06
262.872	201.06
263.105	208.06
263.337	201.06
263.57	200.06
263.802	222.06
264.035	223.06
264.267	201.06
264.499	217.06
264.732	218.06
264.964	197.06
265.197	208.06
265.429	212.06
265.661	225.06
265.894	236.06
266.126	210.06
266.358	233.06
266.591	228.06
266.823	234.06
267.055	239.06
267.287	249.06
267.52	254.06
267.752	237.06
267.984	237.06
268.216	217.06
268.448	247.06
268.681	249.06
268.913	261.06
269.145	268.06
269.377	269.06
269.609	264.06
269.841	263.06
270.073	254.06
270.306	292.06
270.538	291.06
270.77	314.06
271.002	279.06
271.234	283.06
271.466	286.06
271.698	281.06
271.93	326.06
272.162	321.06
272.394	297.06
272.626	308.06
272.858	290.06
273.09	290.06
273.322	286.06
273.553	257.06
273.785	256.06
274.017	267.06
274.249	265.06
274.481	269.06
274.713	264.06
274.945	280.06
275.176	280.06
275.408	270.06
275.64	271.06
275.872	274.06
276.104	299.06
276.335	294.06
276.567	275.06
276.799	292.06
277.031	296.06
277.262	322.06
277.494	318.06
277.726	308.06
277.957	299.06
278.189	293.06
278.421	283.06
278.652	289.06
278.884	293.06
279.115	288.06
279.347	296.06
279.579	266.06
279.81	273.06
280.042	295.06
280.273	283.06
280.505	267.06
280.736	290.06
280.968	280.06
281.199	261.06
281.431	274.06
281.662	270.06
281.894	281.06
282.125	282.06
282.356	262.06
282.588	300.06
282.819	304.06
283.051	267.06
283.282	268.06
283.513	295.06
283.745	294.06
283.976	304.06
284.207	301.06
284.439	298.06
284.67	307.06
284.901	298.06
285.132	312.06
285.364	287.06
285.595	310.06
285.826	298.06
286.057	304.06
286.288	313.06
286.52	324.06
286.751	293.06
286.982	296.06
287.213	306.06
287.444	294.06
287.675	298.06
287.906	310.06
288.138	318.06
288.369	322.06
288.6	320.06
288.831	322.06
289.062	329.06
289.293	304.06
289.524	302.06
289.755	318.06
289.986	293.06
290.217	317.06
290.448	325.06
290.679	317.06
290.91	329.06
291.141	311.06
291.371	314.06
291.602	310.06
291.833	298.06
292.064	296.06
292.295	312.06
292.526	317.06
292.757	316.06
292.987	315.06
293.218	327.06
293.449	304.06
293.68	304.06
293.91	308.06
294.141	318.06
294.372	328.06
294.603	318.06
294.833	313.06
295.064	308.06
295.295	322.06
295.525	306.06
295.756	312.06
295.987	337.06
296.217	352.06
296.448	325.06
296.679	340.06
296.909	312.06
297.14	337.06
297.37	328.06
297.601	334.06
297.831	308.06
298.062	326.06
298.292	326.06
298.523	328.06
298.753	329.06
298.984	333.06
299.214	327.06
299.445	336.06
299.675	356.06
299.905	337.06
300.136	339.06
300.366	331.06
300.597	343.06
300.827	356.06
301.057	353.06
301.288	339.06
301.518	348.06
301.748	349.06
301.979	328.06
302.209	358.06
302.439	346.06
302.669	358.06
302.9	348.06
303.13	373.06
303.36	357.06
303.59	362.06
303.82	349.06
304.051	360.06
304.281	345.06
304.511	356.06
304.741	350.06
304.971	363.06
305.201	350.06
305.431	352.06
305.661	358.06
305.891	338.06
306.121	375.06
306.352	350.06
306.582	374.06
306.812	352.06
307.042	379.06
307.272	348.06
307.502	354.06
307.731	374.06
307.961	353.06
308.191	370.06
308.421	368.06
308.651	349.06
308.881	368.06
309.111	371.06
309.341	371.06
309.571	376.06
309.8	377.06
310.03	380.06
310.26	377.06
310.49	372.06
310.72	393.06
310.949	384.06
311.179	395.06
311.409	388.06
311.639	399.06
311.868	390.06
312.098	383.06
312.328	389.06
312.557	417.06
312.787	395.06
313.017	410.06
313.246	391.06
313.476	390.06
313.706	391.06
313.935	404.06
314.165	398.06
314.394	411.06
314.624	398.06
314.853	384.06
315.083	404.06
315.312	397.06
315.542	390.06
315.771	382.06
316.001	392.06
316.23	394.06
316.46	394.06
316.689	391.06
316.919	390.06
317.148	400.06
317.377	413.06
317.607	414.06
317.836	389.06
318.065	386.06
318.295	392.06
318.524	398.06
318.753	396.06
318.983	394.06
319.212	393.06
319.441	398.06
319.67	390.06
319.9	399.06
320.129	399.06
320.358	396.06
320.587	398.06
320.816	420.06
321.046	421.06
321.275	423.06
321.504	417.06
321.733	421.06
321.962	416.06
322.191	398.06
322.42	432.06
322.649	434.06
322.878	433.06
323.108	421.06
323.337	448.06
323.566	460.06
323.795	471.06
324.024	489.06
324.253	562.06
324.482	771.06
324.71	1014.06
324.939	1421.06
325.168	1176.06
325.397	683.06
325.626	500.06
325.855	468.06
326.084	471.06
326.313	440.06
326.542	486.06
326.77	491.06
326.999	533.06
327.228	694.06
327.457	934.06
327.686	1091.06
327.914	736.06
328.143	540.06
328.372	503.06
328.6	500.06
328.829	489.06
329.058	498.06
329.287	492.06
329.515	465.06
329.744	478.06
329.972	464.06
330.201	493.06
330.43	505.06
330.658	536.06
330.887	517.06
331.115	500.06
331.344	472.06
331.572	483.06
331.801	454.06
332.03	450.06
332.258	476.06
332.486	454.06
332.715	475.06
332.943	441.06
333.172	467.06
333.4	488.06
333.629	503.06
333.857	508.06
334.085	513.06
334.314	516.06
334.542	534.06
334.771	543.06
334.999	493.06
335.227	499.06
335.455	503.06
335.684	492.06
335.912	436.06
336.14	472.06
336.369	489.06
336.597	478.06
336.825	477.06
337.053	470.06
337.281	465.06
337.51	459.06
337.738	451.06
337.966	450.06
338.194	461.06
338.422	456.06
338.65	458.06
338.878	457.06
339.106	440.06
339.334	470.06
339.562	435.06
339.79	442.06
340.018	444.06
340.246	432.06
340.474	449.06
340.702	416.06
340.93	435.06
341.158	436.06
341.386	426.06
341.614	444.06
341.842	419.06
342.07	418.06
342.298	438.06
342.526	426.06
342.754	440.06
342.981	431.06
343.209	431.06
343.437	437.06
343.665	457.06
343.893	460.06
344.12	448.06
344.348	453.06
344.576	442.06
344.804	450.06
345.031	455.06
345.259	453.06
345.487	440.06
345.714	417.06
345.942	419.06
346.17	421.06
346.397	396.06
346.625	405.06
346.853	413.06
347.08	425.06
347.308	413.06
347.535	441.06
347.763	411.06
347.99	419.06
348.218	407.06
348.445	426.06
348.673	417.06
348.9	411.06
349.128	392.06
349.355	395.06
349.583	392.06
349.81	395.06
350.037	386.06
350.265	394.06
350.492	404.06
350.72	403.06
350.947	410.06
351.174	422.06
351.402	410.06
351.629	416.06
351.856	418.06
352.083	426.06
352.311	421.06
352.538	422.06
352.765	406.06
352.992	416.06
353.22	410.06
353.447	404.06
353.674	403.06
353.901	398.06
354.128	406.06
354.355	410.06
354.583	375.06
354.81	394.06
355.037	397.06
355.264	380.06
355.491	378.06
355.718	405.06
355.945	390.06
356.172	382.06
356.399	390.06
356.626	380.06
356.853	388.06
357.08	396.06
357.307	382.06
357.534	395.06
357.761	392.06
357.988	383.06
358.215	406.06
358.441	384.06
358.668	381.06
358.895	388.06
359.122	404.06
359.349	399.06
359.576	390.06
359.802	389.06
360.029	428.06
360.256	432.06
360.483	395.06
360.709	396.06
360.936	390.06
361.163	412.06
361.39	406.06
361.616	380.06
361.843	396.06
362.07	376.06
362.296	380.06
362.523	374.06
362.749	398.06
362.976	402.06
363.203	365.06
363.429	396.06
363.656	390.06
363.882	401.06
364.109	398.06
364.335	384.06
364.562	376.06
364.788	378.06
365.015	380.06
365.241	386.06
365.468	407.06
365.694	377.06
365.92	385.06
366.147	390.06
366.373	381.06
366.599	381.06
366.826	394.06
367.052	386.06
367.278	377.06
367.505	390.06
367.731	369.06
367.957	387.06
368.184	385.06
368.41	393.06
368.636	383.06
368.862	407.06
369.089	376.06
369.315	373.06
369.541	399.06
369.767	399.06
369.993	385.06
370.219	392.06
370.445	384.06
370.672	388.06
370.898	386.06
371.124	394.06
371.35	382.06
371.576	378.06
371.802	406.06
372.028	398.06
372.254	387.06
372.48	379.06
372.706	403.06
372.932	405.06
373.158	388.06
373.384	404.06
373.61	400.06
373.835	378.06
374.061	412.06
374.287	384.06
374.513	394.06
374.739	412.06
374.965	404.06
375.191	405.06
375.416	402.06
375.642	385.06
375.868	390.06
376.094	397.06
376.319	388.06
376.545	382.06
376.771	390.06
376.997	398.06
377.222	396.06
377.448	402.06
377.674	384.06
377.899	393.06
378.125	384.06
378.35	369.06
378.576	378.06
378.802	388.06
379.027	398.06
379.253	385.06
379.478	386.06
379.704	377.06
379.929	382.06
380.155	375.06
380.38	377.06
380.606	371.06
380.831	372.06
381.057	394.06
381.282	397.06
381.507	389.06
381.733	408.06
381.958	386.06
382.184	390.06
382.409	391.06
382.634	407.06
382.86	393.06
383.085	386.06
383.31	390.06
383.535	405.06
383.761	401.06
383.986	406.06
384.211	403.06
384.436	414.06
384.662	402.06
384.887	410.06
385.112	398.06
385.337	423.06
385.562	421.06
385.787	404.06
386.013	432.06
386.238	431.06
386.463	430.06
386.688	440.06
386.913	414.06
387.138	411.06
387.363	415.06
387.588	425.06
387.813	427.06
388.038	420.06
388.263	408.06
388.488	405.06
388.713	413.06
388.938	415.06
389.163	416.06
389.387	409.06
389.612	422.06
389.837	430.06
390.062	420.06
390.287	436.06
390.512	412.06
390.736	401.06
390.961	428.06
391.186	406.06
391.411	420.06
391.636	436.06
391.86	429.06
392.085	456.06
392.31	434.06
392.534	447.06
392.759	461.06
392.984	419.06
393.208	408.06
393.433	449.06
393.658	430.06
393.882	423.06
394.107	418.06
394.331	409.06
394.556	418.06
394.78	428.06
395.005	446.06
395.229	417.06
395.454	446.06
395.678	453.06
395.903	457.06
396.127	438.06
396.352	449.06
396.576	434.06
396.801	442.06
397.025	450.06
397.249	433.06
397.474	451.06
397.698	446.06
397.922	450.06
398.147	481.06
398.371	462.06
398.595	475.06
398.82	480.06
399.044	484.06
399.268	529.06
399.492	546.06
399.717	582.06
399.941	597.06
400.165	601.06
400.389	581.06
400.613	554.06
400.837	520.06
401.062	498.06
401.286	486.06
401.51	484.06
401.734	482.06
401.958	475.06
402.182	485.06
402.406	482.06
402.63	500.06
402.854	493.06
403.078	492.06
403.302	489.06
403.526	493.06
403.75	492.06
403.974	490.06
404.198	490.06
404.422	487.06
404.645	491.06
404.869	494.06
405.093	524.06
405.317	556.06
405.541	558.06
405.765	525.06
405.988	521.06
406.212	529.06
406.436	544.06
406.66	513.06
406.883	513.06
407.107	564.06
407.331	580.06
407.555	636.06
407.778	602.06
408.002	568.06
408.226	553.06
408.449	546.06
408.673	513.06
408.896	547.06
409.12	590.06
409.344	526.06
409.567	513.06
409.791	481.06
410.014	480.06
410.238	496.06
410.461	491.06
410.685	474.06
410.908	509.06
411.132	536.06
411.355	530.06
411.578	509.06
411.802	482.06
412.025	489.06
412.249	486.06
412.472	499.06
412.695	569.06
412.919	519.06
413.142	490.06
413.365	468.06
413.589	467.06
413.812	459.06
414.035	463.06
414.258	448.06
414.482	459.06
414.705	454.06
414.928	451.06
415.151	458.06
415.374	458.06
415.597	438.06
415.821	456.06
416.044	452.06
416.267	465.06
416.49	456.06
416.713	466.06
416.936	459.06
417.159	468.06
417.382	457.06
417.605	444.06
417.828	447.06
418.051	477.06
418.274	468.06
418.497	443.06
418.72	493.06
418.943	446.06
419.166	487.06
419.389	485.06
419.611	491.06
419.834	483.06
420.057	494.06
420.28	470.06
420.503	434.06
420.726	473.06
420.948	474.06
421.171	496.06
421.394	521.06
421.617	486.06
421.839	472.06
422.062	467.06
422.285	475.06
422.507	535.06
422.73	547.06
422.953	543.06
423.175	491.06
423.398	487.06
423.621	468.06
423.843	505.06
424.066	487.06
424.288	492.06
424.511	509.06
424.733	557.06
424.956	573.06
425.178	578.06
425.401	561.06
425.623	600.06
425.846	517.06
426.068	457.06
426.291	462.06
426.513	472.06
426.735	480.06
426.958	489.06
427.18	576.06
427.402	672.06
427.625	727.06
427.847	605.06
428.069	545.06
428.292	514.06
428.514	488.06
428.736	437.06
428.958	447.06
429.181	439.06
429.403	444.06
429.625	458.06
429.847	459.06
430.069	516.06
430.292	522.06
430.514	447.06
430.736	462.06
430.958	439.06
431.18	426.06
431.402	432.06
431.624	416.06
431.846	423.06
432.068	434.06
432.29	430.06
432.512	432.06
432.734	413.06
432.956	443.06
433.178	424.06
433.4	436.06
433.622	403.06
433.844	450.06
434.066	432.06
434.287	425.06
434.509	445.06
434.731	453.06
434.953	454.06
435.175	468.06
435.397	470.06
435.618	456.06
435.84	500.06
436.062	558.06
436.284	604.06
436.505	526.06
436.727	480.06
436.949	440.06
437.17	440.06
437.392	444.06
437.614	451.06
437.835	482.06
438.057	535.06
438.278	609.06
438.5	611.06
438.721	652.06
438.943	616.06
439.165	502.06
439.386	473.06
439.608	467.06
439.829	463.06
440.05	480.06
440.272	505.06
440.493	482.06
440.715	455.06
440.936	444.06
441.158	458.06
441.379	454.06
441.6	437.06
441.822	454.06
442.043	504.06
442.264	534.06
442.486	586.06
442.707	506.06
442.928	466.06
443.149	481.06
443.371	493.06
443.592	535.06
443.813	586.06
444.034	638.06
444.255	549.06
444.476	498.06
444.698	506.06
444.919	477.06
445.14	615.06
445.361	548.06
445.582	518.06
445.803	548.06
446.024	613.06
446.245	595.06
446.466	567.06
446.687	485.06
446.908	466.06
447.129	443.06
447.35	413.06
447.571	443.06
447.792	409.06
448.013	421.06
448.234	434.06
448.455	461.06
448.675	557.06
448.896	628.06
449.117	537.06
449.338	532.06
449.559	611.06
449.779	657.06
450	551.06
450.221	452.06
450.442	432.06
450.662	401.06
450.883	417.06
451.104	422.06
451.324	423.06
451.545	402.06
451.766	396.06
451.986	395.06
452.207	404.06
452.428	382.06
452.648	390.06
452.869	382.06
453.089	409.06
453.31	380.06
453.53	382.06
453.751	376.06
453.971	382.06
454.192	395.06
454.412	370.06
454.633	390.06
454.853	371.06
455.073	368.06
455.294	406.06
455.514	459.06
455.734	444.06
455.955	373.06
456.175	379.06
456.395	375.06
456.616	388.06
456.836	392.06
457.056	378.06
457.276	368.06
457.497	387.06
457.717	384.06
457.937	361.06
458.157	374.06
458.377	382.06
458.598	406.06
458.818	422.06
459.038	472.06
459.258	481.06
459.478	434.06
459.698	426.06
459.918	435.06
460.138	413.06
460.358	429.06
460.578	433.06
460.798	432.06
461.018	459.06
461.238	448.06
461.458	431.06
461.678	442.06
461.898	449.06
462.118	465.06
462.338	443.06
462.558	472.06
462.777	470.06
462.997	482.06
463.217	484.06
463.437	516.06
463.657	469.06
463.876	484.06
464.096	497.06
464.316	481.06
464.536	489.06
464.755	485.06
464.975	484.06
465.195	479.06
465.414	515.06
465.634	440.06
465.854	438.06
466.073	425.06
466.293	412.06
466.512	415.06
466.732	392.06
466.951	402.06
467.171	393.06
467.391	410.06
467.61	401.06
467.829	414.06
468.049	408.06
468.268	404.06
468.488	403.06
468.707	379.06
468.927	395.06
469.146	412.06
469.365	384.06
469.585	385.06
469.804	394.06
470.023	412.06
470.243	406.06
470.462	420.06
470.681	437.06
470.901	402.06
471.12	417.06
471.339	398.06
471.558	388.06
471.777	418.06
471.997	411.06
472.216	400.06
472.435	419.06
472.654	406.06
472.873	417.06
473.092	406.06
473.311	412.06
473.53	393.06
473.749	413.06
473.968	447.06
474.187	493.06
474.406	523.06
474.625	446.06
474.844	398.06
475.063	411.06
475.282	392.06
475.501	415.06
475.72	424.06
475.939	410.06
476.158	411.06
476.377	423.06
476.596	412.06
476.814	430.06
477.033	417.06
477.252	414.06
477.471	424.06
477.69	434.06
477.908	438.06
478.127	452.06
478.346	449.06
478.564	469.06
478.783	451.06
479.002	452.06
479.22	451.06
479.439	458.06
479.658	483.06
479.876	500.06
480.095	484.06
480.313	520.06
480.532	485.06
480.751	506.06
480.969	489.06
481.188	526.06
481.406	547.06
481.624	502.06
481.843	490.06
482.061	472.06
482.28	473.06
482.498	463.06
482.717	463.06
482.935	489.06
483.153	470.06
483.372	458.06
483.59	465.06
483.808	468.06
484.027	464.06
484.245	465.06
484.463	454.06
484.681	480.06
484.9	472.06
485.118	477.06
485.336	481.06
485.554	489.06
485.772	485.06
485.99	478.06
486.209	504.06
486.427	486.06
486.645	483.06
486.863	500.06
487.081	485.06
487.299	477.06
487.517	495.06
487.735	506.06
487.953	478.06
488.171	500.06
488.389	476.06
488.607	502.06
488.825	491.06
489.043	504.06
489.261	499.06
489.479	498.06
489.696	485.06
489.914	509.06
490.132	507.06
490.35	506.06
490.568	522.06
490.786	532.06
491.003	526.06
491.221	519.06
491.439	553.06
491.657	553.06
491.874	563.06
492.092	562.06
492.31	527.06
492.527	560.06
492.745	547.06
492.963	561.06
493.18	565.06
493.398	579.06
493.615	558.06
493.833	567.06
494.05	557.06
494.268	572.06
494.485	564.06
494.703	559.06
494.92	565.06
495.138	566.06
495.355	555.06
495.573	576.06
495.79	574.06
496.008	561.06
496.225	589.06
496.442	592.06
496.66	589.06
496.877	586.06
497.094	564.06
497.312	579.06
497.529	601.06
497.746	597.06
497.963	606.06
498.181	655.06
498.398	665.06
498.615	655.06
498.832	666.06
499.049	706.06
499.267	718.06
499.484	724.06
499.701	758.06
499.918	790.06
500.135	844.06
500.352	911.06
500.569	896.06
500.786	905.06
501.003	868.06
501.22	877.06
501.437	805.06
501.654	797.06
501.871	754.06
502.088	721.06
