Data from 1964.PennyLincolnUp.Lamp.En5.5.200Scan.071719.P1._HRD10591_14-05-39-909.txt Node
Date: Thu Jul 18 14:05:39 EDT 2019
User: cochatt
Spectrometer: HR+D1059
Trigger mode: 1
Integration Time (sec): 1.000000E-1
Scans to average: 1
Electric dark correction enabled: true
Nonlinearity correction enabled: false
Boxcar width: 0
XAxis mode: Wavelengths
Number of Pixels in Spectrum: 2048
>>>>>Begin Spectral Data<<<<<
223.165	-8.94
223.4	-8.94
223.635	-8.94
223.869	-16.94
224.104	-5.94
224.338	-12.94
224.573	-27.94
224.808	-8.94
225.042	-14.94
225.277	-9.94
225.511	3.06
225.746	2.06
225.98	7.06
226.215	7.06
226.449	9.06
226.683	23.06
226.918	31.06
227.152	24.06
227.387	27.06
227.621	25.06
227.856	41.06
228.09	41.06
228.324	56.06
228.559	70.06
228.793	67.06
229.027	95.06
229.262	98.06
229.496	113.06
229.73	121.06
229.964	118.06
230.199	129.06
230.433	101.06
230.667	106.06
230.901	89.06
231.136	92.06
231.37	103.06
231.604	109.06
231.838	106.06
232.072	121.06
232.306	111.06
232.541	111.06
232.775	118.06
233.009	106.06
233.243	117.06
233.477	105.06
233.711	104.06
233.945	113.06
234.179	99.06
234.413	106.06
234.647	116.06
234.881	120.06
235.115	127.06
235.349	106.06
235.583	115.06
235.817	116.06
236.051	118.06
236.285	120.06
236.519	125.06
236.753	124.06
236.987	132.06
237.221	165.06
237.455	204.06
237.689	155.06
237.922	132.06
238.156	129.06
238.39	131.06
238.624	113.06
238.858	131.06
239.091	124.06
239.325	128.06
239.559	115.06
239.793	108.06
240.027	124.06
240.26	136.06
240.494	153.06
240.728	136.06
240.961	139.06
241.195	139.06
241.429	124.06
241.662	130.06
241.896	136.06
242.13	139.06
242.363	145.06
242.597	132.06
242.83	148.06
243.064	144.06
243.298	145.06
243.531	136.06
243.765	151.06
243.998	139.06
244.232	145.06
244.465	147.06
244.699	153.06
244.932	137.06
245.166	149.06
245.399	142.06
245.633	136.06
245.866	139.06
246.099	143.06
246.333	156.06
246.566	152.06
246.8	138.06
247.033	159.06
247.266	157.06
247.5	157.06
247.733	160.06
247.966	168.06
248.2	169.06
248.433	167.06
248.666	178.06
248.899	181.06
249.133	194.06
249.366	205.06
249.599	185.06
249.832	176.06
250.066	186.06
250.299	190.06
250.532	198.06
250.765	210.06
250.998	195.06
251.231	216.06
251.465	213.06
251.698	193.06
251.931	209.06
252.164	206.06
252.397	205.06
252.63	197.06
252.863	202.06
253.096	219.06
253.329	228.06
253.562	210.06
253.795	210.06
254.028	205.06
254.261	199.06
254.494	226.06
254.727	255.06
254.96	265.06
255.193	242.06
255.426	230.06
255.659	228.06
255.892	227.06
256.124	249.06
256.357	232.06
256.59	228.06
256.823	213.06
257.056	223.06
257.289	191.06
257.521	210.06
257.754	208.06
257.987	224.06
258.22	230.06
258.452	197.06
258.685	211.06
258.918	232.06
259.151	211.06
259.383	199.06
259.616	223.06
259.849	216.06
260.081	241.06
260.314	254.06
260.547	244.06
260.779	249.06
261.012	248.06
261.244	240.06
261.477	241.06
261.71	230.06
261.942	220.06
262.175	247.06
262.407	230.06
262.64	223.06
262.872	226.06
263.105	233.06
263.337	217.06
263.57	223.06
263.802	213.06
264.035	224.06
264.267	213.06
264.499	205.06
264.732	230.06
264.964	233.06
265.197	221.06
265.429	235.06
265.661	249.06
265.894	229.06
266.126	245.06
266.358	233.06
266.591	244.06
266.823	230.06
267.055	243.06
267.287	239.06
267.52	256.06
267.752	249.06
267.984	236.06
268.216	245.06
268.448	247.06
268.681	259.06
268.913	267.06
269.145	284.06
269.377	264.06
269.609	286.06
269.841	272.06
270.073	285.06
270.306	288.06
270.538	288.06
270.77	323.06
271.002	304.06
271.234	305.06
271.466	307.06
271.698	299.06
271.93	307.06
272.162	304.06
272.394	323.06
272.626	309.06
272.858	295.06
273.09	297.06
273.322	289.06
273.553	268.06
273.785	270.06
274.017	275.06
274.249	268.06
274.481	281.06
274.713	285.06
274.945	286.06
275.176	293.06
275.408	284.06
275.64	277.06
275.872	301.06
276.104	283.06
276.335	277.06
276.567	285.06
276.799	292.06
277.031	331.06
277.262	305.06
277.494	326.06
277.726	307.06
277.957	308.06
278.189	290.06
278.421	283.06
278.652	304.06
278.884	291.06
279.115	287.06
279.347	288.06
279.579	295.06
279.81	296.06
280.042	306.06
280.273	277.06
280.505	274.06
280.736	312.06
280.968	295.06
281.199	298.06
281.431	310.06
281.662	299.06
281.894	292.06
282.125	287.06
282.356	316.06
282.588	300.06
282.819	313.06
283.051	293.06
283.282	291.06
283.513	324.06
283.745	309.06
283.976	301.06
284.207	297.06
284.439	326.06
284.67	307.06
284.901	309.06
285.132	310.06
285.364	293.06
285.595	320.06
285.826	321.06
286.057	312.06
286.288	303.06
286.52	290.06
286.751	319.06
286.982	313.06
287.213	295.06
287.444	317.06
287.675	328.06
287.906	332.06
288.138	337.06
288.369	333.06
288.6	338.06
288.831	331.06
289.062	304.06
289.293	329.06
289.524	320.06
289.755	320.06
289.986	320.06
290.217	339.06
290.448	309.06
290.679	328.06
290.91	320.06
291.141	318.06
291.371	330.06
291.602	326.06
291.833	328.06
292.064	323.06
292.295	325.06
292.526	332.06
292.757	330.06
292.987	329.06
293.218	330.06
293.449	332.06
293.68	345.06
293.91	339.06
294.141	349.06
294.372	309.06
294.603	319.06
294.833	334.06
295.064	334.06
295.295	327.06
295.525	320.06
295.756	325.06
295.987	346.06
296.217	332.06
296.448	343.06
296.679	324.06
296.909	340.06
297.14	333.06
297.37	337.06
297.601	347.06
297.831	327.06
298.062	338.06
298.292	337.06
298.523	333.06
298.753	359.06
298.984	350.06
299.214	342.06
299.445	340.06
299.675	344.06
299.905	320.06
300.136	350.06
300.366	330.06
300.597	359.06
300.827	356.06
301.057	363.06
301.288	359.06
301.518	371.06
301.748	348.06
301.979	362.06
302.209	378.06
302.439	364.06
302.669	358.06
302.9	367.06
303.13	348.06
303.36	372.06
303.59	381.06
303.82	370.06
304.051	358.06
304.281	364.06
304.511	379.06
304.741	363.06
304.971	335.06
305.201	349.06
305.431	353.06
305.661	376.06
305.891	367.06
306.121	369.06
306.352	388.06
306.582	388.06
306.812	362.06
307.042	367.06
307.272	355.06
307.502	372.06
307.731	373.06
307.961	357.06
308.191	383.06
308.421	359.06
308.651	374.06
308.881	370.06
309.111	375.06
309.341	362.06
309.571	377.06
309.8	387.06
310.03	373.06
310.26	396.06
310.49	389.06
310.72	398.06
310.949	403.06
311.179	403.06
311.409	381.06
311.639	402.06
311.868	386.06
312.098	379.06
312.328	415.06
312.557	431.06
312.787	412.06
313.017	403.06
313.246	428.06
313.476	394.06
313.706	407.06
313.935	416.06
314.165	406.06
314.394	408.06
314.624	428.06
314.853	399.06
315.083	417.06
315.312	392.06
315.542	389.06
315.771	414.06
316.001	412.06
316.23	405.06
316.46	405.06
316.689	408.06
316.919	411.06
317.148	425.06
317.377	418.06
317.607	421.06
317.836	410.06
318.065	435.06
318.295	404.06
318.524	415.06
318.753	411.06
318.983	384.06
319.212	389.06
319.441	412.06
319.67	408.06
319.9	401.06
320.129	408.06
320.358	423.06
320.587	405.06
320.816	408.06
321.046	416.06
321.275	428.06
321.504	417.06
321.733	427.06
321.962	430.06
322.191	429.06
322.42	440.06
322.649	454.06
322.878	448.06
323.108	443.06
323.337	451.06
323.566	473.06
323.795	497.06
324.024	547.06
324.253	617.06
324.482	823.06
324.71	1207.06
324.939	1663.06
325.168	1399.06
325.397	759.06
325.626	585.06
325.855	514.06
326.084	506.06
326.313	490.06
326.542	493.06
326.77	547.06
326.999	588.06
327.228	755.06
327.457	1039.06
327.686	1231.06
327.914	836.06
328.143	626.06
328.372	551.06
328.6	515.06
328.829	517.06
329.058	533.06
329.287	513.06
329.515	511.06
329.744	517.06
329.972	497.06
330.201	522.06
330.43	573.06
330.658	563.06
330.887	565.06
331.115	575.06
331.344	511.06
331.572	492.06
331.801	499.06
332.03	491.06
332.258	491.06
332.486	492.06
332.715	486.06
332.943	472.06
333.172	483.06
333.4	486.06
333.629	528.06
333.857	511.06
334.085	527.06
334.314	534.06
334.542	567.06
334.771	584.06
334.999	513.06
335.227	529.06
335.455	481.06
335.684	496.06
335.912	479.06
336.14	479.06
336.369	473.06
336.597	489.06
336.825	493.06
337.053	512.06
337.281	484.06
337.51	444.06
337.738	474.06
337.966	465.06
338.194	468.06
338.422	467.06
338.65	461.06
338.878	468.06
339.106	469.06
339.334	480.06
339.562	446.06
339.79	424.06
340.018	462.06
340.246	427.06
340.474	467.06
340.702	472.06
340.93	466.06
341.158	452.06
341.386	464.06
341.614	474.06
341.842	444.06
342.07	448.06
342.298	432.06
342.526	431.06
342.754	441.06
342.981	460.06
343.209	423.06
343.437	456.06
343.665	451.06
343.893	461.06
344.12	490.06
344.348	467.06
344.576	455.06
344.804	459.06
345.031	455.06
345.259	451.06
345.487	449.06
345.714	447.06
345.942	448.06
346.17	427.06
346.397	419.06
346.625	437.06
346.853	428.06
347.08	439.06
347.308	416.06
347.535	441.06
347.763	435.06
347.99	421.06
348.218	424.06
348.445	451.06
348.673	426.06
348.9	431.06
349.128	440.06
349.355	421.06
349.583	405.06
349.81	413.06
350.037	426.06
350.265	410.06
350.492	411.06
350.72	430.06
350.947	405.06
351.174	443.06
351.402	436.06
351.629	424.06
351.856	425.06
352.083	434.06
352.311	431.06
352.538	439.06
352.765	436.06
352.992	409.06
353.22	426.06
353.447	431.06
353.674	415.06
353.901	409.06
354.128	387.06
354.355	423.06
354.583	403.06
354.81	402.06
355.037	417.06
355.264	388.06
355.491	389.06
355.718	389.06
355.945	394.06
356.172	388.06
356.399	408.06
356.626	405.06
356.853	395.06
357.08	403.06
357.307	410.06
357.534	377.06
357.761	398.06
357.988	390.06
358.215	390.06
358.441	396.06
358.668	398.06
358.895	421.06
359.122	397.06
359.349	397.06
359.576	406.06
359.802	433.06
360.029	416.06
360.256	431.06
360.483	434.06
360.709	415.06
360.936	416.06
361.163	415.06
361.39	387.06
361.616	410.06
361.843	414.06
362.07	419.06
362.296	388.06
362.523	421.06
362.749	413.06
362.976	427.06
363.203	415.06
363.429	427.06
363.656	420.06
363.882	403.06
364.109	405.06
364.335	394.06
364.562	394.06
364.788	413.06
365.015	386.06
365.241	372.06
365.468	415.06
365.694	413.06
365.92	397.06
366.147	416.06
366.373	409.06
366.599	389.06
366.826	392.06
367.052	391.06
367.278	391.06
367.505	385.06
367.731	421.06
367.957	401.06
368.184	406.06
368.41	382.06
368.636	394.06
368.862	410.06
369.089	397.06
369.315	388.06
369.541	407.06
369.767	403.06
369.993	387.06
370.219	406.06
370.445	388.06
370.672	397.06
370.898	385.06
371.124	385.06
371.35	402.06
371.576	385.06
371.802	403.06
372.028	386.06
372.254	394.06
372.48	385.06
372.706	391.06
372.932	396.06
373.158	411.06
373.384	435.06
373.61	420.06
373.835	399.06
374.061	407.06
374.287	392.06
374.513	402.06
374.739	403.06
374.965	403.06
375.191	412.06
375.416	406.06
375.642	410.06
375.868	419.06
376.094	375.06
376.319	393.06
376.545	402.06
376.771	390.06
376.997	389.06
377.222	383.06
377.448	394.06
377.674	397.06
377.899	403.06
378.125	394.06
378.35	379.06
378.576	407.06
378.802	392.06
379.027	381.06
379.253	399.06
379.478	381.06
379.704	383.06
379.929	415.06
380.155	405.06
380.38	385.06
380.606	401.06
380.831	405.06
381.057	390.06
381.282	401.06
381.507	400.06
381.733	417.06
381.958	404.06
382.184	407.06
382.409	419.06
382.634	405.06
382.86	390.06
383.085	409.06
383.31	423.06
383.535	405.06
383.761	409.06
383.986	395.06
384.211	416.06
384.436	421.06
384.662	426.06
384.887	402.06
385.112	425.06
385.337	439.06
385.562	424.06
385.787	414.06
386.013	419.06
386.238	439.06
386.463	433.06
386.688	443.06
386.913	445.06
387.138	411.06
387.363	432.06
387.588	423.06
387.813	413.06
388.038	416.06
388.263	445.06
388.488	429.06
388.713	424.06
388.938	443.06
389.163	452.06
389.387	435.06
389.612	405.06
389.837	415.06
390.062	425.06
390.287	431.06
390.512	421.06
390.736	419.06
390.961	420.06
391.186	441.06
391.411	423.06
391.636	442.06
391.86	455.06
392.085	435.06
392.31	460.06
392.534	443.06
392.759	447.06
392.984	429.06
393.208	436.06
393.433	446.06
393.658	425.06
393.882	434.06
394.107	441.06
394.331	425.06
394.556	452.06
394.78	437.06
395.005	440.06
395.229	427.06
395.454	450.06
395.678	470.06
395.903	443.06
396.127	465.06
396.352	479.06
396.576	468.06
396.801	447.06
397.025	464.06
397.249	463.06
397.474	440.06
397.698	459.06
397.922	464.06
398.147	471.06
398.371	498.06
398.595	482.06
398.82	484.06
399.044	513.06
399.268	551.06
399.492	564.06
399.717	600.06
399.941	603.06
400.165	607.06
400.389	579.06
400.613	533.06
400.837	533.06
401.062	484.06
401.286	466.06
401.51	485.06
401.734	483.06
401.958	501.06
402.182	496.06
402.406	515.06
402.63	495.06
402.854	492.06
403.078	507.06
403.302	485.06
403.526	509.06
403.75	514.06
403.974	509.06
404.198	496.06
404.422	524.06
404.645	509.06
404.869	526.06
405.093	525.06
405.317	582.06
405.541	594.06
405.765	528.06
405.988	521.06
406.212	517.06
406.436	527.06
406.66	537.06
406.883	548.06
407.107	562.06
407.331	602.06
407.555	636.06
407.778	652.06
408.002	611.06
408.226	534.06
408.449	545.06
408.673	537.06
408.896	559.06
409.12	595.06
409.344	551.06
409.567	511.06
409.791	515.06
410.014	504.06
410.238	497.06
410.461	512.06
410.685	530.06
410.908	511.06
411.132	533.06
411.355	567.06
411.578	540.06
411.802	521.06
412.025	490.06
412.249	523.06
412.472	528.06
412.695	544.06
412.919	554.06
413.142	488.06
413.365	494.06
413.589	465.06
413.812	471.06
414.035	484.06
414.258	458.06
414.482	464.06
414.705	457.06
414.928	485.06
415.151	482.06
415.374	453.06
415.597	470.06
415.821	461.06
416.044	471.06
416.267	479.06
416.49	459.06
416.713	453.06
416.936	473.06
417.159	452.06
417.382	481.06
417.605	470.06
417.828	464.06
418.051	484.06
418.274	468.06
418.497	454.06
418.72	449.06
418.943	469.06
419.166	479.06
419.389	485.06
419.611	497.06
419.834	488.06
420.057	487.06
420.28	480.06
420.503	487.06
420.726	464.06
420.948	485.06
421.171	520.06
421.394	529.06
421.617	496.06
421.839	485.06
422.062	453.06
422.285	513.06
422.507	533.06
422.73	586.06
422.953	536.06
423.175	504.06
423.398	483.06
423.621	503.06
423.843	503.06
424.066	516.06
424.288	489.06
424.511	515.06
424.733	561.06
424.956	582.06
425.178	604.06
425.401	615.06
425.623	607.06
425.846	520.06
426.068	506.06
426.291	513.06
426.513	507.06
426.735	504.06
426.958	539.06
427.18	598.06
427.402	691.06
427.625	739.06
427.847	649.06
428.069	566.06
428.292	515.06
428.514	474.06
428.736	467.06
428.958	462.06
429.181	463.06
429.403	458.06
429.625	470.06
429.847	497.06
430.069	516.06
430.292	529.06
430.514	472.06
430.736	465.06
430.958	447.06
431.18	456.06
431.402	458.06
431.624	434.06
431.846	455.06
432.068	439.06
432.29	459.06
432.512	433.06
432.734	429.06
432.956	457.06
433.178	456.06
433.4	442.06
433.622	435.06
433.844	448.06
434.066	442.06
434.287	465.06
434.509	440.06
434.731	449.06
434.953	469.06
435.175	474.06
435.397	490.06
435.618	486.06
435.84	517.06
436.062	576.06
436.284	643.06
436.505	534.06
436.727	496.06
436.949	461.06
437.17	455.06
437.392	457.06
437.614	472.06
437.835	497.06
438.057	544.06
438.278	633.06
438.5	614.06
438.721	664.06
438.943	649.06
439.165	531.06
439.386	487.06
439.608	497.06
439.829	465.06
440.05	522.06
440.272	543.06
440.493	528.06
440.715	468.06
440.936	455.06
441.158	454.06
441.379	474.06
441.6	469.06
441.822	480.06
442.043	490.06
442.264	571.06
442.486	613.06
442.707	533.06
442.928	488.06
443.149	495.06
443.371	511.06
443.592	547.06
443.813	613.06
444.034	652.06
444.255	549.06
444.476	519.06
444.698	504.06
444.919	496.06
445.14	587.06
445.361	538.06
445.582	516.06
445.803	580.06
446.024	637.06
446.245	649.06
446.466	598.06
446.687	505.06
446.908	496.06
447.129	449.06
447.35	459.06
447.571	456.06
447.792	439.06
448.013	452.06
448.234	466.06
448.455	509.06
448.675	593.06
448.896	664.06
449.117	565.06
449.338	522.06
449.559	599.06
449.779	673.06
450	535.06
450.221	463.06
450.442	423.06
450.662	436.06
450.883	399.06
451.104	429.06
451.324	433.06
451.545	419.06
451.766	415.06
451.986	397.06
452.207	393.06
452.428	410.06
452.648	413.06
452.869	410.06
453.089	396.06
453.31	424.06
453.53	407.06
453.751	418.06
453.971	398.06
454.192	392.06
454.412	393.06
454.633	388.06
454.853	381.06
455.073	389.06
455.294	411.06
455.514	469.06
455.734	442.06
455.955	404.06
456.175	391.06
456.395	400.06
456.616	383.06
456.836	372.06
457.056	385.06
457.276	377.06
457.497	402.06
457.717	388.06
457.937	389.06
458.157	401.06
458.377	407.06
458.598	400.06
458.818	429.06
459.038	489.06
459.258	516.06
459.478	455.06
459.698	445.06
459.918	444.06
460.138	443.06
460.358	435.06
460.578	443.06
460.798	431.06
461.018	447.06
461.238	457.06
461.458	447.06
461.678	468.06
461.898	456.06
462.118	440.06
462.338	469.06
462.558	469.06
462.777	482.06
462.997	507.06
463.217	490.06
463.437	493.06
463.657	497.06
463.876	485.06
464.096	480.06
464.316	497.06
464.536	496.06
464.755	481.06
464.975	492.06
465.195	487.06
465.414	509.06
465.634	456.06
465.854	452.06
466.073	450.06
466.293	424.06
466.512	418.06
466.732	442.06
466.951	419.06
467.171	421.06
467.391	416.06
467.61	414.06
467.829	432.06
468.049	426.06
468.268	403.06
468.488	395.06
468.707	406.06
468.927	409.06
469.146	409.06
469.365	411.06
469.585	382.06
469.804	427.06
470.023	410.06
470.243	412.06
470.462	418.06
470.681	425.06
470.901	445.06
471.12	432.06
471.339	414.06
471.558	416.06
471.777	430.06
471.997	421.06
472.216	411.06
472.435	447.06
472.654	420.06
472.873	430.06
473.092	425.06
473.311	412.06
473.53	420.06
473.749	418.06
473.968	424.06
474.187	537.06
474.406	560.06
474.625	458.06
474.844	423.06
475.063	409.06
475.282	433.06
475.501	411.06
475.72	429.06
475.939	424.06
476.158	431.06
476.377	409.06
476.596	417.06
476.814	439.06
477.033	447.06
477.252	431.06
477.471	455.06
477.69	436.06
477.908	422.06
478.127	453.06
478.346	467.06
478.564	475.06
478.783	471.06
479.002	471.06
479.22	479.06
479.439	491.06
479.658	502.06
479.876	489.06
480.095	495.06
480.313	518.06
480.532	536.06
480.751	500.06
480.969	527.06
481.188	543.06
481.406	540.06
481.624	521.06
481.843	503.06
482.061	484.06
482.28	483.06
482.498	456.06
482.717	481.06
482.935	480.06
483.153	476.06
483.372	487.06
483.59	478.06
483.808	492.06
484.027	470.06
484.245	483.06
484.463	467.06
484.681	515.06
484.9	473.06
485.118	494.06
485.336	492.06
485.554	513.06
485.772	497.06
485.99	490.06
486.209	515.06
486.427	490.06
486.645	518.06
486.863	514.06
487.081	516.06
487.299	489.06
487.517	505.06
487.735	522.06
487.953	518.06
488.171	516.06
488.389	514.06
488.607	516.06
488.825	541.06
489.043	508.06
489.261	512.06
489.479	514.06
489.696	525.06
489.914	514.06
490.132	513.06
490.35	527.06
490.568	519.06
490.786	533.06
491.003	535.06
491.221	559.06
491.439	573.06
491.657	578.06
491.874	580.06
492.092	570.06
492.31	599.06
492.527	594.06
492.745	602.06
492.963	586.06
493.18	587.06
493.398	603.06
493.615	613.06
493.833	606.06
494.05	584.06
494.268	603.06
494.485	586.06
494.703	603.06
494.92	571.06
495.138	587.06
495.355	595.06
495.573	598.06
495.79	599.06
496.008	576.06
496.225	577.06
496.442	598.06
496.66	595.06
496.877	592.06
497.094	623.06
497.312	630.06
497.529	627.06
497.746	617.06
497.963	625.06
498.181	652.06
498.398	675.06
498.615	695.06
498.832	697.06
499.049	708.06
499.267	739.06
499.484	765.06
499.701	756.06
499.918	804.06
500.135	845.06
500.352	920.06
500.569	929.06
500.786	957.06
501.003	903.06
501.22	894.06
501.437	851.06
501.654	817.06
501.871	810.06
502.088	764.06
