Data from 1964.PennyLincolnUp.Lamp.En5.5.200Scan.071719.P1._HRD10591_14-04-49-909.txt Node
Date: Thu Jul 18 14:04:49 EDT 2019
User: cochatt
Spectrometer: HR+D1059
Trigger mode: 1
Integration Time (sec): 1.000000E-1
Scans to average: 1
Electric dark correction enabled: true
Nonlinearity correction enabled: false
Boxcar width: 0
XAxis mode: Wavelengths
Number of Pixels in Spectrum: 2048
>>>>>Begin Spectral Data<<<<<
223.165	-0.25
223.4	-0.25
223.635	-0.25
223.869	-28.25
224.104	-12.25
224.338	-24.25
224.573	-21.25
224.808	-20.25
225.042	-16.25
225.277	-18.25
225.511	0.75
225.746	7.75
225.98	11.75
226.215	13.75
226.449	16.75
226.683	22.75
226.918	24.75
227.152	42.75
227.387	36.75
227.621	43.75
227.856	42.75
228.09	41.75
228.324	38.75
228.559	48.75
228.793	60.75
229.027	81.75
229.262	94.75
229.496	107.75
229.73	112.75
229.964	119.75
230.199	105.75
230.433	111.75
230.667	101.75
230.901	111.75
231.136	104.75
231.37	101.75
231.604	115.75
231.838	111.75
232.072	110.75
232.306	113.75
232.541	112.75
232.775	103.75
233.009	106.75
233.243	99.75
233.477	103.75
233.711	94.75
233.945	122.75
234.179	119.75
234.413	108.75
234.647	116.75
234.881	116.75
235.115	114.75
235.349	100.75
235.583	125.75
235.817	106.75
236.051	123.75
236.285	98.75
236.519	111.75
236.753	104.75
236.987	127.75
237.221	163.75
237.455	205.75
237.689	163.75
237.922	118.75
238.156	119.75
238.39	116.75
238.624	116.75
238.858	116.75
239.091	124.75
239.325	129.75
239.559	119.75
239.793	116.75
240.027	129.75
240.26	132.75
240.494	126.75
240.728	141.75
240.961	137.75
241.195	151.75
241.429	122.75
241.662	145.75
241.896	132.75
242.13	114.75
242.363	128.75
242.597	135.75
242.83	130.75
243.064	130.75
243.298	134.75
243.531	131.75
243.765	140.75
243.998	131.75
244.232	123.75
244.465	134.75
244.699	145.75
244.932	140.75
245.166	141.75
245.399	139.75
245.633	144.75
245.866	132.75
246.099	138.75
246.333	156.75
246.566	144.75
246.8	148.75
247.033	147.75
247.266	150.75
247.5	142.75
247.733	167.75
247.966	157.75
248.2	170.75
248.433	162.75
248.666	162.75
248.899	169.75
249.133	172.75
249.366	162.75
249.599	180.75
249.832	163.75
250.066	166.75
250.299	175.75
250.532	181.75
250.765	178.75
250.998	202.75
251.231	219.75
251.465	205.75
251.698	197.75
251.931	208.75
252.164	172.75
252.397	183.75
252.63	189.75
252.863	194.75
253.096	212.75
253.329	226.75
253.562	185.75
253.795	195.75
254.028	211.75
254.261	211.75
254.494	209.75
254.727	225.75
254.96	221.75
255.193	234.75
255.426	230.75
255.659	207.75
255.892	234.75
256.124	220.75
256.357	245.75
256.59	221.75
256.823	213.75
257.056	208.75
257.289	207.75
257.521	193.75
257.754	197.75
257.987	202.75
258.22	212.75
258.452	196.75
258.685	191.75
258.918	220.75
259.151	208.75
259.383	219.75
259.616	202.75
259.849	215.75
260.081	235.75
260.314	231.75
260.547	231.75
260.779	241.75
261.012	229.75
261.244	218.75
261.477	230.75
261.71	216.75
261.942	212.75
262.175	217.75
262.407	219.75
262.64	197.75
262.872	223.75
263.105	215.75
263.337	212.75
263.57	199.75
263.802	231.75
264.035	215.75
264.267	217.75
264.499	226.75
264.732	217.75
264.964	204.75
265.197	220.75
265.429	197.75
265.661	238.75
265.894	224.75
266.126	216.75
266.358	227.75
266.591	217.75
266.823	235.75
267.055	230.75
267.287	235.75
267.52	223.75
267.752	231.75
267.984	229.75
268.216	237.75
268.448	239.75
268.681	241.75
268.913	253.75
269.145	276.75
269.377	261.75
269.609	260.75
269.841	264.75
270.073	265.75
270.306	274.75
270.538	292.75
270.77	290.75
271.002	296.75
271.234	318.75
271.466	301.75
271.698	285.75
271.93	297.75
272.162	303.75
272.394	309.75
272.626	299.75
272.858	290.75
273.09	289.75
273.322	294.75
273.553	277.75
273.785	282.75
274.017	262.75
274.249	279.75
274.481	261.75
274.713	268.75
274.945	288.75
275.176	285.75
275.408	268.75
275.64	273.75
275.872	263.75
276.104	278.75
276.335	265.75
276.567	284.75
276.799	268.75
277.031	301.75
277.262	322.75
277.494	307.75
277.726	315.75
277.957	299.75
278.189	282.75
278.421	269.75
278.652	283.75
278.884	271.75
279.115	279.75
279.347	280.75
279.579	289.75
279.81	281.75
280.042	278.75
280.273	294.75
280.505	268.75
280.736	278.75
280.968	277.75
281.199	268.75
281.431	283.75
281.662	286.75
281.894	282.75
282.125	294.75
282.356	303.75
282.588	307.75
282.819	304.75
283.051	299.75
283.282	288.75
283.513	288.75
283.745	297.75
283.976	292.75
284.207	295.75
284.439	287.75
284.67	284.75
284.901	305.75
285.132	312.75
285.364	294.75
285.595	294.75
285.826	285.75
286.057	296.75
286.288	299.75
286.52	315.75
286.751	281.75
286.982	311.75
287.213	297.75
287.444	289.75
287.675	324.75
287.906	299.75
288.138	308.75
288.369	324.75
288.6	324.75
288.831	313.75
289.062	297.75
289.293	321.75
289.524	312.75
289.755	290.75
289.986	311.75
290.217	295.75
290.448	303.75
290.679	320.75
290.91	316.75
291.141	315.75
291.371	312.75
291.602	316.75
291.833	306.75
292.064	314.75
292.295	310.75
292.526	316.75
292.757	289.75
292.987	316.75
293.218	319.75
293.449	320.75
293.68	304.75
293.91	289.75
294.141	313.75
294.372	309.75
294.603	309.75
294.833	326.75
295.064	312.75
295.295	305.75
295.525	313.75
295.756	301.75
295.987	311.75
296.217	328.75
296.448	317.75
296.679	302.75
296.909	308.75
297.14	318.75
297.37	328.75
297.601	321.75
297.831	316.75
298.062	329.75
298.292	320.75
298.523	319.75
298.753	340.75
298.984	333.75
299.214	343.75
299.445	319.75
299.675	328.75
299.905	338.75
300.136	317.75
300.366	332.75
300.597	322.75
300.827	349.75
301.057	358.75
301.288	352.75
301.518	339.75
301.748	345.75
301.979	359.75
302.209	353.75
302.439	339.75
302.669	333.75
302.9	337.75
303.13	352.75
303.36	347.75
303.59	348.75
303.82	357.75
304.051	358.75
304.281	351.75
304.511	361.75
304.741	349.75
304.971	343.75
305.201	339.75
305.431	340.75
305.661	349.75
305.891	368.75
306.121	359.75
306.352	360.75
306.582	352.75
306.812	334.75
307.042	347.75
307.272	370.75
307.502	346.75
307.731	336.75
307.961	364.75
308.191	354.75
308.421	354.75
308.651	339.75
308.881	356.75
309.111	354.75
309.341	370.75
309.571	365.75
309.8	373.75
310.03	380.75
310.26	386.75
310.49	371.75
310.72	377.75
310.949	393.75
311.179	398.75
311.409	369.75
311.639	398.75
311.868	387.75
312.098	387.75
312.328	382.75
312.557	407.75
312.787	392.75
313.017	402.75
313.246	389.75
313.476	391.75
313.706	385.75
313.935	393.75
314.165	396.75
314.394	400.75
314.624	399.75
314.853	387.75
315.083	396.75
315.312	387.75
315.542	393.75
315.771	385.75
316.001	386.75
316.23	389.75
316.46	378.75
316.689	400.75
316.919	387.75
317.148	406.75
317.377	406.75
317.607	400.75
317.836	382.75
318.065	391.75
318.295	373.75
318.524	395.75
318.753	377.75
318.983	393.75
319.212	376.75
319.441	404.75
319.67	397.75
319.9	401.75
320.129	387.75
320.358	397.75
320.587	396.75
320.816	399.75
321.046	395.75
321.275	394.75
321.504	401.75
321.733	423.75
321.962	407.75
322.191	419.75
322.42	439.75
322.649	436.75
322.878	432.75
323.108	425.75
323.337	476.75
323.566	443.75
323.795	456.75
324.024	512.75
324.253	568.75
324.482	766.75
324.71	1073.75
324.939	1465.75
325.168	1244.75
325.397	681.75
325.626	538.75
325.855	481.75
326.084	471.75
326.313	451.75
326.542	471.75
326.77	497.75
326.999	555.75
327.228	723.75
327.457	940.75
327.686	1126.75
327.914	793.75
328.143	551.75
328.372	533.75
328.6	527.75
328.829	486.75
329.058	516.75
329.287	511.75
329.515	488.75
329.744	472.75
329.972	467.75
330.201	474.75
330.43	521.75
330.658	501.75
330.887	522.75
331.115	530.75
331.344	486.75
331.572	428.75
331.801	465.75
332.03	471.75
332.258	453.75
332.486	451.75
332.715	463.75
332.943	451.75
333.172	467.75
333.4	476.75
333.629	492.75
333.857	491.75
334.085	488.75
334.314	508.75
334.542	532.75
334.771	527.75
334.999	513.75
335.227	481.75
335.455	484.75
335.684	473.75
335.912	448.75
336.14	467.75
336.369	465.75
336.597	474.75
336.825	465.75
337.053	461.75
337.281	439.75
337.51	447.75
337.738	438.75
337.966	444.75
338.194	442.75
338.422	427.75
338.65	465.75
338.878	464.75
339.106	440.75
339.334	446.75
339.562	435.75
339.79	423.75
340.018	428.75
340.246	411.75
340.474	407.75
340.702	423.75
340.93	433.75
341.158	428.75
341.386	447.75
341.614	428.75
341.842	440.75
342.07	411.75
342.298	428.75
342.526	416.75
342.754	418.75
342.981	421.75
343.209	426.75
343.437	456.75
343.665	420.75
343.893	444.75
344.12	465.75
344.348	457.75
344.576	466.75
344.804	442.75
345.031	447.75
345.259	436.75
345.487	423.75
345.714	422.75
345.942	415.75
346.17	406.75
346.397	407.75
346.625	424.75
346.853	391.75
347.08	417.75
347.308	396.75
347.535	418.75
347.763	410.75
347.99	412.75
348.218	416.75
348.445	435.75
348.673	401.75
348.9	390.75
349.128	427.75
349.355	408.75
349.583	411.75
349.81	418.75
350.037	384.75
350.265	400.75
350.492	389.75
350.72	412.75
350.947	411.75
351.174	422.75
351.402	404.75
351.629	397.75
351.856	395.75
352.083	419.75
352.311	424.75
352.538	411.75
352.765	418.75
352.992	408.75
353.22	396.75
353.447	398.75
353.674	386.75
353.901	386.75
354.128	396.75
354.355	370.75
354.583	379.75
354.81	372.75
355.037	375.75
355.264	388.75
355.491	389.75
355.718	375.75
355.945	374.75
356.172	401.75
356.399	376.75
356.626	395.75
356.853	401.75
357.08	375.75
357.307	394.75
357.534	399.75
357.761	386.75
357.988	388.75
358.215	400.75
358.441	361.75
358.668	369.75
358.895	386.75
359.122	385.75
359.349	406.75
359.576	412.75
359.802	393.75
360.029	425.75
360.256	422.75
360.483	414.75
360.709	402.75
360.936	407.75
361.163	377.75
361.39	383.75
361.616	372.75
361.843	397.75
362.07	401.75
362.296	391.75
362.523	374.75
362.749	402.75
362.976	377.75
363.203	381.75
363.429	397.75
363.656	401.75
363.882	362.75
364.109	372.75
364.335	392.75
364.562	396.75
364.788	372.75
365.015	384.75
365.241	386.75
365.468	367.75
365.694	390.75
365.92	374.75
366.147	370.75
366.373	382.75
366.599	365.75
366.826	377.75
367.052	379.75
367.278	381.75
367.505	370.75
367.731	385.75
367.957	371.75
368.184	376.75
368.41	378.75
368.636	389.75
368.862	381.75
369.089	392.75
369.315	375.75
369.541	384.75
369.767	390.75
369.993	369.75
370.219	388.75
370.445	379.75
370.672	402.75
370.898	377.75
371.124	373.75
371.35	357.75
371.576	392.75
371.802	385.75
372.028	375.75
372.254	387.75
372.48	394.75
372.706	381.75
372.932	406.75
373.158	389.75
373.384	380.75
373.61	385.75
373.835	413.75
374.061	380.75
374.287	410.75
374.513	380.75
374.739	395.75
374.965	399.75
375.191	389.75
375.416	400.75
375.642	384.75
375.868	387.75
376.094	383.75
376.319	401.75
376.545	396.75
376.771	399.75
376.997	376.75
377.222	355.75
377.448	387.75
377.674	391.75
377.899	397.75
378.125	373.75
378.35	391.75
378.576	376.75
378.802	377.75
379.027	375.75
379.253	380.75
379.478	383.75
379.704	364.75
379.929	387.75
380.155	387.75
380.38	384.75
380.606	359.75
380.831	393.75
381.057	376.75
381.282	368.75
381.507	371.75
381.733	368.75
381.958	383.75
382.184	376.75
382.409	373.75
382.634	402.75
382.86	388.75
383.085	403.75
383.31	403.75
383.535	386.75
383.761	396.75
383.986	402.75
384.211	393.75
384.436	397.75
384.662	407.75
384.887	416.75
385.112	392.75
385.337	409.75
385.562	419.75
385.787	417.75
386.013	424.75
386.238	427.75
386.463	414.75
386.688	433.75
386.913	413.75
387.138	435.75
387.363	401.75
387.588	410.75
387.813	427.75
388.038	415.75
388.263	404.75
388.488	404.75
388.713	412.75
388.938	411.75
389.163	418.75
389.387	425.75
389.612	404.75
389.837	394.75
390.062	410.75
390.287	411.75
390.512	422.75
390.736	386.75
390.961	419.75
391.186	397.75
391.411	421.75
391.636	420.75
391.86	426.75
392.085	442.75
392.31	422.75
392.534	413.75
392.759	433.75
392.984	403.75
393.208	437.75
393.433	426.75
393.658	426.75
393.882	410.75
394.107	420.75
394.331	406.75
394.556	427.75
394.78	425.75
395.005	428.75
395.229	434.75
395.454	446.75
395.678	436.75
395.903	443.75
396.127	453.75
396.352	439.75
396.576	441.75
396.801	412.75
397.025	444.75
397.249	424.75
397.474	437.75
397.698	423.75
397.922	442.75
398.147	455.75
398.371	469.75
398.595	458.75
398.82	464.75
399.044	492.75
399.268	504.75
399.492	533.75
399.717	578.75
399.941	568.75
400.165	574.75
400.389	553.75
400.613	511.75
400.837	484.75
401.062	473.75
401.286	483.75
401.51	468.75
401.734	447.75
401.958	465.75
402.182	463.75
402.406	490.75
402.63	459.75
402.854	456.75
403.078	513.75
403.302	497.75
403.526	456.75
403.75	472.75
403.974	487.75
404.198	485.75
404.422	489.75
404.645	488.75
404.869	487.75
405.093	532.75
405.317	554.75
405.541	543.75
405.765	537.75
405.988	518.75
406.212	508.75
406.436	513.75
406.66	519.75
406.883	529.75
407.107	561.75
407.331	564.75
407.555	624.75
407.778	607.75
408.002	546.75
408.226	520.75
408.449	504.75
408.673	535.75
408.896	524.75
409.12	565.75
409.344	539.75
409.567	499.75
409.791	499.75
410.014	471.75
410.238	483.75
410.461	504.75
410.685	485.75
410.908	502.75
411.132	523.75
411.355	554.75
411.578	512.75
411.802	468.75
412.025	482.75
412.249	486.75
412.472	491.75
412.695	523.75
412.919	508.75
413.142	461.75
413.365	451.75
413.589	479.75
413.812	457.75
414.035	465.75
414.258	453.75
414.482	468.75
414.705	435.75
414.928	452.75
415.151	435.75
415.374	451.75
415.597	446.75
415.821	437.75
416.044	445.75
416.267	444.75
416.49	450.75
416.713	441.75
416.936	455.75
417.159	453.75
417.382	457.75
417.605	454.75
417.828	449.75
418.051	475.75
418.274	448.75
418.497	449.75
418.72	451.75
418.943	455.75
419.166	460.75
419.389	467.75
419.611	475.75
419.834	466.75
420.057	467.75
420.28	470.75
420.503	488.75
420.726	459.75
420.948	470.75
421.171	485.75
421.394	513.75
421.617	467.75
421.839	478.75
422.062	455.75
422.285	447.75
422.507	491.75
422.73	568.75
422.953	543.75
423.175	486.75
423.398	481.75
423.621	454.75
423.843	477.75
424.066	487.75
424.288	491.75
424.511	511.75
424.733	525.75
424.956	592.75
425.178	569.75
425.401	539.75
425.623	582.75
425.846	487.75
426.068	470.75
426.291	495.75
426.513	477.75
426.735	498.75
426.958	493.75
427.18	559.75
427.402	653.75
427.625	705.75
427.847	600.75
428.069	533.75
428.292	504.75
428.514	461.75
428.736	471.75
428.958	437.75
429.181	467.75
429.403	470.75
429.625	448.75
429.847	459.75
430.069	513.75
430.292	492.75
430.514	449.75
430.736	437.75
430.958	428.75
431.18	415.75
431.402	429.75
431.624	400.75
431.846	408.75
432.068	424.75
432.29	411.75
432.512	419.75
432.734	431.75
432.956	403.75
433.178	425.75
433.4	438.75
433.622	421.75
433.844	437.75
434.066	428.75
434.287	427.75
434.509	426.75
434.731	443.75
434.953	445.75
435.175	457.75
435.397	468.75
435.618	477.75
435.84	522.75
436.062	562.75
436.284	620.75
436.505	520.75
436.727	460.75
436.949	449.75
437.17	433.75
437.392	460.75
437.614	432.75
437.835	460.75
438.057	520.75
438.278	592.75
438.5	600.75
438.721	626.75
438.943	614.75
439.165	524.75
439.386	472.75
439.608	467.75
439.829	464.75
440.05	469.75
440.272	484.75
440.493	472.75
440.715	473.75
440.936	437.75
441.158	460.75
441.379	435.75
441.6	460.75
441.822	456.75
442.043	491.75
442.264	552.75
442.486	577.75
442.707	504.75
442.928	465.75
443.149	472.75
443.371	521.75
443.592	539.75
443.813	611.75
444.034	648.75
444.255	537.75
444.476	494.75
444.698	478.75
444.919	490.75
445.14	608.75
445.361	548.75
445.582	496.75
445.803	547.75
446.024	594.75
446.245	594.75
446.466	539.75
446.687	479.75
446.908	453.75
447.129	443.75
447.35	434.75
447.571	455.75
447.792	403.75
448.013	436.75
448.234	439.75
448.455	462.75
448.675	562.75
448.896	608.75
449.117	548.75
449.338	527.75
449.559	593.75
449.779	678.75
450	529.75
450.221	459.75
450.442	428.75
450.662	419.75
450.883	418.75
451.104	443.75
451.324	423.75
451.545	387.75
451.766	397.75
451.986	386.75
452.207	383.75
452.428	386.75
452.648	374.75
452.869	383.75
453.089	376.75
453.31	393.75
453.53	391.75
453.751	379.75
453.971	388.75
454.192	387.75
454.412	375.75
454.633	358.75
454.853	374.75
455.073	377.75
455.294	397.75
455.514	449.75
455.734	428.75
455.955	381.75
456.175	372.75
456.395	375.75
456.616	355.75
456.836	379.75
457.056	390.75
457.276	344.75
457.497	346.75
457.717	366.75
457.937	372.75
458.157	383.75
458.377	374.75
458.598	380.75
458.818	404.75
459.038	484.75
459.258	480.75
459.478	425.75
459.698	417.75
459.918	413.75
460.138	416.75
460.358	412.75
460.578	441.75
460.798	444.75
461.018	417.75
461.238	437.75
461.458	407.75
461.678	423.75
461.898	418.75
462.118	421.75
462.338	448.75
462.558	435.75
462.777	460.75
462.997	488.75
463.217	484.75
463.437	501.75
463.657	474.75
463.876	460.75
464.096	454.75
464.316	480.75
464.536	478.75
464.755	450.75
464.975	465.75
465.195	480.75
465.414	493.75
465.634	453.75
465.854	440.75
466.073	399.75
466.293	401.75
466.512	406.75
466.732	391.75
466.951	388.75
467.171	387.75
467.391	389.75
467.61	411.75
467.829	382.75
468.049	401.75
468.268	382.75
468.488	405.75
468.707	388.75
468.927	392.75
469.146	393.75
469.365	388.75
469.585	397.75
469.804	406.75
470.023	398.75
470.243	390.75
470.462	420.75
470.681	426.75
470.901	408.75
471.12	394.75
471.339	412.75
471.558	409.75
471.777	401.75
471.997	394.75
472.216	399.75
472.435	406.75
472.654	410.75
472.873	423.75
473.092	403.75
473.311	407.75
473.53	397.75
473.749	401.75
473.968	439.75
474.187	502.75
474.406	528.75
474.625	441.75
474.844	428.75
475.063	417.75
475.282	424.75
475.501	403.75
475.72	395.75
475.939	395.75
476.158	423.75
476.377	428.75
476.596	391.75
476.814	428.75
477.033	443.75
477.252	432.75
477.471	429.75
477.69	418.75
477.908	421.75
478.127	435.75
478.346	458.75
478.564	444.75
478.783	464.75
479.002	469.75
479.22	459.75
479.439	451.75
479.658	476.75
479.876	488.75
480.095	491.75
480.313	503.75
480.532	490.75
480.751	515.75
480.969	499.75
481.188	527.75
481.406	532.75
481.624	487.75
481.843	488.75
482.061	469.75
482.28	483.75
482.498	451.75
482.717	474.75
482.935	450.75
483.153	452.75
483.372	475.75
483.59	461.75
483.808	471.75
484.027	465.75
484.245	478.75
484.463	455.75
484.681	460.75
484.9	458.75
485.118	488.75
485.336	466.75
485.554	471.75
485.772	474.75
485.99	466.75
486.209	487.75
486.427	502.75
486.645	481.75
486.863	491.75
487.081	477.75
487.299	467.75
487.517	491.75
487.735	501.75
487.953	486.75
488.171	495.75
488.389	495.75
488.607	466.75
488.825	509.75
489.043	503.75
489.261	505.75
489.479	507.75
489.696	498.75
489.914	473.75
490.132	484.75
490.35	516.75
490.568	474.75
490.786	513.75
491.003	519.75
491.221	520.75
491.439	541.75
491.657	533.75
491.874	541.75
492.092	547.75
492.31	529.75
492.527	583.75
492.745	562.75
492.963	559.75
493.18	557.75
493.398	561.75
493.615	561.75
493.833	580.75
494.05	571.75
494.268	579.75
494.485	563.75
494.703	542.75
494.92	559.75
495.138	553.75
495.355	556.75
495.573	576.75
495.79	550.75
496.008	562.75
496.225	571.75
496.442	576.75
496.66	587.75
496.877	578.75
497.094	571.75
497.312	589.75
497.529	604.75
497.746	616.75
497.963	598.75
498.181	609.75
498.398	636.75
498.615	654.75
498.832	671.75
499.049	695.75
499.267	710.75
499.484	735.75
499.701	755.75
499.918	799.75
500.135	817.75
500.352	894.75
500.569	874.75
500.786	895.75
501.003	875.75
501.22	869.75
501.437	831.75
501.654	758.75
501.871	741.75
502.088	727.75
