Data from 1964.PennyLincolnUp.Lamp.En5.5.200Scan.071719.P1._HRD10591_14-04-22-909.txt Node
Date: Thu Jul 18 14:04:22 EDT 2019
User: cochatt
Spectrometer: HR+D1059
Trigger mode: 1
Integration Time (sec): 1.000000E-1
Scans to average: 1
Electric dark correction enabled: true
Nonlinearity correction enabled: false
Boxcar width: 0
XAxis mode: Wavelengths
Number of Pixels in Spectrum: 2048
>>>>>Begin Spectral Data<<<<<
223.165	-25.56
223.4	-25.56
223.635	-25.56
223.869	-20.56
224.104	-16.56
224.338	-20.56
224.573	-7.56
224.808	-3.56
225.042	-8.56
225.277	-14.56
225.511	-4.56
225.746	20.44
225.98	2.44
226.215	4.44
226.449	14.44
226.683	20.44
226.918	26.44
227.152	33.44
227.387	37.44
227.621	44.44
227.856	45.44
228.09	43.44
228.324	37.44
228.559	58.44
228.793	55.44
229.027	89.44
229.262	86.44
229.496	103.44
229.73	107.44
229.964	113.44
230.199	107.44
230.433	109.44
230.667	114.44
230.901	102.44
231.136	100.44
231.37	109.44
231.604	113.44
231.838	108.44
232.072	106.44
232.306	102.44
232.541	102.44
232.775	101.44
233.009	109.44
233.243	110.44
233.477	112.44
233.711	102.44
233.945	114.44
234.179	110.44
234.413	114.44
234.647	114.44
234.881	113.44
235.115	116.44
235.349	103.44
235.583	112.44
235.817	114.44
236.051	119.44
236.285	103.44
236.519	111.44
236.753	122.44
236.987	131.44
237.221	148.44
237.455	171.44
237.689	151.44
237.922	142.44
238.156	116.44
238.39	119.44
238.624	134.44
238.858	124.44
239.091	111.44
239.325	113.44
239.559	128.44
239.793	128.44
240.027	134.44
240.26	128.44
240.494	131.44
240.728	145.44
240.961	139.44
241.195	129.44
241.429	146.44
241.662	128.44
241.896	104.44
242.13	120.44
242.363	134.44
242.597	142.44
242.83	134.44
243.064	129.44
243.298	129.44
243.531	147.44
243.765	129.44
243.998	141.44
244.232	141.44
244.465	138.44
244.699	136.44
244.932	148.44
245.166	140.44
245.399	135.44
245.633	142.44
245.866	134.44
246.099	127.44
246.333	134.44
246.566	134.44
246.8	143.44
247.033	161.44
247.266	155.44
247.5	160.44
247.733	156.44
247.966	164.44
248.2	161.44
248.433	174.44
248.666	174.44
248.899	160.44
249.133	181.44
249.366	190.44
249.599	180.44
249.832	187.44
250.066	155.44
250.299	164.44
250.532	178.44
250.765	184.44
250.998	172.44
251.231	204.44
251.465	197.44
251.698	190.44
251.931	180.44
252.164	191.44
252.397	172.44
252.63	184.44
252.863	182.44
253.096	202.44
253.329	206.44
253.562	208.44
253.795	197.44
254.028	192.44
254.261	198.44
254.494	204.44
254.727	226.44
254.96	230.44
255.193	220.44
255.426	214.44
255.659	197.44
255.892	216.44
256.124	230.44
256.357	208.44
256.59	202.44
256.823	208.44
257.056	200.44
257.289	194.44
257.521	197.44
257.754	187.44
257.987	201.44
258.22	197.44
258.452	211.44
258.685	203.44
258.918	193.44
259.151	204.44
259.383	202.44
259.616	219.44
259.849	209.44
260.081	212.44
260.314	234.44
260.547	249.44
260.779	216.44
261.012	221.44
261.244	215.44
261.477	224.44
261.71	221.44
261.942	217.44
262.175	221.44
262.407	209.44
262.64	202.44
262.872	221.44
263.105	198.44
263.337	209.44
263.57	214.44
263.802	208.44
264.035	218.44
264.267	205.44
264.499	206.44
264.732	215.44
264.964	207.44
265.197	213.44
265.429	207.44
265.661	219.44
265.894	209.44
266.126	216.44
266.358	225.44
266.591	205.44
266.823	225.44
267.055	223.44
267.287	218.44
267.52	212.44
267.752	211.44
267.984	224.44
268.216	231.44
268.448	218.44
268.681	231.44
268.913	244.44
269.145	238.44
269.377	270.44
269.609	268.44
269.841	255.44
270.073	246.44
270.306	278.44
270.538	285.44
270.77	286.44
271.002	270.44
271.234	271.44
271.466	291.44
271.698	290.44
271.93	277.44
272.162	298.44
272.394	278.44
272.626	270.44
272.858	249.44
273.09	267.44
273.322	276.44
273.553	249.44
273.785	252.44
274.017	243.44
274.249	260.44
274.481	255.44
274.713	276.44
274.945	267.44
275.176	270.44
275.408	268.44
275.64	272.44
275.872	257.44
276.104	272.44
276.335	257.44
276.567	276.44
276.799	288.44
277.031	286.44
277.262	308.44
277.494	304.44
277.726	273.44
277.957	297.44
278.189	274.44
278.421	276.44
278.652	283.44
278.884	269.44
279.115	268.44
279.347	276.44
279.579	283.44
279.81	280.44
280.042	267.44
280.273	286.44
280.505	274.44
280.736	277.44
280.968	268.44
281.199	272.44
281.431	265.44
281.662	276.44
281.894	288.44
282.125	283.44
282.356	305.44
282.588	288.44
282.819	306.44
283.051	289.44
283.282	296.44
283.513	297.44
283.745	264.44
283.976	293.44
284.207	288.44
284.439	279.44
284.67	298.44
284.901	308.44
285.132	266.44
285.364	284.44
285.595	267.44
285.826	301.44
286.057	295.44
286.288	304.44
286.52	302.44
286.751	295.44
286.982	290.44
287.213	288.44
287.444	289.44
287.675	289.44
287.906	329.44
288.138	304.44
288.369	302.44
288.6	316.44
288.831	301.44
289.062	315.44
289.293	288.44
289.524	304.44
289.755	293.44
289.986	300.44
290.217	293.44
290.448	291.44
290.679	302.44
290.91	291.44
291.141	302.44
291.371	297.44
291.602	314.44
291.833	302.44
292.064	308.44
292.295	299.44
292.526	291.44
292.757	302.44
292.987	314.44
293.218	305.44
293.449	317.44
293.68	305.44
293.91	315.44
294.141	318.44
294.372	299.44
294.603	312.44
294.833	308.44
295.064	316.44
295.295	306.44
295.525	310.44
295.756	294.44
295.987	309.44
296.217	320.44
296.448	323.44
296.679	313.44
296.909	320.44
297.14	321.44
297.37	315.44
297.601	324.44
297.831	312.44
298.062	330.44
298.292	313.44
298.523	316.44
298.753	322.44
298.984	317.44
299.214	323.44
299.445	321.44
299.675	322.44
299.905	322.44
300.136	329.44
300.366	324.44
300.597	317.44
300.827	311.44
301.057	340.44
301.288	329.44
301.518	331.44
301.748	342.44
301.979	345.44
302.209	348.44
302.439	356.44
302.669	344.44
302.9	340.44
303.13	326.44
303.36	337.44
303.59	332.44
303.82	354.44
304.051	325.44
304.281	356.44
304.511	334.44
304.741	333.44
304.971	351.44
305.201	355.44
305.431	329.44
305.661	345.44
305.891	332.44
306.121	349.44
306.352	341.44
306.582	338.44
306.812	354.44
307.042	355.44
307.272	340.44
307.502	339.44
307.731	340.44
307.961	327.44
308.191	333.44
308.421	361.44
308.651	363.44
308.881	348.44
309.111	352.44
309.341	353.44
309.571	363.44
309.8	352.44
310.03	345.44
310.26	361.44
310.49	371.44
310.72	364.44
310.949	387.44
311.179	394.44
311.409	357.44
311.639	354.44
311.868	373.44
312.098	357.44
312.328	371.44
312.557	382.44
312.787	382.44
313.017	381.44
313.246	396.44
313.476	366.44
313.706	378.44
313.935	384.44
314.165	366.44
314.394	388.44
314.624	372.44
314.853	387.44
315.083	376.44
315.312	370.44
315.542	378.44
315.771	371.44
316.001	373.44
316.23	375.44
316.46	352.44
316.689	368.44
316.919	375.44
317.148	391.44
317.377	379.44
317.607	377.44
317.836	379.44
318.065	397.44
318.295	390.44
318.524	374.44
318.753	373.44
318.983	389.44
319.212	389.44
319.441	383.44
319.67	389.44
319.9	379.44
320.129	367.44
320.358	371.44
320.587	377.44
320.816	390.44
321.046	386.44
321.275	390.44
321.504	397.44
321.733	385.44
321.962	392.44
322.191	397.44
322.42	399.44
322.649	420.44
322.878	429.44
323.108	438.44
323.337	411.44
323.566	432.44
323.795	459.44
324.024	480.44
324.253	557.44
324.482	716.44
324.71	1009.44
324.939	1366.44
325.168	1138.44
325.397	654.44
325.626	510.44
325.855	451.44
326.084	458.44
326.313	437.44
326.542	441.44
326.77	476.44
326.999	530.44
327.228	680.44
327.457	936.44
327.686	1043.44
327.914	724.44
328.143	553.44
328.372	502.44
328.6	485.44
328.829	485.44
329.058	498.44
329.287	483.44
329.515	460.44
329.744	464.44
329.972	467.44
330.201	471.44
330.43	478.44
330.658	483.44
330.887	493.44
331.115	488.44
331.344	455.44
331.572	464.44
331.801	443.44
332.03	469.44
332.258	454.44
332.486	448.44
332.715	458.44
332.943	461.44
333.172	450.44
333.4	457.44
333.629	465.44
333.857	482.44
334.085	487.44
334.314	499.44
334.542	496.44
334.771	500.44
334.999	487.44
335.227	474.44
335.455	474.44
335.684	439.44
335.912	454.44
336.14	462.44
336.369	449.44
336.597	438.44
336.825	437.44
337.053	460.44
337.281	440.44
337.51	430.44
337.738	441.44
337.966	455.44
338.194	425.44
338.422	429.44
338.65	434.44
338.878	434.44
339.106	439.44
339.334	441.44
339.562	406.44
339.79	420.44
340.018	426.44
340.246	390.44
340.474	435.44
340.702	435.44
340.93	423.44
341.158	430.44
341.386	427.44
341.614	437.44
341.842	422.44
342.07	398.44
342.298	392.44
342.526	411.44
342.754	399.44
342.981	410.44
343.209	427.44
343.437	421.44
343.665	421.44
343.893	433.44
344.12	442.44
344.348	459.44
344.576	436.44
344.804	429.44
345.031	417.44
345.259	414.44
345.487	424.44
345.714	416.44
345.942	411.44
346.17	413.44
346.397	391.44
346.625	387.44
346.853	383.44
347.08	405.44
347.308	408.44
347.535	388.44
347.763	412.44
347.99	405.44
348.218	421.44
348.445	392.44
348.673	402.44
348.9	385.44
349.128	414.44
349.355	387.44
349.583	392.44
349.81	390.44
350.037	378.44
350.265	381.44
350.492	372.44
350.72	393.44
350.947	385.44
351.174	405.44
351.402	402.44
351.629	385.44
351.856	407.44
352.083	388.44
352.311	396.44
352.538	400.44
352.765	389.44
352.992	394.44
353.22	370.44
353.447	368.44
353.674	387.44
353.901	380.44
354.128	377.44
354.355	389.44
354.583	372.44
354.81	373.44
355.037	381.44
355.264	379.44
355.491	390.44
355.718	354.44
355.945	375.44
356.172	382.44
356.399	391.44
356.626	373.44
356.853	375.44
357.08	360.44
357.307	361.44
357.534	364.44
357.761	362.44
357.988	379.44
358.215	378.44
358.441	360.44
358.668	371.44
358.895	376.44
359.122	402.44
359.349	385.44
359.576	379.44
359.802	388.44
360.029	413.44
360.256	420.44
360.483	417.44
360.709	393.44
360.936	384.44
361.163	373.44
361.39	393.44
361.616	383.44
361.843	368.44
362.07	377.44
362.296	378.44
362.523	385.44
362.749	404.44
362.976	368.44
363.203	372.44
363.429	382.44
363.656	381.44
363.882	382.44
364.109	366.44
364.335	366.44
364.562	367.44
364.788	374.44
365.015	380.44
365.241	377.44
365.468	382.44
365.694	378.44
365.92	364.44
366.147	380.44
366.373	358.44
366.599	358.44
366.826	366.44
367.052	378.44
367.278	370.44
367.505	358.44
367.731	363.44
367.957	372.44
368.184	370.44
368.41	372.44
368.636	376.44
368.862	379.44
369.089	355.44
369.315	359.44
369.541	392.44
369.767	380.44
369.993	378.44
370.219	393.44
370.445	371.44
370.672	397.44
370.898	374.44
371.124	358.44
371.35	402.44
371.576	363.44
371.802	363.44
372.028	382.44
372.254	385.44
372.48	358.44
372.706	392.44
372.932	390.44
373.158	384.44
373.384	372.44
373.61	357.44
373.835	370.44
374.061	376.44
374.287	379.44
374.513	376.44
374.739	376.44
374.965	375.44
375.191	390.44
375.416	394.44
375.642	388.44
375.868	382.44
376.094	366.44
376.319	375.44
376.545	372.44
376.771	363.44
376.997	375.44
377.222	390.44
377.448	365.44
377.674	376.44
377.899	348.44
378.125	362.44
378.35	353.44
378.576	376.44
378.802	370.44
379.027	368.44
379.253	372.44
379.478	379.44
379.704	383.44
379.929	386.44
380.155	355.44
380.38	353.44
380.606	361.44
380.831	373.44
381.057	372.44
381.282	377.44
381.507	378.44
381.733	357.44
381.958	384.44
382.184	369.44
382.409	359.44
382.634	376.44
382.86	396.44
383.085	372.44
383.31	389.44
383.535	392.44
383.761	382.44
383.986	385.44
384.211	398.44
384.436	406.44
384.662	379.44
384.887	393.44
385.112	402.44
385.337	406.44
385.562	386.44
385.787	415.44
386.013	406.44
386.238	397.44
386.463	396.44
386.688	407.44
386.913	404.44
387.138	403.44
387.363	400.44
387.588	391.44
387.813	420.44
388.038	405.44
388.263	410.44
388.488	400.44
388.713	409.44
388.938	408.44
389.163	410.44
389.387	410.44
389.612	387.44
389.837	407.44
390.062	399.44
390.287	412.44
390.512	394.44
390.736	413.44
390.961	421.44
391.186	411.44
391.411	410.44
391.636	404.44
391.86	417.44
392.085	434.44
392.31	417.44
392.534	417.44
392.759	435.44
392.984	436.44
393.208	405.44
393.433	400.44
393.658	406.44
393.882	394.44
394.107	422.44
394.331	398.44
394.556	416.44
394.78	425.44
395.005	410.44
395.229	399.44
395.454	394.44
395.678	416.44
395.903	439.44
396.127	429.44
396.352	441.44
396.576	413.44
396.801	436.44
397.025	388.44
397.249	411.44
397.474	432.44
397.698	400.44
397.922	415.44
398.147	435.44
398.371	436.44
398.595	442.44
398.82	459.44
399.044	473.44
399.268	487.44
399.492	530.44
399.717	558.44
399.941	576.44
400.165	578.44
400.389	566.44
400.613	514.44
400.837	491.44
401.062	489.44
401.286	478.44
401.51	441.44
401.734	448.44
401.958	466.44
402.182	475.44
402.406	472.44
402.63	472.44
402.854	461.44
403.078	469.44
403.302	463.44
403.526	472.44
403.75	484.44
403.974	464.44
404.198	466.44
404.422	471.44
404.645	483.44
404.869	500.44
405.093	512.44
405.317	536.44
405.541	554.44
405.765	496.44
405.988	509.44
406.212	506.44
406.436	499.44
406.66	496.44
406.883	493.44
407.107	532.44
407.331	537.44
407.555	594.44
407.778	599.44
408.002	542.44
408.226	512.44
408.449	490.44
408.673	493.44
408.896	527.44
409.12	532.44
409.344	522.44
409.567	499.44
409.791	456.44
410.014	469.44
410.238	468.44
410.461	461.44
410.685	460.44
410.908	468.44
411.132	490.44
411.355	499.44
411.578	498.44
411.802	457.44
412.025	457.44
412.249	459.44
412.472	484.44
412.695	504.44
412.919	496.44
413.142	486.44
413.365	460.44
413.589	465.44
413.812	456.44
414.035	437.44
414.258	436.44
414.482	426.44
414.705	454.44
414.928	445.44
415.151	447.44
415.374	443.44
415.597	427.44
415.821	437.44
416.044	419.44
416.267	419.44
416.49	430.44
416.713	423.44
416.936	430.44
417.159	419.44
417.382	437.44
417.605	449.44
417.828	449.44
418.051	452.44
418.274	454.44
418.497	442.44
418.72	430.44
418.943	454.44
419.166	462.44
419.389	461.44
419.611	465.44
419.834	467.44
420.057	464.44
420.28	438.44
420.503	440.44
420.726	444.44
420.948	465.44
421.171	474.44
421.394	494.44
421.617	452.44
421.839	454.44
422.062	437.44
422.285	438.44
422.507	485.44
422.73	526.44
422.953	534.44
423.175	478.44
423.398	461.44
423.621	464.44
423.843	463.44
424.066	480.44
424.288	461.44
424.511	471.44
424.733	531.44
424.956	559.44
425.178	553.44
425.401	560.44
425.623	562.44
425.846	495.44
426.068	474.44
426.291	444.44
426.513	464.44
426.735	453.44
426.958	489.44
427.18	556.44
427.402	658.44
427.625	677.44
427.847	570.44
428.069	539.44
428.292	493.44
428.514	467.44
428.736	428.44
428.958	417.44
429.181	432.44
429.403	408.44
429.625	439.44
429.847	451.44
430.069	474.44
430.292	478.44
430.514	436.44
430.736	430.44
430.958	408.44
431.18	428.44
431.402	400.44
431.624	411.44
431.846	412.44
432.068	431.44
432.29	414.44
432.512	416.44
432.734	401.44
432.956	384.44
433.178	419.44
433.4	406.44
433.622	403.44
433.844	404.44
434.066	418.44
434.287	404.44
434.509	419.44
434.731	424.44
434.953	419.44
435.175	440.44
435.397	440.44
435.618	439.44
435.84	474.44
436.062	527.44
436.284	574.44
436.505	486.44
436.727	450.44
436.949	441.44
437.17	415.44
437.392	419.44
437.614	427.44
437.835	429.44
438.057	514.44
438.278	554.44
438.5	581.44
438.721	642.44
438.943	581.44
439.165	512.44
439.386	437.44
439.608	458.44
439.829	435.44
440.05	458.44
440.272	493.44
440.493	445.44
440.715	438.44
440.936	439.44
441.158	431.44
441.379	426.44
441.6	429.44
441.822	450.44
442.043	481.44
442.264	526.44
442.486	562.44
442.707	508.44
442.928	446.44
443.149	457.44
443.371	473.44
443.592	497.44
443.813	584.44
444.034	613.44
444.255	527.44
444.476	476.44
444.698	469.44
444.919	463.44
445.14	567.44
445.361	516.44
445.582	472.44
445.803	521.44
446.024	551.44
446.245	578.44
446.466	524.44
446.687	460.44
446.908	460.44
447.129	413.44
447.35	428.44
447.571	395.44
447.792	385.44
448.013	413.44
448.234	435.44
448.455	456.44
448.675	541.44
448.896	590.44
449.117	511.44
449.338	504.44
449.559	571.44
449.779	634.44
450	520.44
450.221	437.44
450.442	412.44
450.662	399.44
450.883	406.44
451.104	404.44
451.324	386.44
451.545	386.44
451.766	370.44
451.986	385.44
452.207	387.44
452.428	365.44
452.648	364.44
452.869	394.44
453.089	368.44
453.31	377.44
453.53	376.44
453.751	381.44
453.971	355.44
454.192	364.44
454.412	376.44
454.633	366.44
454.853	382.44
455.073	346.44
455.294	408.44
455.514	404.44
455.734	412.44
455.955	364.44
456.175	370.44
456.395	350.44
456.616	361.44
456.836	344.44
457.056	357.44
457.276	364.44
457.497	372.44
457.717	378.44
457.937	364.44
458.157	352.44
458.377	362.44
458.598	388.44
458.818	425.44
459.038	450.44
459.258	473.44
459.478	419.44
459.698	402.44
459.918	421.44
460.138	408.44
460.358	399.44
460.578	393.44
460.798	410.44
461.018	426.44
461.238	405.44
461.458	403.44
461.678	395.44
461.898	415.44
462.118	437.44
462.338	448.44
462.558	441.44
462.777	421.44
462.997	454.44
463.217	470.44
463.437	509.44
463.657	449.44
463.876	466.44
464.096	466.44
464.316	454.44
464.536	454.44
464.755	458.44
464.975	435.44
465.195	459.44
465.414	481.44
465.634	426.44
465.854	433.44
466.073	433.44
466.293	406.44
466.512	390.44
466.732	376.44
466.951	396.44
467.171	378.44
467.391	391.44
467.61	403.44
467.829	401.44
468.049	403.44
468.268	392.44
468.488	370.44
468.707	384.44
468.927	379.44
469.146	401.44
469.365	396.44
469.585	383.44
469.804	398.44
470.023	392.44
470.243	380.44
470.462	416.44
470.681	406.44
470.901	410.44
471.12	397.44
471.339	382.44
471.558	365.44
471.777	403.44
471.997	395.44
472.216	394.44
472.435	408.44
472.654	402.44
472.873	395.44
473.092	378.44
473.311	395.44
473.53	390.44
473.749	385.44
473.968	419.44
474.187	473.44
474.406	483.44
474.625	411.44
474.844	396.44
475.063	416.44
475.282	387.44
475.501	403.44
475.72	395.44
475.939	409.44
476.158	386.44
476.377	398.44
476.596	404.44
476.814	396.44
477.033	402.44
477.252	438.44
477.471	440.44
477.69	411.44
477.908	419.44
478.127	410.44
478.346	442.44
478.564	437.44
478.783	433.44
479.002	448.44
479.22	454.44
479.439	438.44
479.658	457.44
479.876	462.44
480.095	461.44
480.313	477.44
480.532	468.44
480.751	469.44
480.969	465.44
481.188	525.44
481.406	519.44
481.624	498.44
481.843	482.44
482.061	440.44
482.28	463.44
482.498	440.44
482.717	456.44
482.935	463.44
483.153	454.44
483.372	424.44
483.59	430.44
483.808	444.44
484.027	468.44
484.245	466.44
484.463	428.44
484.681	467.44
484.9	464.44
485.118	468.44
485.336	501.44
485.554	468.44
485.772	459.44
485.99	487.44
486.209	466.44
486.427	458.44
486.645	460.44
486.863	470.44
487.081	486.44
487.299	457.44
487.517	457.44
487.735	462.44
487.953	473.44
488.171	476.44
488.389	473.44
488.607	478.44
488.825	464.44
489.043	477.44
489.261	488.44
489.479	480.44
489.696	458.44
489.914	469.44
490.132	488.44
490.35	484.44
490.568	491.44
490.786	490.44
491.003	494.44
491.221	512.44
491.439	505.44
491.657	535.44
491.874	517.44
492.092	520.44
492.31	525.44
492.527	506.44
492.745	540.44
492.963	538.44
493.18	545.44
493.398	531.44
493.615	539.44
493.833	571.44
494.05	532.44
494.268	540.44
494.485	535.44
494.703	554.44
494.92	533.44
495.138	540.44
495.355	546.44
495.573	530.44
495.79	573.44
496.008	553.44
496.225	555.44
496.442	562.44
496.66	544.44
496.877	542.44
497.094	558.44
497.312	584.44
497.529	580.44
497.746	593.44
497.963	579.44
498.181	617.44
498.398	640.44
498.615	636.44
498.832	644.44
499.049	685.44
499.267	689.44
499.484	701.44
499.701	758.44
499.918	798.44
500.135	804.44
500.352	890.44
500.569	886.44
500.786	870.44
501.003	854.44
501.22	823.44
501.437	803.44
501.654	726.44
501.871	706.44
