Data from 1964.PennyLincolnUp.Lamp.En5.5.200Scan.071719.P1._HRD10591_14-04-08-909.txt Node
Date: Thu Jul 18 14:04:08 EDT 2019
User: cochatt
Spectrometer: HR+D1059
Trigger mode: 1
Integration Time (sec): 1.000000E-1
Scans to average: 1
Electric dark correction enabled: true
Nonlinearity correction enabled: false
Boxcar width: 0
XAxis mode: Wavelengths
Number of Pixels in Spectrum: 2048
>>>>>Begin Spectral Data<<<<<
223.165	-4.44
223.4	-4.44
223.635	-4.44
223.869	-7.44
224.104	-18.44
224.338	2.56
224.573	-13.44
224.808	-13.44
225.042	-7.44
225.277	-13.44
225.511	-7.44
225.746	3.56
225.98	-0.44
226.215	9.56
226.449	6.56
226.683	12.56
226.918	9.56
227.152	41.56
227.387	37.56
227.621	37.56
227.856	41.56
228.09	52.56
228.324	43.56
228.559	61.56
228.793	54.56
229.027	82.56
229.262	81.56
229.496	100.56
229.73	117.56
229.964	120.56
230.199	108.56
230.433	109.56
230.667	97.56
230.901	96.56
231.136	103.56
231.37	103.56
231.604	94.56
231.838	106.56
232.072	112.56
232.306	96.56
232.541	92.56
232.775	102.56
233.009	94.56
233.243	117.56
233.477	109.56
233.711	110.56
233.945	105.56
234.179	116.56
234.413	118.56
234.647	123.56
234.881	121.56
235.115	117.56
235.349	108.56
235.583	110.56
235.817	108.56
236.051	110.56
236.285	121.56
236.519	116.56
236.753	122.56
236.987	133.56
237.221	163.56
237.455	182.56
237.689	156.56
237.922	119.56
238.156	122.56
238.39	130.56
238.624	128.56
238.858	129.56
239.091	132.56
239.325	123.56
239.559	123.56
239.793	122.56
240.027	115.56
240.26	118.56
240.494	141.56
240.728	141.56
240.961	139.56
241.195	124.56
241.429	129.56
241.662	144.56
241.896	133.56
242.13	120.56
242.363	132.56
242.597	130.56
242.83	128.56
243.064	124.56
243.298	141.56
243.531	132.56
243.765	126.56
243.998	138.56
244.232	136.56
244.465	143.56
244.699	139.56
244.932	143.56
245.166	140.56
245.399	155.56
245.633	132.56
245.866	152.56
246.099	151.56
246.333	152.56
246.566	133.56
246.8	153.56
247.033	149.56
247.266	140.56
247.5	152.56
247.733	161.56
247.966	156.56
248.2	152.56
248.433	169.56
248.666	161.56
248.899	156.56
249.133	184.56
249.366	194.56
249.599	188.56
249.832	171.56
250.066	181.56
250.299	165.56
250.532	190.56
250.765	200.56
250.998	204.56
251.231	202.56
251.465	199.56
251.698	190.56
251.931	173.56
252.164	190.56
252.397	206.56
252.63	190.56
252.863	208.56
253.096	202.56
253.329	206.56
253.562	213.56
253.795	199.56
254.028	201.56
254.261	193.56
254.494	211.56
254.727	232.56
254.96	221.56
255.193	247.56
255.426	214.56
255.659	233.56
255.892	218.56
256.124	229.56
256.357	230.56
256.59	226.56
256.823	209.56
257.056	218.56
257.289	203.56
257.521	194.56
257.754	194.56
257.987	202.56
258.22	196.56
258.452	194.56
258.685	206.56
258.918	203.56
259.151	212.56
259.383	216.56
259.616	218.56
259.849	241.56
260.081	216.56
260.314	225.56
260.547	233.56
260.779	225.56
261.012	217.56
261.244	228.56
261.477	216.56
261.71	215.56
261.942	224.56
262.175	225.56
262.407	215.56
262.64	218.56
262.872	202.56
263.105	228.56
263.337	212.56
263.57	218.56
263.802	208.56
264.035	217.56
264.267	215.56
264.499	211.56
264.732	216.56
264.964	227.56
265.197	206.56
265.429	202.56
265.661	216.56
265.894	209.56
266.126	221.56
266.358	228.56
266.591	206.56
266.823	213.56
267.055	228.56
267.287	223.56
267.52	226.56
267.752	229.56
267.984	242.56
268.216	229.56
268.448	244.56
268.681	231.56
268.913	247.56
269.145	265.56
269.377	247.56
269.609	265.56
269.841	256.56
270.073	260.56
270.306	281.56
270.538	292.56
270.77	297.56
271.002	279.56
271.234	270.56
271.466	288.56
271.698	309.56
271.93	304.56
272.162	290.56
272.394	286.56
272.626	284.56
272.858	295.56
273.09	273.56
273.322	268.56
273.553	258.56
273.785	252.56
274.017	271.56
274.249	278.56
274.481	271.56
274.713	290.56
274.945	258.56
275.176	284.56
275.408	274.56
275.64	268.56
275.872	295.56
276.104	275.56
276.335	270.56
276.567	270.56
276.799	288.56
277.031	325.56
277.262	312.56
277.494	297.56
277.726	300.56
277.957	292.56
278.189	269.56
278.421	280.56
278.652	267.56
278.884	278.56
279.115	282.56
279.347	270.56
279.579	292.56
279.81	284.56
280.042	284.56
280.273	279.56
280.505	276.56
280.736	276.56
280.968	288.56
281.199	280.56
281.431	271.56
281.662	276.56
281.894	280.56
282.125	285.56
282.356	295.56
282.588	297.56
282.819	315.56
283.051	282.56
283.282	297.56
283.513	301.56
283.745	289.56
283.976	293.56
284.207	291.56
284.439	316.56
284.67	291.56
284.901	300.56
285.132	296.56
285.364	301.56
285.595	300.56
285.826	269.56
286.057	298.56
286.288	296.56
286.52	305.56
286.751	300.56
286.982	310.56
287.213	306.56
287.444	319.56
287.675	296.56
287.906	299.56
288.138	318.56
288.369	316.56
288.6	316.56
288.831	294.56
289.062	302.56
289.293	299.56
289.524	313.56
289.755	296.56
289.986	314.56
290.217	314.56
290.448	322.56
290.679	320.56
290.91	293.56
291.141	282.56
291.371	300.56
291.602	307.56
291.833	301.56
292.064	304.56
292.295	311.56
292.526	300.56
292.757	300.56
292.987	321.56
293.218	306.56
293.449	333.56
293.68	338.56
293.91	340.56
294.141	327.56
294.372	306.56
294.603	317.56
294.833	320.56
295.064	314.56
295.295	316.56
295.525	299.56
295.756	329.56
295.987	329.56
296.217	340.56
296.448	353.56
296.679	338.56
296.909	322.56
297.14	294.56
297.37	318.56
297.601	317.56
297.831	304.56
298.062	323.56
298.292	332.56
298.523	336.56
298.753	319.56
298.984	328.56
299.214	317.56
299.445	335.56
299.675	334.56
299.905	337.56
300.136	334.56
300.366	316.56
300.597	341.56
300.827	335.56
301.057	357.56
301.288	356.56
301.518	345.56
301.748	344.56
301.979	344.56
302.209	359.56
302.439	358.56
302.669	337.56
302.9	332.56
303.13	340.56
303.36	358.56
303.59	340.56
303.82	349.56
304.051	343.56
304.281	349.56
304.511	353.56
304.741	354.56
304.971	341.56
305.201	354.56
305.431	342.56
305.661	370.56
305.891	350.56
306.121	364.56
306.352	365.56
306.582	352.56
306.812	330.56
307.042	354.56
307.272	343.56
307.502	346.56
307.731	355.56
307.961	345.56
308.191	341.56
308.421	340.56
308.651	368.56
308.881	353.56
309.111	356.56
309.341	361.56
309.571	372.56
309.8	386.56
310.03	373.56
310.26	370.56
310.49	378.56
310.72	394.56
310.949	401.56
311.179	390.56
311.409	397.56
311.639	363.56
311.868	379.56
312.098	369.56
312.328	381.56
312.557	390.56
312.787	399.56
313.017	378.56
313.246	397.56
313.476	365.56
313.706	387.56
313.935	396.56
314.165	398.56
314.394	393.56
314.624	378.56
314.853	382.56
315.083	409.56
315.312	383.56
315.542	354.56
315.771	382.56
316.001	384.56
316.23	382.56
316.46	392.56
316.689	398.56
316.919	397.56
317.148	394.56
317.377	406.56
317.607	375.56
317.836	383.56
318.065	376.56
318.295	394.56
318.524	377.56
318.753	374.56
318.983	396.56
319.212	390.56
319.441	395.56
319.67	386.56
319.9	392.56
320.129	391.56
320.358	398.56
320.587	406.56
320.816	372.56
321.046	402.56
321.275	384.56
321.504	407.56
321.733	398.56
321.962	405.56
322.191	402.56
322.42	424.56
322.649	426.56
322.878	425.56
323.108	434.56
323.337	453.56
323.566	452.56
323.795	472.56
324.024	496.56
324.253	540.56
324.482	753.56
324.71	1046.56
324.939	1416.56
325.168	1198.56
325.397	690.56
325.626	524.56
325.855	491.56
326.084	448.56
326.313	452.56
326.542	452.56
326.77	496.56
326.999	547.56
327.228	672.56
327.457	941.56
327.686	1111.56
327.914	776.56
328.143	568.56
328.372	525.56
328.6	478.56
328.829	465.56
329.058	477.56
329.287	490.56
329.515	497.56
329.744	475.56
329.972	483.56
330.201	478.56
330.43	500.56
330.658	498.56
330.887	548.56
331.115	498.56
331.344	456.56
331.572	453.56
331.801	473.56
332.03	466.56
332.258	458.56
332.486	445.56
332.715	448.56
332.943	443.56
333.172	458.56
333.4	492.56
333.629	477.56
333.857	495.56
334.085	478.56
334.314	508.56
334.542	537.56
334.771	507.56
334.999	494.56
335.227	483.56
335.455	476.56
335.684	475.56
335.912	462.56
336.14	464.56
336.369	467.56
336.597	456.56
336.825	448.56
337.053	454.56
337.281	452.56
337.51	450.56
337.738	434.56
337.966	429.56
338.194	448.56
338.422	437.56
338.65	460.56
338.878	459.56
339.106	427.56
339.334	439.56
339.562	426.56
339.79	422.56
340.018	420.56
340.246	434.56
340.474	424.56
340.702	422.56
340.93	439.56
341.158	430.56
341.386	424.56
341.614	437.56
341.842	444.56
342.07	420.56
342.298	418.56
342.526	420.56
342.754	434.56
342.981	420.56
343.209	424.56
343.437	439.56
343.665	440.56
343.893	441.56
344.12	465.56
344.348	469.56
344.576	467.56
344.804	441.56
345.031	426.56
345.259	459.56
345.487	452.56
345.714	442.56
345.942	428.56
346.17	418.56
346.397	425.56
346.625	414.56
346.853	437.56
347.08	393.56
347.308	411.56
347.535	424.56
347.763	421.56
347.99	415.56
348.218	418.56
348.445	409.56
348.673	413.56
348.9	413.56
349.128	414.56
349.355	389.56
349.583	405.56
349.81	417.56
350.037	414.56
350.265	382.56
350.492	397.56
350.72	414.56
350.947	407.56
351.174	414.56
351.402	401.56
351.629	407.56
351.856	426.56
352.083	420.56
352.311	397.56
352.538	416.56
352.765	421.56
352.992	405.56
353.22	395.56
353.447	394.56
353.674	401.56
353.901	401.56
354.128	406.56
354.355	383.56
354.583	375.56
354.81	386.56
355.037	396.56
355.264	387.56
355.491	381.56
355.718	383.56
355.945	395.56
356.172	382.56
356.399	386.56
356.626	399.56
356.853	383.56
357.08	401.56
357.307	398.56
357.534	384.56
357.761	393.56
357.988	386.56
358.215	393.56
358.441	395.56
358.668	388.56
358.895	379.56
359.122	380.56
359.349	394.56
359.576	373.56
359.802	407.56
360.029	412.56
360.256	417.56
360.483	417.56
360.709	416.56
360.936	386.56
361.163	410.56
361.39	385.56
361.616	408.56
361.843	386.56
362.07	399.56
362.296	392.56
362.523	391.56
362.749	386.56
362.976	405.56
363.203	396.56
363.429	374.56
363.656	370.56
363.882	380.56
364.109	374.56
364.335	397.56
364.562	381.56
364.788	387.56
365.015	384.56
365.241	407.56
365.468	384.56
365.694	400.56
365.92	382.56
366.147	361.56
366.373	380.56
366.599	374.56
366.826	403.56
367.052	396.56
367.278	371.56
367.505	405.56
367.731	374.56
367.957	370.56
368.184	381.56
368.41	402.56
368.636	386.56
368.862	413.56
369.089	376.56
369.315	389.56
369.541	373.56
369.767	381.56
369.993	375.56
370.219	395.56
370.445	369.56
370.672	398.56
370.898	376.56
371.124	382.56
371.35	403.56
371.576	390.56
371.802	370.56
372.028	377.56
372.254	395.56
372.48	403.56
372.706	399.56
372.932	385.56
373.158	385.56
373.384	385.56
373.61	374.56
373.835	376.56
374.061	388.56
374.287	404.56
374.513	378.56
374.739	399.56
374.965	387.56
375.191	397.56
375.416	401.56
375.642	381.56
375.868	380.56
376.094	393.56
376.319	383.56
376.545	384.56
376.771	376.56
376.997	376.56
377.222	380.56
377.448	373.56
377.674	376.56
377.899	381.56
378.125	373.56
378.35	370.56
378.576	375.56
378.802	364.56
379.027	390.56
379.253	378.56
379.478	383.56
379.704	393.56
379.929	388.56
380.155	369.56
380.38	387.56
380.606	368.56
380.831	375.56
381.057	393.56
381.282	376.56
381.507	376.56
381.733	385.56
381.958	368.56
382.184	398.56
382.409	384.56
382.634	393.56
382.86	384.56
383.085	370.56
383.31	412.56
383.535	403.56
383.761	409.56
383.986	402.56
384.211	391.56
384.436	375.56
384.662	402.56
384.887	400.56
385.112	388.56
385.337	394.56
385.562	411.56
385.787	417.56
386.013	428.56
386.238	436.56
386.463	411.56
386.688	402.56
386.913	425.56
387.138	403.56
387.363	399.56
387.588	388.56
387.813	420.56
388.038	405.56
388.263	433.56
388.488	410.56
388.713	404.56
388.938	414.56
389.163	403.56
389.387	415.56
389.612	422.56
389.837	392.56
390.062	399.56
390.287	419.56
390.512	405.56
390.736	397.56
390.961	405.56
391.186	417.56
391.411	443.56
391.636	427.56
391.86	426.56
392.085	442.56
392.31	426.56
392.534	422.56
392.759	410.56
392.984	432.56
393.208	446.56
393.433	424.56
393.658	418.56
393.882	410.56
394.107	414.56
394.331	430.56
394.556	417.56
394.78	429.56
395.005	417.56
395.229	407.56
395.454	437.56
395.678	436.56
395.903	445.56
396.127	444.56
396.352	458.56
396.576	430.56
396.801	421.56
397.025	442.56
397.249	397.56
397.474	430.56
397.698	426.56
397.922	469.56
398.147	454.56
398.371	482.56
398.595	456.56
398.82	478.56
399.044	473.56
399.268	500.56
399.492	542.56
399.717	570.56
399.941	577.56
400.165	590.56
400.389	569.56
400.613	531.56
400.837	515.56
401.062	507.56
401.286	474.56
401.51	463.56
401.734	470.56
401.958	484.56
402.182	474.56
402.406	480.56
402.63	466.56
402.854	481.56
403.078	483.56
403.302	472.56
403.526	475.56
403.75	501.56
403.974	498.56
404.198	483.56
404.422	482.56
404.645	496.56
404.869	484.56
405.093	516.56
405.317	557.56
405.541	560.56
405.765	522.56
405.988	496.56
406.212	511.56
406.436	509.56
406.66	514.56
406.883	515.56
407.107	556.56
407.331	579.56
407.555	609.56
407.778	616.56
408.002	570.56
408.226	530.56
408.449	508.56
408.673	532.56
408.896	539.56
409.12	557.56
409.344	547.56
409.567	493.56
409.791	508.56
410.014	479.56
410.238	496.56
410.461	492.56
410.685	488.56
410.908	478.56
411.132	515.56
411.355	526.56
411.578	505.56
411.802	512.56
412.025	496.56
412.249	474.56
412.472	508.56
412.695	519.56
412.919	536.56
413.142	483.56
413.365	473.56
413.589	437.56
413.812	444.56
414.035	462.56
414.258	420.56
414.482	472.56
414.705	460.56
414.928	441.56
415.151	458.56
415.374	467.56
415.597	460.56
415.821	427.56
416.044	440.56
416.267	437.56
416.49	462.56
416.713	450.56
416.936	434.56
417.159	449.56
417.382	443.56
417.605	441.56
417.828	472.56
418.051	452.56
418.274	456.56
418.497	448.56
418.72	441.56
418.943	444.56
419.166	460.56
419.389	480.56
419.611	489.56
419.834	509.56
420.057	469.56
420.28	467.56
420.503	460.56
420.726	441.56
420.948	480.56
421.171	498.56
421.394	525.56
421.617	461.56
421.839	454.56
422.062	466.56
422.285	465.56
422.507	515.56
422.73	562.56
422.953	546.56
423.175	488.56
423.398	483.56
423.621	483.56
423.843	483.56
424.066	507.56
424.288	482.56
424.511	488.56
424.733	536.56
424.956	587.56
425.178	579.56
425.401	544.56
425.623	585.56
425.846	510.56
426.068	496.56
426.291	472.56
426.513	465.56
426.735	466.56
426.958	494.56
427.18	576.56
427.402	656.56
427.625	692.56
427.847	601.56
428.069	528.56
428.292	483.56
428.514	465.56
428.736	463.56
428.958	442.56
429.181	464.56
429.403	439.56
429.625	448.56
429.847	470.56
430.069	512.56
430.292	516.56
430.514	462.56
430.736	428.56
430.958	434.56
431.18	433.56
431.402	411.56
431.624	423.56
431.846	401.56
432.068	428.56
432.29	434.56
432.512	421.56
432.734	438.56
432.956	440.56
433.178	421.56
433.4	432.56
433.622	432.56
433.844	436.56
434.066	439.56
434.287	424.56
434.509	446.56
434.731	445.56
434.953	442.56
435.175	453.56
435.397	462.56
435.618	459.56
435.84	533.56
436.062	562.56
436.284	584.56
436.505	512.56
436.727	481.56
436.949	444.56
437.17	414.56
437.392	443.56
437.614	429.56
437.835	436.56
438.057	509.56
438.278	575.56
438.5	594.56
438.721	639.56
438.943	602.56
439.165	503.56
439.386	457.56
439.608	476.56
439.829	471.56
440.05	470.56
440.272	489.56
440.493	482.56
440.715	428.56
440.936	445.56
441.158	457.56
441.379	445.56
441.6	434.56
441.822	458.56
442.043	496.56
442.264	545.56
442.486	567.56
442.707	495.56
442.928	495.56
443.149	474.56
443.371	503.56
443.592	518.56
443.813	606.56
444.034	627.56
444.255	533.56
444.476	507.56
444.698	474.56
444.919	492.56
445.14	581.56
445.361	544.56
445.582	504.56
445.803	535.56
446.024	609.56
446.245	603.56
446.466	551.56
446.687	486.56
446.908	442.56
447.129	433.56
447.35	439.56
447.571	409.56
447.792	406.56
448.013	451.56
448.234	453.56
448.455	459.56
448.675	563.56
448.896	605.56
449.117	560.56
449.338	519.56
449.559	600.56
449.779	658.56
450	529.56
450.221	457.56
450.442	406.56
450.662	412.56
450.883	417.56
451.104	410.56
451.324	415.56
451.545	404.56
451.766	401.56
451.986	375.56
452.207	391.56
452.428	393.56
452.648	384.56
452.869	393.56
453.089	384.56
453.31	382.56
453.53	388.56
453.751	388.56
453.971	382.56
454.192	395.56
454.412	386.56
454.633	370.56
454.853	372.56
455.073	380.56
455.294	410.56
455.514	429.56
455.734	430.56
455.955	376.56
456.175	364.56
456.395	380.56
456.616	355.56
456.836	359.56
457.056	375.56
457.276	373.56
457.497	383.56
457.717	349.56
457.937	374.56
458.157	368.56
458.377	390.56
458.598	387.56
458.818	427.56
459.038	481.56
459.258	498.56
459.478	446.56
459.698	416.56
459.918	412.56
460.138	411.56
460.358	425.56
460.578	432.56
460.798	436.56
461.018	417.56
461.238	432.56
461.458	440.56
461.678	440.56
461.898	427.56
462.118	436.56
462.338	447.56
462.558	460.56
462.777	453.56
462.997	498.56
463.217	477.56
463.437	518.56
463.657	461.56
463.876	460.56
464.096	453.56
464.316	459.56
464.536	473.56
464.755	476.56
464.975	487.56
465.195	463.56
465.414	487.56
465.634	448.56
465.854	429.56
466.073	435.56
466.293	402.56
466.512	406.56
466.732	393.56
466.951	395.56
467.171	373.56
467.391	405.56
467.61	416.56
467.829	397.56
468.049	426.56
468.268	392.56
468.488	388.56
468.707	382.56
468.927	405.56
469.146	382.56
469.365	394.56
469.585	374.56
469.804	396.56
470.023	390.56
470.243	405.56
470.462	407.56
470.681	408.56
470.901	412.56
471.12	401.56
471.339	416.56
471.558	398.56
471.777	406.56
471.997	375.56
472.216	399.56
472.435	426.56
472.654	386.56
472.873	386.56
473.092	408.56
473.311	408.56
473.53	412.56
473.749	407.56
473.968	433.56
474.187	490.56
474.406	502.56
474.625	438.56
474.844	408.56
475.063	404.56
475.282	401.56
475.501	392.56
475.72	425.56
475.939	418.56
476.158	399.56
476.377	408.56
476.596	410.56
476.814	423.56
477.033	420.56
477.252	404.56
477.471	411.56
477.69	435.56
477.908	439.56
478.127	460.56
478.346	440.56
478.564	415.56
478.783	448.56
479.002	449.56
479.22	450.56
479.439	481.56
479.658	478.56
479.876	483.56
480.095	487.56
480.313	497.56
480.532	494.56
480.751	496.56
480.969	498.56
481.188	521.56
481.406	541.56
481.624	473.56
481.843	485.56
482.061	472.56
482.28	464.56
482.498	476.56
482.717	457.56
482.935	474.56
483.153	453.56
483.372	462.56
483.59	445.56
483.808	450.56
484.027	461.56
484.245	464.56
484.463	458.56
484.681	479.56
484.9	486.56
485.118	469.56
485.336	488.56
485.554	474.56
485.772	484.56
485.99	478.56
486.209	471.56
486.427	485.56
486.645	467.56
486.863	473.56
487.081	500.56
487.299	481.56
487.517	478.56
487.735	488.56
487.953	501.56
488.171	506.56
488.389	469.56
488.607	496.56
488.825	482.56
489.043	478.56
489.261	497.56
489.479	506.56
489.696	490.56
489.914	510.56
490.132	507.56
490.35	497.56
490.568	482.56
490.786	513.56
491.003	537.56
491.221	530.56
491.439	523.56
491.657	545.56
491.874	558.56
492.092	535.56
492.31	535.56
492.527	544.56
492.745	536.56
492.963	545.56
493.18	563.56
493.398	566.56
493.615	563.56
493.833	577.56
494.05	549.56
494.268	547.56
494.485	570.56
494.703	570.56
494.92	554.56
495.138	563.56
495.355	572.56
495.573	549.56
495.79	566.56
496.008	564.56
496.225	561.56
496.442	578.56
496.66	563.56
496.877	564.56
497.094	580.56
497.312	596.56
497.529	603.56
497.746	608.56
497.963	596.56
498.181	657.56
498.398	629.56
498.615	652.56
498.832	676.56
499.049	693.56
499.267	692.56
499.484	749.56
499.701	756.56
499.918	808.56
500.135	838.56
500.352	877.56
500.569	906.56
500.786	891.56
501.003	858.56
501.22	836.56
501.437	824.56
501.654	765.56
501.871	745.56
502.088	703.56
