Data from 1964.PennyLincolnUp.Lamp.En5.5.200Scan.071719.P1._HRD10591_14-06-39-910.txt Node
Date: Thu Jul 18 14:06:39 EDT 2019
User: cochatt
Spectrometer: HR+D1059
Trigger mode: 1
Integration Time (sec): 1.000000E-1
Scans to average: 1
Electric dark correction enabled: true
Nonlinearity correction enabled: false
Boxcar width: 0
XAxis mode: Wavelengths
Number of Pixels in Spectrum: 2048
>>>>>Begin Spectral Data<<<<<
223.165	-17.19
223.4	-17.19
223.635	-17.19
223.869	-41.19
224.104	-7.19
224.338	-6.19
224.573	-20.19
224.808	-17.19
225.042	-12.19
225.277	-4.19
225.511	-12.19
225.746	-5.19
225.98	14.81
226.215	22.81
226.449	26.81
226.683	19.81
226.918	17.81
227.152	40.81
227.387	51.81
227.621	42.81
227.856	34.81
228.09	49.81
228.324	58.81
228.559	58.81
228.793	74.81
229.027	98.81
229.262	108.81
229.496	99.81
229.73	137.81
229.964	149.81
230.199	116.81
230.433	120.81
230.667	106.81
230.901	124.81
231.136	113.81
231.37	114.81
231.604	116.81
231.838	121.81
232.072	109.81
232.306	115.81
232.541	121.81
232.775	112.81
233.009	136.81
233.243	114.81
233.477	113.81
233.711	123.81
233.945	124.81
234.179	123.81
234.413	114.81
234.647	128.81
234.881	121.81
235.115	111.81
235.349	115.81
235.583	128.81
235.817	120.81
236.051	138.81
236.285	129.81
236.519	135.81
236.753	134.81
236.987	132.81
237.221	179.81
237.455	198.81
237.689	190.81
237.922	135.81
238.156	138.81
238.39	129.81
238.624	133.81
238.858	145.81
239.091	126.81
239.325	142.81
239.559	143.81
239.793	127.81
240.027	128.81
240.26	138.81
240.494	168.81
240.728	159.81
240.961	146.81
241.195	163.81
241.429	167.81
241.662	143.81
241.896	132.81
242.13	148.81
242.363	132.81
242.597	150.81
242.83	169.81
243.064	158.81
243.298	138.81
243.531	144.81
243.765	156.81
243.998	152.81
244.232	146.81
244.465	160.81
244.699	143.81
244.932	152.81
245.166	158.81
245.399	150.81
245.633	169.81
245.866	164.81
246.099	153.81
246.333	169.81
246.566	152.81
246.8	169.81
247.033	164.81
247.266	176.81
247.5	168.81
247.733	187.81
247.966	182.81
248.2	175.81
248.433	170.81
248.666	170.81
248.899	199.81
249.133	213.81
249.366	206.81
249.599	203.81
249.832	185.81
250.066	182.81
250.299	200.81
250.532	216.81
250.765	215.81
250.998	253.81
251.231	244.81
251.465	226.81
251.698	231.81
251.931	225.81
252.164	196.81
252.397	212.81
252.63	224.81
252.863	216.81
253.096	231.81
253.329	235.81
253.562	236.81
253.795	226.81
254.028	239.81
254.261	226.81
254.494	239.81
254.727	270.81
254.96	291.81
255.193	274.81
255.426	244.81
255.659	238.81
255.892	240.81
256.124	246.81
256.357	239.81
256.59	231.81
256.823	246.81
257.056	232.81
257.289	229.81
257.521	221.81
257.754	219.81
257.987	237.81
258.22	232.81
258.452	226.81
258.685	224.81
258.918	232.81
259.151	226.81
259.383	236.81
259.616	248.81
259.849	248.81
260.081	248.81
260.314	257.81
260.547	264.81
260.779	263.81
261.012	244.81
261.244	256.81
261.477	252.81
261.71	252.81
261.942	241.81
262.175	264.81
262.407	264.81
262.64	239.81
262.872	220.81
263.105	223.81
263.337	241.81
263.57	231.81
263.802	231.81
264.035	242.81
264.267	223.81
264.499	233.81
264.732	237.81
264.964	239.81
265.197	226.81
265.429	230.81
265.661	244.81
265.894	246.81
266.126	230.81
266.358	244.81
266.591	250.81
266.823	240.81
267.055	274.81
267.287	267.81
267.52	253.81
267.752	261.81
267.984	243.81
268.216	272.81
268.448	252.81
268.681	270.81
268.913	273.81
269.145	284.81
269.377	299.81
269.609	300.81
269.841	305.81
270.073	310.81
270.306	326.81
270.538	338.81
270.77	332.81
271.002	324.81
271.234	322.81
271.466	332.81
271.698	338.81
271.93	350.81
272.162	351.81
272.394	346.81
272.626	330.81
272.858	317.81
273.09	320.81
273.322	312.81
273.553	296.81
273.785	280.81
274.017	307.81
274.249	308.81
274.481	306.81
274.713	286.81
274.945	303.81
275.176	294.81
275.408	304.81
275.64	318.81
275.872	285.81
276.104	302.81
276.335	301.81
276.567	320.81
276.799	324.81
277.031	330.81
277.262	354.81
277.494	334.81
277.726	328.81
277.957	315.81
278.189	321.81
278.421	319.81
278.652	330.81
278.884	324.81
279.115	310.81
279.347	320.81
279.579	300.81
279.81	321.81
280.042	303.81
280.273	299.81
280.505	308.81
280.736	295.81
280.968	307.81
281.199	316.81
281.431	310.81
281.662	322.81
281.894	327.81
282.125	310.81
282.356	302.81
282.588	325.81
282.819	331.81
283.051	318.81
283.282	307.81
283.513	327.81
283.745	322.81
283.976	330.81
284.207	315.81
284.439	319.81
284.67	331.81
284.901	323.81
285.132	328.81
285.364	310.81
285.595	326.81
285.826	334.81
286.057	339.81
286.288	328.81
286.52	312.81
286.751	333.81
286.982	335.81
287.213	340.81
287.444	331.81
287.675	347.81
287.906	335.81
288.138	349.81
288.369	351.81
288.6	337.81
288.831	345.81
289.062	343.81
289.293	326.81
289.524	342.81
289.755	347.81
289.986	334.81
290.217	346.81
290.448	338.81
290.679	330.81
290.91	348.81
291.141	333.81
291.371	347.81
291.602	349.81
291.833	344.81
292.064	353.81
292.295	334.81
292.526	335.81
292.757	333.81
292.987	341.81
293.218	349.81
293.449	341.81
293.68	348.81
293.91	341.81
294.141	334.81
294.372	349.81
294.603	326.81
294.833	338.81
295.064	333.81
295.295	354.81
295.525	345.81
295.756	330.81
295.987	358.81
296.217	367.81
296.448	380.81
296.679	362.81
296.909	335.81
297.14	328.81
297.37	356.81
297.601	345.81
297.831	358.81
298.062	344.81
298.292	339.81
298.523	346.81
298.753	334.81
298.984	363.81
299.214	378.81
299.445	362.81
299.675	376.81
299.905	364.81
300.136	356.81
300.366	375.81
300.597	358.81
300.827	378.81
301.057	374.81
301.288	380.81
301.518	384.81
301.748	386.81
301.979	379.81
302.209	391.81
302.439	384.81
302.669	388.81
302.9	389.81
303.13	386.81
303.36	378.81
303.59	397.81
303.82	393.81
304.051	394.81
304.281	379.81
304.511	381.81
304.741	381.81
304.971	356.81
305.201	378.81
305.431	395.81
305.661	380.81
305.891	382.81
306.121	370.81
306.352	396.81
306.582	392.81
306.812	377.81
307.042	384.81
307.272	385.81
307.502	374.81
307.731	374.81
307.961	385.81
308.191	376.81
308.421	377.81
308.651	384.81
308.881	394.81
309.111	363.81
309.341	405.81
309.571	406.81
309.8	395.81
310.03	411.81
310.26	410.81
310.49	399.81
310.72	440.81
310.949	448.81
311.179	424.81
311.409	409.81
311.639	425.81
311.868	404.81
312.098	418.81
312.328	435.81
312.557	426.81
312.787	432.81
313.017	436.81
313.246	427.81
313.476	414.81
313.706	420.81
313.935	422.81
314.165	448.81
314.394	447.81
314.624	438.81
314.853	429.81
315.083	423.81
315.312	423.81
315.542	434.81
315.771	431.81
316.001	427.81
316.23	427.81
316.46	414.81
316.689	434.81
316.919	431.81
317.148	419.81
317.377	435.81
317.607	451.81
317.836	435.81
318.065	441.81
318.295	428.81
318.524	434.81
318.753	417.81
318.983	431.81
319.212	439.81
319.441	418.81
319.67	428.81
319.9	447.81
320.129	426.81
320.358	445.81
320.587	447.81
320.816	450.81
321.046	449.81
321.275	428.81
321.504	450.81
321.733	436.81
321.962	475.81
322.191	450.81
322.42	464.81
322.649	474.81
322.878	466.81
323.108	481.81
323.337	499.81
323.566	515.81
323.795	536.81
324.024	575.81
324.253	676.81
324.482	892.81
324.71	1361.81
324.939	1862.81
325.168	1611.81
325.397	855.81
325.626	613.81
325.855	559.81
326.084	523.81
326.313	527.81
326.542	510.81
326.77	579.81
326.999	648.81
327.228	834.81
327.457	1197.81
327.686	1403.81
327.914	944.81
328.143	692.81
328.372	602.81
328.6	598.81
328.829	564.81
329.058	568.81
329.287	596.81
329.515	538.81
329.744	534.81
329.972	538.81
330.201	573.81
330.43	609.81
330.658	608.81
330.887	610.81
331.115	602.81
331.344	530.81
331.572	510.81
331.801	514.81
332.03	537.81
332.258	519.81
332.486	524.81
332.715	496.81
332.943	523.81
333.172	537.81
333.4	509.81
333.629	530.81
333.857	544.81
334.085	575.81
334.314	548.81
334.542	593.81
334.771	579.81
334.999	559.81
335.227	546.81
335.455	528.81
335.684	493.81
335.912	515.81
336.14	503.81
336.369	487.81
336.597	507.81
336.825	505.81
337.053	507.81
337.281	495.81
337.51	491.81
337.738	497.81
337.966	490.81
338.194	475.81
338.422	495.81
338.65	480.81
338.878	486.81
339.106	484.81
339.334	487.81
339.562	484.81
339.79	478.81
340.018	466.81
340.246	471.81
340.474	473.81
340.702	471.81
340.93	476.81
341.158	455.81
341.386	468.81
341.614	466.81
341.842	473.81
342.07	478.81
342.298	460.81
342.526	472.81
342.754	468.81
342.981	469.81
343.209	466.81
343.437	464.81
343.665	468.81
343.893	491.81
344.12	471.81
344.348	492.81
344.576	471.81
344.804	484.81
345.031	484.81
345.259	458.81
345.487	471.81
345.714	472.81
345.942	460.81
346.17	460.81
346.397	465.81
346.625	447.81
346.853	445.81
347.08	451.81
347.308	461.81
347.535	466.81
347.763	450.81
347.99	463.81
348.218	450.81
348.445	456.81
348.673	448.81
348.9	448.81
349.128	453.81
349.355	440.81
349.583	426.81
349.81	439.81
350.037	446.81
350.265	425.81
350.492	429.81
350.72	434.81
350.947	446.81
351.174	448.81
351.402	446.81
351.629	457.81
351.856	454.81
352.083	463.81
352.311	430.81
352.538	427.81
352.765	444.81
352.992	444.81
353.22	430.81
353.447	428.81
353.674	422.81
353.901	438.81
354.128	418.81
354.355	425.81
354.583	413.81
354.81	423.81
355.037	420.81
355.264	417.81
355.491	430.81
355.718	419.81
355.945	434.81
356.172	432.81
356.399	414.81
356.626	403.81
356.853	422.81
357.08	411.81
357.307	405.81
357.534	400.81
357.761	423.81
357.988	439.81
358.215	409.81
358.441	407.81
358.668	423.81
358.895	441.81
359.122	422.81
359.349	425.81
359.576	438.81
359.802	451.81
360.029	456.81
360.256	475.81
360.483	465.81
360.709	439.81
360.936	435.81
361.163	420.81
361.39	434.81
361.616	457.81
361.843	439.81
362.07	443.81
362.296	420.81
362.523	440.81
362.749	415.81
362.976	414.81
363.203	428.81
363.429	405.81
363.656	427.81
363.882	438.81
364.109	424.81
364.335	434.81
364.562	419.81
364.788	430.81
365.015	426.81
365.241	430.81
365.468	428.81
365.694	443.81
365.92	423.81
366.147	418.81
366.373	434.81
366.599	407.81
366.826	402.81
367.052	413.81
367.278	384.81
367.505	403.81
367.731	424.81
367.957	411.81
368.184	410.81
368.41	425.81
368.636	430.81
368.862	431.81
369.089	412.81
369.315	402.81
369.541	399.81
369.767	398.81
369.993	417.81
370.219	418.81
370.445	403.81
370.672	412.81
370.898	396.81
371.124	416.81
371.35	415.81
371.576	420.81
371.802	429.81
372.028	417.81
372.254	430.81
372.48	415.81
372.706	420.81
372.932	408.81
373.158	436.81
373.384	407.81
373.61	408.81
373.835	415.81
374.061	414.81
374.287	430.81
374.513	437.81
374.739	440.81
374.965	429.81
375.191	423.81
375.416	454.81
375.642	412.81
375.868	413.81
376.094	422.81
376.319	406.81
376.545	412.81
376.771	422.81
376.997	411.81
377.222	386.81
377.448	426.81
377.674	432.81
377.899	395.81
378.125	392.81
378.35	383.81
378.576	417.81
378.802	417.81
379.027	399.81
379.253	409.81
379.478	405.81
379.704	408.81
379.929	399.81
380.155	393.81
380.38	431.81
380.606	416.81
380.831	424.81
381.057	410.81
381.282	432.81
381.507	405.81
381.733	418.81
381.958	411.81
382.184	424.81
382.409	406.81
382.634	417.81
382.86	429.81
383.085	419.81
383.31	412.81
383.535	429.81
383.761	429.81
383.986	425.81
384.211	427.81
384.436	429.81
384.662	442.81
384.887	431.81
385.112	440.81
385.337	448.81
385.562	454.81
385.787	458.81
386.013	449.81
386.238	440.81
386.463	459.81
386.688	446.81
386.913	440.81
387.138	457.81
387.363	432.81
387.588	463.81
387.813	467.81
388.038	444.81
388.263	461.81
388.488	467.81
388.713	462.81
388.938	449.81
389.163	434.81
389.387	458.81
389.612	429.81
389.837	450.81
390.062	449.81
390.287	451.81
390.512	424.81
390.736	452.81
390.961	458.81
391.186	464.81
391.411	470.81
391.636	461.81
391.86	464.81
392.085	473.81
392.31	476.81
392.534	439.81
392.759	436.81
392.984	433.81
393.208	446.81
393.433	443.81
393.658	448.81
393.882	444.81
394.107	445.81
394.331	446.81
394.556	437.81
394.78	447.81
395.005	466.81
395.229	450.81
395.454	448.81
395.678	459.81
395.903	477.81
396.127	471.81
396.352	481.81
396.576	476.81
396.801	453.81
397.025	461.81
397.249	454.81
397.474	465.81
397.698	465.81
397.922	477.81
398.147	475.81
398.371	491.81
398.595	507.81
398.82	510.81
399.044	532.81
399.268	543.81
399.492	568.81
399.717	610.81
399.941	617.81
400.165	626.81
400.389	650.81
400.613	557.81
400.837	524.81
401.062	520.81
401.286	557.81
401.51	537.81
401.734	526.81
401.958	511.81
402.182	521.81
402.406	519.81
402.63	509.81
402.854	489.81
403.078	492.81
403.302	533.81
403.526	510.81
403.75	518.81
403.974	527.81
404.198	529.81
404.422	542.81
404.645	529.81
404.869	530.81
405.093	567.81
405.317	593.81
405.541	608.81
405.765	578.81
405.988	548.81
406.212	560.81
406.436	576.81
406.66	564.81
406.883	551.81
407.107	568.81
407.331	617.81
407.555	665.81
407.778	665.81
408.002	594.81
408.226	572.81
408.449	577.81
408.673	562.81
408.896	579.81
409.12	609.81
409.344	564.81
409.567	560.81
409.791	533.81
410.014	524.81
410.238	512.81
410.461	524.81
410.685	530.81
410.908	550.81
411.132	540.81
411.355	576.81
411.578	547.81
411.802	522.81
412.025	502.81
412.249	523.81
412.472	555.81
412.695	579.81
412.919	576.81
413.142	526.81
413.365	522.81
413.589	494.81
413.812	508.81
414.035	512.81
414.258	490.81
414.482	474.81
414.705	477.81
414.928	480.81
415.151	495.81
415.374	493.81
415.597	488.81
415.821	483.81
416.044	482.81
416.267	491.81
416.49	484.81
416.713	467.81
416.936	486.81
417.159	472.81
417.382	488.81
417.605	483.81
417.828	493.81
418.051	498.81
418.274	497.81
418.497	490.81
418.72	487.81
418.943	481.81
419.166	488.81
419.389	528.81
419.611	529.81
419.834	499.81
420.057	506.81
420.28	511.81
420.503	506.81
420.726	535.81
420.948	513.81
421.171	552.81
421.394	590.81
421.617	508.81
421.839	495.81
422.062	504.81
422.285	541.81
422.507	527.81
422.73	603.81
422.953	571.81
423.175	518.81
423.398	504.81
423.621	523.81
423.843	557.81
424.066	567.81
424.288	536.81
424.511	550.81
424.733	601.81
424.956	652.81
425.178	604.81
425.401	608.81
425.623	638.81
425.846	550.81
426.068	541.81
426.291	523.81
426.513	516.81
426.735	519.81
426.958	566.81
427.18	649.81
427.402	718.81
427.625	799.81
427.847	687.81
428.069	622.81
428.292	539.81
428.514	500.81
428.736	502.81
428.958	450.81
429.181	454.81
429.403	468.81
429.625	495.81
429.847	519.81
430.069	560.81
430.292	555.81
430.514	496.81
430.736	484.81
430.958	473.81
431.18	459.81
431.402	475.81
431.624	457.81
431.846	474.81
432.068	455.81
432.29	481.81
432.512	465.81
432.734	486.81
432.956	465.81
433.178	468.81
433.4	485.81
433.622	458.81
433.844	458.81
434.066	463.81
434.287	454.81
434.509	488.81
434.731	484.81
434.953	476.81
435.175	488.81
435.397	526.81
435.618	536.81
435.84	559.81
436.062	654.81
436.284	630.81
436.505	563.81
436.727	520.81
436.949	508.81
437.17	496.81
437.392	486.81
437.614	481.81
437.835	514.81
438.057	567.81
438.278	650.81
438.5	658.81
438.721	756.81
438.943	724.81
439.165	569.81
439.386	550.81
439.608	530.81
439.829	502.81
440.05	537.81
440.272	577.81
440.493	546.81
440.715	508.81
440.936	479.81
441.158	481.81
441.379	484.81
441.6	505.81
441.822	529.81
442.043	559.81
442.264	608.81
442.486	635.81
442.707	562.81
442.928	511.81
443.149	507.81
443.371	538.81
443.592	585.81
443.813	659.81
444.034	688.81
444.255	602.81
444.476	526.81
444.698	540.81
444.919	547.81
445.14	607.81
445.361	556.81
445.582	543.81
445.803	607.81
446.024	667.81
446.245	686.81
446.466	632.81
446.687	537.81
446.908	489.81
447.129	496.81
447.35	482.81
447.571	471.81
447.792	477.81
448.013	460.81
448.234	460.81
448.455	513.81
448.675	613.81
448.896	692.81
449.117	578.81
449.338	572.81
449.559	665.81
449.779	741.81
450	633.81
450.221	520.81
450.442	477.81
450.662	470.81
450.883	449.81
451.104	444.81
451.324	451.81
451.545	442.81
451.766	426.81
451.986	422.81
452.207	398.81
452.428	410.81
452.648	429.81
452.869	430.81
453.089	428.81
453.31	450.81
453.53	427.81
453.751	418.81
453.971	426.81
454.192	431.81
454.412	424.81
454.633	401.81
454.853	401.81
455.073	410.81
455.294	431.81
455.514	499.81
455.734	496.81
455.955	430.81
456.175	414.81
456.395	401.81
456.616	376.81
456.836	389.81
457.056	377.81
457.276	393.81
457.497	382.81
457.717	381.81
457.937	396.81
458.157	395.81
458.377	404.81
458.598	441.81
458.818	472.81
459.038	532.81
459.258	568.81
459.478	479.81
459.698	479.81
459.918	445.81
460.138	467.81
460.358	454.81
460.578	455.81
460.798	474.81
461.018	464.81
461.238	465.81
461.458	478.81
461.678	460.81
461.898	475.81
462.118	482.81
462.338	485.81
462.558	479.81
462.777	488.81
462.997	532.81
463.217	531.81
463.437	543.81
463.657	507.81
463.876	503.81
464.096	515.81
464.316	519.81
464.536	496.81
464.755	496.81
464.975	496.81
465.195	500.81
465.414	544.81
465.634	496.81
465.854	473.81
466.073	452.81
466.293	448.81
466.512	430.81
466.732	420.81
466.951	439.81
467.171	410.81
467.391	440.81
467.61	442.81
467.829	430.81
468.049	454.81
468.268	428.81
468.488	430.81
468.707	419.81
468.927	419.81
469.146	403.81
469.365	424.81
469.585	406.81
469.804	432.81
470.023	428.81
470.243	449.81
470.462	420.81
470.681	440.81
470.901	438.81
471.12	452.81
471.339	460.81
471.558	448.81
471.777	446.81
471.997	423.81
472.216	430.81
472.435	459.81
472.654	439.81
472.873	444.81
473.092	424.81
473.311	426.81
473.53	452.81
473.749	449.81
473.968	473.81
474.187	550.81
474.406	562.81
474.625	469.81
474.844	430.81
475.063	420.81
475.282	449.81
475.501	438.81
475.72	459.81
475.939	443.81
476.158	456.81
476.377	461.81
476.596	435.81
476.814	441.81
477.033	471.81
477.252	459.81
477.471	462.81
477.69	464.81
477.908	480.81
478.127	468.81
478.346	486.81
478.564	490.81
478.783	493.81
479.002	470.81
479.22	497.81
479.439	498.81
479.658	513.81
479.876	507.81
480.095	509.81
480.313	558.81
480.532	547.81
480.751	540.81
480.969	542.81
481.188	567.81
481.406	587.81
481.624	542.81
481.843	544.81
482.061	513.81
482.28	518.81
482.498	486.81
482.717	502.81
482.935	491.81
483.153	495.81
483.372	488.81
483.59	491.81
483.808	482.81
484.027	504.81
484.245	498.81
484.463	509.81
484.681	524.81
484.9	505.81
485.118	495.81
485.336	522.81
485.554	502.81
485.772	498.81
485.99	528.81
486.209	505.81
486.427	520.81
486.645	503.81
486.863	560.81
487.081	542.81
487.299	532.81
487.517	526.81
487.735	548.81
487.953	548.81
488.171	548.81
488.389	530.81
488.607	535.81
488.825	514.81
489.043	542.81
489.261	560.81
489.479	531.81
489.696	540.81
489.914	528.81
490.132	554.81
490.35	551.81
490.568	557.81
490.786	552.81
491.003	574.81
491.221	588.81
491.439	588.81
491.657	570.81
491.874	580.81
492.092	585.81
492.31	619.81
492.527	604.81
492.745	594.81
492.963	599.81
493.18	598.81
493.398	604.81
493.615	620.81
493.833	599.81
494.05	627.81
494.268	631.81
494.485	610.81
494.703	600.81
494.92	632.81
495.138	609.81
495.355	617.81
495.573	615.81
495.79	619.81
496.008	624.81
496.225	632.81
496.442	622.81
496.66	607.81
496.877	611.81
497.094	634.81
497.312	632.81
497.529	657.81
497.746	676.81
497.963	664.81
498.181	709.81
498.398	694.81
498.615	707.81
498.832	721.81
499.049	742.81
499.267	760.81
499.484	781.81
499.701	846.81
499.918	830.81
500.135	883.81
500.352	983.81
500.569	945.81
500.786	970.81
501.003	932.81
501.22	891.81
501.437	865.81
501.654	834.81
501.871	822.81
