Data from 1964.PennyLincolnUp.Lamp.En5.5.200Scan.071719.P1._HRD10591_14-04-09-909.txt Node
Date: Thu Jul 18 14:04:09 EDT 2019
User: cochatt
Spectrometer: HR+D1059
Trigger mode: 1
Integration Time (sec): 1.000000E-1
Scans to average: 1
Electric dark correction enabled: true
Nonlinearity correction enabled: false
Boxcar width: 0
XAxis mode: Wavelengths
Number of Pixels in Spectrum: 2048
>>>>>Begin Spectral Data<<<<<
223.165	-14.69
223.4	-14.69
223.635	-14.69
223.869	-19.69
224.104	-19.69
224.338	-11.69
224.573	-8.69
224.808	-13.69
225.042	0.31
225.277	-13.69
225.511	-0.69
225.746	-5.69
225.98	15.31
226.215	13.31
226.449	18.31
226.683	16.31
226.918	19.31
227.152	25.31
227.387	32.31
227.621	31.31
227.856	45.31
228.09	34.31
228.324	35.31
228.559	48.31
228.793	63.31
229.027	77.31
229.262	96.31
229.496	101.31
229.73	111.31
229.964	107.31
230.199	115.31
230.433	108.31
230.667	117.31
230.901	109.31
231.136	104.31
231.37	99.31
231.604	108.31
231.838	96.31
232.072	80.31
232.306	111.31
232.541	94.31
232.775	112.31
233.009	108.31
233.243	105.31
233.477	98.31
233.711	104.31
233.945	110.31
234.179	110.31
234.413	124.31
234.647	123.31
234.881	115.31
235.115	106.31
235.349	123.31
235.583	99.31
235.817	120.31
236.051	122.31
236.285	117.31
236.519	109.31
236.753	120.31
236.987	142.31
237.221	162.31
237.455	185.31
237.689	147.31
237.922	118.31
238.156	124.31
238.39	107.31
238.624	110.31
238.858	118.31
239.091	116.31
239.325	145.31
239.559	126.31
239.793	119.31
240.027	117.31
240.26	124.31
240.494	139.31
240.728	140.31
240.961	137.31
241.195	128.31
241.429	124.31
241.662	138.31
241.896	131.31
242.13	132.31
242.363	141.31
242.597	142.31
242.83	154.31
243.064	129.31
243.298	142.31
243.531	120.31
243.765	130.31
243.998	133.31
244.232	132.31
244.465	147.31
244.699	149.31
244.932	139.31
245.166	152.31
245.399	138.31
245.633	148.31
245.866	141.31
246.099	152.31
246.333	141.31
246.566	160.31
246.8	150.31
247.033	153.31
247.266	162.31
247.5	156.31
247.733	151.31
247.966	168.31
248.2	164.31
248.433	158.31
248.666	158.31
248.899	179.31
249.133	169.31
249.366	185.31
249.599	189.31
249.832	163.31
250.066	169.31
250.299	180.31
250.532	180.31
250.765	198.31
250.998	188.31
251.231	199.31
251.465	206.31
251.698	183.31
251.931	189.31
252.164	187.31
252.397	195.31
252.63	178.31
252.863	192.31
253.096	194.31
253.329	212.31
253.562	209.31
253.795	200.31
254.028	193.31
254.261	205.31
254.494	209.31
254.727	232.31
254.96	256.31
255.193	246.31
255.426	228.31
255.659	198.31
255.892	216.31
256.124	215.31
256.357	227.31
256.59	209.31
256.823	210.31
257.056	199.31
257.289	200.31
257.521	194.31
257.754	196.31
257.987	197.31
258.22	201.31
258.452	201.31
258.685	215.31
258.918	202.31
259.151	202.31
259.383	207.31
259.616	219.31
259.849	214.31
260.081	228.31
260.314	251.31
260.547	236.31
260.779	234.31
261.012	216.31
261.244	214.31
261.477	228.31
261.71	226.31
261.942	197.31
262.175	220.31
262.407	231.31
262.64	206.31
262.872	214.31
263.105	218.31
263.337	205.31
263.57	200.31
263.802	209.31
264.035	214.31
264.267	214.31
264.499	208.31
264.732	225.31
264.964	216.31
265.197	223.31
265.429	216.31
265.661	209.31
265.894	204.31
266.126	211.31
266.358	201.31
266.591	204.31
266.823	228.31
267.055	224.31
267.287	228.31
267.52	221.31
267.752	248.31
267.984	213.31
268.216	242.31
268.448	241.31
268.681	236.31
268.913	234.31
269.145	262.31
269.377	290.31
269.609	270.31
269.841	260.31
270.073	254.31
270.306	285.31
270.538	290.31
270.77	291.31
271.002	295.31
271.234	285.31
271.466	291.31
271.698	306.31
271.93	304.31
272.162	309.31
272.394	302.31
272.626	281.31
272.858	273.31
273.09	282.31
273.322	284.31
273.553	266.31
273.785	252.31
274.017	274.31
274.249	271.31
274.481	262.31
274.713	268.31
274.945	267.31
275.176	284.31
275.408	260.31
275.64	249.31
275.872	271.31
276.104	284.31
276.335	257.31
276.567	278.31
276.799	290.31
277.031	297.31
277.262	298.31
277.494	307.31
277.726	289.31
277.957	284.31
278.189	273.31
278.421	278.31
278.652	291.31
278.884	270.31
279.115	265.31
279.347	292.31
279.579	276.31
279.81	295.31
280.042	283.31
280.273	275.31
280.505	286.31
280.736	297.31
280.968	278.31
281.199	276.31
281.431	274.31
281.662	261.31
281.894	274.31
282.125	285.31
282.356	288.31
282.588	289.31
282.819	293.31
283.051	298.31
283.282	302.31
283.513	318.31
283.745	297.31
283.976	298.31
284.207	302.31
284.439	305.31
284.67	296.31
284.901	306.31
285.132	311.31
285.364	280.31
285.595	284.31
285.826	292.31
286.057	289.31
286.288	310.31
286.52	292.31
286.751	290.31
286.982	298.31
287.213	313.31
287.444	308.31
287.675	309.31
287.906	316.31
288.138	285.31
288.369	304.31
288.6	312.31
288.831	306.31
289.062	312.31
289.293	321.31
289.524	315.31
289.755	306.31
289.986	307.31
290.217	316.31
290.448	318.31
290.679	314.31
290.91	292.31
291.141	299.31
291.371	301.31
291.602	289.31
291.833	300.31
292.064	299.31
292.295	309.31
292.526	299.31
292.757	298.31
292.987	305.31
293.218	315.31
293.449	319.31
293.68	307.31
293.91	309.31
294.141	310.31
294.372	317.31
294.603	307.31
294.833	312.31
295.064	301.31
295.295	322.31
295.525	322.31
295.756	329.31
295.987	341.31
296.217	336.31
296.448	350.31
296.679	324.31
296.909	342.31
297.14	324.31
297.37	340.31
297.601	324.31
297.831	319.31
298.062	330.31
298.292	339.31
298.523	335.31
298.753	323.31
298.984	326.31
299.214	336.31
299.445	325.31
299.675	330.31
299.905	351.31
300.136	333.31
300.366	336.31
300.597	342.31
300.827	344.31
301.057	350.31
301.288	350.31
301.518	364.31
301.748	352.31
301.979	344.31
302.209	360.31
302.439	342.31
302.669	340.31
302.9	344.31
303.13	340.31
303.36	351.31
303.59	374.31
303.82	374.31
304.051	368.31
304.281	345.31
304.511	339.31
304.741	357.31
304.971	342.31
305.201	363.31
305.431	355.31
305.661	320.31
305.891	346.31
306.121	359.31
306.352	348.31
306.582	372.31
306.812	346.31
307.042	344.31
307.272	367.31
307.502	372.31
307.731	340.31
307.961	360.31
308.191	368.31
308.421	351.31
308.651	365.31
308.881	353.31
309.111	348.31
309.341	339.31
309.571	338.31
309.8	356.31
310.03	383.31
310.26	375.31
310.49	377.31
310.72	373.31
310.949	395.31
311.179	386.31
311.409	380.31
311.639	408.31
311.868	372.31
312.098	366.31
312.328	400.31
312.557	389.31
312.787	374.31
313.017	401.31
313.246	373.31
313.476	364.31
313.706	396.31
313.935	375.31
314.165	398.31
314.394	394.31
314.624	389.31
314.853	393.31
315.083	401.31
315.312	391.31
315.542	412.31
315.771	376.31
316.001	378.31
316.23	407.31
316.46	402.31
316.689	378.31
316.919	396.31
317.148	394.31
317.377	404.31
317.607	389.31
317.836	385.31
318.065	378.31
318.295	409.31
318.524	388.31
318.753	392.31
318.983	379.31
319.212	384.31
319.441	396.31
319.67	375.31
319.9	385.31
320.129	416.31
320.358	384.31
320.587	404.31
320.816	385.31
321.046	396.31
321.275	400.31
321.504	398.31
321.733	412.31
321.962	425.31
322.191	396.31
322.42	399.31
322.649	426.31
322.878	429.31
323.108	421.31
323.337	431.31
323.566	451.31
323.795	458.31
324.024	482.31
324.253	549.31
324.482	727.31
324.71	1046.31
324.939	1477.31
325.168	1237.31
325.397	677.31
325.626	519.31
325.855	491.31
326.084	461.31
326.313	431.31
326.542	451.31
326.77	509.31
326.999	546.31
327.228	696.31
327.457	984.31
327.686	1085.31
327.914	770.31
328.143	584.31
328.372	508.31
328.6	501.31
328.829	491.31
329.058	475.31
329.287	502.31
329.515	513.31
329.744	461.31
329.972	459.31
330.201	480.31
330.43	516.31
330.658	534.31
330.887	524.31
331.115	504.31
331.344	486.31
331.572	447.31
331.801	478.31
332.03	468.31
332.258	461.31
332.486	470.31
332.715	474.31
332.943	460.31
333.172	470.31
333.4	475.31
333.629	469.31
333.857	508.31
334.085	491.31
334.314	520.31
334.542	515.31
334.771	536.31
334.999	494.31
335.227	464.31
335.455	480.31
335.684	464.31
335.912	466.31
336.14	472.31
336.369	469.31
336.597	476.31
336.825	461.31
337.053	469.31
337.281	456.31
337.51	446.31
337.738	438.31
337.966	438.31
338.194	442.31
338.422	429.31
338.65	441.31
338.878	442.31
339.106	460.31
339.334	441.31
339.562	450.31
339.79	427.31
340.018	425.31
340.246	428.31
340.474	443.31
340.702	432.31
340.93	434.31
341.158	422.31
341.386	419.31
341.614	442.31
341.842	440.31
342.07	408.31
342.298	440.31
342.526	407.31
342.754	430.31
342.981	441.31
343.209	445.31
343.437	424.31
343.665	430.31
343.893	453.31
344.12	449.31
344.348	455.31
344.576	460.31
344.804	463.31
345.031	446.31
345.259	438.31
345.487	429.31
345.714	417.31
345.942	429.31
346.17	433.31
346.397	416.31
346.625	397.31
346.853	401.31
347.08	414.31
347.308	410.31
347.535	415.31
347.763	414.31
347.99	424.31
348.218	407.31
348.445	418.31
348.673	418.31
348.9	401.31
349.128	389.31
349.355	394.31
349.583	408.31
349.81	400.31
350.037	385.31
350.265	376.31
350.492	406.31
350.72	412.31
350.947	399.31
351.174	398.31
351.402	395.31
351.629	396.31
351.856	397.31
352.083	385.31
352.311	387.31
352.538	408.31
352.765	400.31
352.992	416.31
353.22	405.31
353.447	394.31
353.674	394.31
353.901	378.31
354.128	379.31
354.355	393.31
354.583	382.31
354.81	405.31
355.037	388.31
355.264	397.31
355.491	365.31
355.718	370.31
355.945	400.31
356.172	376.31
356.399	393.31
356.626	380.31
356.853	395.31
357.08	388.31
357.307	372.31
357.534	366.31
357.761	386.31
357.988	386.31
358.215	386.31
358.441	394.31
358.668	389.31
358.895	377.31
359.122	405.31
359.349	383.31
359.576	381.31
359.802	426.31
360.029	406.31
360.256	416.31
360.483	410.31
360.709	394.31
360.936	396.31
361.163	399.31
361.39	371.31
361.616	399.31
361.843	388.31
362.07	395.31
362.296	398.31
362.523	405.31
362.749	392.31
362.976	398.31
363.203	392.31
363.429	371.31
363.656	386.31
363.882	386.31
364.109	373.31
364.335	384.31
364.562	364.31
364.788	389.31
365.015	372.31
365.241	372.31
365.468	383.31
365.694	385.31
365.92	395.31
366.147	373.31
366.373	365.31
366.599	390.31
366.826	392.31
367.052	376.31
367.278	395.31
367.505	394.31
367.731	373.31
367.957	378.31
368.184	370.31
368.41	370.31
368.636	401.31
368.862	411.31
369.089	388.31
369.315	362.31
369.541	392.31
369.767	379.31
369.993	384.31
370.219	380.31
370.445	388.31
370.672	388.31
370.898	389.31
371.124	388.31
371.35	394.31
371.576	395.31
371.802	374.31
372.028	391.31
372.254	391.31
372.48	421.31
372.706	394.31
372.932	393.31
373.158	386.31
373.384	390.31
373.61	381.31
373.835	390.31
374.061	399.31
374.287	412.31
374.513	418.31
374.739	399.31
374.965	397.31
375.191	396.31
375.416	387.31
375.642	400.31
375.868	402.31
376.094	376.31
376.319	386.31
376.545	381.31
376.771	392.31
376.997	394.31
377.222	396.31
377.448	397.31
377.674	401.31
377.899	360.31
378.125	374.31
378.35	358.31
378.576	378.31
378.802	374.31
379.027	382.31
379.253	381.31
379.478	384.31
379.704	374.31
379.929	379.31
380.155	388.31
380.38	383.31
380.606	383.31
380.831	373.31
381.057	374.31
381.282	360.31
381.507	397.31
381.733	408.31
381.958	374.31
382.184	389.31
382.409	388.31
382.634	386.31
382.86	396.31
383.085	388.31
383.31	404.31
383.535	409.31
383.761	404.31
383.986	388.31
384.211	404.31
384.436	407.31
384.662	411.31
384.887	400.31
385.112	408.31
385.337	412.31
385.562	412.31
385.787	436.31
386.013	424.31
386.238	420.31
386.463	404.31
386.688	419.31
386.913	419.31
387.138	438.31
387.363	404.31
387.588	418.31
387.813	402.31
388.038	406.31
388.263	414.31
388.488	413.31
388.713	426.31
388.938	408.31
389.163	413.31
389.387	408.31
389.612	420.31
389.837	406.31
390.062	415.31
390.287	409.31
390.512	406.31
390.736	434.31
390.961	420.31
391.186	422.31
391.411	433.31
391.636	434.31
391.86	443.31
392.085	450.31
392.31	436.31
392.534	429.31
392.759	440.31
392.984	429.31
393.208	416.31
393.433	416.31
393.658	435.31
393.882	438.31
394.107	421.31
394.331	410.31
394.556	428.31
394.78	416.31
395.005	415.31
395.229	431.31
395.454	429.31
395.678	437.31
395.903	442.31
396.127	465.31
396.352	458.31
396.576	415.31
396.801	418.31
397.025	419.31
397.249	432.31
397.474	430.31
397.698	456.31
397.922	457.31
398.147	438.31
398.371	478.31
398.595	464.31
398.82	450.31
399.044	486.31
399.268	528.31
399.492	548.31
399.717	551.31
399.941	610.31
400.165	598.31
400.389	594.31
400.613	522.31
400.837	510.31
401.062	497.31
401.286	496.31
401.51	485.31
401.734	466.31
401.958	465.31
402.182	469.31
402.406	486.31
402.63	472.31
402.854	472.31
403.078	481.31
403.302	468.31
403.526	468.31
403.75	489.31
403.974	490.31
404.198	486.31
404.422	499.31
404.645	491.31
404.869	498.31
405.093	526.31
405.317	542.31
405.541	572.31
405.765	542.31
405.988	523.31
406.212	508.31
406.436	509.31
406.66	534.31
406.883	497.31
407.107	552.31
407.331	563.31
407.555	600.31
407.778	633.31
408.002	568.31
408.226	530.31
408.449	534.31
408.673	512.31
408.896	518.31
409.12	574.31
409.344	564.31
409.567	490.31
409.791	504.31
410.014	462.31
410.238	476.31
410.461	470.31
410.685	498.31
410.908	498.31
411.132	514.31
411.355	542.31
411.578	514.31
411.802	485.31
412.025	486.31
412.249	489.31
412.472	499.31
412.695	514.31
412.919	532.31
413.142	469.31
413.365	470.31
413.589	467.31
413.812	470.31
414.035	454.31
414.258	466.31
414.482	458.31
414.705	480.31
414.928	459.31
415.151	447.31
415.374	469.31
415.597	457.31
415.821	429.31
416.044	469.31
416.267	446.31
416.49	476.31
416.713	438.31
416.936	442.31
417.159	461.31
417.382	448.31
417.605	453.31
417.828	426.31
418.051	455.31
418.274	452.31
418.497	454.31
418.72	435.31
418.943	453.31
419.166	468.31
419.389	484.31
419.611	504.31
419.834	472.31
420.057	492.31
420.28	463.31
420.503	472.31
420.726	457.31
420.948	493.31
421.171	500.31
421.394	496.31
421.617	472.31
421.839	446.31
422.062	474.31
422.285	475.31
422.507	516.31
422.73	573.31
422.953	545.31
423.175	515.31
423.398	482.31
423.621	489.31
423.843	477.31
424.066	489.31
424.288	477.31
424.511	488.31
424.733	534.31
424.956	554.31
425.178	587.31
425.401	560.31
425.623	574.31
425.846	521.31
426.068	485.31
426.291	462.31
426.513	460.31
426.735	477.31
426.958	506.31
427.18	558.31
427.402	651.31
427.625	692.31
427.847	611.31
428.069	541.31
428.292	522.31
428.514	465.31
428.736	432.31
428.958	444.31
429.181	456.31
429.403	433.31
429.625	449.31
429.847	462.31
430.069	507.31
430.292	485.31
430.514	466.31
430.736	444.31
430.958	433.31
431.18	432.31
431.402	434.31
431.624	443.31
431.846	411.31
432.068	422.31
432.29	420.31
432.512	417.31
432.734	403.31
432.956	426.31
433.178	410.31
433.4	420.31
433.622	421.31
433.844	430.31
434.066	425.31
434.287	426.31
434.509	420.31
434.731	432.31
434.953	422.31
435.175	446.31
435.397	464.31
435.618	460.31
435.84	476.31
436.062	553.31
436.284	610.31
436.505	506.31
436.727	479.31
436.949	428.31
437.17	426.31
437.392	443.31
437.614	445.31
437.835	474.31
438.057	546.31
438.278	608.31
438.5	599.31
438.721	664.31
438.943	619.31
439.165	496.31
439.386	474.31
439.608	453.31
439.829	466.31
440.05	477.31
440.272	499.31
440.493	493.31
440.715	441.31
440.936	452.31
441.158	457.31
441.379	442.31
441.6	426.31
441.822	459.31
442.043	499.31
442.264	549.31
442.486	551.31
442.707	499.31
442.928	483.31
443.149	478.31
443.371	511.31
443.592	548.31
443.813	587.31
444.034	616.31
444.255	534.31
444.476	508.31
444.698	485.31
444.919	485.31
445.14	594.31
445.361	520.31
445.582	508.31
445.803	535.31
446.024	594.31
446.245	597.31
446.466	562.31
446.687	476.31
446.908	458.31
447.129	438.31
447.35	446.31
447.571	436.31
447.792	429.31
448.013	429.31
448.234	443.31
448.455	478.31
448.675	579.31
448.896	606.31
449.117	522.31
449.338	502.31
449.559	586.31
449.779	673.31
450	545.31
450.221	457.31
450.442	413.31
450.662	413.31
450.883	414.31
451.104	404.31
451.324	396.31
451.545	390.31
451.766	396.31
451.986	390.31
452.207	377.31
452.428	386.31
452.648	384.31
452.869	371.31
453.089	382.31
453.31	408.31
453.53	401.31
453.751	376.31
453.971	383.31
454.192	377.31
454.412	355.31
454.633	357.31
454.853	369.31
455.073	376.31
455.294	382.31
455.514	447.31
455.734	436.31
455.955	376.31
456.175	370.31
456.395	355.31
456.616	372.31
456.836	344.31
457.056	374.31
457.276	375.31
457.497	362.31
457.717	356.31
457.937	358.31
458.157	374.31
458.377	389.31
458.598	388.31
458.818	437.31
459.038	472.31
459.258	474.31
459.478	449.31
459.698	413.31
459.918	417.31
460.138	428.31
460.358	444.31
460.578	416.31
460.798	422.31
461.018	434.31
461.238	419.31
461.458	453.31
461.678	414.31
461.898	456.31
462.118	432.31
462.338	460.31
462.558	456.31
462.777	451.31
462.997	476.31
463.217	483.31
463.437	475.31
463.657	462.31
463.876	491.31
464.096	472.31
464.316	458.31
464.536	456.31
464.755	450.31
464.975	468.31
465.195	461.31
465.414	493.31
465.634	459.31
465.854	432.31
466.073	422.31
466.293	406.31
466.512	414.31
466.732	403.31
466.951	398.31
467.171	410.31
467.391	382.31
467.61	401.31
467.829	413.31
468.049	424.31
468.268	409.31
468.488	398.31
468.707	386.31
468.927	385.31
469.146	402.31
469.365	390.31
469.585	385.31
469.804	401.31
470.023	400.31
470.243	414.31
470.462	399.31
470.681	400.31
470.901	417.31
471.12	394.31
471.339	412.31
471.558	411.31
471.777	399.31
471.997	393.31
472.216	388.31
472.435	437.31
472.654	440.31
472.873	418.31
473.092	398.31
473.311	387.31
473.53	406.31
473.749	385.31
473.968	445.31
474.187	521.31
474.406	523.31
474.625	446.31
474.844	409.31
475.063	390.31
475.282	398.31
475.501	412.31
475.72	411.31
475.939	410.31
476.158	420.31
476.377	395.31
476.596	397.31
476.814	417.31
477.033	422.31
477.252	426.31
477.471	441.31
477.69	445.31
477.908	441.31
478.127	448.31
478.346	432.31
478.564	435.31
478.783	457.31
479.002	473.31
479.22	446.31
479.439	477.31
479.658	482.31
479.876	503.31
480.095	469.31
480.313	489.31
480.532	488.31
480.751	493.31
480.969	492.31
481.188	525.31
481.406	527.31
481.624	504.31
481.843	465.31
482.061	464.31
482.28	457.31
482.498	446.31
482.717	458.31
482.935	475.31
483.153	466.31
483.372	459.31
483.59	450.31
483.808	466.31
484.027	447.31
484.245	476.31
484.463	459.31
484.681	473.31
484.9	464.31
485.118	454.31
485.336	480.31
485.554	493.31
485.772	474.31
485.99	478.31
486.209	488.31
486.427	473.31
486.645	506.31
486.863	484.31
487.081	510.31
487.299	482.31
487.517	492.31
487.735	476.31
487.953	476.31
488.171	487.31
488.389	461.31
488.607	492.31
488.825	496.31
489.043	491.31
489.261	505.31
489.479	476.31
489.696	497.31
489.914	507.31
490.132	493.31
490.35	534.31
490.568	512.31
490.786	517.31
491.003	546.31
491.221	535.31
491.439	540.31
491.657	548.31
491.874	551.31
492.092	543.31
492.31	546.31
492.527	546.31
492.745	557.31
492.963	566.31
493.18	546.31
493.398	563.31
493.615	556.31
493.833	542.31
494.05	556.31
494.268	571.31
494.485	572.31
494.703	549.31
494.92	570.31
495.138	584.31
495.355	565.31
495.573	569.31
495.79	547.31
496.008	574.31
496.225	569.31
496.442	574.31
496.66	589.31
496.877	588.31
497.094	568.31
497.312	572.31
497.529	593.31
497.746	608.31
497.963	591.31
498.181	635.31
498.398	619.31
498.615	652.31
498.832	676.31
499.049	683.31
499.267	715.31
499.484	731.31
499.701	770.31
499.918	818.31
500.135	845.31
500.352	875.31
500.569	932.31
500.786	914.31
501.003	882.31
501.22	834.31
501.437	802.31
501.654	791.31
501.871	743.31
502.088	699.31
