Data from 1964.PennyLincolnUp.Lamp.En5.5.200Scan.071719.P1._HRD10591_14-03-38-909.txt Node
Date: Thu Jul 18 14:03:38 EDT 2019
User: cochatt
Spectrometer: HR+D1059
Trigger mode: 1
Integration Time (sec): 1.000000E-1
Scans to average: 1
Electric dark correction enabled: true
Nonlinearity correction enabled: false
Boxcar width: 0
XAxis mode: Wavelengths
Number of Pixels in Spectrum: 2048
>>>>>Begin Spectral Data<<<<<
223.165	-30.44
223.4	-30.44
223.635	-30.44
223.869	-23.44
224.104	-15.44
224.338	-17.44
224.573	-26.44
224.808	-12.44
225.042	-4.44
225.277	-3.44
225.511	5.56
225.746	-7.44
225.98	10.56
226.215	10.56
226.449	26.56
226.683	27.56
226.918	23.56
227.152	36.56
227.387	36.56
227.621	35.56
227.856	42.56
228.09	48.56
228.324	49.56
228.559	55.56
228.793	63.56
229.027	91.56
229.262	102.56
229.496	91.56
229.73	104.56
229.964	104.56
230.199	123.56
230.433	101.56
230.667	107.56
230.901	110.56
231.136	103.56
231.37	98.56
231.604	114.56
231.838	108.56
232.072	109.56
232.306	111.56
232.541	97.56
232.775	97.56
233.009	101.56
233.243	91.56
233.477	115.56
233.711	115.56
233.945	102.56
234.179	109.56
234.413	119.56
234.647	111.56
234.881	103.56
235.115	102.56
235.349	115.56
235.583	111.56
235.817	99.56
236.051	104.56
236.285	119.56
236.519	108.56
236.753	133.56
236.987	133.56
237.221	164.56
237.455	168.56
237.689	140.56
237.922	121.56
238.156	128.56
238.39	111.56
238.624	124.56
238.858	105.56
239.091	110.56
239.325	123.56
239.559	123.56
239.793	100.56
240.027	127.56
240.26	121.56
240.494	150.56
240.728	119.56
240.961	120.56
241.195	123.56
241.429	137.56
241.662	129.56
241.896	135.56
242.13	130.56
242.363	115.56
242.597	128.56
242.83	132.56
243.064	137.56
243.298	130.56
243.531	139.56
243.765	127.56
243.998	140.56
244.232	137.56
244.465	144.56
244.699	147.56
244.932	137.56
245.166	129.56
245.399	144.56
245.633	135.56
245.866	126.56
246.099	147.56
246.333	122.56
246.566	130.56
246.8	165.56
247.033	144.56
247.266	142.56
247.5	147.56
247.733	152.56
247.966	163.56
248.2	163.56
248.433	181.56
248.666	159.56
248.899	169.56
249.133	180.56
249.366	187.56
249.599	165.56
249.832	188.56
250.066	164.56
250.299	175.56
250.532	170.56
250.765	187.56
250.998	196.56
251.231	203.56
251.465	206.56
251.698	179.56
251.931	192.56
252.164	183.56
252.397	197.56
252.63	186.56
252.863	191.56
253.096	187.56
253.329	210.56
253.562	203.56
253.795	192.56
254.028	204.56
254.261	218.56
254.494	208.56
254.727	224.56
254.96	249.56
255.193	224.56
255.426	221.56
255.659	203.56
255.892	222.56
256.124	203.56
256.357	201.56
256.59	199.56
256.823	199.56
257.056	192.56
257.289	187.56
257.521	194.56
257.754	191.56
257.987	189.56
258.22	195.56
258.452	180.56
258.685	191.56
258.918	194.56
259.151	215.56
259.383	212.56
259.616	227.56
259.849	216.56
260.081	224.56
260.314	240.56
260.547	224.56
260.779	214.56
261.012	217.56
261.244	209.56
261.477	220.56
261.71	208.56
261.942	218.56
262.175	212.56
262.407	210.56
262.64	189.56
262.872	201.56
263.105	205.56
263.337	225.56
263.57	203.56
263.802	209.56
264.035	216.56
264.267	209.56
264.499	221.56
264.732	210.56
264.964	235.56
265.197	199.56
265.429	205.56
265.661	220.56
265.894	204.56
266.126	207.56
266.358	225.56
266.591	237.56
266.823	214.56
267.055	205.56
267.287	232.56
267.52	231.56
267.752	212.56
267.984	220.56
268.216	222.56
268.448	237.56
268.681	249.56
268.913	220.56
269.145	245.56
269.377	270.56
269.609	264.56
269.841	248.56
270.073	258.56
270.306	273.56
270.538	292.56
270.77	283.56
271.002	271.56
271.234	256.56
271.466	280.56
271.698	281.56
271.93	288.56
272.162	283.56
272.394	282.56
272.626	291.56
272.858	279.56
273.09	276.56
273.322	245.56
273.553	261.56
273.785	272.56
274.017	244.56
274.249	250.56
274.481	248.56
274.713	270.56
274.945	261.56
275.176	268.56
275.408	253.56
275.64	261.56
275.872	268.56
276.104	251.56
276.335	279.56
276.567	270.56
276.799	280.56
277.031	271.56
277.262	283.56
277.494	296.56
277.726	273.56
277.957	287.56
278.189	289.56
278.421	285.56
278.652	283.56
278.884	277.56
279.115	263.56
279.347	271.56
279.579	276.56
279.81	266.56
280.042	265.56
280.273	270.56
280.505	280.56
280.736	263.56
280.968	288.56
281.199	277.56
281.431	271.56
281.662	277.56
281.894	275.56
282.125	282.56
282.356	291.56
282.588	273.56
282.819	298.56
283.051	264.56
283.282	282.56
283.513	284.56
283.745	296.56
283.976	283.56
284.207	299.56
284.439	296.56
284.67	298.56
284.901	288.56
285.132	284.56
285.364	290.56
285.595	288.56
285.826	301.56
286.057	295.56
286.288	288.56
286.52	298.56
286.751	305.56
286.982	283.56
287.213	293.56
287.444	277.56
287.675	276.56
287.906	299.56
288.138	297.56
288.369	291.56
288.6	285.56
288.831	307.56
289.062	315.56
289.293	303.56
289.524	303.56
289.755	295.56
289.986	297.56
290.217	287.56
290.448	287.56
290.679	297.56
290.91	295.56
291.141	310.56
291.371	310.56
291.602	311.56
291.833	299.56
292.064	296.56
292.295	310.56
292.526	300.56
292.757	303.56
292.987	302.56
293.218	308.56
293.449	304.56
293.68	308.56
293.91	317.56
294.141	328.56
294.372	296.56
294.603	297.56
294.833	309.56
295.064	329.56
295.295	326.56
295.525	328.56
295.756	309.56
295.987	314.56
296.217	328.56
296.448	330.56
296.679	328.56
296.909	312.56
297.14	312.56
297.37	300.56
297.601	313.56
297.831	329.56
298.062	304.56
298.292	321.56
298.523	343.56
298.753	325.56
298.984	339.56
299.214	332.56
299.445	333.56
299.675	330.56
299.905	326.56
300.136	326.56
300.366	329.56
300.597	337.56
300.827	334.56
301.057	336.56
301.288	359.56
301.518	342.56
301.748	314.56
301.979	347.56
302.209	325.56
302.439	355.56
302.669	332.56
302.9	340.56
303.13	343.56
303.36	347.56
303.59	329.56
303.82	352.56
304.051	341.56
304.281	345.56
304.511	351.56
304.741	331.56
304.971	349.56
305.201	337.56
305.431	350.56
305.661	343.56
305.891	340.56
306.121	358.56
306.352	344.56
306.582	337.56
306.812	340.56
307.042	341.56
307.272	362.56
307.502	341.56
307.731	338.56
307.961	371.56
308.191	341.56
308.421	356.56
308.651	337.56
308.881	343.56
309.111	347.56
309.341	355.56
309.571	346.56
309.8	343.56
310.03	346.56
310.26	372.56
310.49	350.56
310.72	374.56
310.949	381.56
311.179	360.56
311.409	357.56
311.639	351.56
311.868	377.56
312.098	376.56
312.328	386.56
312.557	378.56
312.787	365.56
313.017	369.56
313.246	377.56
313.476	364.56
313.706	364.56
313.935	381.56
314.165	375.56
314.394	391.56
314.624	396.56
314.853	397.56
315.083	369.56
315.312	397.56
315.542	385.56
315.771	370.56
316.001	358.56
316.23	395.56
316.46	371.56
316.689	374.56
316.919	385.56
317.148	374.56
317.377	383.56
317.607	377.56
317.836	383.56
318.065	358.56
318.295	365.56
318.524	374.56
318.753	369.56
318.983	361.56
319.212	381.56
319.441	363.56
319.67	395.56
319.9	377.56
320.129	377.56
320.358	365.56
320.587	381.56
320.816	369.56
321.046	387.56
321.275	385.56
321.504	403.56
321.733	417.56
321.962	392.56
322.191	385.56
322.42	395.56
322.649	406.56
322.878	400.56
323.108	420.56
323.337	436.56
323.566	407.56
323.795	429.56
324.024	472.56
324.253	512.56
324.482	683.56
324.71	973.56
324.939	1316.56
325.168	1117.56
325.397	619.56
325.626	491.56
325.855	441.56
326.084	449.56
326.313	431.56
326.542	441.56
326.77	478.56
326.999	533.56
327.228	667.56
327.457	915.56
327.686	983.56
327.914	712.56
328.143	535.56
328.372	490.56
328.6	463.56
328.829	481.56
329.058	480.56
329.287	473.56
329.515	443.56
329.744	446.56
329.972	451.56
330.201	457.56
330.43	472.56
330.658	496.56
330.887	509.56
331.115	481.56
331.344	449.56
331.572	454.56
331.801	447.56
332.03	435.56
332.258	443.56
332.486	455.56
332.715	440.56
332.943	441.56
333.172	467.56
333.4	436.56
333.629	465.56
333.857	477.56
334.085	491.56
334.314	488.56
334.542	511.56
334.771	492.56
334.999	503.56
335.227	476.56
335.455	468.56
335.684	453.56
335.912	454.56
336.14	446.56
336.369	470.56
336.597	451.56
336.825	445.56
337.053	442.56
337.281	430.56
337.51	423.56
337.738	443.56
337.966	420.56
338.194	404.56
338.422	431.56
338.65	419.56
338.878	447.56
339.106	423.56
339.334	435.56
339.562	447.56
339.79	432.56
340.018	410.56
340.246	421.56
340.474	420.56
340.702	422.56
340.93	421.56
341.158	413.56
341.386	423.56
341.614	430.56
341.842	418.56
342.07	412.56
342.298	415.56
342.526	412.56
342.754	388.56
342.981	396.56
343.209	422.56
343.437	419.56
343.665	420.56
343.893	435.56
344.12	437.56
344.348	430.56
344.576	421.56
344.804	422.56
345.031	436.56
345.259	424.56
345.487	413.56
345.714	395.56
345.942	388.56
346.17	401.56
346.397	391.56
346.625	393.56
346.853	407.56
347.08	387.56
347.308	392.56
347.535	416.56
347.763	404.56
347.99	398.56
348.218	401.56
348.445	401.56
348.673	405.56
348.9	394.56
349.128	404.56
349.355	403.56
349.583	396.56
349.81	365.56
350.037	381.56
350.265	383.56
350.492	388.56
350.72	382.56
350.947	385.56
351.174	394.56
351.402	364.56
351.629	389.56
351.856	412.56
352.083	415.56
352.311	403.56
352.538	394.56
352.765	387.56
352.992	384.56
353.22	388.56
353.447	377.56
353.674	379.56
353.901	363.56
354.128	359.56
354.355	387.56
354.583	365.56
354.81	375.56
355.037	384.56
355.264	377.56
355.491	377.56
355.718	382.56
355.945	370.56
356.172	365.56
356.399	362.56
356.626	361.56
356.853	387.56
357.08	370.56
357.307	381.56
357.534	376.56
357.761	383.56
357.988	371.56
358.215	367.56
358.441	389.56
358.668	379.56
358.895	390.56
359.122	375.56
359.349	376.56
359.576	398.56
359.802	393.56
360.029	389.56
360.256	419.56
360.483	404.56
360.709	382.56
360.936	382.56
361.163	388.56
361.39	394.56
361.616	391.56
361.843	373.56
362.07	380.56
362.296	385.56
362.523	383.56
362.749	391.56
362.976	384.56
363.203	353.56
363.429	361.56
363.656	363.56
363.882	387.56
364.109	363.56
364.335	378.56
364.562	372.56
364.788	356.56
365.015	373.56
365.241	371.56
365.468	357.56
365.694	375.56
365.92	388.56
366.147	364.56
366.373	374.56
366.599	379.56
366.826	382.56
367.052	381.56
367.278	360.56
367.505	380.56
367.731	387.56
367.957	371.56
368.184	365.56
368.41	369.56
368.636	383.56
368.862	375.56
369.089	377.56
369.315	385.56
369.541	376.56
369.767	367.56
369.993	375.56
370.219	376.56
370.445	351.56
370.672	362.56
370.898	375.56
371.124	371.56
371.35	366.56
371.576	385.56
371.802	368.56
372.028	401.56
372.254	383.56
372.48	371.56
372.706	378.56
372.932	389.56
373.158	373.56
373.384	381.56
373.61	360.56
373.835	378.56
374.061	364.56
374.287	393.56
374.513	387.56
374.739	375.56
374.965	379.56
375.191	387.56
375.416	371.56
375.642	384.56
375.868	382.56
376.094	395.56
376.319	382.56
376.545	388.56
376.771	371.56
376.997	371.56
377.222	371.56
377.448	385.56
377.674	356.56
377.899	373.56
378.125	359.56
378.35	346.56
378.576	359.56
378.802	381.56
379.027	369.56
379.253	371.56
379.478	366.56
379.704	359.56
379.929	374.56
380.155	375.56
380.38	377.56
380.606	367.56
380.831	365.56
381.057	375.56
381.282	371.56
381.507	393.56
381.733	384.56
381.958	395.56
382.184	373.56
382.409	377.56
382.634	379.56
382.86	394.56
383.085	381.56
383.31	395.56
383.535	380.56
383.761	392.56
383.986	403.56
384.211	384.56
384.436	401.56
384.662	396.56
384.887	408.56
385.112	405.56
385.337	380.56
385.562	421.56
385.787	425.56
386.013	412.56
386.238	394.56
386.463	381.56
386.688	411.56
386.913	414.56
387.138	403.56
387.363	400.56
387.588	387.56
387.813	397.56
388.038	409.56
388.263	395.56
388.488	407.56
388.713	398.56
388.938	397.56
389.163	393.56
389.387	391.56
389.612	405.56
389.837	424.56
390.062	387.56
390.287	399.56
390.512	391.56
390.736	400.56
390.961	409.56
391.186	410.56
391.411	422.56
391.636	414.56
391.86	436.56
392.085	415.56
392.31	416.56
392.534	415.56
392.759	411.56
392.984	401.56
393.208	407.56
393.433	411.56
393.658	410.56
393.882	404.56
394.107	402.56
394.331	415.56
394.556	415.56
394.78	406.56
395.005	412.56
395.229	412.56
395.454	417.56
395.678	416.56
395.903	424.56
396.127	453.56
396.352	455.56
396.576	419.56
396.801	398.56
397.025	429.56
397.249	423.56
397.474	406.56
397.698	440.56
397.922	435.56
398.147	449.56
398.371	439.56
398.595	450.56
398.82	461.56
399.044	476.56
399.268	486.56
399.492	515.56
399.717	533.56
399.941	572.56
400.165	567.56
400.389	555.56
400.613	520.56
400.837	483.56
401.062	459.56
401.286	458.56
401.51	450.56
401.734	457.56
401.958	457.56
402.182	464.56
402.406	465.56
402.63	468.56
402.854	483.56
403.078	462.56
403.302	472.56
403.526	493.56
403.75	466.56
403.974	473.56
404.198	475.56
404.422	465.56
404.645	476.56
404.869	482.56
405.093	500.56
405.317	520.56
405.541	544.56
405.765	529.56
405.988	492.56
406.212	510.56
406.436	480.56
406.66	504.56
406.883	508.56
407.107	520.56
407.331	552.56
407.555	593.56
407.778	604.56
408.002	565.56
408.226	527.56
408.449	504.56
408.673	487.56
408.896	515.56
409.12	539.56
409.344	504.56
409.567	485.56
409.791	477.56
410.014	464.56
410.238	461.56
410.461	491.56
410.685	468.56
410.908	474.56
411.132	493.56
411.355	509.56
411.578	496.56
411.802	483.56
412.025	471.56
412.249	470.56
412.472	481.56
412.695	500.56
412.919	505.56
413.142	482.56
413.365	455.56
413.589	440.56
413.812	449.56
414.035	443.56
414.258	449.56
414.482	441.56
414.705	444.56
414.928	433.56
415.151	440.56
415.374	447.56
415.597	454.56
415.821	441.56
416.044	444.56
416.267	429.56
416.49	441.56
416.713	422.56
416.936	421.56
417.159	439.56
417.382	433.56
417.605	462.56
417.828	455.56
418.051	440.56
418.274	441.56
418.497	452.56
418.72	439.56
418.943	445.56
419.166	439.56
419.389	469.56
419.611	457.56
419.834	475.56
420.057	457.56
420.28	469.56
420.503	447.56
420.726	446.56
420.948	451.56
421.171	487.56
421.394	509.56
421.617	456.56
421.839	435.56
422.062	441.56
422.285	452.56
422.507	488.56
422.73	528.56
422.953	528.56
423.175	476.56
423.398	456.56
423.621	462.56
423.843	467.56
424.066	443.56
424.288	460.56
424.511	472.56
424.733	515.56
424.956	550.56
425.178	551.56
425.401	525.56
425.623	547.56
425.846	476.56
426.068	446.56
426.291	453.56
426.513	446.56
426.735	472.56
426.958	473.56
427.18	535.56
427.402	615.56
427.625	653.56
427.847	571.56
428.069	507.56
428.292	480.56
428.514	437.56
428.736	455.56
428.958	428.56
429.181	401.56
429.403	405.56
429.625	415.56
429.847	446.56
430.069	468.56
430.292	482.56
430.514	432.56
430.736	411.56
430.958	421.56
431.18	425.56
431.402	432.56
431.624	406.56
431.846	407.56
432.068	422.56
432.29	417.56
432.512	400.56
432.734	416.56
432.956	425.56
433.178	423.56
433.4	429.56
433.622	396.56
433.844	412.56
434.066	391.56
434.287	386.56
434.509	411.56
434.731	411.56
434.953	416.56
435.175	421.56
435.397	442.56
435.618	451.56
435.84	465.56
436.062	536.56
436.284	578.56
436.505	486.56
436.727	448.56
436.949	418.56
437.17	435.56
437.392	423.56
437.614	419.56
437.835	432.56
438.057	527.56
438.278	567.56
438.5	569.56
438.721	612.56
438.943	578.56
439.165	490.56
439.386	443.56
439.608	452.56
439.829	440.56
440.05	472.56
440.272	450.56
440.493	462.56
440.715	445.56
440.936	447.56
441.158	428.56
441.379	423.56
441.6	439.56
441.822	460.56
442.043	453.56
442.264	516.56
442.486	530.56
442.707	486.56
442.928	460.56
443.149	463.56
443.371	456.56
443.592	491.56
443.813	567.56
444.034	614.56
444.255	524.56
444.476	470.56
444.698	479.56
444.919	461.56
445.14	571.56
445.361	531.56
445.582	480.56
445.803	502.56
446.024	570.56
446.245	573.56
446.466	515.56
446.687	459.56
446.908	447.56
447.129	429.56
447.35	424.56
447.571	417.56
447.792	420.56
448.013	407.56
448.234	426.56
448.455	455.56
448.675	519.56
448.896	585.56
449.117	508.56
449.338	480.56
449.559	575.56
449.779	630.56
450	526.56
450.221	434.56
450.442	412.56
450.662	388.56
450.883	377.56
451.104	384.56
451.324	386.56
451.545	395.56
451.766	378.56
451.986	377.56
452.207	352.56
452.428	377.56
452.648	355.56
452.869	389.56
453.089	389.56
453.31	376.56
453.53	376.56
453.751	368.56
453.971	375.56
454.192	380.56
454.412	372.56
454.633	363.56
454.853	363.56
455.073	361.56
455.294	380.56
455.514	397.56
455.734	402.56
455.955	360.56
456.175	371.56
456.395	360.56
456.616	359.56
456.836	359.56
457.056	357.56
457.276	350.56
457.497	347.56
457.717	392.56
457.937	349.56
458.157	351.56
458.377	350.56
458.598	402.56
458.818	395.56
459.038	435.56
459.258	456.56
459.478	435.56
459.698	420.56
459.918	412.56
460.138	402.56
460.358	405.56
460.578	405.56
460.798	430.56
461.018	415.56
461.238	422.56
461.458	423.56
461.678	424.56
461.898	422.56
462.118	420.56
462.338	416.56
462.558	438.56
462.777	437.56
462.997	479.56
463.217	479.56
463.437	482.56
463.657	445.56
463.876	456.56
464.096	464.56
464.316	435.56
464.536	451.56
464.755	443.56
464.975	420.56
465.195	424.56
465.414	470.56
465.634	438.56
465.854	415.56
466.073	399.56
466.293	404.56
466.512	371.56
466.732	375.56
466.951	373.56
467.171	365.56
467.391	379.56
467.61	381.56
467.829	368.56
468.049	391.56
468.268	397.56
468.488	377.56
468.707	392.56
468.927	389.56
469.146	376.56
469.365	382.56
469.585	377.56
469.804	371.56
470.023	383.56
470.243	384.56
470.462	395.56
470.681	400.56
470.901	391.56
471.12	392.56
471.339	400.56
471.558	390.56
471.777	369.56
471.997	402.56
472.216	361.56
472.435	389.56
472.654	389.56
472.873	385.56
473.092	380.56
473.311	386.56
473.53	399.56
473.749	406.56
473.968	427.56
474.187	483.56
474.406	487.56
474.625	411.56
474.844	385.56
475.063	385.56
475.282	390.56
475.501	379.56
475.72	385.56
475.939	389.56
476.158	419.56
476.377	381.56
476.596	381.56
476.814	396.56
477.033	417.56
477.252	423.56
477.471	417.56
477.69	400.56
477.908	415.56
478.127	432.56
478.346	422.56
478.564	441.56
478.783	447.56
479.002	443.56
479.22	447.56
479.439	468.56
479.658	473.56
479.876	469.56
480.095	460.56
480.313	483.56
480.532	496.56
480.751	472.56
480.969	472.56
481.188	499.56
481.406	501.56
481.624	466.56
481.843	448.56
482.061	464.56
482.28	464.56
482.498	439.56
482.717	443.56
482.935	448.56
483.153	438.56
483.372	461.56
483.59	469.56
483.808	439.56
484.027	450.56
484.245	436.56
484.463	442.56
484.681	428.56
484.9	457.56
485.118	455.56
485.336	460.56
485.554	456.56
485.772	460.56
485.99	447.56
486.209	473.56
486.427	471.56
486.645	461.56
486.863	472.56
487.081	459.56
487.299	464.56
487.517	458.56
487.735	457.56
487.953	473.56
488.171	473.56
488.389	467.56
488.607	484.56
488.825	477.56
489.043	482.56
489.261	511.56
489.479	488.56
489.696	484.56
489.914	501.56
490.132	485.56
490.35	468.56
490.568	478.56
490.786	470.56
491.003	486.56
491.221	501.56
491.439	519.56
491.657	500.56
491.874	532.56
492.092	526.56
492.31	520.56
492.527	542.56
492.745	521.56
492.963	543.56
493.18	531.56
493.398	535.56
493.615	549.56
493.833	542.56
494.05	525.56
494.268	539.56
494.485	563.56
494.703	525.56
494.92	544.56
495.138	527.56
495.355	531.56
495.573	551.56
495.79	534.56
496.008	528.56
496.225	538.56
496.442	559.56
496.66	537.56
496.877	567.56
497.094	575.56
497.312	550.56
497.529	572.56
497.746	567.56
497.963	595.56
498.181	592.56
498.398	610.56
498.615	611.56
498.832	641.56
499.049	640.56
499.267	671.56
499.484	710.56
499.701	723.56
499.918	775.56
500.135	791.56
500.352	846.56
500.569	848.56
500.786	857.56
501.003	852.56
501.22	817.56
501.437	764.56
501.654	747.56
501.871	704.56
502.088	684.56
