Data from 1964.PennyLincolnUp.Lamp.En5.5.200Scan.071719.P1._HRD10591_14-04-29-908.txt Node
Date: Thu Jul 18 14:04:29 EDT 2019
User: cochatt
Spectrometer: HR+D1059
Trigger mode: 1
Integration Time (sec): 1.000000E-1
Scans to average: 1
Electric dark correction enabled: true
Nonlinearity correction enabled: false
Boxcar width: 0
XAxis mode: Wavelengths
Number of Pixels in Spectrum: 2048
>>>>>Begin Spectral Data<<<<<
223.165	-16.81
223.4	-16.81
223.635	-16.81
223.869	-15.81
224.104	-17.81
224.338	-3.81
224.573	3.19
224.808	-12.81
225.042	-9.81
225.277	-18.81
225.511	-16.81
225.746	4.19
225.98	8.19
226.215	18.19
226.449	13.19
226.683	13.19
226.918	22.19
227.152	30.19
227.387	33.19
227.621	43.19
227.856	40.19
228.09	36.19
228.324	44.19
228.559	60.19
228.793	82.19
229.027	88.19
229.262	98.19
229.496	96.19
229.73	107.19
229.964	117.19
230.199	115.19
230.433	105.19
230.667	115.19
230.901	111.19
231.136	124.19
231.37	98.19
231.604	114.19
231.838	103.19
232.072	114.19
232.306	109.19
232.541	111.19
232.775	117.19
233.009	114.19
233.243	111.19
233.477	115.19
233.711	118.19
233.945	109.19
234.179	112.19
234.413	109.19
234.647	106.19
234.881	118.19
235.115	123.19
235.349	117.19
235.583	124.19
235.817	112.19
236.051	114.19
236.285	122.19
236.519	112.19
236.753	124.19
236.987	123.19
237.221	157.19
237.455	173.19
237.689	159.19
237.922	130.19
238.156	129.19
238.39	119.19
238.624	118.19
238.858	125.19
239.091	131.19
239.325	110.19
239.559	120.19
239.793	120.19
240.027	130.19
240.26	138.19
240.494	149.19
240.728	151.19
240.961	128.19
241.195	132.19
241.429	122.19
241.662	128.19
241.896	133.19
242.13	120.19
242.363	128.19
242.597	138.19
242.83	128.19
243.064	127.19
243.298	121.19
243.531	130.19
243.765	132.19
243.998	142.19
244.232	123.19
244.465	141.19
244.699	136.19
244.932	146.19
245.166	134.19
245.399	162.19
245.633	148.19
245.866	143.19
246.099	140.19
246.333	179.19
246.566	153.19
246.8	136.19
247.033	136.19
247.266	167.19
247.5	164.19
247.733	163.19
247.966	150.19
248.2	157.19
248.433	160.19
248.666	149.19
248.899	159.19
249.133	168.19
249.366	184.19
249.599	187.19
249.832	160.19
250.066	160.19
250.299	178.19
250.532	166.19
250.765	207.19
250.998	205.19
251.231	213.19
251.465	195.19
251.698	189.19
251.931	186.19
252.164	184.19
252.397	194.19
252.63	182.19
252.863	194.19
253.096	195.19
253.329	211.19
253.562	196.19
253.795	211.19
254.028	214.19
254.261	208.19
254.494	209.19
254.727	218.19
254.96	243.19
255.193	237.19
255.426	216.19
255.659	234.19
255.892	206.19
256.124	206.19
256.357	222.19
256.59	204.19
256.823	182.19
257.056	208.19
257.289	221.19
257.521	204.19
257.754	212.19
257.987	201.19
258.22	194.19
258.452	202.19
258.685	214.19
258.918	212.19
259.151	208.19
259.383	203.19
259.616	200.19
259.849	214.19
260.081	203.19
260.314	228.19
260.547	235.19
260.779	214.19
261.012	226.19
261.244	207.19
261.477	196.19
261.71	206.19
261.942	208.19
262.175	213.19
262.407	229.19
262.64	208.19
262.872	208.19
263.105	231.19
263.337	204.19
263.57	216.19
263.802	221.19
264.035	210.19
264.267	211.19
264.499	218.19
264.732	195.19
264.964	208.19
265.197	224.19
265.429	227.19
265.661	216.19
265.894	239.19
266.126	222.19
266.358	221.19
266.591	217.19
266.823	227.19
267.055	229.19
267.287	228.19
267.52	213.19
267.752	243.19
267.984	234.19
268.216	228.19
268.448	232.19
268.681	226.19
268.913	245.19
269.145	239.19
269.377	267.19
269.609	266.19
269.841	266.19
270.073	262.19
270.306	275.19
270.538	299.19
270.77	298.19
271.002	278.19
271.234	275.19
271.466	285.19
271.698	294.19
271.93	298.19
272.162	283.19
272.394	295.19
272.626	276.19
272.858	279.19
273.09	283.19
273.322	264.19
273.553	270.19
273.785	276.19
274.017	256.19
274.249	251.19
274.481	266.19
274.713	283.19
274.945	268.19
275.176	270.19
275.408	255.19
275.64	265.19
275.872	271.19
276.104	272.19
276.335	275.19
276.567	280.19
276.799	287.19
277.031	297.19
277.262	298.19
277.494	299.19
277.726	293.19
277.957	284.19
278.189	280.19
278.421	281.19
278.652	279.19
278.884	269.19
279.115	272.19
279.347	294.19
279.579	264.19
279.81	266.19
280.042	272.19
280.273	277.19
280.505	282.19
280.736	268.19
280.968	260.19
281.199	281.19
281.431	278.19
281.662	281.19
281.894	287.19
282.125	275.19
282.356	292.19
282.588	297.19
282.819	298.19
283.051	278.19
283.282	286.19
283.513	279.19
283.745	281.19
283.976	293.19
284.207	286.19
284.439	300.19
284.67	274.19
284.901	292.19
285.132	290.19
285.364	293.19
285.595	288.19
285.826	296.19
286.057	286.19
286.288	300.19
286.52	295.19
286.751	306.19
286.982	308.19
287.213	311.19
287.444	305.19
287.675	296.19
287.906	314.19
288.138	297.19
288.369	315.19
288.6	306.19
288.831	309.19
289.062	299.19
289.293	297.19
289.524	320.19
289.755	312.19
289.986	292.19
290.217	299.19
290.448	296.19
290.679	302.19
290.91	319.19
291.141	310.19
291.371	306.19
291.602	303.19
291.833	297.19
292.064	300.19
292.295	288.19
292.526	314.19
292.757	298.19
292.987	310.19
293.218	295.19
293.449	320.19
293.68	310.19
293.91	311.19
294.141	330.19
294.372	310.19
294.603	312.19
294.833	310.19
295.064	307.19
295.295	324.19
295.525	312.19
295.756	316.19
295.987	306.19
296.217	326.19
296.448	328.19
296.679	328.19
296.909	314.19
297.14	317.19
297.37	333.19
297.601	314.19
297.831	321.19
298.062	329.19
298.292	306.19
298.523	316.19
298.753	336.19
298.984	315.19
299.214	322.19
299.445	318.19
299.675	339.19
299.905	344.19
300.136	336.19
300.366	337.19
300.597	322.19
300.827	326.19
301.057	364.19
301.288	347.19
301.518	340.19
301.748	366.19
301.979	347.19
302.209	342.19
302.439	336.19
302.669	333.19
302.9	349.19
303.13	327.19
303.36	363.19
303.59	352.19
303.82	343.19
304.051	368.19
304.281	347.19
304.511	336.19
304.741	354.19
304.971	328.19
305.201	340.19
305.431	360.19
305.661	340.19
305.891	351.19
306.121	362.19
306.352	369.19
306.582	355.19
306.812	343.19
307.042	344.19
307.272	341.19
307.502	347.19
307.731	363.19
307.961	354.19
308.191	340.19
308.421	374.19
308.651	344.19
308.881	360.19
309.111	362.19
309.341	355.19
309.571	376.19
309.8	378.19
310.03	374.19
310.26	378.19
310.49	379.19
310.72	382.19
310.949	390.19
311.179	383.19
311.409	387.19
311.639	366.19
311.868	373.19
312.098	381.19
312.328	385.19
312.557	401.19
312.787	384.19
313.017	401.19
313.246	398.19
313.476	367.19
313.706	402.19
313.935	382.19
314.165	378.19
314.394	383.19
314.624	391.19
314.853	365.19
315.083	380.19
315.312	372.19
315.542	393.19
315.771	386.19
316.001	398.19
316.23	389.19
316.46	381.19
316.689	395.19
316.919	380.19
317.148	392.19
317.377	384.19
317.607	382.19
317.836	395.19
318.065	388.19
318.295	406.19
318.524	390.19
318.753	396.19
318.983	405.19
319.212	377.19
319.441	376.19
319.67	378.19
319.9	388.19
320.129	383.19
320.358	383.19
320.587	379.19
320.816	378.19
321.046	398.19
321.275	376.19
321.504	384.19
321.733	377.19
321.962	412.19
322.191	397.19
322.42	421.19
322.649	419.19
322.878	406.19
323.108	420.19
323.337	444.19
323.566	451.19
323.795	468.19
324.024	500.19
324.253	566.19
324.482	736.19
324.71	1070.19
324.939	1430.19
325.168	1227.19
325.397	656.19
325.626	503.19
325.855	471.19
326.084	440.19
326.313	457.19
326.542	454.19
326.77	477.19
326.999	554.19
327.228	695.19
327.457	948.19
327.686	1077.19
327.914	757.19
328.143	590.19
328.372	520.19
328.6	501.19
328.829	487.19
329.058	501.19
329.287	503.19
329.515	475.19
329.744	473.19
329.972	473.19
330.201	483.19
330.43	502.19
330.658	510.19
330.887	506.19
331.115	493.19
331.344	468.19
331.572	452.19
331.801	460.19
332.03	475.19
332.258	452.19
332.486	442.19
332.715	458.19
332.943	446.19
333.172	445.19
333.4	457.19
333.629	455.19
333.857	474.19
334.085	507.19
334.314	516.19
334.542	505.19
334.771	528.19
334.999	485.19
335.227	462.19
335.455	453.19
335.684	472.19
335.912	463.19
336.14	464.19
336.369	472.19
336.597	454.19
336.825	438.19
337.053	448.19
337.281	428.19
337.51	442.19
337.738	452.19
337.966	454.19
338.194	440.19
338.422	443.19
338.65	422.19
338.878	428.19
339.106	436.19
339.334	456.19
339.562	460.19
339.79	418.19
340.018	416.19
340.246	422.19
340.474	414.19
340.702	419.19
340.93	438.19
341.158	439.19
341.386	407.19
341.614	444.19
341.842	422.19
342.07	394.19
342.298	409.19
342.526	410.19
342.754	410.19
342.981	438.19
343.209	427.19
343.437	432.19
343.665	447.19
343.893	457.19
344.12	466.19
344.348	450.19
344.576	457.19
344.804	443.19
345.031	435.19
345.259	430.19
345.487	426.19
345.714	427.19
345.942	412.19
346.17	400.19
346.397	422.19
346.625	419.19
346.853	402.19
347.08	384.19
347.308	404.19
347.535	425.19
347.763	422.19
347.99	393.19
348.218	425.19
348.445	405.19
348.673	398.19
348.9	413.19
349.128	408.19
349.355	399.19
349.583	399.19
349.81	381.19
350.037	386.19
350.265	393.19
350.492	384.19
350.72	411.19
350.947	401.19
351.174	400.19
351.402	399.19
351.629	401.19
351.856	398.19
352.083	392.19
352.311	383.19
352.538	397.19
352.765	405.19
352.992	397.19
353.22	390.19
353.447	400.19
353.674	387.19
353.901	375.19
354.128	401.19
354.355	389.19
354.583	379.19
354.81	390.19
355.037	392.19
355.264	375.19
355.491	383.19
355.718	368.19
355.945	397.19
356.172	378.19
356.399	374.19
356.626	378.19
356.853	374.19
357.08	361.19
357.307	386.19
357.534	395.19
357.761	370.19
357.988	375.19
358.215	391.19
358.441	381.19
358.668	395.19
358.895	396.19
359.122	394.19
359.349	391.19
359.576	390.19
359.802	407.19
360.029	394.19
360.256	424.19
360.483	409.19
360.709	391.19
360.936	388.19
361.163	386.19
361.39	404.19
361.616	393.19
361.843	370.19
362.07	376.19
362.296	385.19
362.523	376.19
362.749	395.19
362.976	383.19
363.203	381.19
363.429	383.19
363.656	384.19
363.882	383.19
364.109	381.19
364.335	381.19
364.562	384.19
364.788	382.19
365.015	385.19
365.241	381.19
365.468	388.19
365.694	385.19
365.92	397.19
366.147	380.19
366.373	356.19
366.599	356.19
366.826	373.19
367.052	376.19
367.278	383.19
367.505	381.19
367.731	381.19
367.957	365.19
368.184	384.19
368.41	374.19
368.636	390.19
368.862	383.19
369.089	395.19
369.315	391.19
369.541	383.19
369.767	393.19
369.993	389.19
370.219	374.19
370.445	376.19
370.672	364.19
370.898	380.19
371.124	383.19
371.35	377.19
371.576	390.19
371.802	383.19
372.028	397.19
372.254	386.19
372.48	382.19
372.706	382.19
372.932	387.19
373.158	378.19
373.384	384.19
373.61	390.19
373.835	382.19
374.061	361.19
374.287	389.19
374.513	393.19
374.739	374.19
374.965	384.19
375.191	383.19
375.416	385.19
375.642	378.19
375.868	387.19
376.094	377.19
376.319	393.19
376.545	398.19
376.771	388.19
376.997	384.19
377.222	386.19
377.448	375.19
377.674	354.19
377.899	384.19
378.125	376.19
378.35	342.19
378.576	383.19
378.802	381.19
379.027	383.19
379.253	374.19
379.478	389.19
379.704	381.19
379.929	378.19
380.155	380.19
380.38	362.19
380.606	368.19
380.831	368.19
381.057	366.19
381.282	363.19
381.507	379.19
381.733	364.19
381.958	384.19
382.184	354.19
382.409	380.19
382.634	407.19
382.86	419.19
383.085	383.19
383.31	401.19
383.535	392.19
383.761	383.19
383.986	389.19
384.211	382.19
384.436	408.19
384.662	410.19
384.887	426.19
385.112	403.19
385.337	414.19
385.562	400.19
385.787	404.19
386.013	411.19
386.238	397.19
386.463	411.19
386.688	397.19
386.913	419.19
387.138	416.19
387.363	428.19
387.588	409.19
387.813	408.19
388.038	392.19
388.263	395.19
388.488	420.19
388.713	426.19
388.938	419.19
389.163	405.19
389.387	430.19
389.612	406.19
389.837	398.19
390.062	390.19
390.287	396.19
390.512	410.19
390.736	406.19
390.961	415.19
391.186	408.19
391.411	426.19
391.636	423.19
391.86	434.19
392.085	426.19
392.31	434.19
392.534	410.19
392.759	407.19
392.984	414.19
393.208	423.19
393.433	426.19
393.658	426.19
393.882	425.19
394.107	420.19
394.331	410.19
394.556	378.19
394.78	390.19
395.005	411.19
395.229	436.19
395.454	429.19
395.678	426.19
395.903	443.19
396.127	451.19
396.352	455.19
396.576	421.19
396.801	408.19
397.025	418.19
397.249	415.19
397.474	432.19
397.698	425.19
397.922	443.19
398.147	468.19
398.371	463.19
398.595	459.19
398.82	462.19
399.044	481.19
399.268	485.19
399.492	534.19
399.717	565.19
399.941	590.19
400.165	570.19
400.389	586.19
400.613	523.19
400.837	483.19
401.062	480.19
401.286	468.19
401.51	467.19
401.734	458.19
401.958	462.19
402.182	471.19
402.406	472.19
402.63	465.19
402.854	487.19
403.078	504.19
403.302	475.19
403.526	496.19
403.75	498.19
403.974	484.19
404.198	474.19
404.422	478.19
404.645	464.19
404.869	491.19
405.093	529.19
405.317	524.19
405.541	551.19
405.765	526.19
405.988	516.19
406.212	491.19
406.436	511.19
406.66	534.19
406.883	506.19
407.107	523.19
407.331	558.19
407.555	617.19
407.778	585.19
408.002	564.19
408.226	515.19
408.449	507.19
408.673	529.19
408.896	538.19
409.12	556.19
409.344	532.19
409.567	487.19
409.791	480.19
410.014	458.19
410.238	473.19
410.461	467.19
410.685	488.19
410.908	479.19
411.132	520.19
411.355	518.19
411.578	484.19
411.802	465.19
412.025	470.19
412.249	474.19
412.472	500.19
412.695	488.19
412.919	517.19
413.142	460.19
413.365	486.19
413.589	468.19
413.812	454.19
414.035	457.19
414.258	451.19
414.482	449.19
414.705	439.19
414.928	460.19
415.151	441.19
415.374	448.19
415.597	430.19
415.821	443.19
416.044	460.19
416.267	434.19
416.49	441.19
416.713	439.19
416.936	444.19
417.159	419.19
417.382	444.19
417.605	449.19
417.828	433.19
418.051	444.19
418.274	466.19
418.497	452.19
418.72	467.19
418.943	439.19
419.166	441.19
419.389	482.19
419.611	474.19
419.834	470.19
420.057	471.19
420.28	475.19
420.503	454.19
420.726	439.19
420.948	481.19
421.171	498.19
421.394	514.19
421.617	472.19
421.839	457.19
422.062	447.19
422.285	464.19
422.507	491.19
422.73	542.19
422.953	514.19
423.175	493.19
423.398	478.19
423.621	456.19
423.843	495.19
424.066	470.19
424.288	469.19
424.511	501.19
424.733	549.19
424.956	557.19
425.178	563.19
425.401	553.19
425.623	571.19
425.846	522.19
426.068	479.19
426.291	457.19
426.513	469.19
426.735	483.19
426.958	503.19
427.18	564.19
427.402	638.19
427.625	687.19
427.847	609.19
428.069	524.19
428.292	495.19
428.514	466.19
428.736	452.19
428.958	448.19
429.181	427.19
429.403	440.19
429.625	425.19
429.847	472.19
430.069	502.19
430.292	496.19
430.514	458.19
430.736	444.19
430.958	418.19
431.18	429.19
431.402	415.19
431.624	415.19
431.846	423.19
432.068	427.19
432.29	418.19
432.512	413.19
432.734	432.19
432.956	425.19
433.178	430.19
433.4	436.19
433.622	432.19
433.844	424.19
434.066	422.19
434.287	406.19
434.509	422.19
434.731	423.19
434.953	439.19
435.175	455.19
435.397	467.19
435.618	458.19
435.84	485.19
436.062	559.19
436.284	596.19
436.505	486.19
436.727	456.19
436.949	433.19
437.17	428.19
437.392	435.19
437.614	436.19
437.835	458.19
438.057	508.19
438.278	579.19
438.5	590.19
438.721	626.19
438.943	612.19
439.165	490.19
439.386	467.19
439.608	462.19
439.829	476.19
440.05	464.19
440.272	516.19
440.493	493.19
440.715	427.19
440.936	427.19
441.158	431.19
441.379	425.19
441.6	441.19
441.822	451.19
442.043	484.19
442.264	544.19
442.486	562.19
442.707	484.19
442.928	486.19
443.149	477.19
443.371	473.19
443.592	521.19
443.813	572.19
444.034	613.19
444.255	517.19
444.476	479.19
444.698	504.19
444.919	480.19
445.14	592.19
445.361	529.19
445.582	518.19
445.803	540.19
446.024	593.19
446.245	594.19
446.466	544.19
446.687	476.19
446.908	454.19
447.129	424.19
447.35	438.19
447.571	429.19
447.792	398.19
448.013	422.19
448.234	434.19
448.455	463.19
448.675	568.19
448.896	613.19
449.117	520.19
449.338	516.19
449.559	585.19
449.779	652.19
450	506.19
450.221	439.19
450.442	423.19
450.662	423.19
450.883	411.19
451.104	422.19
451.324	413.19
451.545	405.19
451.766	392.19
451.986	392.19
452.207	374.19
452.428	377.19
452.648	373.19
452.869	378.19
453.089	374.19
453.31	389.19
453.53	400.19
453.751	383.19
453.971	383.19
454.192	379.19
454.412	377.19
454.633	384.19
454.853	379.19
455.073	386.19
455.294	400.19
455.514	431.19
455.734	410.19
455.955	366.19
456.175	395.19
456.395	382.19
456.616	354.19
456.836	354.19
457.056	358.19
457.276	363.19
457.497	355.19
457.717	358.19
457.937	379.19
458.157	364.19
458.377	377.19
458.598	400.19
458.818	436.19
459.038	471.19
459.258	477.19
459.478	436.19
459.698	410.19
459.918	394.19
460.138	430.19
460.358	431.19
460.578	420.19
460.798	446.19
461.018	422.19
461.238	440.19
461.458	449.19
461.678	434.19
461.898	452.19
462.118	439.19
462.338	445.19
462.558	463.19
462.777	462.19
462.997	483.19
463.217	457.19
463.437	487.19
463.657	462.19
463.876	478.19
464.096	481.19
464.316	461.19
464.536	451.19
464.755	455.19
464.975	427.19
465.195	446.19
465.414	466.19
465.634	439.19
465.854	440.19
466.073	418.19
466.293	416.19
466.512	395.19
466.732	399.19
466.951	419.19
467.171	400.19
467.391	382.19
467.61	399.19
467.829	411.19
468.049	406.19
468.268	380.19
468.488	396.19
468.707	415.19
468.927	393.19
469.146	386.19
469.365	386.19
469.585	370.19
469.804	393.19
470.023	400.19
470.243	421.19
470.462	397.19
470.681	420.19
470.901	406.19
471.12	382.19
471.339	403.19
471.558	408.19
471.777	386.19
471.997	396.19
472.216	411.19
472.435	399.19
472.654	410.19
472.873	386.19
473.092	395.19
473.311	400.19
473.53	402.19
473.749	382.19
473.968	438.19
474.187	511.19
474.406	522.19
474.625	432.19
474.844	404.19
475.063	394.19
475.282	394.19
475.501	395.19
475.72	413.19
475.939	394.19
476.158	397.19
476.377	405.19
476.596	415.19
476.814	406.19
477.033	433.19
477.252	420.19
477.471	423.19
477.69	392.19
477.908	421.19
478.127	428.19
478.346	420.19
478.564	444.19
478.783	443.19
479.002	457.19
479.22	438.19
479.439	453.19
479.658	463.19
479.876	468.19
480.095	452.19
480.313	500.19
480.532	481.19
480.751	471.19
480.969	487.19
481.188	544.19
481.406	535.19
481.624	499.19
481.843	475.19
482.061	461.19
482.28	454.19
482.498	445.19
482.717	461.19
482.935	460.19
483.153	438.19
483.372	448.19
483.59	455.19
483.808	449.19
484.027	452.19
484.245	436.19
484.463	450.19
484.681	467.19
484.9	451.19
485.118	436.19
485.336	477.19
485.554	437.19
485.772	455.19
485.99	465.19
486.209	478.19
486.427	470.19
486.645	471.19
486.863	502.19
487.081	478.19
487.299	480.19
487.517	493.19
487.735	470.19
487.953	475.19
488.171	486.19
488.389	482.19
488.607	472.19
488.825	470.19
489.043	466.19
489.261	479.19
489.479	498.19
489.696	483.19
489.914	469.19
490.132	476.19
490.35	487.19
490.568	478.19
490.786	504.19
491.003	513.19
491.221	524.19
491.439	526.19
491.657	525.19
491.874	521.19
492.092	508.19
492.31	537.19
492.527	526.19
492.745	530.19
492.963	540.19
493.18	539.19
493.398	548.19
493.615	531.19
493.833	554.19
494.05	550.19
494.268	569.19
494.485	551.19
494.703	546.19
494.92	548.19
495.138	543.19
495.355	541.19
495.573	564.19
495.79	547.19
496.008	569.19
496.225	567.19
496.442	567.19
496.66	580.19
496.877	550.19
497.094	570.19
497.312	595.19
497.529	595.19
497.746	596.19
497.963	599.19
498.181	603.19
498.398	605.19
498.615	639.19
498.832	668.19
499.049	659.19
499.267	704.19
499.484	702.19
499.701	787.19
499.918	782.19
500.135	835.19
500.352	853.19
500.569	896.19
500.786	874.19
501.003	870.19
501.22	825.19
501.437	794.19
501.654	749.19
501.871	739.19
502.088	681.19
