Data from 1964.PennyLincolnUp.Lamp.En5.5.200Scan.071719.P1._HRD10591_14-06-08-909.txt Node
Date: Thu Jul 18 14:06:08 EDT 2019
User: cochatt
Spectrometer: HR+D1059
Trigger mode: 1
Integration Time (sec): 1.000000E-1
Scans to average: 1
Electric dark correction enabled: true
Nonlinearity correction enabled: false
Boxcar width: 0
XAxis mode: Wavelengths
Number of Pixels in Spectrum: 2048
>>>>>Begin Spectral Data<<<<<
223.165	-11.38
223.4	-11.38
223.635	-11.38
223.869	-30.38
224.104	-23.38
224.338	-11.38
224.573	-6.38
224.808	-12.38
225.042	-7.38
225.277	-24.38
225.511	0.62
225.746	-3.38
225.98	12.62
226.215	4.62
226.449	16.62
226.683	25.62
226.918	35.62
227.152	34.62
227.387	43.62
227.621	47.62
227.856	46.62
228.09	34.62
228.324	52.62
228.559	46.62
228.793	58.62
229.027	89.62
229.262	101.62
229.496	116.62
229.73	123.62
229.964	147.62
230.199	117.62
230.433	99.62
230.667	104.62
230.901	120.62
231.136	109.62
231.37	108.62
231.604	111.62
231.838	118.62
232.072	95.62
232.306	116.62
232.541	111.62
232.775	128.62
233.009	120.62
233.243	107.62
233.477	115.62
233.711	117.62
233.945	111.62
234.179	118.62
234.413	121.62
234.647	109.62
234.881	111.62
235.115	105.62
235.349	123.62
235.583	126.62
235.817	121.62
236.051	109.62
236.285	120.62
236.519	144.62
236.753	126.62
236.987	149.62
237.221	173.62
237.455	194.62
237.689	162.62
237.922	133.62
238.156	121.62
238.39	126.62
238.624	128.62
238.858	134.62
239.091	120.62
239.325	116.62
239.559	132.62
239.793	120.62
240.027	142.62
240.26	143.62
240.494	158.62
240.728	141.62
240.961	148.62
241.195	150.62
241.429	136.62
241.662	136.62
241.896	154.62
242.13	132.62
242.363	130.62
242.597	126.62
242.83	147.62
243.064	137.62
243.298	143.62
243.531	141.62
243.765	142.62
243.998	145.62
244.232	148.62
244.465	141.62
244.699	142.62
244.932	162.62
245.166	159.62
245.399	161.62
245.633	143.62
245.866	156.62
246.099	147.62
246.333	148.62
246.566	146.62
246.8	160.62
247.033	142.62
247.266	173.62
247.5	158.62
247.733	173.62
247.966	187.62
248.2	180.62
248.433	174.62
248.666	176.62
248.899	178.62
249.133	200.62
249.366	183.62
249.599	191.62
249.832	166.62
250.066	194.62
250.299	181.62
250.532	190.62
250.765	212.62
250.998	225.62
251.231	214.62
251.465	219.62
251.698	214.62
251.931	210.62
252.164	195.62
252.397	207.62
252.63	199.62
252.863	220.62
253.096	230.62
253.329	221.62
253.562	233.62
253.795	248.62
254.028	232.62
254.261	215.62
254.494	217.62
254.727	255.62
254.96	272.62
255.193	266.62
255.426	252.62
255.659	226.62
255.892	227.62
256.124	246.62
256.357	236.62
256.59	239.62
256.823	216.62
257.056	215.62
257.289	221.62
257.521	220.62
257.754	231.62
257.987	226.62
258.22	231.62
258.452	208.62
258.685	218.62
258.918	212.62
259.151	236.62
259.383	229.62
259.616	226.62
259.849	235.62
260.081	263.62
260.314	278.62
260.547	256.62
260.779	249.62
261.012	243.62
261.244	234.62
261.477	237.62
261.71	232.62
261.942	235.62
262.175	239.62
262.407	225.62
262.64	231.62
262.872	226.62
263.105	227.62
263.337	239.62
263.57	227.62
263.802	235.62
264.035	226.62
264.267	224.62
264.499	248.62
264.732	234.62
264.964	236.62
265.197	233.62
265.429	232.62
265.661	229.62
265.894	233.62
266.126	246.62
266.358	238.62
266.591	242.62
266.823	245.62
267.055	255.62
267.287	249.62
267.52	227.62
267.752	235.62
267.984	257.62
268.216	255.62
268.448	230.62
268.681	271.62
268.913	251.62
269.145	285.62
269.377	301.62
269.609	310.62
269.841	297.62
270.073	298.62
270.306	318.62
270.538	355.62
270.77	333.62
271.002	341.62
271.234	309.62
271.466	303.62
271.698	347.62
271.93	335.62
272.162	328.62
272.394	341.62
272.626	312.62
272.858	306.62
273.09	288.62
273.322	303.62
273.553	294.62
273.785	295.62
274.017	282.62
274.249	287.62
274.481	299.62
274.713	297.62
274.945	297.62
275.176	289.62
275.408	285.62
275.64	287.62
275.872	283.62
276.104	310.62
276.335	299.62
276.567	282.62
276.799	318.62
277.031	335.62
277.262	347.62
277.494	327.62
277.726	319.62
277.957	324.62
278.189	303.62
278.421	292.62
278.652	311.62
278.884	286.62
279.115	308.62
279.347	296.62
279.579	306.62
279.81	299.62
280.042	303.62
280.273	306.62
280.505	282.62
280.736	293.62
280.968	296.62
281.199	314.62
281.431	291.62
281.662	300.62
281.894	314.62
282.125	298.62
282.356	324.62
282.588	335.62
282.819	325.62
283.051	306.62
283.282	281.62
283.513	322.62
283.745	322.62
283.976	300.62
284.207	308.62
284.439	332.62
284.67	304.62
284.901	320.62
285.132	313.62
285.364	316.62
285.595	300.62
285.826	321.62
286.057	319.62
286.288	316.62
286.52	311.62
286.751	325.62
286.982	321.62
287.213	327.62
287.444	316.62
287.675	328.62
287.906	333.62
288.138	327.62
288.369	341.62
288.6	340.62
288.831	327.62
289.062	322.62
289.293	324.62
289.524	330.62
289.755	334.62
289.986	331.62
290.217	334.62
290.448	338.62
290.679	342.62
290.91	345.62
291.141	325.62
291.371	319.62
291.602	333.62
291.833	319.62
292.064	315.62
292.295	343.62
292.526	336.62
292.757	361.62
292.987	331.62
293.218	334.62
293.449	328.62
293.68	334.62
293.91	334.62
294.141	332.62
294.372	335.62
294.603	339.62
294.833	336.62
295.064	338.62
295.295	323.62
295.525	322.62
295.756	350.62
295.987	350.62
296.217	355.62
296.448	361.62
296.679	359.62
296.909	338.62
297.14	359.62
297.37	358.62
297.601	355.62
297.831	356.62
298.062	376.62
298.292	343.62
298.523	345.62
298.753	339.62
298.984	354.62
299.214	363.62
299.445	348.62
299.675	370.62
299.905	366.62
300.136	359.62
300.366	356.62
300.597	360.62
300.827	374.62
301.057	362.62
301.288	370.62
301.518	352.62
301.748	376.62
301.979	386.62
302.209	373.62
302.439	398.62
302.669	392.62
302.9	390.62
303.13	355.62
303.36	384.62
303.59	354.62
303.82	370.62
304.051	387.62
304.281	377.62
304.511	367.62
304.741	366.62
304.971	390.62
305.201	391.62
305.431	382.62
305.661	367.62
305.891	359.62
306.121	380.62
306.352	378.62
306.582	366.62
306.812	384.62
307.042	373.62
307.272	388.62
307.502	384.62
307.731	387.62
307.961	382.62
308.191	391.62
308.421	380.62
308.651	363.62
308.881	373.62
309.111	380.62
309.341	400.62
309.571	398.62
309.8	389.62
310.03	389.62
310.26	394.62
310.49	394.62
310.72	423.62
310.949	426.62
311.179	436.62
311.409	423.62
311.639	406.62
311.868	396.62
312.098	414.62
312.328	416.62
312.557	429.62
312.787	407.62
313.017	427.62
313.246	424.62
313.476	431.62
313.706	403.62
313.935	428.62
314.165	419.62
314.394	441.62
314.624	430.62
314.853	440.62
315.083	404.62
315.312	419.62
315.542	413.62
315.771	431.62
316.001	411.62
316.23	421.62
316.46	408.62
316.689	428.62
316.919	418.62
317.148	422.62
317.377	439.62
317.607	466.62
317.836	413.62
318.065	411.62
318.295	431.62
318.524	425.62
318.753	425.62
318.983	427.62
319.212	428.62
319.441	424.62
319.67	423.62
319.9	425.62
320.129	422.62
320.358	412.62
320.587	417.62
320.816	412.62
321.046	452.62
321.275	446.62
321.504	438.62
321.733	440.62
321.962	453.62
322.191	454.62
322.42	468.62
322.649	469.62
322.878	483.62
323.108	472.62
323.337	487.62
323.566	500.62
323.795	533.62
324.024	550.62
324.253	657.62
324.482	890.62
324.71	1327.62
324.939	1773.62
325.168	1506.62
325.397	818.62
325.626	605.62
325.855	535.62
326.084	535.62
326.313	505.62
326.542	495.62
326.77	558.62
326.999	654.62
327.228	815.62
327.457	1163.62
327.686	1348.62
327.914	938.62
328.143	655.62
328.372	615.62
328.6	570.62
328.829	537.62
329.058	558.62
329.287	553.62
329.515	525.62
329.744	532.62
329.972	542.62
330.201	541.62
330.43	580.62
330.658	585.62
330.887	591.62
331.115	571.62
331.344	562.62
331.572	510.62
331.801	512.62
332.03	504.62
332.258	508.62
332.486	498.62
332.715	501.62
332.943	500.62
333.172	494.62
333.4	506.62
333.629	522.62
333.857	544.62
334.085	548.62
334.314	568.62
334.542	582.62
334.771	579.62
334.999	531.62
335.227	522.62
335.455	501.62
335.684	492.62
335.912	522.62
336.14	506.62
336.369	504.62
336.597	495.62
336.825	487.62
337.053	495.62
337.281	469.62
337.51	473.62
337.738	502.62
337.966	491.62
338.194	468.62
338.422	484.62
338.65	467.62
338.878	499.62
339.106	477.62
339.334	491.62
339.562	460.62
339.79	478.62
340.018	478.62
340.246	471.62
340.474	478.62
340.702	482.62
340.93	458.62
341.158	458.62
341.386	468.62
341.614	472.62
341.842	473.62
342.07	457.62
342.298	443.62
342.526	459.62
342.754	470.62
342.981	439.62
343.209	436.62
343.437	452.62
343.665	481.62
343.893	485.62
344.12	502.62
344.348	486.62
344.576	477.62
344.804	476.62
345.031	477.62
345.259	484.62
345.487	457.62
345.714	461.62
345.942	463.62
346.17	444.62
346.397	451.62
346.625	452.62
346.853	438.62
347.08	439.62
347.308	429.62
347.535	432.62
347.763	453.62
347.99	455.62
348.218	473.62
348.445	466.62
348.673	441.62
348.9	450.62
349.128	438.62
349.355	429.62
349.583	440.62
349.81	408.62
350.037	420.62
350.265	422.62
350.492	439.62
350.72	429.62
350.947	456.62
351.174	444.62
351.402	444.62
351.629	431.62
351.856	441.62
352.083	448.62
352.311	472.62
352.538	450.62
352.765	438.62
352.992	442.62
353.22	442.62
353.447	424.62
353.674	428.62
353.901	422.62
354.128	408.62
354.355	401.62
354.583	422.62
354.81	406.62
355.037	420.62
355.264	408.62
355.491	400.62
355.718	408.62
355.945	403.62
356.172	416.62
356.399	406.62
356.626	391.62
356.853	400.62
357.08	396.62
357.307	413.62
357.534	406.62
357.761	412.62
357.988	427.62
358.215	428.62
358.441	405.62
358.668	406.62
358.895	432.62
359.122	420.62
359.349	411.62
359.576	437.62
359.802	447.62
360.029	476.62
360.256	459.62
360.483	432.62
360.709	427.62
360.936	407.62
361.163	420.62
361.39	440.62
361.616	438.62
361.843	435.62
362.07	409.62
362.296	443.62
362.523	430.62
362.749	429.62
362.976	419.62
363.203	418.62
363.429	412.62
363.656	431.62
363.882	435.62
364.109	390.62
364.335	415.62
364.562	416.62
364.788	406.62
365.015	406.62
365.241	420.62
365.468	403.62
365.694	417.62
365.92	414.62
366.147	414.62
366.373	408.62
366.599	408.62
366.826	396.62
367.052	393.62
367.278	390.62
367.505	391.62
367.731	399.62
367.957	412.62
368.184	410.62
368.41	410.62
368.636	417.62
368.862	442.62
369.089	415.62
369.315	415.62
369.541	396.62
369.767	421.62
369.993	395.62
370.219	412.62
370.445	409.62
370.672	398.62
370.898	382.62
371.124	423.62
371.35	391.62
371.576	405.62
371.802	391.62
372.028	414.62
372.254	394.62
372.48	396.62
372.706	432.62
372.932	428.62
373.158	409.62
373.384	417.62
373.61	390.62
373.835	413.62
374.061	407.62
374.287	409.62
374.513	412.62
374.739	424.62
374.965	430.62
375.191	426.62
375.416	427.62
375.642	397.62
375.868	406.62
376.094	416.62
376.319	421.62
376.545	418.62
376.771	415.62
376.997	417.62
377.222	401.62
377.448	399.62
377.674	390.62
377.899	404.62
378.125	406.62
378.35	391.62
378.576	395.62
378.802	382.62
379.027	396.62
379.253	398.62
379.478	385.62
379.704	400.62
379.929	387.62
380.155	409.62
380.38	408.62
380.606	398.62
380.831	413.62
381.057	408.62
381.282	397.62
381.507	412.62
381.733	416.62
381.958	388.62
382.184	410.62
382.409	398.62
382.634	398.62
382.86	423.62
383.085	439.62
383.31	423.62
383.535	434.62
383.761	422.62
383.986	422.62
384.211	439.62
384.436	431.62
384.662	426.62
384.887	441.62
385.112	418.62
385.337	421.62
385.562	452.62
385.787	423.62
386.013	444.62
386.238	451.62
386.463	437.62
386.688	439.62
386.913	421.62
387.138	452.62
387.363	459.62
387.588	447.62
387.813	462.62
388.038	440.62
388.263	450.62
388.488	439.62
388.713	432.62
388.938	452.62
389.163	436.62
389.387	443.62
389.612	447.62
389.837	440.62
390.062	430.62
390.287	455.62
390.512	444.62
390.736	436.62
390.961	440.62
391.186	451.62
391.411	450.62
391.636	452.62
391.86	443.62
392.085	462.62
392.31	470.62
392.534	448.62
392.759	443.62
392.984	448.62
393.208	443.62
393.433	462.62
393.658	450.62
393.882	442.62
394.107	448.62
394.331	442.62
394.556	448.62
394.78	440.62
395.005	459.62
395.229	435.62
395.454	470.62
395.678	487.62
395.903	477.62
396.127	470.62
396.352	463.62
396.576	456.62
396.801	458.62
397.025	443.62
397.249	456.62
397.474	485.62
397.698	477.62
397.922	481.62
398.147	476.62
398.371	482.62
398.595	472.62
398.82	477.62
399.044	512.62
399.268	523.62
399.492	588.62
399.717	589.62
399.941	623.62
400.165	642.62
400.389	612.62
400.613	567.62
400.837	541.62
401.062	488.62
401.286	489.62
401.51	506.62
401.734	499.62
401.958	503.62
402.182	529.62
402.406	486.62
402.63	514.62
402.854	534.62
403.078	513.62
403.302	535.62
403.526	519.62
403.75	510.62
403.974	499.62
404.198	536.62
404.422	531.62
404.645	540.62
404.869	543.62
405.093	536.62
405.317	608.62
405.541	608.62
405.765	585.62
405.988	538.62
406.212	549.62
406.436	592.62
406.66	542.62
406.883	531.62
407.107	580.62
407.331	602.62
407.555	664.62
407.778	657.62
408.002	594.62
408.226	559.62
408.449	554.62
408.673	568.62
408.896	569.62
409.12	601.62
409.344	574.62
409.567	528.62
409.791	504.62
410.014	542.62
410.238	531.62
410.461	506.62
410.685	543.62
410.908	530.62
411.132	542.62
411.355	581.62
411.578	540.62
411.802	534.62
412.025	489.62
412.249	523.62
412.472	548.62
412.695	552.62
412.919	555.62
413.142	536.62
413.365	501.62
413.589	492.62
413.812	489.62
414.035	477.62
414.258	486.62
414.482	492.62
414.705	483.62
414.928	477.62
415.151	476.62
415.374	473.62
415.597	465.62
415.821	484.62
416.044	460.62
416.267	490.62
416.49	480.62
416.713	467.62
416.936	489.62
417.159	492.62
417.382	494.62
417.605	471.62
417.828	502.62
418.051	502.62
418.274	480.62
418.497	487.62
418.72	488.62
418.943	460.62
419.166	498.62
419.389	498.62
419.611	518.62
419.834	506.62
420.057	516.62
420.28	526.62
420.503	486.62
420.726	494.62
420.948	494.62
421.171	543.62
421.394	554.62
421.617	516.62
421.839	485.62
422.062	500.62
422.285	512.62
422.507	538.62
422.73	594.62
422.953	601.62
423.175	556.62
423.398	526.62
423.621	493.62
423.843	537.62
424.066	526.62
424.288	532.62
424.511	519.62
424.733	577.62
424.956	638.62
425.178	596.62
425.401	626.62
425.623	622.62
425.846	546.62
426.068	532.62
426.291	523.62
426.513	528.62
426.735	526.62
426.958	539.62
427.18	619.62
427.402	732.62
427.625	790.62
427.847	668.62
428.069	597.62
428.292	540.62
428.514	516.62
428.736	467.62
428.958	518.62
429.181	470.62
429.403	490.62
429.625	456.62
429.847	492.62
430.069	561.62
430.292	553.62
430.514	477.62
430.736	475.62
430.958	466.62
431.18	472.62
431.402	461.62
431.624	458.62
431.846	456.62
432.068	460.62
432.29	469.62
432.512	448.62
432.734	445.62
432.956	448.62
433.178	470.62
433.4	466.62
433.622	458.62
433.844	448.62
434.066	445.62
434.287	447.62
434.509	464.62
434.731	461.62
434.953	485.62
435.175	493.62
435.397	489.62
435.618	522.62
435.84	526.62
436.062	603.62
436.284	672.62
436.505	588.62
436.727	505.62
436.949	480.62
437.17	475.62
437.392	472.62
437.614	465.62
437.835	484.62
438.057	566.62
438.278	642.62
438.5	663.62
438.721	700.62
438.943	661.62
439.165	562.62
439.386	517.62
439.608	502.62
439.829	521.62
440.05	510.62
440.272	551.62
440.493	523.62
440.715	484.62
440.936	468.62
441.158	485.62
441.379	463.62
441.6	487.62
441.822	524.62
442.043	548.62
442.264	599.62
442.486	646.62
442.707	550.62
442.928	520.62
443.149	517.62
443.371	520.62
443.592	573.62
443.813	652.62
444.034	670.62
444.255	600.62
444.476	539.62
444.698	527.62
444.919	538.62
445.14	648.62
445.361	596.62
445.582	549.62
445.803	608.62
446.024	676.62
446.245	648.62
446.466	638.62
446.687	532.62
446.908	509.62
447.129	465.62
447.35	462.62
447.571	463.62
447.792	464.62
448.013	462.62
448.234	469.62
448.455	526.62
448.675	598.62
448.896	677.62
449.117	599.62
449.338	556.62
449.559	660.62
449.779	724.62
450	565.62
450.221	471.62
450.442	461.62
450.662	432.62
450.883	425.62
451.104	469.62
451.324	459.62
451.545	441.62
451.766	430.62
451.986	410.62
452.207	410.62
452.428	412.62
452.648	406.62
452.869	409.62
453.089	432.62
453.31	407.62
453.53	397.62
453.751	401.62
453.971	408.62
454.192	428.62
454.412	410.62
454.633	400.62
454.853	428.62
455.073	410.62
455.294	441.62
455.514	495.62
455.734	462.62
455.955	404.62
456.175	404.62
456.395	401.62
456.616	387.62
456.836	390.62
457.056	381.62
457.276	378.62
457.497	372.62
457.717	388.62
457.937	404.62
458.157	414.62
458.377	392.62
458.598	423.62
458.818	472.62
459.038	494.62
459.258	500.62
459.478	480.62
459.698	436.62
459.918	433.62
460.138	444.62
460.358	463.62
460.578	470.62
460.798	478.62
461.018	479.62
461.238	463.62
461.458	492.62
461.678	470.62
461.898	456.62
462.118	471.62
462.338	458.62
462.558	473.62
462.777	478.62
462.997	528.62
463.217	512.62
463.437	522.62
463.657	513.62
463.876	505.62
464.096	491.62
464.316	487.62
464.536	506.62
464.755	502.62
464.975	500.62
465.195	518.62
465.414	510.62
465.634	476.62
465.854	461.62
466.073	449.62
466.293	431.62
466.512	414.62
466.732	412.62
466.951	423.62
467.171	428.62
467.391	424.62
467.61	454.62
467.829	449.62
468.049	426.62
468.268	440.62
468.488	402.62
468.707	423.62
468.927	404.62
469.146	412.62
469.365	414.62
469.585	419.62
469.804	396.62
470.023	426.62
470.243	454.62
470.462	442.62
470.681	436.62
470.901	448.62
471.12	420.62
471.339	446.62
471.558	431.62
471.777	437.62
471.997	423.62
472.216	439.62
472.435	472.62
472.654	429.62
472.873	418.62
473.092	411.62
473.311	429.62
473.53	436.62
473.749	432.62
473.968	475.62
474.187	554.62
474.406	558.62
474.625	469.62
474.844	439.62
475.063	412.62
475.282	432.62
475.501	444.62
475.72	439.62
475.939	440.62
476.158	452.62
476.377	443.62
476.596	438.62
476.814	437.62
477.033	429.62
477.252	463.62
477.471	446.62
477.69	459.62
477.908	456.62
478.127	460.62
478.346	464.62
478.564	505.62
478.783	483.62
479.002	503.62
479.22	515.62
479.439	507.62
479.658	506.62
479.876	500.62
480.095	517.62
480.313	557.62
480.532	535.62
480.751	531.62
480.969	545.62
481.188	572.62
481.406	580.62
481.624	527.62
481.843	532.62
482.061	505.62
482.28	498.62
482.498	498.62
482.717	475.62
482.935	500.62
483.153	495.62
483.372	478.62
483.59	504.62
483.808	498.62
484.027	499.62
484.245	487.62
484.463	483.62
484.681	490.62
484.9	496.62
485.118	509.62
485.336	502.62
485.554	531.62
485.772	498.62
485.99	496.62
486.209	516.62
486.427	499.62
486.645	525.62
486.863	549.62
487.081	525.62
487.299	518.62
487.517	534.62
487.735	532.62
487.953	508.62
488.171	510.62
488.389	509.62
488.607	515.62
488.825	533.62
489.043	534.62
489.261	515.62
489.479	524.62
489.696	537.62
489.914	543.62
490.132	518.62
490.35	536.62
490.568	563.62
490.786	556.62
491.003	562.62
491.221	567.62
491.439	564.62
491.657	570.62
491.874	604.62
492.092	621.62
492.31	585.62
492.527	606.62
492.745	600.62
492.963	590.62
493.18	603.62
493.398	623.62
493.615	591.62
493.833	606.62
494.05	620.62
494.268	620.62
494.485	590.62
494.703	622.62
494.92	606.62
495.138	611.62
495.355	630.62
495.573	620.62
495.79	618.62
496.008	630.62
496.225	626.62
496.442	601.62
496.66	630.62
496.877	628.62
497.094	606.62
497.312	631.62
497.529	644.62
497.746	645.62
497.963	638.62
498.181	685.62
498.398	692.62
498.615	698.62
498.832	711.62
499.049	754.62
499.267	747.62
499.484	776.62
499.701	797.62
499.918	861.62
500.135	876.62
500.352	958.62
500.569	948.62
500.786	919.62
501.003	920.62
501.22	912.62
501.437	887.62
501.654	829.62
501.871	808.62
