Data from 1964.PennyLincolnUp.Lamp.En5.5.200Scan.071719.P1._HRD10591_14-04-40-908.txt Node
Date: Thu Jul 18 14:04:40 EDT 2019
User: cochatt
Spectrometer: HR+D1059
Trigger mode: 1
Integration Time (sec): 1.000000E-1
Scans to average: 1
Electric dark correction enabled: true
Nonlinearity correction enabled: false
Boxcar width: 0
XAxis mode: Wavelengths
Number of Pixels in Spectrum: 2048
>>>>>Begin Spectral Data<<<<<
223.165	-4.19
223.4	-4.19
223.635	-4.19
223.869	-18.19
224.104	5.81
224.338	-18.19
224.573	-17.19
224.808	-4.19
225.042	1.81
225.277	-7.19
225.511	-18.19
225.746	4.81
225.98	4.81
226.215	4.81
226.449	17.81
226.683	29.81
226.918	1.81
227.152	15.81
227.387	38.81
227.621	41.81
227.856	46.81
228.09	38.81
228.324	39.81
228.559	59.81
228.793	45.81
229.027	84.81
229.262	83.81
229.496	99.81
229.73	122.81
229.964	129.81
230.199	117.81
230.433	105.81
230.667	97.81
230.901	93.81
231.136	103.81
231.37	106.81
231.604	105.81
231.838	109.81
232.072	102.81
232.306	102.81
232.541	106.81
232.775	109.81
233.009	122.81
233.243	108.81
233.477	109.81
233.711	110.81
233.945	108.81
234.179	115.81
234.413	113.81
234.647	121.81
234.881	122.81
235.115	117.81
235.349	118.81
235.583	119.81
235.817	116.81
236.051	117.81
236.285	123.81
236.519	116.81
236.753	111.81
236.987	141.81
237.221	149.81
237.455	199.81
237.689	161.81
237.922	129.81
238.156	143.81
238.39	119.81
238.624	113.81
238.858	118.81
239.091	126.81
239.325	126.81
239.559	113.81
239.793	132.81
240.027	131.81
240.26	146.81
240.494	126.81
240.728	133.81
240.961	126.81
241.195	129.81
241.429	133.81
241.662	146.81
241.896	133.81
242.13	135.81
242.363	145.81
242.597	158.81
242.83	143.81
243.064	152.81
243.298	129.81
243.531	136.81
243.765	130.81
243.998	141.81
244.232	166.81
244.465	141.81
244.699	150.81
244.932	154.81
245.166	143.81
245.399	151.81
245.633	161.81
245.866	139.81
246.099	145.81
246.333	144.81
246.566	143.81
246.8	147.81
247.033	153.81
247.266	179.81
247.5	141.81
247.733	178.81
247.966	175.81
248.2	177.81
248.433	167.81
248.666	183.81
248.899	183.81
249.133	190.81
249.366	196.81
249.599	178.81
249.832	172.81
250.066	201.81
250.299	185.81
250.532	190.81
250.765	202.81
250.998	198.81
251.231	227.81
251.465	209.81
251.698	205.81
251.931	199.81
252.164	190.81
252.397	186.81
252.63	180.81
252.863	205.81
253.096	228.81
253.329	215.81
253.562	222.81
253.795	219.81
254.028	225.81
254.261	199.81
254.494	225.81
254.727	236.81
254.96	252.81
255.193	256.81
255.426	230.81
255.659	233.81
255.892	211.81
256.124	239.81
256.357	227.81
256.59	210.81
256.823	219.81
257.056	216.81
257.289	236.81
257.521	202.81
257.754	223.81
257.987	204.81
258.22	217.81
258.452	225.81
258.685	221.81
258.918	207.81
259.151	211.81
259.383	231.81
259.616	233.81
259.849	229.81
260.081	242.81
260.314	261.81
260.547	244.81
260.779	254.81
261.012	242.81
261.244	215.81
261.477	234.81
261.71	218.81
261.942	216.81
262.175	235.81
262.407	235.81
262.64	228.81
262.872	235.81
263.105	227.81
263.337	215.81
263.57	215.81
263.802	225.81
264.035	225.81
264.267	233.81
264.499	222.81
264.732	221.81
264.964	234.81
265.197	213.81
265.429	227.81
265.661	234.81
265.894	233.81
266.126	225.81
266.358	229.81
266.591	238.81
266.823	241.81
267.055	252.81
267.287	257.81
267.52	230.81
267.752	257.81
267.984	242.81
268.216	260.81
268.448	260.81
268.681	266.81
268.913	273.81
269.145	259.81
269.377	293.81
269.609	300.81
269.841	273.81
270.073	286.81
270.306	305.81
270.538	293.81
270.77	322.81
271.002	311.81
271.234	273.81
271.466	312.81
271.698	320.81
271.93	321.81
272.162	314.81
272.394	305.81
272.626	308.81
272.858	299.81
273.09	293.81
273.322	281.81
273.553	286.81
273.785	285.81
274.017	284.81
274.249	278.81
274.481	303.81
274.713	257.81
274.945	290.81
275.176	292.81
275.408	286.81
275.64	256.81
275.872	281.81
276.104	296.81
276.335	276.81
276.567	297.81
276.799	313.81
277.031	295.81
277.262	318.81
277.494	323.81
277.726	326.81
277.957	297.81
278.189	313.81
278.421	295.81
278.652	287.81
278.884	292.81
279.115	285.81
279.347	293.81
279.579	292.81
279.81	305.81
280.042	310.81
280.273	282.81
280.505	288.81
280.736	286.81
280.968	280.81
281.199	309.81
281.431	285.81
281.662	306.81
281.894	295.81
282.125	284.81
282.356	299.81
282.588	317.81
282.819	307.81
283.051	292.81
283.282	291.81
283.513	307.81
283.745	301.81
283.976	300.81
284.207	298.81
284.439	328.81
284.67	318.81
284.901	300.81
285.132	295.81
285.364	296.81
285.595	302.81
285.826	316.81
286.057	313.81
286.288	329.81
286.52	305.81
286.751	318.81
286.982	313.81
287.213	311.81
287.444	324.81
287.675	330.81
287.906	332.81
288.138	342.81
288.369	335.81
288.6	337.81
288.831	324.81
289.062	324.81
289.293	322.81
289.524	341.81
289.755	313.81
289.986	315.81
290.217	326.81
290.448	324.81
290.679	330.81
290.91	310.81
291.141	306.81
291.371	325.81
291.602	318.81
291.833	323.81
292.064	324.81
292.295	310.81
292.526	340.81
292.757	343.81
292.987	319.81
293.218	317.81
293.449	312.81
293.68	325.81
293.91	335.81
294.141	332.81
294.372	343.81
294.603	335.81
294.833	350.81
295.064	325.81
295.295	345.81
295.525	336.81
295.756	332.81
295.987	333.81
296.217	342.81
296.448	335.81
296.679	341.81
296.909	349.81
297.14	344.81
297.37	339.81
297.601	320.81
297.831	342.81
298.062	320.81
298.292	320.81
298.523	354.81
298.753	346.81
298.984	364.81
299.214	352.81
299.445	347.81
299.675	351.81
299.905	349.81
300.136	356.81
300.366	365.81
300.597	358.81
300.827	356.81
301.057	363.81
301.288	355.81
301.518	345.81
301.748	339.81
301.979	364.81
302.209	353.81
302.439	372.81
302.669	351.81
302.9	352.81
303.13	371.81
303.36	388.81
303.59	379.81
303.82	373.81
304.051	365.81
304.281	373.81
304.511	377.81
304.741	373.81
304.971	355.81
305.201	367.81
305.431	370.81
305.661	379.81
305.891	378.81
306.121	369.81
306.352	383.81
306.582	364.81
306.812	380.81
307.042	374.81
307.272	386.81
307.502	373.81
307.731	363.81
307.961	380.81
308.191	381.81
308.421	377.81
308.651	392.81
308.881	362.81
309.111	403.81
309.341	380.81
309.571	385.81
309.8	359.81
310.03	376.81
310.26	378.81
310.49	389.81
310.72	408.81
310.949	401.81
311.179	414.81
311.409	407.81
311.639	397.81
311.868	399.81
312.098	415.81
312.328	404.81
312.557	409.81
312.787	413.81
313.017	418.81
313.246	407.81
313.476	390.81
313.706	407.81
313.935	413.81
314.165	410.81
314.394	406.81
314.624	398.81
314.853	410.81
315.083	403.81
315.312	398.81
315.542	411.81
315.771	380.81
316.001	390.81
316.23	413.81
316.46	405.81
316.689	415.81
316.919	405.81
317.148	410.81
317.377	424.81
317.607	412.81
317.836	405.81
318.065	401.81
318.295	410.81
318.524	413.81
318.753	399.81
318.983	402.81
319.212	385.81
319.441	389.81
319.67	409.81
319.9	408.81
320.129	421.81
320.358	431.81
320.587	399.81
320.816	422.81
321.046	401.81
321.275	422.81
321.504	415.81
321.733	412.81
321.962	428.81
322.191	425.81
322.42	439.81
322.649	422.81
322.878	459.81
323.108	445.81
323.337	475.81
323.566	492.81
323.795	486.81
324.024	536.81
324.253	604.81
324.482	811.81
324.71	1144.81
324.939	1567.81
325.168	1294.81
325.397	730.81
325.626	554.81
325.855	500.81
326.084	484.81
326.313	453.81
326.542	485.81
326.77	486.81
326.999	573.81
327.228	755.81
327.457	1007.81
327.686	1169.81
327.914	811.81
328.143	618.81
328.372	549.81
328.6	531.81
328.829	502.81
329.058	537.81
329.287	505.81
329.515	519.81
329.744	504.81
329.972	506.81
330.201	527.81
330.43	546.81
330.658	542.81
330.887	551.81
331.115	544.81
331.344	521.81
331.572	499.81
331.801	485.81
332.03	462.81
332.258	483.81
332.486	467.81
332.715	478.81
332.943	485.81
333.172	499.81
333.4	499.81
333.629	517.81
333.857	500.81
334.085	516.81
334.314	547.81
334.542	551.81
334.771	569.81
334.999	500.81
335.227	501.81
335.455	485.81
335.684	493.81
335.912	484.81
336.14	476.81
336.369	492.81
336.597	501.81
336.825	464.81
337.053	480.81
337.281	471.81
337.51	472.81
337.738	473.81
337.966	460.81
338.194	472.81
338.422	476.81
338.65	469.81
338.878	462.81
339.106	467.81
339.334	463.81
339.562	444.81
339.79	467.81
340.018	452.81
340.246	455.81
340.474	459.81
340.702	459.81
340.93	474.81
341.158	452.81
341.386	447.81
341.614	438.81
341.842	450.81
342.07	474.81
342.298	447.81
342.526	435.81
342.754	440.81
342.981	450.81
343.209	451.81
343.437	452.81
343.665	439.81
343.893	469.81
344.12	463.81
344.348	469.81
344.576	461.81
344.804	465.81
345.031	477.81
345.259	482.81
345.487	437.81
345.714	457.81
345.942	450.81
346.17	434.81
346.397	433.81
346.625	427.81
346.853	431.81
347.08	424.81
347.308	444.81
347.535	429.81
347.763	431.81
347.99	437.81
348.218	413.81
348.445	426.81
348.673	434.81
348.9	426.81
349.128	435.81
349.355	409.81
349.583	423.81
349.81	425.81
350.037	425.81
350.265	433.81
350.492	421.81
350.72	425.81
350.947	419.81
351.174	437.81
351.402	410.81
351.629	430.81
351.856	420.81
352.083	432.81
352.311	435.81
352.538	437.81
352.765	438.81
352.992	433.81
353.22	433.81
353.447	418.81
353.674	412.81
353.901	419.81
354.128	399.81
354.355	389.81
354.583	397.81
354.81	404.81
355.037	418.81
355.264	425.81
355.491	406.81
355.718	395.81
355.945	397.81
356.172	414.81
356.399	392.81
356.626	385.81
356.853	409.81
357.08	392.81
357.307	403.81
357.534	404.81
357.761	400.81
357.988	416.81
358.215	392.81
358.441	391.81
358.668	409.81
358.895	415.81
359.122	412.81
359.349	411.81
359.576	386.81
359.802	427.81
360.029	442.81
360.256	462.81
360.483	438.81
360.709	433.81
360.936	421.81
361.163	437.81
361.39	418.81
361.616	418.81
361.843	402.81
362.07	427.81
362.296	419.81
362.523	438.81
362.749	403.81
362.976	401.81
363.203	420.81
363.429	411.81
363.656	408.81
363.882	416.81
364.109	407.81
364.335	403.81
364.562	406.81
364.788	404.81
365.015	392.81
365.241	395.81
365.468	412.81
365.694	395.81
365.92	399.81
366.147	419.81
366.373	386.81
366.599	405.81
366.826	398.81
367.052	380.81
367.278	392.81
367.505	391.81
367.731	403.81
367.957	389.81
368.184	422.81
368.41	403.81
368.636	415.81
368.862	416.81
369.089	403.81
369.315	396.81
369.541	416.81
369.767	409.81
369.993	400.81
370.219	400.81
370.445	389.81
370.672	415.81
370.898	405.81
371.124	390.81
371.35	422.81
371.576	406.81
371.802	408.81
372.028	406.81
372.254	420.81
372.48	405.81
372.706	401.81
372.932	414.81
373.158	372.81
373.384	404.81
373.61	408.81
373.835	389.81
374.061	408.81
374.287	413.81
374.513	413.81
374.739	418.81
374.965	414.81
375.191	416.81
375.416	381.81
375.642	391.81
375.868	395.81
376.094	413.81
376.319	424.81
376.545	399.81
376.771	405.81
376.997	397.81
377.222	379.81
377.448	391.81
377.674	402.81
377.899	389.81
378.125	405.81
378.35	394.81
378.576	385.81
378.802	390.81
379.027	390.81
379.253	386.81
379.478	407.81
379.704	382.81
379.929	391.81
380.155	379.81
380.38	405.81
380.606	377.81
380.831	379.81
381.057	392.81
381.282	394.81
381.507	394.81
381.733	394.81
381.958	388.81
382.184	415.81
382.409	414.81
382.634	395.81
382.86	411.81
383.085	423.81
383.31	388.81
383.535	406.81
383.761	409.81
383.986	413.81
384.211	414.81
384.436	412.81
384.662	431.81
384.887	393.81
385.112	424.81
385.337	418.81
385.562	439.81
385.787	440.81
386.013	428.81
386.238	445.81
386.463	441.81
386.688	425.81
386.913	436.81
387.138	441.81
387.363	444.81
387.588	429.81
387.813	423.81
388.038	424.81
388.263	424.81
388.488	429.81
388.713	436.81
388.938	436.81
389.163	411.81
389.387	421.81
389.612	418.81
389.837	407.81
390.062	437.81
390.287	425.81
390.512	421.81
390.736	443.81
390.961	451.81
391.186	439.81
391.411	428.81
391.636	433.81
391.86	452.81
392.085	443.81
392.31	445.81
392.534	452.81
392.759	445.81
392.984	431.81
393.208	435.81
393.433	450.81
393.658	457.81
393.882	433.81
394.107	443.81
394.331	443.81
394.556	441.81
394.78	445.81
395.005	444.81
395.229	439.81
395.454	462.81
395.678	438.81
395.903	463.81
396.127	464.81
396.352	469.81
396.576	454.81
396.801	438.81
397.025	437.81
397.249	453.81
397.474	442.81
397.698	438.81
397.922	485.81
398.147	471.81
398.371	464.81
398.595	484.81
398.82	464.81
399.044	497.81
399.268	540.81
399.492	553.81
399.717	567.81
399.941	614.81
400.165	605.81
400.389	615.81
400.613	551.81
400.837	515.81
401.062	502.81
401.286	511.81
401.51	489.81
401.734	489.81
401.958	485.81
402.182	483.81
402.406	498.81
402.63	502.81
402.854	521.81
403.078	501.81
403.302	516.81
403.526	504.81
403.75	523.81
403.974	505.81
404.198	524.81
404.422	518.81
404.645	504.81
404.869	505.81
405.093	555.81
405.317	564.81
405.541	579.81
405.765	533.81
405.988	514.81
406.212	494.81
406.436	535.81
406.66	548.81
406.883	533.81
407.107	563.81
407.331	577.81
407.555	641.81
407.778	645.81
408.002	599.81
408.226	561.81
408.449	552.81
408.673	529.81
408.896	577.81
409.12	589.81
409.344	564.81
409.567	526.81
409.791	523.81
410.014	494.81
410.238	495.81
410.461	507.81
410.685	505.81
410.908	528.81
411.132	543.81
411.355	557.81
411.578	543.81
411.802	514.81
412.025	497.81
412.249	510.81
412.472	498.81
412.695	546.81
412.919	521.81
413.142	521.81
413.365	494.81
413.589	509.81
413.812	488.81
414.035	481.81
414.258	488.81
414.482	477.81
414.705	479.81
414.928	472.81
415.151	467.81
415.374	457.81
415.597	489.81
415.821	456.81
416.044	468.81
416.267	449.81
416.49	440.81
416.713	460.81
416.936	462.81
417.159	455.81
417.382	451.81
417.605	479.81
417.828	468.81
418.051	461.81
418.274	475.81
418.497	459.81
418.72	481.81
418.943	467.81
419.166	483.81
419.389	522.81
419.611	509.81
419.834	494.81
420.057	489.81
420.28	493.81
420.503	456.81
420.726	497.81
420.948	473.81
421.171	519.81
421.394	538.81
421.617	495.81
421.839	477.81
422.062	505.81
422.285	517.81
422.507	550.81
422.73	597.81
422.953	592.81
423.175	534.81
423.398	499.81
423.621	489.81
423.843	509.81
424.066	511.81
424.288	514.81
424.511	528.81
424.733	556.81
424.956	622.81
425.178	585.81
425.401	569.81
425.623	599.81
425.846	527.81
426.068	493.81
426.291	516.81
426.513	506.81
426.735	520.81
426.958	533.81
427.18	606.81
427.402	710.81
427.625	720.81
427.847	638.81
428.069	558.81
428.292	517.81
428.514	483.81
428.736	456.81
428.958	455.81
429.181	460.81
429.403	449.81
429.625	473.81
429.847	482.81
430.069	515.81
430.292	537.81
430.514	473.81
430.736	453.81
430.958	455.81
431.18	442.81
431.402	435.81
431.624	437.81
431.846	439.81
432.068	431.81
432.29	446.81
432.512	403.81
432.734	455.81
432.956	436.81
433.178	450.81
433.4	457.81
433.622	435.81
433.844	455.81
434.066	430.81
434.287	465.81
434.509	440.81
434.731	417.81
434.953	448.81
435.175	477.81
435.397	516.81
435.618	503.81
435.84	517.81
436.062	594.81
436.284	613.81
436.505	528.81
436.727	471.81
436.949	468.81
437.17	458.81
437.392	439.81
437.614	459.81
437.835	485.81
438.057	551.81
438.278	636.81
438.5	627.81
438.721	661.81
438.943	648.81
439.165	525.81
439.386	491.81
439.608	491.81
439.829	486.81
440.05	494.81
440.272	538.81
440.493	513.81
440.715	490.81
440.936	462.81
441.158	462.81
441.379	458.81
441.6	477.81
441.822	473.81
442.043	501.81
442.264	572.81
442.486	612.81
442.707	514.81
442.928	493.81
443.149	511.81
443.371	523.81
443.592	549.81
443.813	618.81
444.034	638.81
444.255	551.81
444.476	499.81
444.698	516.81
444.919	508.81
445.14	628.81
445.361	558.81
445.582	554.81
445.803	563.81
446.024	614.81
446.245	657.81
446.466	565.81
446.687	498.81
446.908	454.81
447.129	478.81
447.35	456.81
447.571	458.81
447.792	445.81
448.013	457.81
448.234	457.81
448.455	502.81
448.675	577.81
448.896	656.81
449.117	563.81
449.338	535.81
449.559	625.81
449.779	703.81
450	553.81
450.221	469.81
450.442	451.81
450.662	445.81
450.883	427.81
451.104	463.81
451.324	415.81
451.545	420.81
451.766	415.81
451.986	400.81
452.207	409.81
452.428	390.81
452.648	405.81
452.869	398.81
453.089	403.81
453.31	408.81
453.53	399.81
453.751	433.81
453.971	393.81
454.192	414.81
454.412	395.81
454.633	402.81
454.853	395.81
455.073	381.81
455.294	410.81
455.514	455.81
455.734	447.81
455.955	396.81
456.175	409.81
456.395	389.81
456.616	377.81
456.836	378.81
457.056	367.81
457.276	373.81
457.497	373.81
457.717	390.81
457.937	394.81
458.157	427.81
458.377	408.81
458.598	415.81
458.818	424.81
459.038	488.81
459.258	515.81
459.478	452.81
459.698	422.81
459.918	431.81
460.138	474.81
460.358	463.81
460.578	456.81
460.798	453.81
461.018	455.81
461.238	461.81
461.458	465.81
461.678	458.81
461.898	466.81
462.118	440.81
462.338	474.81
462.558	461.81
462.777	506.81
462.997	511.81
463.217	509.81
463.437	537.81
463.657	512.81
463.876	503.81
464.096	493.81
464.316	479.81
464.536	513.81
464.755	485.81
464.975	487.81
465.195	499.81
465.414	507.81
465.634	471.81
465.854	467.81
466.073	454.81
466.293	431.81
466.512	420.81
466.732	448.81
466.951	413.81
467.171	398.81
467.391	427.81
467.61	435.81
467.829	419.81
468.049	424.81
468.268	419.81
468.488	399.81
468.707	413.81
468.927	402.81
469.146	398.81
469.365	416.81
469.585	439.81
469.804	420.81
470.023	423.81
470.243	412.81
470.462	440.81
470.681	432.81
470.901	427.81
471.12	418.81
471.339	422.81
471.558	426.81
471.777	434.81
471.997	403.81
472.216	408.81
472.435	469.81
472.654	434.81
472.873	420.81
473.092	432.81
473.311	414.81
473.53	421.81
473.749	420.81
473.968	445.81
474.187	534.81
474.406	556.81
474.625	450.81
474.844	422.81
475.063	430.81
475.282	408.81
475.501	402.81
475.72	428.81
475.939	410.81
476.158	423.81
476.377	435.81
476.596	444.81
476.814	443.81
477.033	436.81
477.252	447.81
477.471	463.81
477.69	435.81
477.908	444.81
478.127	443.81
478.346	447.81
478.564	486.81
478.783	477.81
479.002	465.81
479.22	477.81
479.439	496.81
479.658	509.81
479.876	523.81
480.095	505.81
480.313	518.81
480.532	505.81
480.751	527.81
480.969	504.81
481.188	558.81
481.406	554.81
481.624	535.81
481.843	492.81
482.061	486.81
482.28	469.81
482.498	483.81
482.717	486.81
482.935	490.81
483.153	487.81
483.372	485.81
483.59	462.81
483.808	475.81
484.027	503.81
484.245	478.81
484.463	504.81
484.681	491.81
484.9	495.81
485.118	501.81
485.336	492.81
485.554	502.81
485.772	482.81
485.99	502.81
486.209	501.81
486.427	486.81
486.645	489.81
486.863	527.81
487.081	517.81
487.299	491.81
487.517	503.81
487.735	502.81
487.953	536.81
488.171	522.81
488.389	500.81
488.607	497.81
488.825	499.81
489.043	501.81
489.261	523.81
489.479	518.81
489.696	530.81
489.914	517.81
490.132	528.81
490.35	558.81
490.568	530.81
490.786	527.81
491.003	535.81
491.221	561.81
491.439	547.81
491.657	551.81
491.874	559.81
492.092	564.81
492.31	567.81
492.527	574.81
492.745	580.81
492.963	579.81
493.18	575.81
493.398	596.81
493.615	594.81
493.833	587.81
494.05	588.81
494.268	596.81
494.485	598.81
494.703	591.81
494.92	585.81
495.138	572.81
495.355	608.81
495.573	619.81
495.79	610.81
496.008	602.81
496.225	598.81
496.442	596.81
496.66	599.81
496.877	595.81
497.094	598.81
497.312	594.81
497.529	606.81
497.746	632.81
497.963	636.81
498.181	666.81
498.398	679.81
498.615	703.81
498.832	689.81
499.049	723.81
499.267	734.81
499.484	777.81
499.701	794.81
499.918	827.81
500.135	866.81
500.352	923.81
500.569	947.81
500.786	949.81
501.003	936.81
501.22	883.81
501.437	870.81
501.654	838.81
501.871	838.81
502.088	773.81
