Data from 1964.PennyLincolnUp.Lamp.En5.5.200Scan.071719.P1._HRD10591_14-03-33-908.txt Node
Date: Thu Jul 18 14:03:33 EDT 2019
User: cochatt
Spectrometer: HR+D1059
Trigger mode: 1
Integration Time (sec): 1.000000E-1
Scans to average: 1
Electric dark correction enabled: true
Nonlinearity correction enabled: false
Boxcar width: 0
XAxis mode: Wavelengths
Number of Pixels in Spectrum: 2048
>>>>>Begin Spectral Data<<<<<
223.165	-8.19
223.4	-8.19
223.635	-8.19
223.869	-28.19
224.104	-13.19
224.338	-16.19
224.573	-14.19
224.808	-10.19
225.042	-15.19
225.277	7.81
225.511	1.81
225.746	-6.19
225.98	5.81
226.215	13.81
226.449	2.81
226.683	29.81
226.918	23.81
227.152	25.81
227.387	26.81
227.621	36.81
227.856	48.81
228.09	50.81
228.324	62.81
228.559	50.81
228.793	58.81
229.027	76.81
229.262	81.81
229.496	95.81
229.73	115.81
229.964	115.81
230.199	103.81
230.433	101.81
230.667	96.81
230.901	93.81
231.136	97.81
231.37	113.81
231.604	101.81
231.838	95.81
232.072	105.81
232.306	105.81
232.541	102.81
232.775	98.81
233.009	94.81
233.243	109.81
233.477	115.81
233.711	101.81
233.945	108.81
234.179	104.81
234.413	112.81
234.647	119.81
234.881	111.81
235.115	117.81
235.349	116.81
235.583	98.81
235.817	101.81
236.051	107.81
236.285	98.81
236.519	124.81
236.753	129.81
236.987	136.81
237.221	154.81
237.455	177.81
237.689	157.81
237.922	119.81
238.156	125.81
238.39	118.81
238.624	111.81
238.858	130.81
239.091	129.81
239.325	139.81
239.559	133.81
239.793	103.81
240.027	131.81
240.26	135.81
240.494	124.81
240.728	114.81
240.961	122.81
241.195	131.81
241.429	136.81
241.662	123.81
241.896	120.81
242.13	148.81
242.363	138.81
242.597	135.81
242.83	138.81
243.064	126.81
243.298	124.81
243.531	138.81
243.765	132.81
243.998	141.81
244.232	133.81
244.465	144.81
244.699	138.81
244.932	139.81
245.166	133.81
245.399	138.81
245.633	151.81
245.866	145.81
246.099	153.81
246.333	144.81
246.566	154.81
246.8	144.81
247.033	134.81
247.266	150.81
247.5	151.81
247.733	167.81
247.966	153.81
248.2	161.81
248.433	167.81
248.666	146.81
248.899	170.81
249.133	175.81
249.366	180.81
249.599	181.81
249.832	166.81
250.066	166.81
250.299	175.81
250.532	183.81
250.765	189.81
250.998	198.81
251.231	173.81
251.465	185.81
251.698	183.81
251.931	185.81
252.164	200.81
252.397	185.81
252.63	191.81
252.863	185.81
253.096	199.81
253.329	200.81
253.562	185.81
253.795	183.81
254.028	213.81
254.261	203.81
254.494	197.81
254.727	238.81
254.96	233.81
255.193	238.81
255.426	223.81
255.659	222.81
255.892	201.81
256.124	200.81
256.357	200.81
256.59	202.81
256.823	200.81
257.056	204.81
257.289	186.81
257.521	193.81
257.754	211.81
257.987	205.81
258.22	189.81
258.452	195.81
258.685	199.81
258.918	202.81
259.151	201.81
259.383	208.81
259.616	231.81
259.849	219.81
260.081	213.81
260.314	246.81
260.547	225.81
260.779	226.81
261.012	222.81
261.244	206.81
261.477	215.81
261.71	205.81
261.942	211.81
262.175	229.81
262.407	202.81
262.64	199.81
262.872	197.81
263.105	215.81
263.337	231.81
263.57	227.81
263.802	225.81
264.035	234.81
264.267	213.81
264.499	226.81
264.732	212.81
264.964	209.81
265.197	210.81
265.429	205.81
265.661	220.81
265.894	231.81
266.126	220.81
266.358	227.81
266.591	216.81
266.823	219.81
267.055	232.81
267.287	217.81
267.52	225.81
267.752	237.81
267.984	231.81
268.216	245.81
268.448	222.81
268.681	222.81
268.913	247.81
269.145	261.81
269.377	281.81
269.609	259.81
269.841	261.81
270.073	279.81
270.306	276.81
270.538	302.81
270.77	297.81
271.002	295.81
271.234	281.81
271.466	293.81
271.698	304.81
271.93	283.81
272.162	303.81
272.394	309.81
272.626	283.81
272.858	292.81
273.09	277.81
273.322	270.81
273.553	265.81
273.785	252.81
274.017	263.81
274.249	267.81
274.481	268.81
274.713	282.81
274.945	276.81
275.176	262.81
275.408	270.81
275.64	262.81
275.872	278.81
276.104	260.81
276.335	261.81
276.567	248.81
276.799	261.81
277.031	281.81
277.262	297.81
277.494	298.81
277.726	296.81
277.957	292.81
278.189	284.81
278.421	271.81
278.652	277.81
278.884	281.81
279.115	285.81
279.347	284.81
279.579	279.81
279.81	277.81
280.042	274.81
280.273	272.81
280.505	278.81
280.736	277.81
280.968	275.81
281.199	281.81
281.431	271.81
281.662	273.81
281.894	298.81
282.125	283.81
282.356	298.81
282.588	307.81
282.819	295.81
283.051	298.81
283.282	294.81
283.513	300.81
283.745	292.81
283.976	297.81
284.207	301.81
284.439	280.81
284.67	294.81
284.901	315.81
285.132	307.81
285.364	286.81
285.595	309.81
285.826	293.81
286.057	288.81
286.288	271.81
286.52	313.81
286.751	287.81
286.982	298.81
287.213	283.81
287.444	304.81
287.675	299.81
287.906	321.81
288.138	305.81
288.369	324.81
288.6	320.81
288.831	319.81
289.062	309.81
289.293	298.81
289.524	321.81
289.755	319.81
289.986	305.81
290.217	313.81
290.448	315.81
290.679	289.81
290.91	319.81
291.141	307.81
291.371	306.81
291.602	317.81
291.833	326.81
292.064	310.81
292.295	306.81
292.526	296.81
292.757	305.81
292.987	313.81
293.218	296.81
293.449	305.81
293.68	295.81
293.91	321.81
294.141	306.81
294.372	320.81
294.603	318.81
294.833	314.81
295.064	325.81
295.295	337.81
295.525	327.81
295.756	300.81
295.987	312.81
296.217	329.81
296.448	316.81
296.679	314.81
296.909	323.81
297.14	332.81
297.37	313.81
297.601	335.81
297.831	319.81
298.062	327.81
298.292	326.81
298.523	317.81
298.753	341.81
298.984	317.81
299.214	334.81
299.445	331.81
299.675	313.81
299.905	329.81
300.136	343.81
300.366	328.81
300.597	326.81
300.827	332.81
301.057	334.81
301.288	320.81
301.518	357.81
301.748	336.81
301.979	339.81
302.209	346.81
302.439	352.81
302.669	333.81
302.9	348.81
303.13	339.81
303.36	351.81
303.59	335.81
303.82	350.81
304.051	339.81
304.281	334.81
304.511	345.81
304.741	349.81
304.971	332.81
305.201	350.81
305.431	336.81
305.661	340.81
305.891	331.81
306.121	343.81
306.352	362.81
306.582	346.81
306.812	347.81
307.042	339.81
307.272	346.81
307.502	334.81
307.731	364.81
307.961	348.81
308.191	348.81
308.421	351.81
308.651	354.81
308.881	354.81
309.111	344.81
309.341	357.81
309.571	357.81
309.8	361.81
310.03	369.81
310.26	370.81
310.49	366.81
310.72	370.81
310.949	377.81
311.179	385.81
311.409	379.81
311.639	374.81
311.868	354.81
312.098	367.81
312.328	375.81
312.557	387.81
312.787	410.81
313.017	389.81
313.246	393.81
313.476	348.81
313.706	369.81
313.935	373.81
314.165	382.81
314.394	395.81
314.624	380.81
314.853	367.81
315.083	375.81
315.312	394.81
315.542	364.81
315.771	381.81
316.001	372.81
316.23	366.81
316.46	377.81
316.689	379.81
316.919	395.81
317.148	388.81
317.377	393.81
317.607	372.81
317.836	374.81
318.065	373.81
318.295	363.81
318.524	391.81
318.753	371.81
318.983	377.81
319.212	381.81
319.441	400.81
319.67	378.81
319.9	374.81
320.129	390.81
320.358	381.81
320.587	377.81
320.816	371.81
321.046	388.81
321.275	389.81
321.504	387.81
321.733	370.81
321.962	381.81
322.191	385.81
322.42	430.81
322.649	404.81
322.878	407.81
323.108	424.81
323.337	437.81
323.566	423.81
323.795	452.81
324.024	475.81
324.253	537.81
324.482	701.81
324.71	982.81
324.939	1315.81
325.168	1157.81
325.397	645.81
325.626	514.81
325.855	456.81
326.084	445.81
326.313	429.81
326.542	440.81
326.77	485.81
326.999	539.81
327.228	673.81
327.457	871.81
327.686	989.81
327.914	738.81
328.143	535.81
328.372	501.81
328.6	491.81
328.829	469.81
329.058	476.81
329.287	465.81
329.515	475.81
329.744	463.81
329.972	442.81
330.201	482.81
330.43	476.81
330.658	477.81
330.887	483.81
331.115	489.81
331.344	454.81
331.572	448.81
331.801	453.81
332.03	443.81
332.258	440.81
332.486	449.81
332.715	452.81
332.943	443.81
333.172	442.81
333.4	454.81
333.629	506.81
333.857	485.81
334.085	465.81
334.314	486.81
334.542	519.81
334.771	501.81
334.999	478.81
335.227	467.81
335.455	465.81
335.684	459.81
335.912	453.81
336.14	444.81
336.369	447.81
336.597	447.81
336.825	460.81
337.053	435.81
337.281	442.81
337.51	438.81
337.738	438.81
337.966	445.81
338.194	449.81
338.422	428.81
338.65	437.81
338.878	453.81
339.106	418.81
339.334	415.81
339.562	416.81
339.79	412.81
340.018	427.81
340.246	423.81
340.474	442.81
340.702	425.81
340.93	414.81
341.158	403.81
341.386	391.81
341.614	425.81
341.842	420.81
342.07	428.81
342.298	414.81
342.526	419.81
342.754	405.81
342.981	385.81
343.209	413.81
343.437	429.81
343.665	439.81
343.893	448.81
344.12	460.81
344.348	449.81
344.576	424.81
344.804	441.81
345.031	432.81
345.259	429.81
345.487	425.81
345.714	427.81
345.942	428.81
346.17	400.81
346.397	410.81
346.625	403.81
346.853	405.81
347.08	424.81
347.308	396.81
347.535	407.81
347.763	421.81
347.99	419.81
348.218	406.81
348.445	405.81
348.673	418.81
348.9	414.81
349.128	374.81
349.355	389.81
349.583	376.81
349.81	402.81
350.037	396.81
350.265	393.81
350.492	379.81
350.72	398.81
350.947	376.81
351.174	389.81
351.402	379.81
351.629	409.81
351.856	385.81
352.083	396.81
352.311	404.81
352.538	405.81
352.765	396.81
352.992	396.81
353.22	403.81
353.447	389.81
353.674	393.81
353.901	381.81
354.128	388.81
354.355	376.81
354.583	403.81
354.81	378.81
355.037	388.81
355.264	379.81
355.491	373.81
355.718	364.81
355.945	358.81
356.172	387.81
356.399	362.81
356.626	377.81
356.853	373.81
357.08	393.81
357.307	374.81
357.534	378.81
357.761	380.81
357.988	363.81
358.215	387.81
358.441	381.81
358.668	355.81
358.895	365.81
359.122	386.81
359.349	381.81
359.576	401.81
359.802	381.81
360.029	411.81
360.256	421.81
360.483	411.81
360.709	393.81
360.936	383.81
361.163	401.81
361.39	397.81
361.616	393.81
361.843	383.81
362.07	378.81
362.296	391.81
362.523	389.81
362.749	384.81
362.976	379.81
363.203	389.81
363.429	377.81
363.656	367.81
363.882	372.81
364.109	375.81
364.335	375.81
364.562	397.81
364.788	385.81
365.015	369.81
365.241	355.81
365.468	365.81
365.694	391.81
365.92	385.81
366.147	375.81
366.373	395.81
366.599	385.81
366.826	355.81
367.052	363.81
367.278	397.81
367.505	361.81
367.731	375.81
367.957	385.81
368.184	358.81
368.41	385.81
368.636	377.81
368.862	384.81
369.089	380.81
369.315	380.81
369.541	390.81
369.767	382.81
369.993	381.81
370.219	374.81
370.445	374.81
370.672	398.81
370.898	401.81
371.124	381.81
371.35	357.81
371.576	387.81
371.802	383.81
372.028	383.81
372.254	375.81
372.48	375.81
372.706	371.81
372.932	391.81
373.158	389.81
373.384	385.81
373.61	389.81
373.835	392.81
374.061	383.81
374.287	389.81
374.513	387.81
374.739	395.81
374.965	400.81
375.191	391.81
375.416	387.81
375.642	384.81
375.868	384.81
376.094	387.81
376.319	391.81
376.545	384.81
376.771	381.81
376.997	368.81
377.222	378.81
377.448	375.81
377.674	384.81
377.899	382.81
378.125	364.81
378.35	377.81
378.576	371.81
378.802	361.81
379.027	359.81
379.253	369.81
379.478	371.81
379.704	381.81
379.929	366.81
380.155	364.81
380.38	360.81
380.606	359.81
380.831	357.81
381.057	377.81
381.282	355.81
381.507	368.81
381.733	373.81
381.958	389.81
382.184	385.81
382.409	375.81
382.634	391.81
382.86	399.81
383.085	390.81
383.31	406.81
383.535	385.81
383.761	391.81
383.986	402.81
384.211	406.81
384.436	395.81
384.662	400.81
384.887	395.81
385.112	395.81
385.337	409.81
385.562	399.81
385.787	418.81
386.013	438.81
386.238	419.81
386.463	389.81
386.688	405.81
386.913	394.81
387.138	405.81
387.363	408.81
387.588	414.81
387.813	418.81
388.038	413.81
388.263	409.81
388.488	410.81
388.713	412.81
388.938	420.81
389.163	403.81
389.387	395.81
389.612	406.81
389.837	402.81
390.062	409.81
390.287	422.81
390.512	406.81
390.736	417.81
390.961	410.81
391.186	409.81
391.411	423.81
391.636	434.81
391.86	422.81
392.085	415.81
392.31	409.81
392.534	412.81
392.759	411.81
392.984	409.81
393.208	427.81
393.433	393.81
393.658	422.81
393.882	434.81
394.107	432.81
394.331	429.81
394.556	419.81
394.78	437.81
395.005	420.81
395.229	416.81
395.454	437.81
395.678	421.81
395.903	424.81
396.127	451.81
396.352	424.81
396.576	409.81
396.801	403.81
397.025	406.81
397.249	428.81
397.474	451.81
397.698	432.81
397.922	443.81
398.147	457.81
398.371	465.81
398.595	458.81
398.82	456.81
399.044	466.81
399.268	495.81
399.492	529.81
399.717	553.81
399.941	597.81
400.165	585.81
400.389	556.81
400.613	501.81
400.837	485.81
401.062	493.81
401.286	463.81
401.51	455.81
401.734	454.81
401.958	458.81
402.182	483.81
402.406	471.81
402.63	456.81
402.854	477.81
403.078	490.81
403.302	495.81
403.526	477.81
403.75	475.81
403.974	475.81
404.198	476.81
404.422	504.81
404.645	484.81
404.869	474.81
405.093	486.81
405.317	561.81
405.541	562.81
405.765	516.81
405.988	491.81
406.212	485.81
406.436	491.81
406.66	493.81
406.883	492.81
407.107	539.81
407.331	542.81
407.555	601.81
407.778	592.81
408.002	563.81
408.226	545.81
408.449	507.81
408.673	534.81
408.896	555.81
409.12	531.81
409.344	541.81
409.567	508.81
409.791	483.81
410.014	482.81
410.238	486.81
410.461	490.81
410.685	464.81
410.908	470.81
411.132	475.81
411.355	504.81
411.578	494.81
411.802	477.81
412.025	473.81
412.249	492.81
412.472	485.81
412.695	491.81
412.919	504.81
413.142	470.81
413.365	457.81
413.589	449.81
413.812	455.81
414.035	453.81
414.258	445.81
414.482	438.81
414.705	467.81
414.928	450.81
415.151	450.81
415.374	423.81
415.597	451.81
415.821	443.81
416.044	426.81
416.267	447.81
416.49	419.81
416.713	424.81
416.936	427.81
417.159	451.81
417.382	457.81
417.605	458.81
417.828	461.81
418.051	469.81
418.274	448.81
418.497	444.81
418.72	454.81
418.943	441.81
419.166	460.81
419.389	455.81
419.611	443.81
419.834	446.81
420.057	450.81
420.28	460.81
420.503	447.81
420.726	432.81
420.948	478.81
421.171	498.81
421.394	508.81
421.617	459.81
421.839	465.81
422.062	463.81
422.285	436.81
422.507	491.81
422.73	547.81
422.953	525.81
423.175	480.81
423.398	476.81
423.621	452.81
423.843	477.81
424.066	475.81
424.288	460.81
424.511	465.81
424.733	529.81
424.956	571.81
425.178	553.81
425.401	545.81
425.623	552.81
425.846	497.81
426.068	471.81
426.291	482.81
426.513	458.81
426.735	459.81
426.958	478.81
427.18	545.81
427.402	645.81
427.625	700.81
427.847	604.81
428.069	523.81
428.292	478.81
428.514	446.81
428.736	457.81
428.958	438.81
429.181	422.81
429.403	438.81
429.625	438.81
429.847	460.81
430.069	493.81
430.292	514.81
430.514	451.81
430.736	457.81
430.958	442.81
431.18	410.81
431.402	408.81
431.624	411.81
431.846	406.81
432.068	431.81
432.29	414.81
432.512	429.81
432.734	423.81
432.956	414.81
433.178	428.81
433.4	429.81
433.622	412.81
433.844	426.81
434.066	418.81
434.287	427.81
434.509	404.81
434.731	441.81
434.953	431.81
435.175	442.81
435.397	466.81
435.618	462.81
435.84	488.81
436.062	560.81
436.284	578.81
436.505	505.81
436.727	460.81
436.949	431.81
437.17	419.81
437.392	428.81
437.614	447.81
437.835	452.81
438.057	501.81
438.278	568.81
438.5	554.81
438.721	627.81
438.943	604.81
439.165	472.81
439.386	461.81
439.608	456.81
439.829	433.81
440.05	469.81
440.272	504.81
440.493	463.81
440.715	421.81
440.936	427.81
441.158	428.81
441.379	433.81
441.6	448.81
441.822	470.81
442.043	486.81
442.264	530.81
442.486	548.81
442.707	487.81
442.928	471.81
443.149	457.81
443.371	468.81
443.592	522.81
443.813	571.81
444.034	622.81
444.255	528.81
444.476	482.81
444.698	476.81
444.919	474.81
445.14	587.81
445.361	513.81
445.582	485.81
445.803	516.81
446.024	597.81
446.245	573.81
446.466	556.81
446.687	465.81
446.908	449.81
447.129	428.81
447.35	426.81
447.571	417.81
447.792	424.81
448.013	422.81
448.234	396.81
448.455	458.81
448.675	508.81
448.896	596.81
449.117	509.81
449.338	491.81
449.559	581.81
449.779	638.81
450	524.81
450.221	428.81
450.442	438.81
450.662	421.81
450.883	418.81
451.104	418.81
451.324	393.81
451.545	410.81
451.766	395.81
451.986	367.81
452.207	390.81
452.428	377.81
452.648	367.81
452.869	377.81
453.089	382.81
453.31	393.81
453.53	371.81
453.751	379.81
453.971	380.81
454.192	377.81
454.412	369.81
454.633	374.81
454.853	390.81
455.073	362.81
455.294	387.81
455.514	433.81
455.734	414.81
455.955	375.81
456.175	370.81
456.395	371.81
456.616	374.81
456.836	355.81
457.056	362.81
457.276	338.81
457.497	375.81
457.717	347.81
457.937	363.81
458.157	375.81
458.377	368.81
458.598	381.81
458.818	426.81
459.038	440.81
459.258	452.81
459.478	427.81
459.698	403.81
459.918	392.81
460.138	422.81
460.358	416.81
460.578	418.81
460.798	413.81
461.018	440.81
461.238	441.81
461.458	423.81
461.678	405.81
461.898	416.81
462.118	411.81
462.338	430.81
462.558	457.81
462.777	465.81
462.997	478.81
463.217	510.81
463.437	483.81
463.657	460.81
463.876	452.81
464.096	458.81
464.316	461.81
464.536	473.81
464.755	460.81
464.975	449.81
465.195	462.81
465.414	471.81
465.634	426.81
465.854	422.81
466.073	433.81
466.293	411.81
466.512	391.81
466.732	406.81
466.951	396.81
467.171	386.81
467.391	420.81
467.61	402.81
467.829	381.81
468.049	392.81
468.268	405.81
468.488	365.81
468.707	385.81
468.927	385.81
469.146	375.81
469.365	398.81
469.585	406.81
469.804	413.81
470.023	400.81
470.243	399.81
470.462	401.81
470.681	397.81
470.901	385.81
471.12	409.81
471.339	387.81
471.558	425.81
471.777	391.81
471.997	389.81
472.216	391.81
472.435	390.81
472.654	400.81
472.873	381.81
473.092	378.81
473.311	411.81
473.53	416.81
473.749	409.81
473.968	434.81
474.187	475.81
474.406	491.81
474.625	440.81
474.844	393.81
475.063	400.81
475.282	397.81
475.501	409.81
475.72	423.81
475.939	402.81
476.158	402.81
476.377	407.81
476.596	402.81
476.814	410.81
477.033	416.81
477.252	412.81
477.471	416.81
477.69	425.81
477.908	421.81
478.127	433.81
478.346	447.81
478.564	454.81
478.783	458.81
479.002	456.81
479.22	452.81
479.439	455.81
479.658	462.81
479.876	458.81
480.095	478.81
480.313	491.81
480.532	474.81
480.751	500.81
480.969	487.81
481.188	485.81
481.406	492.81
481.624	488.81
481.843	452.81
482.061	465.81
482.28	449.81
482.498	457.81
482.717	457.81
482.935	453.81
483.153	462.81
483.372	454.81
483.59	458.81
483.808	455.81
484.027	434.81
484.245	438.81
484.463	444.81
484.681	463.81
484.9	467.81
485.118	495.81
485.336	465.81
485.554	462.81
485.772	467.81
485.99	470.81
486.209	468.81
486.427	492.81
486.645	473.81
486.863	483.81
487.081	493.81
487.299	488.81
487.517	473.81
487.735	475.81
487.953	508.81
488.171	500.81
488.389	490.81
488.607	490.81
488.825	481.81
489.043	486.81
489.261	478.81
489.479	486.81
489.696	477.81
489.914	490.81
490.132	473.81
490.35	489.81
490.568	498.81
490.786	511.81
491.003	526.81
491.221	527.81
491.439	517.81
491.657	521.81
491.874	533.81
492.092	531.81
492.31	528.81
492.527	539.81
492.745	536.81
492.963	536.81
493.18	562.81
493.398	577.81
493.615	551.81
493.833	542.81
494.05	535.81
494.268	563.81
494.485	568.81
494.703	540.81
494.92	559.81
495.138	553.81
495.355	581.81
495.573	574.81
495.79	549.81
496.008	547.81
496.225	553.81
496.442	584.81
496.66	574.81
496.877	549.81
497.094	577.81
497.312	578.81
497.529	592.81
497.746	588.81
497.963	601.81
498.181	617.81
498.398	618.81
498.615	622.81
498.832	664.81
499.049	689.81
499.267	707.81
499.484	713.81
499.701	740.81
499.918	795.81
500.135	802.81
500.352	869.81
500.569	893.81
500.786	885.81
501.003	874.81
501.22	873.81
501.437	804.81
501.654	767.81
501.871	742.81
502.088	719.81
