Data from 1964.PennyLincolnUp.Lamp.En5.5.200Scan.071719.P1._HRD10591_14-05-23-910.txt Node
Date: Thu Jul 18 14:05:23 EDT 2019
User: cochatt
Spectrometer: HR+D1059
Trigger mode: 1
Integration Time (sec): 1.000000E-1
Scans to average: 1
Electric dark correction enabled: true
Nonlinearity correction enabled: false
Boxcar width: 0
XAxis mode: Wavelengths
Number of Pixels in Spectrum: 2048
>>>>>Begin Spectral Data<<<<<
223.165	-13.88
223.4	-13.88
223.635	-13.88
223.869	-23.88
224.104	-8.88
224.338	-18.88
224.573	-9.88
224.808	-23.88
225.042	-0.88
225.277	-1.88
225.511	-1.88
225.746	-3.88
225.98	7.12
226.215	2.12
226.449	20.12
226.683	29.12
226.918	23.12
227.152	26.12
227.387	35.12
227.621	41.12
227.856	50.12
228.09	38.12
228.324	48.12
228.559	63.12
228.793	71.12
229.027	96.12
229.262	100.12
229.496	110.12
229.73	111.12
229.964	143.12
230.199	104.12
230.433	108.12
230.667	115.12
230.901	113.12
231.136	110.12
231.37	98.12
231.604	114.12
231.838	91.12
232.072	101.12
232.306	111.12
232.541	122.12
232.775	121.12
233.009	119.12
233.243	116.12
233.477	117.12
233.711	110.12
233.945	111.12
234.179	122.12
234.413	109.12
234.647	108.12
234.881	124.12
235.115	118.12
235.349	111.12
235.583	121.12
235.817	115.12
236.051	118.12
236.285	143.12
236.519	117.12
236.753	131.12
236.987	142.12
237.221	165.12
237.455	197.12
237.689	175.12
237.922	140.12
238.156	139.12
238.39	122.12
238.624	122.12
238.858	139.12
239.091	130.12
239.325	123.12
239.559	134.12
239.793	131.12
240.027	126.12
240.26	136.12
240.494	151.12
240.728	142.12
240.961	142.12
241.195	133.12
241.429	136.12
241.662	140.12
241.896	129.12
242.13	121.12
242.363	132.12
242.597	143.12
242.83	154.12
243.064	148.12
243.298	136.12
243.531	134.12
243.765	149.12
243.998	130.12
244.232	156.12
244.465	145.12
244.699	149.12
244.932	151.12
245.166	151.12
245.399	133.12
245.633	145.12
245.866	142.12
246.099	138.12
246.333	162.12
246.566	145.12
246.8	164.12
247.033	165.12
247.266	162.12
247.5	168.12
247.733	160.12
247.966	169.12
248.2	163.12
248.433	161.12
248.666	189.12
248.899	187.12
249.133	198.12
249.366	205.12
249.599	187.12
249.832	182.12
250.066	194.12
250.299	198.12
250.532	195.12
250.765	186.12
250.998	198.12
251.231	222.12
251.465	213.12
251.698	204.12
251.931	190.12
252.164	199.12
252.397	202.12
252.63	200.12
252.863	205.12
253.096	229.12
253.329	204.12
253.562	218.12
253.795	212.12
254.028	217.12
254.261	225.12
254.494	216.12
254.727	243.12
254.96	279.12
255.193	260.12
255.426	223.12
255.659	219.12
255.892	230.12
256.124	231.12
256.357	222.12
256.59	227.12
256.823	223.12
257.056	228.12
257.289	214.12
257.521	224.12
257.754	234.12
257.987	224.12
258.22	214.12
258.452	213.12
258.685	212.12
258.918	202.12
259.151	239.12
259.383	221.12
259.616	213.12
259.849	233.12
260.081	249.12
260.314	251.12
260.547	255.12
260.779	235.12
261.012	217.12
261.244	231.12
261.477	231.12
261.71	233.12
261.942	223.12
262.175	217.12
262.407	251.12
262.64	219.12
262.872	227.12
263.105	222.12
263.337	236.12
263.57	218.12
263.802	219.12
264.035	216.12
264.267	216.12
264.499	216.12
264.732	228.12
264.964	215.12
265.197	215.12
265.429	212.12
265.661	232.12
265.894	215.12
266.126	238.12
266.358	225.12
266.591	262.12
266.823	227.12
267.055	247.12
267.287	243.12
267.52	247.12
267.752	248.12
267.984	249.12
268.216	249.12
268.448	248.12
268.681	266.12
268.913	277.12
269.145	272.12
269.377	285.12
269.609	292.12
269.841	282.12
270.073	282.12
270.306	300.12
270.538	326.12
270.77	327.12
271.002	299.12
271.234	303.12
271.466	305.12
271.698	335.12
271.93	309.12
272.162	310.12
272.394	309.12
272.626	298.12
272.858	303.12
273.09	290.12
273.322	281.12
273.553	295.12
273.785	297.12
274.017	266.12
274.249	297.12
274.481	281.12
274.713	272.12
274.945	298.12
275.176	299.12
275.408	274.12
275.64	279.12
275.872	272.12
276.104	274.12
276.335	271.12
276.567	291.12
276.799	293.12
277.031	309.12
277.262	329.12
277.494	344.12
277.726	322.12
277.957	314.12
278.189	274.12
278.421	288.12
278.652	267.12
278.884	295.12
279.115	275.12
279.347	290.12
279.579	288.12
279.81	293.12
280.042	291.12
280.273	293.12
280.505	300.12
280.736	292.12
280.968	294.12
281.199	295.12
281.431	276.12
281.662	284.12
281.894	299.12
282.125	287.12
282.356	310.12
282.588	320.12
282.819	315.12
283.051	298.12
283.282	295.12
283.513	310.12
283.745	328.12
283.976	288.12
284.207	312.12
284.439	297.12
284.67	305.12
284.901	318.12
285.132	309.12
285.364	321.12
285.595	307.12
285.826	311.12
286.057	304.12
286.288	322.12
286.52	308.12
286.751	308.12
286.982	327.12
287.213	343.12
287.444	331.12
287.675	336.12
287.906	306.12
288.138	326.12
288.369	315.12
288.6	342.12
288.831	336.12
289.062	339.12
289.293	312.12
289.524	330.12
289.755	321.12
289.986	308.12
290.217	327.12
290.448	323.12
290.679	331.12
290.91	323.12
291.141	331.12
291.371	341.12
291.602	322.12
291.833	340.12
292.064	308.12
292.295	332.12
292.526	361.12
292.757	318.12
292.987	328.12
293.218	320.12
293.449	330.12
293.68	342.12
293.91	314.12
294.141	303.12
294.372	330.12
294.603	326.12
294.833	345.12
295.064	330.12
295.295	335.12
295.525	330.12
295.756	327.12
295.987	336.12
296.217	373.12
296.448	356.12
296.679	346.12
296.909	339.12
297.14	348.12
297.37	336.12
297.601	330.12
297.831	331.12
298.062	332.12
298.292	342.12
298.523	340.12
298.753	354.12
298.984	356.12
299.214	347.12
299.445	358.12
299.675	354.12
299.905	343.12
300.136	363.12
300.366	358.12
300.597	356.12
300.827	361.12
301.057	368.12
301.288	359.12
301.518	367.12
301.748	353.12
301.979	378.12
302.209	363.12
302.439	359.12
302.669	363.12
302.9	368.12
303.13	364.12
303.36	349.12
303.59	358.12
303.82	386.12
304.051	386.12
304.281	360.12
304.511	368.12
304.741	379.12
304.971	366.12
305.201	378.12
305.431	362.12
305.661	352.12
305.891	362.12
306.121	361.12
306.352	361.12
306.582	359.12
306.812	369.12
307.042	340.12
307.272	355.12
307.502	355.12
307.731	365.12
307.961	366.12
308.191	374.12
308.421	375.12
308.651	390.12
308.881	381.12
309.111	383.12
309.341	378.12
309.571	378.12
309.8	382.12
310.03	403.12
310.26	398.12
310.49	410.12
310.72	380.12
310.949	419.12
311.179	423.12
311.409	396.12
311.639	386.12
311.868	402.12
312.098	418.12
312.328	406.12
312.557	417.12
312.787	417.12
313.017	423.12
313.246	412.12
313.476	401.12
313.706	404.12
313.935	426.12
314.165	416.12
314.394	396.12
314.624	412.12
314.853	414.12
315.083	392.12
315.312	404.12
315.542	403.12
315.771	403.12
316.001	407.12
316.23	399.12
316.46	400.12
316.689	408.12
316.919	410.12
317.148	424.12
317.377	417.12
317.607	371.12
317.836	398.12
318.065	423.12
318.295	405.12
318.524	412.12
318.753	422.12
318.983	392.12
319.212	404.12
319.441	415.12
319.67	423.12
319.9	420.12
320.129	434.12
320.358	428.12
320.587	388.12
320.816	423.12
321.046	414.12
321.275	438.12
321.504	406.12
321.733	425.12
321.962	428.12
322.191	438.12
322.42	438.12
322.649	431.12
322.878	463.12
323.108	457.12
323.337	479.12
323.566	482.12
323.795	470.12
324.024	537.12
324.253	615.12
324.482	811.12
324.71	1183.12
324.939	1615.12
325.168	1360.12
325.397	751.12
325.626	550.12
325.855	495.12
326.084	495.12
326.313	480.12
326.542	495.12
326.77	520.12
326.999	595.12
327.228	780.12
327.457	1062.12
327.686	1212.12
327.914	834.12
328.143	615.12
328.372	547.12
328.6	522.12
328.829	512.12
329.058	507.12
329.287	546.12
329.515	536.12
329.744	502.12
329.972	498.12
330.201	497.12
330.43	542.12
330.658	557.12
330.887	550.12
331.115	540.12
331.344	523.12
331.572	501.12
331.801	479.12
332.03	502.12
332.258	479.12
332.486	479.12
332.715	480.12
332.943	489.12
333.172	483.12
333.4	513.12
333.629	499.12
333.857	514.12
334.085	529.12
334.314	523.12
334.542	568.12
334.771	580.12
334.999	539.12
335.227	500.12
335.455	494.12
335.684	503.12
335.912	487.12
336.14	460.12
336.369	485.12
336.597	460.12
336.825	485.12
337.053	482.12
337.281	470.12
337.51	461.12
337.738	470.12
337.966	446.12
338.194	485.12
338.422	464.12
338.65	479.12
338.878	463.12
339.106	463.12
339.334	446.12
339.562	450.12
339.79	445.12
340.018	429.12
340.246	474.12
340.474	462.12
340.702	445.12
340.93	459.12
341.158	441.12
341.386	445.12
341.614	465.12
341.842	448.12
342.07	462.12
342.298	441.12
342.526	428.12
342.754	449.12
342.981	441.12
343.209	445.12
343.437	467.12
343.665	464.12
343.893	461.12
344.12	479.12
344.348	477.12
344.576	467.12
344.804	468.12
345.031	482.12
345.259	475.12
345.487	459.12
345.714	442.12
345.942	444.12
346.17	423.12
346.397	418.12
346.625	427.12
346.853	430.12
347.08	419.12
347.308	438.12
347.535	417.12
347.763	438.12
347.99	440.12
348.218	450.12
348.445	442.12
348.673	413.12
348.9	426.12
349.128	428.12
349.355	439.12
349.583	426.12
349.81	410.12
350.037	405.12
350.265	422.12
350.492	427.12
350.72	412.12
350.947	403.12
351.174	408.12
351.402	414.12
351.629	421.12
351.856	422.12
352.083	415.12
352.311	424.12
352.538	427.12
352.765	412.12
352.992	430.12
353.22	420.12
353.447	438.12
353.674	401.12
353.901	392.12
354.128	391.12
354.355	392.12
354.583	395.12
354.81	416.12
355.037	406.12
355.264	402.12
355.491	405.12
355.718	375.12
355.945	421.12
356.172	414.12
356.399	414.12
356.626	403.12
356.853	412.12
357.08	417.12
357.307	398.12
357.534	378.12
357.761	392.12
357.988	398.12
358.215	397.12
358.441	390.12
358.668	421.12
358.895	401.12
359.122	391.12
359.349	405.12
359.576	422.12
359.802	425.12
360.029	449.12
360.256	416.12
360.483	431.12
360.709	423.12
360.936	405.12
361.163	415.12
361.39	423.12
361.616	413.12
361.843	424.12
362.07	414.12
362.296	414.12
362.523	408.12
362.749	410.12
362.976	413.12
363.203	421.12
363.429	383.12
363.656	404.12
363.882	415.12
364.109	387.12
364.335	412.12
364.562	397.12
364.788	399.12
365.015	407.12
365.241	417.12
365.468	398.12
365.694	411.12
365.92	404.12
366.147	376.12
366.373	415.12
366.599	408.12
366.826	394.12
367.052	405.12
367.278	384.12
367.505	389.12
367.731	395.12
367.957	395.12
368.184	397.12
368.41	390.12
368.636	404.12
368.862	424.12
369.089	400.12
369.315	407.12
369.541	409.12
369.767	406.12
369.993	407.12
370.219	402.12
370.445	386.12
370.672	394.12
370.898	407.12
371.124	396.12
371.35	401.12
371.576	371.12
371.802	380.12
372.028	401.12
372.254	395.12
372.48	403.12
372.706	416.12
372.932	412.12
373.158	396.12
373.384	391.12
373.61	414.12
373.835	421.12
374.061	397.12
374.287	407.12
374.513	380.12
374.739	412.12
374.965	403.12
375.191	398.12
375.416	399.12
375.642	405.12
375.868	401.12
376.094	406.12
376.319	413.12
376.545	388.12
376.771	379.12
376.997	394.12
377.222	376.12
377.448	378.12
377.674	390.12
377.899	390.12
378.125	392.12
378.35	397.12
378.576	401.12
378.802	367.12
379.027	406.12
379.253	385.12
379.478	380.12
379.704	376.12
379.929	398.12
380.155	386.12
380.38	383.12
380.606	408.12
380.831	388.12
381.057	397.12
381.282	391.12
381.507	392.12
381.733	398.12
381.958	398.12
382.184	400.12
382.409	412.12
382.634	408.12
382.86	393.12
383.085	424.12
383.31	420.12
383.535	413.12
383.761	401.12
383.986	437.12
384.211	430.12
384.436	423.12
384.662	420.12
384.887	419.12
385.112	416.12
385.337	428.12
385.562	423.12
385.787	437.12
386.013	419.12
386.238	454.12
386.463	418.12
386.688	442.12
386.913	429.12
387.138	418.12
387.363	440.12
387.588	430.12
387.813	437.12
388.038	440.12
388.263	430.12
388.488	439.12
388.713	412.12
388.938	430.12
389.163	416.12
389.387	430.12
389.612	423.12
389.837	416.12
390.062	410.12
390.287	420.12
390.512	426.12
390.736	439.12
390.961	430.12
391.186	418.12
391.411	438.12
391.636	459.12
391.86	438.12
392.085	462.12
392.31	452.12
392.534	441.12
392.759	454.12
392.984	445.12
393.208	435.12
393.433	440.12
393.658	452.12
393.882	441.12
394.107	415.12
394.331	442.12
394.556	431.12
394.78	448.12
395.005	450.12
395.229	436.12
395.454	455.12
395.678	438.12
395.903	464.12
396.127	468.12
396.352	455.12
396.576	435.12
396.801	448.12
397.025	427.12
397.249	430.12
397.474	439.12
397.698	467.12
397.922	482.12
398.147	474.12
398.371	475.12
398.595	491.12
398.82	482.12
399.044	488.12
399.268	504.12
399.492	558.12
399.717	588.12
399.941	622.12
400.165	596.12
400.389	612.12
400.613	568.12
400.837	532.12
401.062	504.12
401.286	508.12
401.51	491.12
401.734	477.12
401.958	483.12
402.182	502.12
402.406	492.12
402.63	487.12
402.854	500.12
403.078	492.12
403.302	499.12
403.526	528.12
403.75	514.12
403.974	512.12
404.198	502.12
404.422	521.12
404.645	515.12
404.869	518.12
405.093	535.12
405.317	567.12
405.541	613.12
405.765	549.12
405.988	505.12
406.212	538.12
406.436	546.12
406.66	565.12
406.883	538.12
407.107	564.12
407.331	598.12
407.555	636.12
407.778	626.12
408.002	599.12
408.226	572.12
408.449	544.12
408.673	534.12
408.896	550.12
409.12	553.12
409.344	528.12
409.567	516.12
409.791	537.12
410.014	490.12
410.238	486.12
410.461	517.12
410.685	496.12
410.908	511.12
411.132	535.12
411.355	562.12
411.578	530.12
411.802	518.12
412.025	500.12
412.249	490.12
412.472	514.12
412.695	551.12
412.919	542.12
413.142	520.12
413.365	506.12
413.589	499.12
413.812	478.12
414.035	470.12
414.258	485.12
414.482	487.12
414.705	474.12
414.928	469.12
415.151	485.12
415.374	451.12
415.597	481.12
415.821	475.12
416.044	453.12
416.267	494.12
416.49	458.12
416.713	454.12
416.936	475.12
417.159	455.12
417.382	478.12
417.605	461.12
417.828	462.12
418.051	476.12
418.274	488.12
418.497	466.12
418.72	458.12
418.943	464.12
419.166	484.12
419.389	511.12
419.611	512.12
419.834	478.12
420.057	478.12
420.28	479.12
420.503	488.12
420.726	470.12
420.948	505.12
421.171	523.12
421.394	533.12
421.617	487.12
421.839	498.12
422.062	484.12
422.285	496.12
422.507	536.12
422.73	584.12
422.953	581.12
423.175	504.12
423.398	498.12
423.621	500.12
423.843	515.12
424.066	520.12
424.288	499.12
424.511	538.12
424.733	570.12
424.956	619.12
425.178	589.12
425.401	591.12
425.623	600.12
425.846	507.12
426.068	487.12
426.291	500.12
426.513	478.12
426.735	482.12
426.958	535.12
427.18	597.12
427.402	682.12
427.625	740.12
427.847	620.12
428.069	579.12
428.292	509.12
428.514	487.12
428.736	477.12
428.958	449.12
429.181	446.12
429.403	443.12
429.625	468.12
429.847	474.12
430.069	528.12
430.292	534.12
430.514	444.12
430.736	455.12
430.958	454.12
431.18	422.12
431.402	454.12
431.624	437.12
431.846	442.12
432.068	430.12
432.29	448.12
432.512	464.12
432.734	454.12
432.956	441.12
433.178	452.12
433.4	466.12
433.622	444.12
433.844	435.12
434.066	448.12
434.287	454.12
434.509	448.12
434.731	423.12
434.953	454.12
435.175	470.12
435.397	492.12
435.618	506.12
435.84	520.12
436.062	582.12
436.284	611.12
436.505	526.12
436.727	500.12
436.949	471.12
437.17	476.12
437.392	442.12
437.614	471.12
437.835	485.12
438.057	561.12
438.278	629.12
438.5	647.12
438.721	647.12
438.943	647.12
439.165	529.12
439.386	496.12
439.608	487.12
439.829	480.12
440.05	515.12
440.272	544.12
440.493	513.12
440.715	487.12
440.936	470.12
441.158	461.12
441.379	471.12
441.6	470.12
441.822	481.12
442.043	513.12
442.264	574.12
442.486	602.12
442.707	534.12
442.928	488.12
443.149	510.12
443.371	520.12
443.592	549.12
443.813	617.12
444.034	660.12
444.255	561.12
444.476	518.12
444.698	491.12
444.919	492.12
445.14	598.12
445.361	532.12
445.582	524.12
445.803	577.12
446.024	630.12
446.245	644.12
446.466	597.12
446.687	502.12
446.908	487.12
447.129	472.12
447.35	445.12
447.571	448.12
447.792	430.12
448.013	456.12
448.234	455.12
448.455	498.12
448.675	566.12
448.896	657.12
449.117	587.12
449.338	563.12
449.559	599.12
449.779	668.12
450	556.12
450.221	461.12
450.442	456.12
450.662	442.12
450.883	459.12
451.104	411.12
451.324	427.12
451.545	424.12
451.766	427.12
451.986	395.12
452.207	396.12
452.428	398.12
452.648	391.12
452.869	393.12
453.089	405.12
453.31	419.12
453.53	413.12
453.751	394.12
453.971	385.12
454.192	393.12
454.412	388.12
454.633	389.12
454.853	398.12
455.073	385.12
455.294	443.12
455.514	460.12
455.734	450.12
455.955	398.12
456.175	386.12
456.395	381.12
456.616	407.12
456.836	381.12
457.056	380.12
457.276	370.12
457.497	380.12
457.717	389.12
457.937	386.12
458.157	399.12
458.377	418.12
458.598	422.12
458.818	443.12
459.038	479.12
459.258	504.12
459.478	451.12
459.698	413.12
459.918	432.12
460.138	442.12
460.358	463.12
460.578	438.12
460.798	460.12
461.018	455.12
461.238	455.12
461.458	440.12
461.678	470.12
461.898	473.12
462.118	460.12
462.338	458.12
462.558	468.12
462.777	484.12
462.997	480.12
463.217	492.12
463.437	486.12
463.657	494.12
463.876	489.12
464.096	494.12
464.316	518.12
464.536	493.12
464.755	483.12
464.975	483.12
465.195	483.12
465.414	519.12
465.634	474.12
465.854	456.12
466.073	440.12
466.293	429.12
466.512	406.12
466.732	412.12
466.951	429.12
467.171	412.12
467.391	408.12
467.61	426.12
467.829	429.12
468.049	414.12
468.268	398.12
468.488	415.12
468.707	416.12
468.927	386.12
469.146	385.12
469.365	381.12
469.585	403.12
469.804	419.12
470.023	440.12
470.243	423.12
470.462	420.12
470.681	421.12
470.901	428.12
471.12	416.12
471.339	428.12
471.558	404.12
471.777	411.12
471.997	400.12
472.216	409.12
472.435	446.12
472.654	427.12
472.873	408.12
473.092	422.12
473.311	417.12
473.53	430.12
473.749	422.12
473.968	452.12
474.187	506.12
474.406	512.12
474.625	445.12
474.844	418.12
475.063	408.12
475.282	417.12
475.501	425.12
475.72	407.12
475.939	431.12
476.158	432.12
476.377	412.12
476.596	437.12
476.814	427.12
477.033	417.12
477.252	453.12
477.471	466.12
477.69	482.12
477.908	442.12
478.127	451.12
478.346	460.12
478.564	471.12
478.783	447.12
479.002	486.12
479.22	462.12
479.439	477.12
479.658	471.12
479.876	487.12
480.095	478.12
480.313	518.12
480.532	516.12
480.751	516.12
480.969	542.12
481.188	560.12
481.406	560.12
481.624	519.12
481.843	505.12
482.061	503.12
482.28	479.12
482.498	499.12
482.717	471.12
482.935	522.12
483.153	491.12
483.372	478.12
483.59	496.12
483.808	469.12
484.027	477.12
484.245	522.12
484.463	480.12
484.681	494.12
484.9	501.12
485.118	477.12
485.336	496.12
485.554	530.12
485.772	520.12
485.99	491.12
486.209	501.12
486.427	490.12
486.645	510.12
486.863	505.12
487.081	512.12
487.299	512.12
487.517	495.12
487.735	504.12
487.953	504.12
488.171	499.12
488.389	510.12
488.607	511.12
488.825	521.12
489.043	509.12
489.261	511.12
489.479	495.12
489.696	495.12
489.914	532.12
490.132	530.12
490.35	549.12
490.568	526.12
490.786	525.12
491.003	556.12
491.221	560.12
491.439	550.12
491.657	548.12
491.874	596.12
492.092	546.12
492.31	566.12
492.527	564.12
492.745	545.12
492.963	575.12
493.18	576.12
493.398	584.12
493.615	604.12
493.833	583.12
494.05	581.12
494.268	593.12
494.485	570.12
494.703	592.12
494.92	611.12
495.138	588.12
495.355	587.12
495.573	582.12
495.79	589.12
496.008	588.12
496.225	574.12
496.442	588.12
496.66	591.12
496.877	586.12
497.094	605.12
497.312	617.12
497.529	626.12
497.746	645.12
497.963	626.12
498.181	671.12
498.398	656.12
498.615	668.12
498.832	682.12
499.049	697.12
499.267	725.12
499.484	709.12
499.701	788.12
499.918	825.12
500.135	840.12
500.352	908.12
500.569	941.12
500.786	926.12
501.003	930.12
501.22	868.12
501.437	837.12
501.654	811.12
501.871	800.12
502.088	739.12
