Data from 1964.PennyLincolnUp.Lamp.En5.5.200Scan.071719.P1._HRD10591_14-04-31-909.txt Node
Date: Thu Jul 18 14:04:31 EDT 2019
User: cochatt
Spectrometer: HR+D1059
Trigger mode: 1
Integration Time (sec): 1.000000E-1
Scans to average: 1
Electric dark correction enabled: true
Nonlinearity correction enabled: false
Boxcar width: 0
XAxis mode: Wavelengths
Number of Pixels in Spectrum: 2048
>>>>>Begin Spectral Data<<<<<
223.165	-11.06
223.4	-11.06
223.635	-11.06
223.869	-23.06
224.104	-24.06
224.338	-2.06
224.573	-18.06
224.808	-16.06
225.042	-9.06
225.277	-2.06
225.511	4.94
225.746	-2.06
225.98	6.94
226.215	15.94
226.449	9.94
226.683	21.94
226.918	32.94
227.152	14.94
227.387	38.94
227.621	30.94
227.856	40.94
228.09	42.94
228.324	46.94
228.559	51.94
228.793	62.94
229.027	74.94
229.262	76.94
229.496	94.94
229.73	120.94
229.964	118.94
230.199	117.94
230.433	99.94
230.667	103.94
230.901	101.94
231.136	98.94
231.37	101.94
231.604	106.94
231.838	101.94
232.072	102.94
232.306	120.94
232.541	122.94
232.775	121.94
233.009	118.94
233.243	100.94
233.477	108.94
233.711	106.94
233.945	112.94
234.179	111.94
234.413	100.94
234.647	120.94
234.881	114.94
235.115	111.94
235.349	128.94
235.583	122.94
235.817	111.94
236.051	106.94
236.285	120.94
236.519	109.94
236.753	120.94
236.987	123.94
237.221	141.94
237.455	194.94
237.689	169.94
237.922	130.94
238.156	118.94
238.39	123.94
238.624	114.94
238.858	117.94
239.091	128.94
239.325	113.94
239.559	122.94
239.793	132.94
240.027	127.94
240.26	145.94
240.494	148.94
240.728	143.94
240.961	145.94
241.195	141.94
241.429	130.94
241.662	129.94
241.896	128.94
242.13	134.94
242.363	128.94
242.597	124.94
242.83	127.94
243.064	140.94
243.298	152.94
243.531	130.94
243.765	144.94
243.998	139.94
244.232	135.94
244.465	156.94
244.699	134.94
244.932	142.94
245.166	144.94
245.399	132.94
245.633	149.94
245.866	148.94
246.099	152.94
246.333	147.94
246.566	142.94
246.8	136.94
247.033	165.94
247.266	159.94
247.5	145.94
247.733	156.94
247.966	157.94
248.2	153.94
248.433	159.94
248.666	181.94
248.899	172.94
249.133	194.94
249.366	207.94
249.599	191.94
249.832	181.94
250.066	167.94
250.299	171.94
250.532	195.94
250.765	180.94
250.998	196.94
251.231	191.94
251.465	204.94
251.698	198.94
251.931	200.94
252.164	195.94
252.397	192.94
252.63	183.94
252.863	199.94
253.096	204.94
253.329	213.94
253.562	237.94
253.795	209.94
254.028	200.94
254.261	211.94
254.494	228.94
254.727	260.94
254.96	248.94
255.193	248.94
255.426	251.94
255.659	207.94
255.892	227.94
256.124	225.94
256.357	223.94
256.59	234.94
256.823	202.94
257.056	197.94
257.289	211.94
257.521	212.94
257.754	206.94
257.987	208.94
258.22	205.94
258.452	212.94
258.685	213.94
258.918	205.94
259.151	205.94
259.383	216.94
259.616	224.94
259.849	227.94
260.081	215.94
260.314	235.94
260.547	251.94
260.779	221.94
261.012	209.94
261.244	215.94
261.477	223.94
261.71	231.94
261.942	227.94
262.175	227.94
262.407	232.94
262.64	219.94
262.872	215.94
263.105	216.94
263.337	202.94
263.57	203.94
263.802	208.94
264.035	223.94
264.267	218.94
264.499	208.94
264.732	217.94
264.964	226.94
265.197	200.94
265.429	245.94
265.661	217.94
265.894	217.94
266.126	234.94
266.358	229.94
266.591	226.94
266.823	231.94
267.055	235.94
267.287	223.94
267.52	218.94
267.752	250.94
267.984	215.94
268.216	226.94
268.448	242.94
268.681	259.94
268.913	248.94
269.145	262.94
269.377	287.94
269.609	283.94
269.841	250.94
270.073	281.94
270.306	286.94
270.538	300.94
270.77	314.94
271.002	301.94
271.234	282.94
271.466	272.94
271.698	302.94
271.93	298.94
272.162	300.94
272.394	295.94
272.626	289.94
272.858	287.94
273.09	282.94
273.322	279.94
273.553	274.94
273.785	272.94
274.017	278.94
274.249	278.94
274.481	272.94
274.713	283.94
274.945	282.94
275.176	287.94
275.408	269.94
275.64	270.94
275.872	277.94
276.104	272.94
276.335	285.94
276.567	289.94
276.799	293.94
277.031	293.94
277.262	323.94
277.494	315.94
277.726	313.94
277.957	298.94
278.189	288.94
278.421	279.94
278.652	284.94
278.884	279.94
279.115	274.94
279.347	287.94
279.579	264.94
279.81	275.94
280.042	253.94
280.273	278.94
280.505	281.94
280.736	290.94
280.968	290.94
281.199	283.94
281.431	284.94
281.662	300.94
281.894	294.94
282.125	274.94
282.356	304.94
282.588	305.94
282.819	306.94
283.051	295.94
283.282	290.94
283.513	288.94
283.745	298.94
283.976	307.94
284.207	291.94
284.439	289.94
284.67	300.94
284.901	287.94
285.132	301.94
285.364	301.94
285.595	295.94
285.826	294.94
286.057	283.94
286.288	304.94
286.52	314.94
286.751	310.94
286.982	286.94
287.213	299.94
287.444	306.94
287.675	302.94
287.906	317.94
288.138	316.94
288.369	326.94
288.6	334.94
288.831	314.94
289.062	295.94
289.293	306.94
289.524	316.94
289.755	309.94
289.986	299.94
290.217	302.94
290.448	309.94
290.679	318.94
290.91	311.94
291.141	298.94
291.371	307.94
291.602	318.94
291.833	321.94
292.064	316.94
292.295	325.94
292.526	306.94
292.757	323.94
292.987	309.94
293.218	327.94
293.449	303.94
293.68	314.94
293.91	317.94
294.141	327.94
294.372	324.94
294.603	313.94
294.833	322.94
295.064	319.94
295.295	306.94
295.525	328.94
295.756	319.94
295.987	312.94
296.217	329.94
296.448	347.94
296.679	314.94
296.909	326.94
297.14	340.94
297.37	344.94
297.601	336.94
297.831	324.94
298.062	315.94
298.292	337.94
298.523	339.94
298.753	335.94
298.984	342.94
299.214	342.94
299.445	337.94
299.675	342.94
299.905	333.94
300.136	326.94
300.366	349.94
300.597	339.94
300.827	349.94
301.057	356.94
301.288	349.94
301.518	353.94
301.748	345.94
301.979	354.94
302.209	356.94
302.439	355.94
302.669	354.94
302.9	342.94
303.13	343.94
303.36	354.94
303.59	353.94
303.82	338.94
304.051	352.94
304.281	351.94
304.511	341.94
304.741	347.94
304.971	352.94
305.201	354.94
305.431	354.94
305.661	357.94
305.891	369.94
306.121	358.94
306.352	362.94
306.582	339.94
306.812	346.94
307.042	355.94
307.272	342.94
307.502	370.94
307.731	362.94
307.961	357.94
308.191	348.94
308.421	358.94
308.651	364.94
308.881	362.94
309.111	359.94
309.341	364.94
309.571	368.94
309.8	358.94
310.03	381.94
310.26	378.94
310.49	380.94
310.72	385.94
310.949	379.94
311.179	395.94
311.409	372.94
311.639	372.94
311.868	365.94
312.098	406.94
312.328	395.94
312.557	404.94
312.787	394.94
313.017	396.94
313.246	389.94
313.476	386.94
313.706	397.94
313.935	410.94
314.165	399.94
314.394	402.94
314.624	412.94
314.853	411.94
315.083	389.94
315.312	397.94
315.542	397.94
315.771	386.94
316.001	387.94
316.23	389.94
316.46	390.94
316.689	392.94
316.919	398.94
317.148	379.94
317.377	392.94
317.607	387.94
317.836	412.94
318.065	397.94
318.295	404.94
318.524	389.94
318.753	389.94
318.983	391.94
319.212	385.94
319.441	393.94
319.67	405.94
319.9	393.94
320.129	408.94
320.358	392.94
320.587	373.94
320.816	395.94
321.046	394.94
321.275	394.94
321.504	397.94
321.733	425.94
321.962	398.94
322.191	420.94
322.42	422.94
322.649	406.94
322.878	421.94
323.108	440.94
323.337	439.94
323.566	449.94
323.795	467.94
324.024	514.94
324.253	579.94
324.482	767.94
324.71	1101.94
324.939	1438.94
325.168	1248.94
325.397	708.94
325.626	522.94
325.855	486.94
326.084	476.94
326.313	442.94
326.542	468.94
326.77	495.94
326.999	548.94
327.228	707.94
327.457	979.94
327.686	1078.94
327.914	756.94
328.143	571.94
328.372	507.94
328.6	497.94
328.829	499.94
329.058	511.94
329.287	518.94
329.515	494.94
329.744	484.94
329.972	473.94
330.201	476.94
330.43	514.94
330.658	518.94
330.887	535.94
331.115	506.94
331.344	474.94
331.572	478.94
331.801	460.94
332.03	474.94
332.258	467.94
332.486	470.94
332.715	462.94
332.943	451.94
333.172	473.94
333.4	479.94
333.629	481.94
333.857	494.94
334.085	495.94
334.314	515.94
334.542	535.94
334.771	515.94
334.999	476.94
335.227	496.94
335.455	485.94
335.684	470.94
335.912	440.94
336.14	456.94
336.369	471.94
336.597	466.94
336.825	446.94
337.053	458.94
337.281	462.94
337.51	457.94
337.738	476.94
337.966	456.94
338.194	461.94
338.422	430.94
338.65	440.94
338.878	444.94
339.106	444.94
339.334	444.94
339.562	451.94
339.79	421.94
340.018	434.94
340.246	454.94
340.474	428.94
340.702	422.94
340.93	422.94
341.158	448.94
341.386	427.94
341.614	442.94
341.842	443.94
342.07	411.94
342.298	442.94
342.526	441.94
342.754	390.94
342.981	414.94
343.209	401.94
343.437	443.94
343.665	440.94
343.893	451.94
344.12	479.94
344.348	462.94
344.576	452.94
344.804	429.94
345.031	447.94
345.259	436.94
345.487	434.94
345.714	442.94
345.942	415.94
346.17	416.94
346.397	412.94
346.625	408.94
346.853	406.94
347.08	426.94
347.308	417.94
347.535	415.94
347.763	440.94
347.99	413.94
348.218	400.94
348.445	423.94
348.673	403.94
348.9	417.94
349.128	414.94
349.355	401.94
349.583	408.94
349.81	396.94
350.037	394.94
350.265	391.94
350.492	397.94
350.72	400.94
350.947	400.94
351.174	424.94
351.402	418.94
351.629	416.94
351.856	404.94
352.083	408.94
352.311	423.94
352.538	399.94
352.765	412.94
352.992	410.94
353.22	411.94
353.447	392.94
353.674	400.94
353.901	385.94
354.128	390.94
354.355	387.94
354.583	389.94
354.81	389.94
355.037	393.94
355.264	383.94
355.491	373.94
355.718	389.94
355.945	400.94
356.172	399.94
356.399	382.94
356.626	387.94
356.853	397.94
357.08	397.94
357.307	382.94
357.534	374.94
357.761	363.94
357.988	392.94
358.215	401.94
358.441	396.94
358.668	384.94
358.895	386.94
359.122	388.94
359.349	396.94
359.576	398.94
359.802	392.94
360.029	422.94
360.256	410.94
360.483	422.94
360.709	404.94
360.936	412.94
361.163	400.94
361.39	420.94
361.616	398.94
361.843	408.94
362.07	403.94
362.296	398.94
362.523	396.94
362.749	389.94
362.976	375.94
363.203	375.94
363.429	406.94
363.656	378.94
363.882	395.94
364.109	384.94
364.335	386.94
364.562	381.94
364.788	394.94
365.015	402.94
365.241	382.94
365.468	378.94
365.694	383.94
365.92	406.94
366.147	398.94
366.373	401.94
366.599	387.94
366.826	407.94
367.052	388.94
367.278	368.94
367.505	380.94
367.731	387.94
367.957	385.94
368.184	355.94
368.41	380.94
368.636	403.94
368.862	386.94
369.089	402.94
369.315	395.94
369.541	402.94
369.767	382.94
369.993	372.94
370.219	378.94
370.445	394.94
370.672	383.94
370.898	402.94
371.124	402.94
371.35	399.94
371.576	387.94
371.802	381.94
372.028	401.94
372.254	400.94
372.48	398.94
372.706	396.94
372.932	405.94
373.158	396.94
373.384	386.94
373.61	409.94
373.835	372.94
374.061	399.94
374.287	403.94
374.513	398.94
374.739	412.94
374.965	390.94
375.191	396.94
375.416	387.94
375.642	377.94
375.868	392.94
376.094	382.94
376.319	395.94
376.545	383.94
376.771	394.94
376.997	382.94
377.222	392.94
377.448	388.94
377.674	390.94
377.899	376.94
378.125	383.94
378.35	378.94
378.576	385.94
378.802	390.94
379.027	399.94
379.253	366.94
379.478	386.94
379.704	400.94
379.929	391.94
380.155	378.94
380.38	370.94
380.606	379.94
380.831	372.94
381.057	376.94
381.282	390.94
381.507	379.94
381.733	386.94
381.958	388.94
382.184	384.94
382.409	395.94
382.634	382.94
382.86	388.94
383.085	382.94
383.31	410.94
383.535	390.94
383.761	381.94
383.986	412.94
384.211	412.94
384.436	405.94
384.662	413.94
384.887	419.94
385.112	418.94
385.337	421.94
385.562	415.94
385.787	415.94
386.013	434.94
386.238	428.94
386.463	404.94
386.688	429.94
386.913	415.94
387.138	404.94
387.363	421.94
387.588	414.94
387.813	415.94
388.038	411.94
388.263	436.94
388.488	434.94
388.713	396.94
388.938	426.94
389.163	429.94
389.387	431.94
389.612	426.94
389.837	432.94
390.062	409.94
390.287	414.94
390.512	418.94
390.736	412.94
390.961	429.94
391.186	409.94
391.411	416.94
391.636	431.94
391.86	426.94
392.085	435.94
392.31	436.94
392.534	427.94
392.759	442.94
392.984	426.94
393.208	426.94
393.433	414.94
393.658	415.94
393.882	419.94
394.107	450.94
394.331	446.94
394.556	434.94
394.78	425.94
395.005	426.94
395.229	434.94
395.454	440.94
395.678	435.94
395.903	451.94
396.127	448.94
396.352	436.94
396.576	453.94
396.801	450.94
397.025	431.94
397.249	430.94
397.474	429.94
397.698	423.94
397.922	472.94
398.147	460.94
398.371	467.94
398.595	472.94
398.82	478.94
399.044	482.94
399.268	527.94
399.492	551.94
399.717	557.94
399.941	585.94
400.165	579.94
400.389	551.94
400.613	534.94
400.837	528.94
401.062	501.94
401.286	494.94
401.51	499.94
401.734	482.94
401.958	475.94
402.182	492.94
402.406	480.94
402.63	483.94
402.854	468.94
403.078	480.94
403.302	488.94
403.526	492.94
403.75	492.94
403.974	494.94
404.198	486.94
404.422	480.94
404.645	508.94
404.869	484.94
405.093	543.94
405.317	552.94
405.541	556.94
405.765	532.94
405.988	511.94
406.212	517.94
406.436	513.94
406.66	533.94
406.883	519.94
407.107	540.94
407.331	586.94
407.555	614.94
407.778	607.94
408.002	578.94
408.226	532.94
408.449	525.94
408.673	549.94
408.896	569.94
409.12	566.94
409.344	545.94
409.567	495.94
409.791	489.94
410.014	472.94
410.238	469.94
410.461	463.94
410.685	493.94
410.908	498.94
411.132	537.94
411.355	537.94
411.578	517.94
411.802	488.94
412.025	503.94
412.249	498.94
412.472	515.94
412.695	527.94
412.919	503.94
413.142	461.94
413.365	467.94
413.589	482.94
413.812	461.94
414.035	459.94
414.258	450.94
414.482	454.94
414.705	468.94
414.928	461.94
415.151	469.94
415.374	448.94
415.597	456.94
415.821	452.94
416.044	455.94
416.267	461.94
416.49	446.94
416.713	470.94
416.936	450.94
417.159	469.94
417.382	474.94
417.605	457.94
417.828	454.94
418.051	464.94
418.274	473.94
418.497	442.94
418.72	442.94
418.943	463.94
419.166	470.94
419.389	492.94
419.611	488.94
419.834	467.94
420.057	474.94
420.28	484.94
420.503	474.94
420.726	469.94
420.948	459.94
421.171	479.94
421.394	502.94
421.617	463.94
421.839	452.94
422.062	476.94
422.285	482.94
422.507	521.94
422.73	564.94
422.953	548.94
423.175	478.94
423.398	468.94
423.621	501.94
423.843	481.94
424.066	490.94
424.288	495.94
424.511	516.94
424.733	535.94
424.956	604.94
425.178	569.94
425.401	549.94
425.623	596.94
425.846	517.94
426.068	461.94
426.291	494.94
426.513	461.94
426.735	504.94
426.958	514.94
427.18	579.94
427.402	646.94
427.625	670.94
427.847	614.94
428.069	549.94
428.292	511.94
428.514	443.94
428.736	457.94
428.958	462.94
429.181	442.94
429.403	437.94
429.625	454.94
429.847	464.94
430.069	512.94
430.292	493.94
430.514	454.94
430.736	441.94
430.958	439.94
431.18	399.94
431.402	430.94
431.624	426.94
431.846	404.94
432.068	420.94
432.29	431.94
432.512	443.94
432.734	432.94
432.956	431.94
433.178	430.94
433.4	436.94
433.622	432.94
433.844	427.94
434.066	399.94
434.287	430.94
434.509	451.94
434.731	441.94
434.953	454.94
435.175	454.94
435.397	463.94
435.618	464.94
435.84	516.94
436.062	542.94
436.284	605.94
436.505	516.94
436.727	483.94
436.949	445.94
437.17	431.94
437.392	446.94
437.614	444.94
437.835	481.94
438.057	534.94
438.278	562.94
438.5	597.94
438.721	658.94
438.943	590.94
439.165	500.94
439.386	445.94
439.608	472.94
439.829	468.94
440.05	477.94
440.272	538.94
440.493	489.94
440.715	450.94
440.936	431.94
441.158	447.94
441.379	447.94
441.6	466.94
441.822	473.94
442.043	483.94
442.264	549.94
442.486	556.94
442.707	501.94
442.928	479.94
443.149	457.94
443.371	487.94
443.592	496.94
443.813	591.94
444.034	646.94
444.255	534.94
444.476	506.94
444.698	495.94
444.919	494.94
445.14	606.94
445.361	544.94
445.582	496.94
445.803	535.94
446.024	599.94
446.245	603.94
446.466	562.94
446.687	475.94
446.908	474.94
447.129	443.94
447.35	456.94
447.571	434.94
447.792	414.94
448.013	444.94
448.234	444.94
448.455	482.94
448.675	547.94
448.896	626.94
449.117	548.94
449.338	516.94
449.559	601.94
449.779	684.94
450	541.94
450.221	469.94
450.442	426.94
450.662	432.94
450.883	418.94
451.104	422.94
451.324	403.94
451.545	402.94
451.766	401.94
451.986	396.94
452.207	371.94
452.428	400.94
452.648	382.94
452.869	385.94
453.089	399.94
453.31	409.94
453.53	383.94
453.751	380.94
453.971	395.94
454.192	394.94
454.412	387.94
454.633	393.94
454.853	393.94
455.073	379.94
455.294	421.94
455.514	448.94
455.734	416.94
455.955	385.94
456.175	388.94
456.395	374.94
456.616	354.94
456.836	370.94
457.056	383.94
457.276	365.94
457.497	365.94
457.717	388.94
457.937	379.94
458.157	400.94
458.377	396.94
458.598	394.94
458.818	447.94
459.038	482.94
459.258	512.94
459.478	449.94
459.698	410.94
459.918	418.94
460.138	402.94
460.358	422.94
460.578	449.94
460.798	443.94
461.018	428.94
461.238	434.94
461.458	435.94
461.678	420.94
461.898	426.94
462.118	435.94
462.338	450.94
462.558	443.94
462.777	461.94
462.997	461.94
463.217	482.94
463.437	488.94
463.657	470.94
463.876	461.94
464.096	465.94
464.316	450.94
464.536	470.94
464.755	456.94
464.975	441.94
465.195	476.94
465.414	507.94
465.634	460.94
465.854	443.94
466.073	429.94
466.293	426.94
466.512	415.94
466.732	425.94
466.951	405.94
467.171	422.94
467.391	398.94
467.61	406.94
467.829	404.94
468.049	403.94
468.268	402.94
468.488	406.94
468.707	413.94
468.927	400.94
469.146	406.94
469.365	395.94
469.585	411.94
469.804	405.94
470.023	405.94
470.243	430.94
470.462	423.94
470.681	422.94
470.901	405.94
471.12	420.94
471.339	403.94
471.558	402.94
471.777	416.94
471.997	412.94
472.216	409.94
472.435	416.94
472.654	409.94
472.873	408.94
473.092	405.94
473.311	386.94
473.53	408.94
473.749	408.94
473.968	438.94
474.187	500.94
474.406	516.94
474.625	426.94
474.844	432.94
475.063	414.94
475.282	415.94
475.501	406.94
475.72	397.94
475.939	420.94
476.158	413.94
476.377	414.94
476.596	430.94
476.814	421.94
477.033	427.94
477.252	425.94
477.471	446.94
477.69	429.94
477.908	413.94
478.127	400.94
478.346	437.94
478.564	482.94
478.783	479.94
479.002	470.94
479.22	466.94
479.439	472.94
479.658	478.94
479.876	477.94
480.095	468.94
480.313	504.94
480.532	516.94
480.751	505.94
480.969	504.94
481.188	545.94
481.406	553.94
481.624	519.94
481.843	487.94
482.061	468.94
482.28	462.94
482.498	437.94
482.717	450.94
482.935	464.94
483.153	456.94
483.372	477.94
483.59	463.94
483.808	483.94
484.027	477.94
484.245	463.94
484.463	487.94
484.681	467.94
484.9	458.94
485.118	469.94
485.336	459.94
485.554	487.94
485.772	484.94
485.99	487.94
486.209	471.94
486.427	491.94
486.645	501.94
486.863	526.94
487.081	483.94
487.299	479.94
487.517	502.94
487.735	503.94
487.953	479.94
488.171	490.94
488.389	498.94
488.607	487.94
488.825	501.94
489.043	502.94
489.261	484.94
489.479	495.94
489.696	508.94
489.914	503.94
490.132	492.94
490.35	511.94
490.568	520.94
490.786	512.94
491.003	504.94
491.221	526.94
491.439	540.94
491.657	558.94
491.874	546.94
492.092	572.94
492.31	529.94
492.527	570.94
492.745	547.94
492.963	546.94
493.18	574.94
493.398	566.94
493.615	569.94
493.833	578.94
494.05	581.94
494.268	578.94
494.485	567.94
494.703	567.94
494.92	560.94
495.138	573.94
495.355	574.94
495.573	560.94
495.79	546.94
496.008	598.94
496.225	558.94
496.442	574.94
496.66	574.94
496.877	575.94
497.094	578.94
497.312	546.94
497.529	596.94
497.746	613.94
497.963	599.94
498.181	639.94
498.398	648.94
498.615	662.94
498.832	663.94
499.049	670.94
499.267	682.94
499.484	719.94
499.701	809.94
499.918	818.94
500.135	838.94
500.352	899.94
500.569	886.94
500.786	880.94
501.003	888.94
501.22	869.94
501.437	785.94
501.654	805.94
501.871	745.94
502.088	708.94
