Data from 1964.PennyLincolnUp.Lamp.En5.5.200Scan.071719.P1._HRD10591_14-04-55-909.txt Node
Date: Thu Jul 18 14:04:55 EDT 2019
User: cochatt
Spectrometer: HR+D1059
Trigger mode: 1
Integration Time (sec): 1.000000E-1
Scans to average: 1
Electric dark correction enabled: true
Nonlinearity correction enabled: false
Boxcar width: 0
XAxis mode: Wavelengths
Number of Pixels in Spectrum: 2048
>>>>>Begin Spectral Data<<<<<
223.165	-19.25
223.4	-19.25
223.635	-19.25
223.869	-13.25
224.104	-6.25
224.338	-9.25
224.573	-16.25
224.808	-13.25
225.042	-12.25
225.277	-11.25
225.511	-5.25
225.746	10.75
225.98	5.75
226.215	5.75
226.449	24.75
226.683	8.75
226.918	18.75
227.152	31.75
227.387	42.75
227.621	28.75
227.856	39.75
228.09	41.75
228.324	39.75
228.559	52.75
228.793	65.75
229.027	89.75
229.262	86.75
229.496	113.75
229.73	108.75
229.964	121.75
230.199	113.75
230.433	96.75
230.667	98.75
230.901	111.75
231.136	97.75
231.37	104.75
231.604	111.75
231.838	110.75
232.072	113.75
232.306	99.75
232.541	119.75
232.775	123.75
233.009	126.75
233.243	115.75
233.477	109.75
233.711	116.75
233.945	126.75
234.179	115.75
234.413	101.75
234.647	106.75
234.881	102.75
235.115	113.75
235.349	109.75
235.583	109.75
235.817	107.75
236.051	110.75
236.285	123.75
236.519	119.75
236.753	129.75
236.987	142.75
237.221	135.75
237.455	188.75
237.689	173.75
237.922	147.75
238.156	126.75
238.39	121.75
238.624	119.75
238.858	130.75
239.091	117.75
239.325	139.75
239.559	120.75
239.793	133.75
240.027	132.75
240.26	131.75
240.494	147.75
240.728	130.75
240.961	148.75
241.195	119.75
241.429	143.75
241.662	138.75
241.896	135.75
242.13	146.75
242.363	139.75
242.597	127.75
242.83	141.75
243.064	132.75
243.298	128.75
243.531	130.75
243.765	151.75
243.998	145.75
244.232	144.75
244.465	133.75
244.699	141.75
244.932	148.75
245.166	139.75
245.399	125.75
245.633	155.75
245.866	170.75
246.099	149.75
246.333	144.75
246.566	157.75
246.8	135.75
247.033	155.75
247.266	154.75
247.5	172.75
247.733	178.75
247.966	166.75
248.2	166.75
248.433	158.75
248.666	169.75
248.899	177.75
249.133	184.75
249.366	180.75
249.599	192.75
249.832	157.75
250.066	172.75
250.299	190.75
250.532	186.75
250.765	187.75
250.998	204.75
251.231	205.75
251.465	202.75
251.698	197.75
251.931	189.75
252.164	191.75
252.397	196.75
252.63	189.75
252.863	197.75
253.096	210.75
253.329	216.75
253.562	221.75
253.795	204.75
254.028	210.75
254.261	207.75
254.494	201.75
254.727	241.75
254.96	253.75
255.193	260.75
255.426	218.75
255.659	216.75
255.892	248.75
256.124	234.75
256.357	218.75
256.59	204.75
256.823	219.75
257.056	211.75
257.289	197.75
257.521	215.75
257.754	209.75
257.987	211.75
258.22	215.75
258.452	210.75
258.685	211.75
258.918	231.75
259.151	221.75
259.383	223.75
259.616	222.75
259.849	222.75
260.081	238.75
260.314	251.75
260.547	246.75
260.779	233.75
261.012	231.75
261.244	220.75
261.477	232.75
261.71	230.75
261.942	223.75
262.175	228.75
262.407	205.75
262.64	202.75
262.872	218.75
263.105	205.75
263.337	225.75
263.57	226.75
263.802	219.75
264.035	219.75
264.267	215.75
264.499	215.75
264.732	218.75
264.964	242.75
265.197	221.75
265.429	227.75
265.661	227.75
265.894	241.75
266.126	234.75
266.358	235.75
266.591	225.75
266.823	228.75
267.055	243.75
267.287	241.75
267.52	244.75
267.752	230.75
267.984	234.75
268.216	246.75
268.448	234.75
268.681	243.75
268.913	251.75
269.145	253.75
269.377	269.75
269.609	282.75
269.841	289.75
270.073	278.75
270.306	293.75
270.538	285.75
270.77	326.75
271.002	303.75
271.234	317.75
271.466	305.75
271.698	311.75
271.93	302.75
272.162	303.75
272.394	311.75
272.626	321.75
272.858	285.75
273.09	278.75
273.322	290.75
273.553	278.75
273.785	271.75
274.017	270.75
274.249	264.75
274.481	264.75
274.713	276.75
274.945	283.75
275.176	271.75
275.408	286.75
275.64	275.75
275.872	282.75
276.104	296.75
276.335	272.75
276.567	302.75
276.799	297.75
277.031	289.75
277.262	298.75
277.494	321.75
277.726	309.75
277.957	283.75
278.189	283.75
278.421	282.75
278.652	296.75
278.884	280.75
279.115	287.75
279.347	290.75
279.579	305.75
279.81	288.75
280.042	275.75
280.273	299.75
280.505	298.75
280.736	307.75
280.968	289.75
281.199	292.75
281.431	291.75
281.662	286.75
281.894	300.75
282.125	287.75
282.356	311.75
282.588	323.75
282.819	307.75
283.051	295.75
283.282	306.75
283.513	299.75
283.745	298.75
283.976	303.75
284.207	308.75
284.439	297.75
284.67	312.75
284.901	299.75
285.132	311.75
285.364	295.75
285.595	302.75
285.826	300.75
286.057	301.75
286.288	305.75
286.52	313.75
286.751	308.75
286.982	297.75
287.213	293.75
287.444	322.75
287.675	311.75
287.906	309.75
288.138	318.75
288.369	317.75
288.6	322.75
288.831	312.75
289.062	309.75
289.293	313.75
289.524	318.75
289.755	317.75
289.986	323.75
290.217	309.75
290.448	329.75
290.679	304.75
290.91	316.75
291.141	314.75
291.371	312.75
291.602	320.75
291.833	308.75
292.064	298.75
292.295	331.75
292.526	317.75
292.757	322.75
292.987	320.75
293.218	327.75
293.449	313.75
293.68	332.75
293.91	331.75
294.141	320.75
294.372	323.75
294.603	328.75
294.833	326.75
295.064	317.75
295.295	321.75
295.525	327.75
295.756	334.75
295.987	325.75
296.217	320.75
296.448	336.75
296.679	334.75
296.909	312.75
297.14	329.75
297.37	330.75
297.601	330.75
297.831	334.75
298.062	321.75
298.292	334.75
298.523	337.75
298.753	360.75
298.984	325.75
299.214	346.75
299.445	335.75
299.675	375.75
299.905	334.75
300.136	347.75
300.366	347.75
300.597	343.75
300.827	348.75
301.057	350.75
301.288	340.75
301.518	362.75
301.748	344.75
301.979	356.75
302.209	372.75
302.439	351.75
302.669	355.75
302.9	342.75
303.13	349.75
303.36	360.75
303.59	362.75
303.82	352.75
304.051	377.75
304.281	377.75
304.511	373.75
304.741	349.75
304.971	358.75
305.201	348.75
305.431	357.75
305.661	353.75
305.891	348.75
306.121	352.75
306.352	366.75
306.582	359.75
306.812	363.75
307.042	347.75
307.272	359.75
307.502	379.75
307.731	366.75
307.961	365.75
308.191	362.75
308.421	364.75
308.651	364.75
308.881	372.75
309.111	362.75
309.341	354.75
309.571	374.75
309.8	388.75
310.03	373.75
310.26	388.75
310.49	389.75
310.72	398.75
310.949	384.75
311.179	402.75
311.409	394.75
311.639	377.75
311.868	390.75
312.098	394.75
312.328	414.75
312.557	405.75
312.787	412.75
313.017	401.75
313.246	386.75
313.476	387.75
313.706	396.75
313.935	403.75
314.165	409.75
314.394	419.75
314.624	403.75
314.853	417.75
315.083	401.75
315.312	392.75
315.542	415.75
315.771	405.75
316.001	411.75
316.23	409.75
316.46	402.75
316.689	398.75
316.919	410.75
317.148	396.75
317.377	422.75
317.607	400.75
317.836	411.75
318.065	409.75
318.295	404.75
318.524	404.75
318.753	406.75
318.983	428.75
319.212	406.75
319.441	401.75
319.67	394.75
319.9	407.75
320.129	404.75
320.358	400.75
320.587	403.75
320.816	407.75
321.046	422.75
321.275	397.75
321.504	432.75
321.733	426.75
321.962	412.75
322.191	420.75
322.42	424.75
322.649	429.75
322.878	437.75
323.108	437.75
323.337	472.75
323.566	471.75
323.795	471.75
324.024	524.75
324.253	611.75
324.482	783.75
324.71	1153.75
324.939	1551.75
325.168	1302.75
325.397	716.75
325.626	544.75
325.855	482.75
326.084	472.75
326.313	469.75
326.542	479.75
326.77	514.75
326.999	575.75
327.228	745.75
327.457	1004.75
327.686	1151.75
327.914	811.75
328.143	582.75
328.372	540.75
328.6	528.75
328.829	514.75
329.058	523.75
329.287	521.75
329.515	497.75
329.744	472.75
329.972	520.75
330.201	497.75
330.43	515.75
330.658	539.75
330.887	549.75
331.115	543.75
331.344	499.75
331.572	491.75
331.801	492.75
332.03	476.75
332.258	468.75
332.486	492.75
332.715	476.75
332.943	468.75
333.172	470.75
333.4	499.75
333.629	493.75
333.857	539.75
334.085	506.75
334.314	534.75
334.542	558.75
334.771	565.75
334.999	517.75
335.227	511.75
335.455	503.75
335.684	500.75
335.912	502.75
336.14	483.75
336.369	461.75
336.597	483.75
336.825	477.75
337.053	465.75
337.281	488.75
337.51	457.75
337.738	456.75
337.966	456.75
338.194	467.75
338.422	465.75
338.65	449.75
338.878	449.75
339.106	447.75
339.334	452.75
339.562	461.75
339.79	460.75
340.018	443.75
340.246	451.75
340.474	456.75
340.702	441.75
340.93	461.75
341.158	451.75
341.386	457.75
341.614	462.75
341.842	451.75
342.07	434.75
342.298	446.75
342.526	422.75
342.754	430.75
342.981	434.75
343.209	426.75
343.437	446.75
343.665	455.75
343.893	469.75
344.12	474.75
344.348	471.75
344.576	469.75
344.804	449.75
345.031	459.75
345.259	443.75
345.487	446.75
345.714	438.75
345.942	422.75
346.17	423.75
346.397	426.75
346.625	444.75
346.853	406.75
347.08	419.75
347.308	421.75
347.535	414.75
347.763	427.75
347.99	423.75
348.218	442.75
348.445	442.75
348.673	399.75
348.9	427.75
349.128	406.75
349.355	417.75
349.583	409.75
349.81	428.75
350.037	417.75
350.265	394.75
350.492	409.75
350.72	421.75
350.947	399.75
351.174	403.75
351.402	428.75
351.629	404.75
351.856	418.75
352.083	410.75
352.311	423.75
352.538	418.75
352.765	422.75
352.992	436.75
353.22	421.75
353.447	433.75
353.674	413.75
353.901	403.75
354.128	391.75
354.355	395.75
354.583	386.75
354.81	411.75
355.037	390.75
355.264	417.75
355.491	422.75
355.718	379.75
355.945	405.75
356.172	396.75
356.399	378.75
356.626	415.75
356.853	403.75
357.08	406.75
357.307	399.75
357.534	394.75
357.761	418.75
357.988	401.75
358.215	374.75
358.441	397.75
358.668	412.75
358.895	418.75
359.122	397.75
359.349	405.75
359.576	420.75
359.802	416.75
360.029	415.75
360.256	416.75
360.483	429.75
360.709	390.75
360.936	419.75
361.163	409.75
361.39	425.75
361.616	394.75
361.843	417.75
362.07	419.75
362.296	405.75
362.523	407.75
362.749	406.75
362.976	400.75
363.203	414.75
363.429	391.75
363.656	374.75
363.882	402.75
364.109	379.75
364.335	377.75
364.562	412.75
364.788	397.75
365.015	406.75
365.241	396.75
365.468	403.75
365.694	382.75
365.92	387.75
366.147	395.75
366.373	396.75
366.599	377.75
366.826	391.75
367.052	393.75
367.278	391.75
367.505	400.75
367.731	391.75
367.957	376.75
368.184	384.75
368.41	381.75
368.636	398.75
368.862	389.75
369.089	377.75
369.315	394.75
369.541	399.75
369.767	372.75
369.993	382.75
370.219	417.75
370.445	406.75
370.672	373.75
370.898	403.75
371.124	409.75
371.35	384.75
371.576	391.75
371.802	399.75
372.028	408.75
372.254	407.75
372.48	398.75
372.706	396.75
372.932	393.75
373.158	397.75
373.384	406.75
373.61	389.75
373.835	401.75
374.061	389.75
374.287	397.75
374.513	397.75
374.739	390.75
374.965	426.75
375.191	409.75
375.416	415.75
375.642	406.75
375.868	393.75
376.094	399.75
376.319	413.75
376.545	401.75
376.771	407.75
376.997	393.75
377.222	385.75
377.448	395.75
377.674	392.75
377.899	392.75
378.125	395.75
378.35	367.75
378.576	399.75
378.802	389.75
379.027	390.75
379.253	398.75
379.478	374.75
379.704	380.75
379.929	400.75
380.155	407.75
380.38	387.75
380.606	402.75
380.831	387.75
381.057	398.75
381.282	383.75
381.507	395.75
381.733	415.75
381.958	404.75
382.184	399.75
382.409	385.75
382.634	390.75
382.86	403.75
383.085	415.75
383.31	380.75
383.535	409.75
383.761	389.75
383.986	411.75
384.211	427.75
384.436	398.75
384.662	422.75
384.887	412.75
385.112	410.75
385.337	424.75
385.562	426.75
385.787	439.75
386.013	428.75
386.238	437.75
386.463	437.75
386.688	425.75
386.913	405.75
387.138	400.75
387.363	429.75
387.588	442.75
387.813	412.75
388.038	429.75
388.263	422.75
388.488	417.75
388.713	436.75
388.938	426.75
389.163	407.75
389.387	439.75
389.612	427.75
389.837	412.75
390.062	423.75
390.287	428.75
390.512	419.75
390.736	406.75
390.961	444.75
391.186	418.75
391.411	446.75
391.636	452.75
391.86	449.75
392.085	449.75
392.31	450.75
392.534	453.75
392.759	446.75
392.984	430.75
393.208	450.75
393.433	436.75
393.658	427.75
393.882	407.75
394.107	433.75
394.331	441.75
394.556	444.75
394.78	405.75
395.005	428.75
395.229	448.75
395.454	441.75
395.678	435.75
395.903	443.75
396.127	459.75
396.352	457.75
396.576	448.75
396.801	443.75
397.025	464.75
397.249	446.75
397.474	441.75
397.698	447.75
397.922	473.75
398.147	480.75
398.371	477.75
398.595	482.75
398.82	487.75
399.044	485.75
399.268	519.75
399.492	557.75
399.717	568.75
399.941	593.75
400.165	614.75
400.389	562.75
400.613	553.75
400.837	501.75
401.062	491.75
401.286	501.75
401.51	500.75
401.734	513.75
401.958	493.75
402.182	488.75
402.406	505.75
402.63	487.75
402.854	488.75
403.078	510.75
403.302	513.75
403.526	505.75
403.75	511.75
403.974	506.75
404.198	485.75
404.422	515.75
404.645	494.75
404.869	522.75
405.093	550.75
405.317	576.75
405.541	584.75
405.765	528.75
405.988	530.75
406.212	546.75
406.436	531.75
406.66	522.75
406.883	521.75
407.107	540.75
407.331	561.75
407.555	620.75
407.778	637.75
408.002	599.75
408.226	537.75
408.449	546.75
408.673	548.75
408.896	575.75
409.12	570.75
409.344	523.75
409.567	529.75
409.791	509.75
410.014	475.75
410.238	478.75
410.461	489.75
410.685	517.75
410.908	533.75
411.132	515.75
411.355	519.75
411.578	547.75
411.802	504.75
412.025	497.75
412.249	509.75
412.472	524.75
412.695	551.75
412.919	541.75
413.142	499.75
413.365	483.75
413.589	486.75
413.812	477.75
414.035	469.75
414.258	467.75
414.482	464.75
414.705	459.75
414.928	478.75
415.151	470.75
415.374	477.75
415.597	462.75
415.821	469.75
416.044	463.75
416.267	439.75
416.49	479.75
416.713	454.75
416.936	441.75
417.159	454.75
417.382	479.75
417.605	451.75
417.828	487.75
418.051	477.75
418.274	469.75
418.497	466.75
418.72	450.75
418.943	482.75
419.166	499.75
419.389	496.75
419.611	481.75
419.834	513.75
420.057	491.75
420.28	511.75
420.503	489.75
420.726	472.75
420.948	486.75
421.171	505.75
421.394	550.75
421.617	477.75
421.839	482.75
422.062	483.75
422.285	482.75
422.507	530.75
422.73	598.75
422.953	548.75
423.175	509.75
423.398	494.75
423.621	492.75
423.843	510.75
424.066	489.75
424.288	488.75
424.511	517.75
424.733	563.75
424.956	586.75
425.178	574.75
425.401	596.75
425.623	575.75
425.846	536.75
426.068	508.75
426.291	514.75
426.513	517.75
426.735	517.75
426.958	525.75
427.18	569.75
427.402	665.75
427.625	711.75
427.847	609.75
428.069	546.75
428.292	501.75
428.514	471.75
428.736	465.75
428.958	468.75
429.181	447.75
429.403	441.75
429.625	445.75
429.847	464.75
430.069	538.75
430.292	521.75
430.514	460.75
430.736	444.75
430.958	449.75
431.18	439.75
431.402	452.75
431.624	419.75
431.846	432.75
432.068	414.75
432.29	457.75
432.512	425.75
432.734	438.75
432.956	453.75
433.178	442.75
433.4	451.75
433.622	430.75
433.844	443.75
434.066	459.75
434.287	436.75
434.509	445.75
434.731	451.75
434.953	449.75
435.175	466.75
435.397	494.75
435.618	472.75
435.84	520.75
436.062	600.75
436.284	618.75
436.505	507.75
436.727	461.75
436.949	450.75
437.17	454.75
437.392	436.75
437.614	473.75
437.835	471.75
438.057	556.75
438.278	608.75
438.5	600.75
438.721	669.75
438.943	657.75
439.165	511.75
439.386	494.75
439.608	475.75
439.829	454.75
440.05	489.75
440.272	529.75
440.493	486.75
440.715	486.75
440.936	461.75
441.158	465.75
441.379	477.75
441.6	468.75
441.822	460.75
442.043	509.75
442.264	545.75
442.486	595.75
442.707	502.75
442.928	476.75
443.149	486.75
443.371	505.75
443.592	520.75
443.813	585.75
444.034	657.75
444.255	552.75
444.476	524.75
444.698	497.75
444.919	507.75
445.14	607.75
445.361	573.75
445.582	530.75
445.803	566.75
446.024	616.75
446.245	593.75
446.466	603.75
446.687	499.75
446.908	482.75
447.129	478.75
447.35	455.75
447.571	448.75
447.792	428.75
448.013	443.75
448.234	444.75
448.455	505.75
448.675	550.75
448.896	638.75
449.117	540.75
449.338	551.75
449.559	603.75
449.779	662.75
450	544.75
450.221	478.75
450.442	425.75
450.662	425.75
450.883	430.75
451.104	447.75
451.324	433.75
451.545	399.75
451.766	398.75
451.986	402.75
452.207	398.75
452.428	398.75
452.648	397.75
452.869	379.75
453.089	388.75
453.31	401.75
453.53	415.75
453.751	397.75
453.971	408.75
454.192	405.75
454.412	399.75
454.633	381.75
454.853	397.75
455.073	389.75
455.294	392.75
455.514	457.75
455.734	445.75
455.955	398.75
456.175	374.75
456.395	365.75
456.616	377.75
456.836	372.75
457.056	376.75
457.276	375.75
457.497	380.75
457.717	376.75
457.937	397.75
458.157	380.75
458.377	403.75
458.598	406.75
458.818	438.75
459.038	474.75
459.258	502.75
459.478	451.75
459.698	423.75
459.918	441.75
460.138	423.75
460.358	441.75
460.578	454.75
460.798	439.75
461.018	460.75
461.238	445.75
461.458	446.75
461.678	466.75
461.898	448.75
462.118	451.75
462.338	441.75
462.558	456.75
462.777	463.75
462.997	500.75
463.217	503.75
463.437	508.75
463.657	482.75
463.876	474.75
464.096	490.75
464.316	501.75
464.536	469.75
464.755	473.75
464.975	498.75
465.195	471.75
465.414	495.75
465.634	464.75
465.854	459.75
466.073	425.75
466.293	403.75
466.512	396.75
466.732	423.75
466.951	402.75
467.171	436.75
467.391	427.75
467.61	433.75
467.829	422.75
468.049	411.75
468.268	406.75
468.488	430.75
468.707	383.75
468.927	403.75
469.146	402.75
469.365	407.75
469.585	402.75
469.804	417.75
470.023	409.75
470.243	408.75
470.462	416.75
470.681	437.75
470.901	409.75
471.12	420.75
471.339	425.75
471.558	411.75
471.777	415.75
471.997	412.75
472.216	439.75
472.435	430.75
472.654	400.75
472.873	419.75
473.092	407.75
473.311	403.75
473.53	402.75
473.749	414.75
473.968	440.75
474.187	492.75
474.406	506.75
474.625	452.75
474.844	417.75
475.063	415.75
475.282	422.75
475.501	413.75
475.72	435.75
475.939	424.75
476.158	417.75
476.377	447.75
476.596	430.75
476.814	425.75
477.033	426.75
477.252	429.75
477.471	439.75
477.69	452.75
477.908	450.75
478.127	468.75
478.346	471.75
478.564	455.75
478.783	478.75
479.002	462.75
479.22	447.75
479.439	480.75
479.658	485.75
479.876	501.75
480.095	527.75
480.313	511.75
480.532	505.75
480.751	524.75
480.969	519.75
481.188	544.75
481.406	551.75
481.624	528.75
481.843	516.75
482.061	484.75
482.28	498.75
482.498	459.75
482.717	501.75
482.935	462.75
483.153	450.75
483.372	462.75
483.59	486.75
483.808	486.75
484.027	494.75
484.245	491.75
484.463	472.75
484.681	462.75
484.9	488.75
485.118	488.75
485.336	489.75
485.554	468.75
485.772	486.75
485.99	478.75
486.209	502.75
486.427	478.75
486.645	497.75
486.863	492.75
487.081	527.75
487.299	509.75
487.517	515.75
487.735	479.75
487.953	475.75
488.171	511.75
488.389	521.75
488.607	498.75
488.825	514.75
489.043	513.75
489.261	517.75
489.479	525.75
489.696	513.75
489.914	518.75
490.132	517.75
490.35	533.75
490.568	524.75
490.786	535.75
491.003	550.75
491.221	571.75
491.439	553.75
491.657	563.75
491.874	551.75
492.092	555.75
492.31	583.75
492.527	546.75
492.745	579.75
492.963	567.75
493.18	578.75
493.398	572.75
493.615	595.75
493.833	591.75
494.05	604.75
494.268	554.75
494.485	572.75
494.703	603.75
494.92	601.75
495.138	574.75
495.355	602.75
495.573	581.75
495.79	582.75
496.008	586.75
496.225	598.75
496.442	602.75
496.66	593.75
496.877	580.75
497.094	613.75
497.312	604.75
497.529	607.75
497.746	633.75
497.963	629.75
498.181	651.75
498.398	656.75
498.615	685.75
498.832	661.75
499.049	694.75
499.267	747.75
499.484	746.75
499.701	805.75
499.918	822.75
500.135	872.75
500.352	908.75
500.569	903.75
500.786	930.75
501.003	899.75
501.22	856.75
501.437	817.75
501.654	792.75
501.871	774.75
502.088	762.75
