Data from 1964.PennyLincolnUp.Lamp.En5.5.200Scan.071719.P1._HRD10591_14-06-24-910.txt Node
Date: Thu Jul 18 14:06:24 EDT 2019
User: cochatt
Spectrometer: HR+D1059
Trigger mode: 1
Integration Time (sec): 1.000000E-1
Scans to average: 1
Electric dark correction enabled: true
Nonlinearity correction enabled: false
Boxcar width: 0
XAxis mode: Wavelengths
Number of Pixels in Spectrum: 2048
>>>>>Begin Spectral Data<<<<<
223.165	-10.5
223.4	-10.5
223.635	-10.5
223.869	-23.5
224.104	-19.5
224.338	-5.5
224.573	-17.5
224.808	-6.5
225.042	-11.5
225.277	-10.5
225.511	-3.5
225.746	0.5
225.98	8.5
226.215	11.5
226.449	24.5
226.683	20.5
226.918	23.5
227.152	19.5
227.387	37.5
227.621	42.5
227.856	28.5
228.09	55.5
228.324	53.5
228.559	64.5
228.793	51.5
229.027	97.5
229.262	99.5
229.496	117.5
229.73	106.5
229.964	130.5
230.199	100.5
230.433	107.5
230.667	115.5
230.901	102.5
231.136	108.5
231.37	99.5
231.604	113.5
231.838	115.5
232.072	112.5
232.306	99.5
232.541	120.5
232.775	98.5
233.009	103.5
233.243	109.5
233.477	90.5
233.711	102.5
233.945	108.5
234.179	120.5
234.413	121.5
234.647	120.5
234.881	123.5
235.115	110.5
235.349	107.5
235.583	100.5
235.817	130.5
236.051	132.5
236.285	116.5
236.519	118.5
236.753	132.5
236.987	132.5
237.221	158.5
237.455	192.5
237.689	158.5
237.922	148.5
238.156	123.5
238.39	125.5
238.624	123.5
238.858	130.5
239.091	103.5
239.325	120.5
239.559	136.5
239.793	132.5
240.027	136.5
240.26	127.5
240.494	163.5
240.728	156.5
240.961	145.5
241.195	121.5
241.429	128.5
241.662	134.5
241.896	136.5
242.13	130.5
242.363	124.5
242.597	148.5
242.83	135.5
243.064	134.5
243.298	150.5
243.531	146.5
243.765	141.5
243.998	135.5
244.232	138.5
244.465	139.5
244.699	152.5
244.932	132.5
245.166	140.5
245.399	152.5
245.633	152.5
245.866	156.5
246.099	144.5
246.333	149.5
246.566	137.5
246.8	140.5
247.033	143.5
247.266	146.5
247.5	162.5
247.733	158.5
247.966	177.5
248.2	156.5
248.433	144.5
248.666	171.5
248.899	189.5
249.133	191.5
249.366	209.5
249.599	195.5
249.832	180.5
250.066	176.5
250.299	184.5
250.532	180.5
250.765	205.5
250.998	203.5
251.231	221.5
251.465	220.5
251.698	201.5
251.931	187.5
252.164	186.5
252.397	215.5
252.63	180.5
252.863	192.5
253.096	214.5
253.329	227.5
253.562	210.5
253.795	238.5
254.028	224.5
254.261	216.5
254.494	218.5
254.727	230.5
254.96	259.5
255.193	265.5
255.426	228.5
255.659	235.5
255.892	236.5
256.124	234.5
256.357	234.5
256.59	219.5
256.823	215.5
257.056	198.5
257.289	192.5
257.521	214.5
257.754	208.5
257.987	210.5
258.22	231.5
258.452	229.5
258.685	200.5
258.918	205.5
259.151	209.5
259.383	222.5
259.616	225.5
259.849	227.5
260.081	266.5
260.314	258.5
260.547	251.5
260.779	234.5
261.012	249.5
261.244	241.5
261.477	244.5
261.71	224.5
261.942	224.5
262.175	227.5
262.407	234.5
262.64	221.5
262.872	198.5
263.105	215.5
263.337	220.5
263.57	218.5
263.802	218.5
264.035	218.5
264.267	227.5
264.499	222.5
264.732	241.5
264.964	233.5
265.197	234.5
265.429	212.5
265.661	227.5
265.894	231.5
266.126	231.5
266.358	224.5
266.591	241.5
266.823	244.5
267.055	226.5
267.287	250.5
267.52	243.5
267.752	222.5
267.984	267.5
268.216	234.5
268.448	248.5
268.681	252.5
268.913	265.5
269.145	268.5
269.377	292.5
269.609	277.5
269.841	285.5
270.073	287.5
270.306	299.5
270.538	326.5
270.77	332.5
271.002	291.5
271.234	296.5
271.466	300.5
271.698	323.5
271.93	321.5
272.162	327.5
272.394	307.5
272.626	310.5
272.858	301.5
273.09	313.5
273.322	291.5
273.553	276.5
273.785	270.5
274.017	264.5
274.249	288.5
274.481	283.5
274.713	289.5
274.945	301.5
275.176	292.5
275.408	286.5
275.64	284.5
275.872	286.5
276.104	273.5
276.335	276.5
276.567	298.5
276.799	286.5
277.031	307.5
277.262	317.5
277.494	326.5
277.726	316.5
277.957	300.5
278.189	291.5
278.421	294.5
278.652	303.5
278.884	284.5
279.115	294.5
279.347	292.5
279.579	297.5
279.81	292.5
280.042	292.5
280.273	283.5
280.505	289.5
280.736	282.5
280.968	274.5
281.199	291.5
281.431	293.5
281.662	297.5
281.894	295.5
282.125	299.5
282.356	313.5
282.588	321.5
282.819	322.5
283.051	305.5
283.282	291.5
283.513	301.5
283.745	298.5
283.976	301.5
284.207	309.5
284.439	316.5
284.67	316.5
284.901	313.5
285.132	284.5
285.364	323.5
285.595	296.5
285.826	298.5
286.057	315.5
286.288	301.5
286.52	320.5
286.751	308.5
286.982	312.5
287.213	314.5
287.444	309.5
287.675	330.5
287.906	336.5
288.138	316.5
288.369	317.5
288.6	334.5
288.831	322.5
289.062	310.5
289.293	334.5
289.524	316.5
289.755	313.5
289.986	329.5
290.217	311.5
290.448	330.5
290.679	325.5
290.91	314.5
291.141	322.5
291.371	333.5
291.602	324.5
291.833	325.5
292.064	320.5
292.295	324.5
292.526	305.5
292.757	312.5
292.987	340.5
293.218	310.5
293.449	317.5
293.68	334.5
293.91	332.5
294.141	326.5
294.372	313.5
294.603	313.5
294.833	304.5
295.064	306.5
295.295	332.5
295.525	328.5
295.756	323.5
295.987	321.5
296.217	345.5
296.448	348.5
296.679	329.5
296.909	347.5
297.14	325.5
297.37	344.5
297.601	333.5
297.831	333.5
298.062	322.5
298.292	366.5
298.523	326.5
298.753	351.5
298.984	339.5
299.214	350.5
299.445	335.5
299.675	353.5
299.905	337.5
300.136	344.5
300.366	340.5
300.597	338.5
300.827	363.5
301.057	348.5
301.288	349.5
301.518	345.5
301.748	350.5
301.979	376.5
302.209	368.5
302.439	372.5
302.669	367.5
302.9	344.5
303.13	372.5
303.36	364.5
303.59	370.5
303.82	384.5
304.051	374.5
304.281	378.5
304.511	372.5
304.741	360.5
304.971	370.5
305.201	347.5
305.431	364.5
305.661	361.5
305.891	365.5
306.121	372.5
306.352	374.5
306.582	375.5
306.812	349.5
307.042	347.5
307.272	374.5
307.502	373.5
307.731	360.5
307.961	386.5
308.191	370.5
308.421	377.5
308.651	353.5
308.881	378.5
309.111	377.5
309.341	395.5
309.571	380.5
309.8	390.5
310.03	385.5
310.26	408.5
310.49	409.5
310.72	408.5
310.949	411.5
311.179	405.5
311.409	404.5
311.639	380.5
311.868	401.5
312.098	408.5
312.328	398.5
312.557	413.5
312.787	421.5
313.017	420.5
313.246	402.5
313.476	409.5
313.706	384.5
313.935	404.5
314.165	413.5
314.394	414.5
314.624	408.5
314.853	404.5
315.083	405.5
315.312	400.5
315.542	393.5
315.771	417.5
316.001	399.5
316.23	418.5
316.46	413.5
316.689	405.5
316.919	412.5
317.148	414.5
317.377	418.5
317.607	394.5
317.836	421.5
318.065	401.5
318.295	410.5
318.524	395.5
318.753	412.5
318.983	402.5
319.212	427.5
319.441	410.5
319.67	398.5
319.9	433.5
320.129	410.5
320.358	405.5
320.587	412.5
320.816	398.5
321.046	407.5
321.275	426.5
321.504	426.5
321.733	431.5
321.962	438.5
322.191	422.5
322.42	433.5
322.649	458.5
322.878	450.5
323.108	462.5
323.337	482.5
323.566	477.5
323.795	499.5
324.024	556.5
324.253	629.5
324.482	856.5
324.71	1255.5
324.939	1721.5
325.168	1453.5
325.397	806.5
325.626	593.5
325.855	547.5
326.084	480.5
326.313	497.5
326.542	500.5
326.77	530.5
326.999	610.5
327.228	805.5
327.457	1114.5
327.686	1257.5
327.914	906.5
328.143	631.5
328.372	578.5
328.6	538.5
328.829	532.5
329.058	537.5
329.287	536.5
329.515	498.5
329.744	524.5
329.972	502.5
330.201	530.5
330.43	549.5
330.658	552.5
330.887	573.5
331.115	555.5
331.344	511.5
331.572	483.5
331.801	493.5
332.03	503.5
332.258	489.5
332.486	502.5
332.715	474.5
332.943	476.5
333.172	480.5
333.4	496.5
333.629	498.5
333.857	521.5
334.085	540.5
334.314	550.5
334.542	579.5
334.771	566.5
334.999	533.5
335.227	521.5
335.455	530.5
335.684	493.5
335.912	491.5
336.14	462.5
336.369	470.5
336.597	466.5
336.825	480.5
337.053	481.5
337.281	479.5
337.51	483.5
337.738	478.5
337.966	460.5
338.194	456.5
338.422	467.5
338.65	490.5
338.878	478.5
339.106	459.5
339.334	455.5
339.562	441.5
339.79	444.5
340.018	448.5
340.246	420.5
340.474	441.5
340.702	455.5
340.93	463.5
341.158	448.5
341.386	476.5
341.614	471.5
341.842	426.5
342.07	456.5
342.298	470.5
342.526	447.5
342.754	424.5
342.981	434.5
343.209	436.5
343.437	443.5
343.665	444.5
343.893	476.5
344.12	479.5
344.348	479.5
344.576	487.5
344.804	471.5
345.031	462.5
345.259	464.5
345.487	441.5
345.714	431.5
345.942	447.5
346.17	433.5
346.397	438.5
346.625	434.5
346.853	436.5
347.08	425.5
347.308	404.5
347.535	441.5
347.763	445.5
347.99	448.5
348.218	439.5
348.445	443.5
348.673	427.5
348.9	419.5
349.128	430.5
349.355	430.5
349.583	410.5
349.81	411.5
350.037	420.5
350.265	448.5
350.492	403.5
350.72	402.5
350.947	424.5
351.174	437.5
351.402	414.5
351.629	418.5
351.856	427.5
352.083	442.5
352.311	442.5
352.538	429.5
352.765	415.5
352.992	423.5
353.22	421.5
353.447	414.5
353.674	416.5
353.901	405.5
354.128	384.5
354.355	427.5
354.583	404.5
354.81	416.5
355.037	413.5
355.264	396.5
355.491	402.5
355.718	401.5
355.945	400.5
356.172	407.5
356.399	392.5
356.626	401.5
356.853	411.5
357.08	380.5
357.307	393.5
357.534	377.5
357.761	385.5
357.988	402.5
358.215	389.5
358.441	422.5
358.668	399.5
358.895	391.5
359.122	397.5
359.349	406.5
359.576	418.5
359.802	416.5
360.029	458.5
360.256	465.5
360.483	424.5
360.709	407.5
360.936	427.5
361.163	401.5
361.39	411.5
361.616	411.5
361.843	399.5
362.07	414.5
362.296	434.5
362.523	408.5
362.749	395.5
362.976	413.5
363.203	420.5
363.429	406.5
363.656	388.5
363.882	400.5
364.109	403.5
364.335	398.5
364.562	374.5
364.788	413.5
365.015	406.5
365.241	399.5
365.468	414.5
365.694	378.5
365.92	405.5
366.147	391.5
366.373	407.5
366.599	407.5
366.826	381.5
367.052	385.5
367.278	393.5
367.505	385.5
367.731	410.5
367.957	410.5
368.184	396.5
368.41	390.5
368.636	418.5
368.862	432.5
369.089	395.5
369.315	398.5
369.541	380.5
369.767	393.5
369.993	404.5
370.219	402.5
370.445	394.5
370.672	414.5
370.898	398.5
371.124	404.5
371.35	407.5
371.576	397.5
371.802	385.5
372.028	382.5
372.254	383.5
372.48	398.5
372.706	404.5
372.932	421.5
373.158	416.5
373.384	392.5
373.61	394.5
373.835	397.5
374.061	396.5
374.287	408.5
374.513	387.5
374.739	392.5
374.965	409.5
375.191	398.5
375.416	406.5
375.642	398.5
375.868	399.5
376.094	376.5
376.319	389.5
376.545	378.5
376.771	405.5
376.997	382.5
377.222	388.5
377.448	381.5
377.674	385.5
377.899	384.5
378.125	398.5
378.35	399.5
378.576	388.5
378.802	377.5
379.027	414.5
379.253	398.5
379.478	383.5
379.704	383.5
379.929	373.5
380.155	410.5
380.38	388.5
380.606	393.5
380.831	382.5
381.057	376.5
381.282	397.5
381.507	396.5
381.733	400.5
381.958	396.5
382.184	393.5
382.409	374.5
382.634	404.5
382.86	400.5
383.085	428.5
383.31	385.5
383.535	416.5
383.761	395.5
383.986	412.5
384.211	403.5
384.436	411.5
384.662	411.5
384.887	427.5
385.112	413.5
385.337	420.5
385.562	434.5
385.787	424.5
386.013	449.5
386.238	432.5
386.463	431.5
386.688	449.5
386.913	423.5
387.138	433.5
387.363	426.5
387.588	432.5
387.813	440.5
388.038	417.5
388.263	422.5
388.488	431.5
388.713	416.5
388.938	443.5
389.163	424.5
389.387	410.5
389.612	425.5
389.837	414.5
390.062	434.5
390.287	444.5
390.512	426.5
390.736	435.5
390.961	428.5
391.186	421.5
391.411	452.5
391.636	434.5
391.86	443.5
392.085	450.5
392.31	444.5
392.534	441.5
392.759	436.5
392.984	435.5
393.208	408.5
393.433	435.5
393.658	428.5
393.882	428.5
394.107	425.5
394.331	423.5
394.556	428.5
394.78	459.5
395.005	435.5
395.229	440.5
395.454	457.5
395.678	448.5
395.903	449.5
396.127	476.5
396.352	458.5
396.576	448.5
396.801	453.5
397.025	445.5
397.249	467.5
397.474	464.5
397.698	453.5
397.922	444.5
398.147	485.5
398.371	500.5
398.595	471.5
398.82	487.5
399.044	505.5
399.268	512.5
399.492	537.5
399.717	587.5
399.941	588.5
400.165	593.5
400.389	626.5
400.613	539.5
400.837	519.5
401.062	489.5
401.286	510.5
401.51	480.5
401.734	478.5
401.958	472.5
402.182	476.5
402.406	482.5
402.63	481.5
402.854	485.5
403.078	516.5
403.302	497.5
403.526	489.5
403.75	499.5
403.974	509.5
404.198	504.5
404.422	514.5
404.645	513.5
404.869	501.5
405.093	536.5
405.317	577.5
405.541	608.5
405.765	527.5
405.988	532.5
406.212	523.5
406.436	524.5
406.66	528.5
406.883	540.5
407.107	561.5
407.331	594.5
407.555	627.5
407.778	628.5
408.002	595.5
408.226	546.5
408.449	544.5
408.673	545.5
408.896	580.5
409.12	588.5
409.344	568.5
409.567	508.5
409.791	508.5
410.014	483.5
410.238	513.5
410.461	486.5
410.685	500.5
410.908	517.5
411.132	532.5
411.355	588.5
411.578	532.5
411.802	496.5
412.025	496.5
412.249	516.5
412.472	526.5
412.695	550.5
412.919	532.5
413.142	484.5
413.365	496.5
413.589	466.5
413.812	469.5
414.035	467.5
414.258	472.5
414.482	486.5
414.705	471.5
414.928	457.5
415.151	474.5
415.374	471.5
415.597	458.5
415.821	460.5
416.044	456.5
416.267	469.5
416.49	458.5
416.713	470.5
416.936	446.5
417.159	484.5
417.382	475.5
417.605	467.5
417.828	465.5
418.051	462.5
418.274	462.5
418.497	468.5
418.72	458.5
418.943	461.5
419.166	490.5
419.389	496.5
419.611	507.5
419.834	492.5
420.057	500.5
420.28	493.5
420.503	474.5
420.726	490.5
420.948	484.5
421.171	492.5
421.394	542.5
421.617	496.5
421.839	479.5
422.062	490.5
422.285	484.5
422.507	547.5
422.73	582.5
422.953	549.5
423.175	490.5
423.398	518.5
423.621	483.5
423.843	516.5
424.066	509.5
424.288	514.5
424.511	510.5
424.733	562.5
424.956	633.5
425.178	620.5
425.401	601.5
425.623	600.5
425.846	517.5
426.068	500.5
426.291	483.5
426.513	480.5
426.735	505.5
426.958	557.5
427.18	600.5
427.402	690.5
427.625	742.5
427.847	636.5
428.069	546.5
428.292	522.5
428.514	516.5
428.736	476.5
428.958	454.5
429.181	464.5
429.403	451.5
429.625	477.5
429.847	497.5
430.069	526.5
430.292	548.5
430.514	493.5
430.736	453.5
430.958	469.5
431.18	451.5
431.402	448.5
431.624	440.5
431.846	427.5
432.068	425.5
432.29	457.5
432.512	441.5
432.734	446.5
432.956	450.5
433.178	434.5
433.4	452.5
433.622	430.5
433.844	444.5
434.066	415.5
434.287	434.5
434.509	442.5
434.731	442.5
434.953	467.5
435.175	470.5
435.397	486.5
435.618	503.5
435.84	516.5
436.062	609.5
436.284	641.5
436.505	537.5
436.727	497.5
436.949	481.5
437.17	476.5
437.392	450.5
437.614	471.5
437.835	487.5
438.057	570.5
438.278	637.5
438.5	629.5
438.721	683.5
438.943	667.5
439.165	543.5
439.386	508.5
439.608	501.5
439.829	500.5
440.05	516.5
440.272	541.5
440.493	504.5
440.715	460.5
440.936	466.5
441.158	458.5
441.379	460.5
441.6	487.5
441.822	497.5
442.043	520.5
442.264	575.5
442.486	615.5
442.707	524.5
442.928	507.5
443.149	508.5
443.371	516.5
443.592	571.5
443.813	639.5
444.034	678.5
444.255	572.5
444.476	500.5
444.698	528.5
444.919	501.5
445.14	587.5
445.361	540.5
445.582	550.5
445.803	579.5
446.024	662.5
446.245	638.5
446.466	580.5
446.687	514.5
446.908	493.5
447.129	461.5
447.35	446.5
447.571	461.5
447.792	454.5
448.013	455.5
448.234	461.5
448.455	490.5
448.675	605.5
448.896	664.5
449.117	557.5
449.338	550.5
449.559	641.5
449.779	684.5
450	558.5
450.221	478.5
450.442	458.5
450.662	433.5
450.883	446.5
451.104	443.5
451.324	412.5
451.545	424.5
451.766	403.5
451.986	410.5
452.207	403.5
452.428	410.5
452.648	409.5
452.869	385.5
453.089	398.5
453.31	420.5
453.53	412.5
453.751	418.5
453.971	406.5
454.192	420.5
454.412	407.5
454.633	404.5
454.853	419.5
455.073	391.5
455.294	418.5
455.514	452.5
455.734	466.5
455.955	397.5
456.175	385.5
456.395	382.5
456.616	394.5
456.836	390.5
457.056	371.5
457.276	371.5
457.497	385.5
457.717	379.5
457.937	374.5
458.157	378.5
458.377	384.5
458.598	400.5
458.818	451.5
459.038	477.5
459.258	531.5
459.478	449.5
459.698	436.5
459.918	445.5
460.138	422.5
460.358	447.5
460.578	448.5
460.798	449.5
461.018	434.5
461.238	450.5
461.458	443.5
461.678	465.5
461.898	467.5
462.118	454.5
462.338	452.5
462.558	451.5
462.777	474.5
462.997	488.5
463.217	505.5
463.437	505.5
463.657	501.5
463.876	493.5
464.096	502.5
464.316	484.5
464.536	489.5
464.755	474.5
464.975	472.5
465.195	502.5
465.414	512.5
465.634	485.5
465.854	441.5
466.073	435.5
466.293	421.5
466.512	411.5
466.732	415.5
466.951	398.5
467.171	410.5
467.391	401.5
467.61	423.5
467.829	420.5
468.049	425.5
468.268	406.5
468.488	418.5
468.707	386.5
468.927	404.5
469.146	398.5
469.365	399.5
469.585	417.5
469.804	417.5
470.023	416.5
470.243	406.5
470.462	416.5
470.681	433.5
470.901	430.5
471.12	402.5
471.339	415.5
471.558	419.5
471.777	434.5
471.997	415.5
472.216	411.5
472.435	444.5
472.654	425.5
472.873	436.5
473.092	409.5
473.311	401.5
473.53	411.5
473.749	416.5
473.968	473.5
474.187	531.5
474.406	542.5
474.625	464.5
474.844	411.5
475.063	420.5
475.282	426.5
475.501	429.5
475.72	439.5
475.939	412.5
476.158	438.5
476.377	418.5
476.596	434.5
476.814	429.5
477.033	435.5
477.252	436.5
477.471	455.5
477.69	455.5
477.908	444.5
478.127	466.5
478.346	447.5
478.564	480.5
478.783	462.5
479.002	486.5
479.22	474.5
479.439	485.5
479.658	493.5
479.876	488.5
480.095	502.5
480.313	523.5
480.532	545.5
480.751	510.5
480.969	510.5
481.188	544.5
481.406	581.5
481.624	533.5
481.843	483.5
482.061	494.5
482.28	491.5
482.498	490.5
482.717	481.5
482.935	481.5
483.153	476.5
483.372	486.5
483.59	493.5
483.808	476.5
484.027	473.5
484.245	480.5
484.463	482.5
484.681	519.5
484.9	485.5
485.118	480.5
485.336	485.5
485.554	491.5
485.772	509.5
485.99	530.5
486.209	499.5
486.427	483.5
486.645	503.5
486.863	526.5
487.081	522.5
487.299	501.5
487.517	535.5
487.735	505.5
487.953	517.5
488.171	497.5
488.389	521.5
488.607	526.5
488.825	514.5
489.043	513.5
489.261	521.5
489.479	507.5
489.696	518.5
489.914	518.5
490.132	530.5
490.35	531.5
490.568	536.5
490.786	535.5
491.003	551.5
491.221	572.5
491.439	578.5
491.657	578.5
491.874	569.5
492.092	543.5
492.31	581.5
492.527	568.5
492.745	586.5
492.963	574.5
493.18	602.5
493.398	585.5
493.615	619.5
493.833	591.5
494.05	592.5
494.268	584.5
494.485	580.5
494.703	586.5
494.92	606.5
495.138	606.5
495.355	590.5
495.573	585.5
495.79	584.5
496.008	582.5
496.225	585.5
496.442	587.5
496.66	588.5
496.877	615.5
497.094	604.5
497.312	620.5
497.529	612.5
497.746	615.5
497.963	614.5
498.181	674.5
498.398	668.5
498.615	690.5
498.832	718.5
499.049	702.5
499.267	739.5
499.484	765.5
499.701	782.5
499.918	809.5
500.135	874.5
500.352	899.5
500.569	908.5
500.786	928.5
501.003	887.5
501.22	889.5
501.437	818.5
501.654	804.5
501.871	769.5
502.088	751.5
502.305	724.5
502.522	692.5
502.739	688.5
502.956	683.5
503.172	640.5
503.389	640.5
503.606	635.5
503.823	630.5
504.04	612.5
504.256	600.5
504.473	600.5
504.69	613.5
504.907	598.5
505.123	600.5
505.34	590.5
505.557	577.5
505.773	543.5
505.99	570.5
506.207	576.5
506.423	566.5
506.64	562.5
506.856	560.5
507.073	562.5
507.289	554.5
507.506	548.5
507.722	540.5
507.939	571.5
508.155	530.5
508.372	522.5
508.588	530.5
508.805	521.5
509.021	546.5
509.238	540.5
509.454	535.5
509.67	536.5
509.887	530.5
510.103	509.5
510.319	514.5
510.536	576.5
510.752	790.5
510.968	680.5
511.184	525.5
511.401	537.5
511.617	502.5
511.833	516.5
512.049	510.5
512.265	506.5
512.481	509.5
512.698	493.5
512.914	488.5
513.13	501.5
513.346	483.5
513.562	502.5
513.778	508.5
513.994	490.5
514.21	519.5
514.426	488.5
514.642	531.5
514.858	546.5
515.074	565.5
515.29	627.5
515.506	809.5
515.721	704.5
515.937	586.5
516.153	535.5
516.369	525.5
516.585	536.5
516.801	478.5
517.016	519.5
517.232	526.5
517.448	535.5
517.664	539.5
517.879	541.5
518.095	525.5
518.311	513.5
518.527	518.5
518.742	518.5
518.958	517.5
519.173	489.5
519.389	523.5
519.605	478.5
519.82	491.5
520.036	490.5
