Data from 1965.PennyLincolnUp.Lamp.En5.5.200Scan.071719.P1._HRD10591_14-09-09-911.txt Node
Date: Thu Jul 18 14:09:09 EDT 2019
User: cochatt
Spectrometer: HR+D1059
Trigger mode: 1
Integration Time (sec): 1.000000E-1
Scans to average: 1
Electric dark correction enabled: true
Nonlinearity correction enabled: false
Boxcar width: 0
XAxis mode: Wavelengths
Number of Pixels in Spectrum: 2048
>>>>>Begin Spectral Data<<<<<
223.165	-5.5
223.4	-5.5
223.635	-5.5
223.869	-13.5
224.104	-18.5
224.338	-22.5
224.573	-5.5
224.808	-9.5
225.042	0.5
225.277	-10.5
225.511	-7.5
225.746	-6.5
225.98	1.5
226.215	15.5
226.449	4.5
226.683	21.5
226.918	29.5
227.152	26.5
227.387	33.5
227.621	27.5
227.856	28.5
228.09	44.5
228.324	43.5
228.559	70.5
228.793	69.5
229.027	92.5
229.262	101.5
229.496	98.5
229.73	121.5
229.964	134.5
230.199	126.5
230.433	107.5
230.667	106.5
230.901	102.5
231.136	100.5
231.37	103.5
231.604	96.5
231.838	107.5
232.072	100.5
232.306	112.5
232.541	108.5
232.775	112.5
233.009	97.5
233.243	100.5
233.477	106.5
233.711	105.5
233.945	108.5
234.179	111.5
234.413	100.5
234.647	112.5
234.881	108.5
235.115	106.5
235.349	113.5
235.583	107.5
235.817	107.5
236.051	121.5
236.285	132.5
236.519	107.5
236.753	121.5
236.987	138.5
237.221	168.5
237.455	202.5
237.689	164.5
237.922	120.5
238.156	138.5
238.39	123.5
238.624	113.5
238.858	109.5
239.091	105.5
239.325	121.5
239.559	118.5
239.793	115.5
240.027	115.5
240.26	132.5
240.494	152.5
240.728	144.5
240.961	148.5
241.195	135.5
241.429	115.5
241.662	113.5
241.896	123.5
242.13	106.5
242.363	114.5
242.597	107.5
242.83	116.5
243.064	116.5
243.298	113.5
243.531	140.5
243.765	128.5
243.998	124.5
244.232	116.5
244.465	140.5
244.699	129.5
244.932	130.5
245.166	132.5
245.399	126.5
245.633	123.5
245.866	127.5
246.099	122.5
246.333	112.5
246.566	135.5
246.8	109.5
247.033	138.5
247.266	129.5
247.5	150.5
247.733	129.5
247.966	147.5
248.2	150.5
248.433	151.5
248.666	154.5
248.899	165.5
249.133	178.5
249.366	185.5
249.599	180.5
249.832	164.5
250.066	148.5
250.299	164.5
250.532	167.5
250.765	180.5
250.998	193.5
251.231	183.5
251.465	188.5
251.698	184.5
251.931	181.5
252.164	178.5
252.397	165.5
252.63	180.5
252.863	166.5
253.096	187.5
253.329	205.5
253.562	196.5
253.795	185.5
254.028	210.5
254.261	182.5
254.494	195.5
254.727	233.5
254.96	243.5
255.193	248.5
255.426	217.5
255.659	200.5
255.892	210.5
256.124	197.5
256.357	212.5
256.59	196.5
256.823	198.5
257.056	201.5
257.289	200.5
257.521	176.5
257.754	179.5
257.987	177.5
258.22	186.5
258.452	179.5
258.685	176.5
258.918	183.5
259.151	173.5
259.383	189.5
259.616	189.5
259.849	197.5
260.081	218.5
260.314	216.5
260.547	213.5
260.779	204.5
261.012	216.5
261.244	204.5
261.477	203.5
261.71	180.5
261.942	202.5
262.175	213.5
262.407	197.5
262.64	195.5
262.872	185.5
263.105	189.5
263.337	187.5
263.57	197.5
263.802	174.5
264.035	184.5
264.267	169.5
264.499	182.5
264.732	176.5
264.964	190.5
265.197	196.5
265.429	197.5
265.661	180.5
265.894	180.5
266.126	179.5
266.358	171.5
266.591	195.5
266.823	199.5
267.055	190.5
267.287	194.5
267.52	200.5
267.752	208.5
267.984	186.5
268.216	209.5
268.448	202.5
268.681	216.5
268.913	204.5
269.145	231.5
269.377	229.5
269.609	222.5
269.841	235.5
270.073	241.5
270.306	249.5
270.538	268.5
270.77	279.5
271.002	264.5
271.234	259.5
271.466	264.5
271.698	282.5
271.93	267.5
272.162	268.5
272.394	260.5
272.626	252.5
272.858	249.5
273.09	245.5
273.322	238.5
273.553	240.5
273.785	202.5
274.017	229.5
274.249	232.5
274.481	245.5
274.713	230.5
274.945	215.5
275.176	217.5
275.408	243.5
275.64	228.5
275.872	242.5
276.104	244.5
276.335	225.5
276.567	234.5
276.799	252.5
277.031	261.5
277.262	277.5
277.494	276.5
277.726	256.5
277.957	245.5
278.189	235.5
278.421	235.5
278.652	222.5
278.884	227.5
279.115	227.5
279.347	232.5
279.579	241.5
279.81	247.5
280.042	224.5
280.273	237.5
280.505	226.5
280.736	223.5
280.968	217.5
281.199	245.5
281.431	225.5
281.662	225.5
281.894	232.5
282.125	234.5
282.356	253.5
282.588	280.5
282.819	271.5
283.051	241.5
283.282	226.5
283.513	218.5
283.745	249.5
283.976	242.5
284.207	221.5
284.439	256.5
284.67	224.5
284.901	238.5
285.132	236.5
285.364	240.5
285.595	230.5
285.826	230.5
286.057	229.5
286.288	234.5
286.52	238.5
286.751	229.5
286.982	221.5
287.213	244.5
287.444	231.5
287.675	250.5
287.906	248.5
288.138	243.5
288.369	267.5
288.6	254.5
288.831	249.5
289.062	271.5
289.293	258.5
289.524	249.5
289.755	246.5
289.986	233.5
290.217	245.5
290.448	241.5
290.679	253.5
290.91	227.5
291.141	234.5
291.371	231.5
291.602	245.5
291.833	230.5
292.064	243.5
292.295	251.5
292.526	261.5
292.757	265.5
292.987	229.5
293.218	257.5
293.449	249.5
293.68	244.5
293.91	246.5
294.141	251.5
294.372	264.5
294.603	234.5
294.833	244.5
295.064	235.5
295.295	272.5
295.525	278.5
295.756	267.5
295.987	267.5
296.217	278.5
296.448	286.5
296.679	253.5
296.909	252.5
297.14	270.5
297.37	256.5
297.601	243.5
297.831	264.5
298.062	244.5
298.292	262.5
298.523	267.5
298.753	260.5
298.984	266.5
299.214	249.5
299.445	266.5
299.675	266.5
299.905	261.5
300.136	253.5
300.366	250.5
300.597	270.5
300.827	260.5
301.057	286.5
301.288	290.5
301.518	281.5
301.748	270.5
301.979	284.5
302.209	291.5
302.439	276.5
302.669	262.5
302.9	270.5
303.13	292.5
303.36	287.5
303.59	278.5
303.82	273.5
304.051	293.5
304.281	283.5
304.511	284.5
304.741	265.5
304.971	280.5
305.201	286.5
305.431	283.5
305.661	278.5
305.891	284.5
306.121	298.5
306.352	288.5
306.582	288.5
306.812	281.5
307.042	276.5
307.272	283.5
307.502	278.5
307.731	288.5
307.961	288.5
308.191	281.5
308.421	282.5
308.651	295.5
308.881	274.5
309.111	301.5
309.341	315.5
309.571	310.5
309.8	308.5
310.03	313.5
310.26	341.5
310.49	316.5
310.72	329.5
310.949	349.5
311.179	344.5
311.409	324.5
311.639	316.5
311.868	329.5
312.098	331.5
312.328	331.5
312.557	357.5
312.787	353.5
313.017	354.5
313.246	341.5
313.476	322.5
313.706	336.5
313.935	334.5
314.165	356.5
314.394	344.5
314.624	339.5
314.853	338.5
315.083	336.5
315.312	309.5
315.542	317.5
315.771	329.5
316.001	302.5
316.23	360.5
316.46	326.5
316.689	313.5
316.919	338.5
317.148	340.5
317.377	344.5
317.607	328.5
317.836	336.5
318.065	324.5
318.295	337.5
318.524	332.5
318.753	312.5
318.983	320.5
319.212	332.5
319.441	345.5
319.67	331.5
319.9	338.5
320.129	346.5
320.358	320.5
320.587	338.5
320.816	343.5
321.046	366.5
321.275	347.5
321.504	357.5
321.733	346.5
321.962	365.5
322.191	365.5
322.42	379.5
322.649	392.5
322.878	423.5
323.108	420.5
323.337	444.5
323.566	467.5
323.795	506.5
324.024	553.5
324.253	634.5
324.482	957.5
324.71	1421.5
324.939	1966.5
325.168	1629.5
325.397	900.5
325.626	613.5
325.855	526.5
326.084	480.5
326.313	478.5
326.542	464.5
326.77	514.5
326.999	613.5
327.228	825.5
327.457	1240.5
327.686	1419.5
327.914	942.5
328.143	670.5
328.372	596.5
328.6	555.5
328.829	484.5
329.058	519.5
329.287	542.5
329.515	475.5
329.744	438.5
329.972	455.5
330.201	478.5
330.43	505.5
330.658	532.5
330.887	566.5
331.115	519.5
331.344	446.5
331.572	441.5
331.801	438.5
332.03	446.5
332.258	408.5
332.486	404.5
332.715	392.5
332.943	371.5
333.172	390.5
333.4	384.5
333.629	397.5
333.857	418.5
334.085	436.5
334.314	427.5
334.542	472.5
334.771	482.5
334.999	443.5
335.227	413.5
335.455	404.5
335.684	371.5
335.912	393.5
336.14	396.5
336.369	381.5
336.597	380.5
336.825	379.5
337.053	399.5
337.281	369.5
337.51	375.5
337.738	393.5
337.966	387.5
338.194	393.5
338.422	384.5
338.65	386.5
338.878	370.5
339.106	364.5
339.334	384.5
339.562	377.5
339.79	354.5
340.018	373.5
340.246	374.5
340.474	374.5
340.702	380.5
340.93	378.5
341.158	354.5
341.386	364.5
341.614	375.5
341.842	354.5
342.07	371.5
342.298	354.5
342.526	370.5
342.754	358.5
342.981	362.5
343.209	357.5
343.437	353.5
343.665	362.5
343.893	384.5
344.12	356.5
344.348	373.5
344.576	384.5
344.804	377.5
345.031	380.5
345.259	390.5
345.487	376.5
345.714	374.5
345.942	360.5
346.17	358.5
346.397	355.5
346.625	356.5
346.853	362.5
347.08	368.5
347.308	368.5
347.535	340.5
347.763	382.5
347.99	374.5
348.218	374.5
348.445	375.5
348.673	384.5
348.9	361.5
349.128	357.5
349.355	339.5
349.583	342.5
349.81	331.5
350.037	341.5
350.265	354.5
350.492	330.5
350.72	342.5
350.947	355.5
351.174	354.5
351.402	372.5
351.629	355.5
351.856	371.5
352.083	368.5
352.311	373.5
352.538	396.5
352.765	402.5
352.992	350.5
353.22	368.5
353.447	358.5
353.674	361.5
353.901	368.5
354.128	348.5
354.355	344.5
354.583	338.5
354.81	340.5
355.037	338.5
355.264	324.5
355.491	341.5
355.718	329.5
355.945	337.5
356.172	320.5
356.399	316.5
356.626	312.5
356.853	335.5
357.08	335.5
357.307	334.5
357.534	346.5
357.761	350.5
357.988	330.5
358.215	313.5
358.441	333.5
358.668	349.5
358.895	321.5
359.122	333.5
359.349	353.5
359.576	366.5
359.802	382.5
360.029	406.5
360.256	418.5
360.483	408.5
360.709	370.5
360.936	363.5
361.163	361.5
361.39	364.5
361.616	360.5
361.843	362.5
362.07	380.5
362.296	352.5
362.523	365.5
362.749	343.5
362.976	353.5
363.203	351.5
363.429	357.5
363.656	364.5
363.882	328.5
364.109	357.5
364.335	347.5
364.562	325.5
364.788	350.5
365.015	325.5
365.241	356.5
365.468	369.5
365.694	366.5
365.92	351.5
366.147	359.5
366.373	330.5
366.599	339.5
366.826	334.5
367.052	325.5
367.278	332.5
367.505	328.5
367.731	363.5
367.957	344.5
368.184	340.5
368.41	340.5
368.636	346.5
368.862	349.5
369.089	350.5
369.315	322.5
369.541	348.5
369.767	349.5
369.993	342.5
370.219	352.5
370.445	338.5
370.672	340.5
370.898	334.5
371.124	338.5
371.35	331.5
371.576	338.5
371.802	328.5
372.028	328.5
372.254	315.5
372.48	323.5
372.706	323.5
372.932	342.5
373.158	354.5
373.384	332.5
373.61	331.5
373.835	343.5
374.061	322.5
374.287	330.5
374.513	346.5
374.739	353.5
374.965	355.5
375.191	344.5
375.416	338.5
375.642	337.5
375.868	333.5
376.094	341.5
376.319	331.5
376.545	330.5
376.771	347.5
376.997	325.5
377.222	334.5
377.448	325.5
377.674	315.5
377.899	340.5
378.125	325.5
378.35	326.5
378.576	339.5
378.802	344.5
379.027	324.5
379.253	325.5
379.478	353.5
379.704	329.5
379.929	341.5
380.155	337.5
380.38	345.5
380.606	359.5
380.831	333.5
381.057	345.5
381.282	324.5
381.507	340.5
381.733	347.5
381.958	318.5
382.184	328.5
382.409	327.5
382.634	333.5
382.86	340.5
383.085	341.5
383.31	351.5
383.535	358.5
383.761	334.5
383.986	343.5
384.211	338.5
384.436	332.5
384.662	345.5
384.887	331.5
385.112	355.5
385.337	351.5
385.562	358.5
385.787	358.5
386.013	385.5
386.238	362.5
386.463	361.5
386.688	361.5
386.913	357.5
387.138	336.5
387.363	363.5
387.588	352.5
387.813	356.5
388.038	359.5
388.263	361.5
388.488	365.5
388.713	360.5
388.938	353.5
389.163	344.5
389.387	369.5
389.612	362.5
389.837	344.5
390.062	350.5
390.287	356.5
390.512	370.5
390.736	362.5
390.961	361.5
391.186	365.5
391.411	357.5
391.636	374.5
391.86	369.5
392.085	347.5
392.31	377.5
392.534	381.5
392.759	346.5
392.984	352.5
393.208	331.5
393.433	366.5
393.658	353.5
393.882	368.5
394.107	355.5
394.331	359.5
394.556	336.5
394.78	374.5
395.005	368.5
395.229	373.5
395.454	365.5
395.678	372.5
395.903	382.5
396.127	372.5
396.352	389.5
396.576	380.5
396.801	365.5
397.025	384.5
397.249	390.5
397.474	382.5
397.698	395.5
397.922	390.5
398.147	403.5
398.371	404.5
398.595	402.5
398.82	394.5
399.044	423.5
399.268	406.5
399.492	429.5
399.717	472.5
399.941	475.5
400.165	490.5
400.389	506.5
400.613	469.5
400.837	440.5
401.062	420.5
401.286	416.5
401.51	419.5
401.734	421.5
401.958	396.5
402.182	397.5
402.406	417.5
402.63	434.5
402.854	415.5
403.078	418.5
403.302	420.5
403.526	419.5
403.75	414.5
403.974	425.5
404.198	443.5
404.422	420.5
404.645	416.5
404.869	423.5
405.093	457.5
405.317	494.5
405.541	488.5
405.765	478.5
405.988	433.5
406.212	459.5
406.436	474.5
406.66	467.5
406.883	465.5
407.107	484.5
407.331	483.5
407.555	560.5
407.778	545.5
408.002	520.5
408.226	470.5
408.449	459.5
408.673	453.5
408.896	478.5
409.12	506.5
409.344	480.5
409.567	450.5
409.791	428.5
410.014	435.5
410.238	431.5
410.461	422.5
410.685	432.5
410.908	423.5
411.132	473.5
411.355	501.5
411.578	448.5
411.802	433.5
412.025	428.5
412.249	418.5
412.472	467.5
412.695	476.5
412.919	459.5
413.142	432.5
413.365	406.5
413.589	407.5
413.812	402.5
414.035	398.5
414.258	405.5
414.482	417.5
414.705	403.5
414.928	400.5
415.151	375.5
415.374	375.5
415.597	401.5
415.821	380.5
416.044	397.5
416.267	402.5
416.49	403.5
416.713	383.5
416.936	366.5
417.159	398.5
417.382	392.5
417.605	384.5
417.828	417.5
418.051	413.5
418.274	404.5
418.497	401.5
418.72	403.5
418.943	390.5
419.166	409.5
419.389	425.5
419.611	433.5
419.834	412.5
420.057	411.5
420.28	409.5
420.503	412.5
420.726	420.5
420.948	421.5
421.171	464.5
421.394	502.5
421.617	435.5
421.839	422.5
422.062	417.5
422.285	434.5
422.507	480.5
422.73	538.5
422.953	516.5
423.175	446.5
423.398	453.5
423.621	419.5
423.843	469.5
424.066	445.5
424.288	460.5
424.511	467.5
424.733	496.5
424.956	555.5
425.178	562.5
425.401	545.5
425.623	553.5
425.846	483.5
426.068	450.5
426.291	440.5
426.513	453.5
426.735	462.5
426.958	484.5
427.18	568.5
427.402	654.5
427.625	740.5
427.847	632.5
428.069	572.5
428.292	505.5
428.514	468.5
428.736	442.5
428.958	436.5
429.181	421.5
429.403	441.5
429.625	444.5
429.847	467.5
430.069	514.5
430.292	506.5
430.514	456.5
430.736	415.5
430.958	416.5
431.18	422.5
431.402	401.5
431.624	392.5
431.846	392.5
432.068	399.5
432.29	402.5
432.512	399.5
432.734	401.5
432.956	402.5
433.178	398.5
433.4	433.5
433.622	405.5
433.844	394.5
434.066	392.5
434.287	404.5
434.509	408.5
434.731	397.5
434.953	398.5
435.175	416.5
435.397	432.5
435.618	460.5
435.84	492.5
436.062	567.5
436.284	601.5
436.505	523.5
436.727	478.5
436.949	468.5
437.17	444.5
437.392	437.5
437.614	462.5
437.835	475.5
438.057	569.5
438.278	612.5
438.5	625.5
438.721	684.5
438.943	647.5
439.165	526.5
439.386	469.5
439.608	452.5
439.829	465.5
440.05	497.5
440.272	515.5
440.493	491.5
440.715	446.5
440.936	452.5
441.158	449.5
441.379	426.5
441.6	447.5
441.822	451.5
442.043	485.5
442.264	548.5
442.486	587.5
442.707	516.5
442.928	482.5
443.149	462.5
443.371	498.5
443.592	525.5
443.813	609.5
444.034	618.5
444.255	516.5
444.476	483.5
444.698	482.5
444.919	457.5
445.14	562.5
445.361	516.5
445.582	496.5
445.803	549.5
446.024	640.5
446.245	649.5
446.466	564.5
446.687	486.5
446.908	455.5
447.129	454.5
447.35	446.5
447.571	419.5
447.792	426.5
448.013	442.5
448.234	458.5
448.455	485.5
448.675	562.5
448.896	669.5
449.117	560.5
449.338	560.5
449.559	638.5
449.779	702.5
450	560.5
450.221	491.5
450.442	432.5
450.662	416.5
450.883	438.5
451.104	442.5
451.324	445.5
451.545	416.5
451.766	398.5
451.986	404.5
452.207	396.5
452.428	381.5
452.648	392.5
452.869	414.5
453.089	387.5
453.31	399.5
453.53	398.5
453.751	388.5
453.971	389.5
454.192	420.5
454.412	399.5
454.633	400.5
454.853	399.5
455.073	403.5
455.294	416.5
455.514	461.5
455.734	449.5
455.955	375.5
456.175	378.5
456.395	388.5
456.616	365.5
456.836	368.5
457.056	380.5
457.276	353.5
457.497	359.5
457.717	372.5
457.937	376.5
458.157	363.5
458.377	352.5
458.598	406.5
458.818	454.5
459.038	529.5
459.258	540.5
459.478	452.5
459.698	412.5
459.918	421.5
460.138	393.5
460.358	395.5
460.578	408.5
460.798	409.5
461.018	421.5
461.238	405.5
461.458	385.5
461.678	388.5
461.898	408.5
462.118	394.5
462.338	410.5
462.558	408.5
462.777	395.5
462.997	414.5
463.217	416.5
463.437	428.5
463.657	409.5
463.876	414.5
464.096	443.5
464.316	413.5
464.536	422.5
464.755	417.5
464.975	428.5
465.195	499.5
465.414	557.5
465.634	467.5
465.854	446.5
466.073	428.5
466.293	411.5
466.512	403.5
466.732	398.5
466.951	388.5
467.171	387.5
467.391	409.5
467.61	404.5
467.829	418.5
468.049	421.5
468.268	406.5
468.488	381.5
468.707	383.5
468.927	386.5
469.146	380.5
469.365	401.5
469.585	394.5
469.804	405.5
470.023	398.5
470.243	414.5
470.462	387.5
470.681	430.5
470.901	417.5
471.12	387.5
471.339	399.5
471.558	398.5
471.777	418.5
471.997	415.5
472.216	416.5
472.435	438.5
472.654	444.5
472.873	412.5
473.092	408.5
473.311	403.5
473.53	396.5
473.749	401.5
473.968	448.5
474.187	543.5
474.406	533.5
474.625	437.5
474.844	409.5
475.063	396.5
475.282	425.5
475.501	425.5
475.72	406.5
475.939	402.5
476.158	428.5
476.377	408.5
476.596	414.5
476.814	404.5
477.033	429.5
477.252	434.5
477.471	418.5
477.69	445.5
477.908	456.5
478.127	450.5
478.346	433.5
478.564	456.5
478.783	458.5
479.002	451.5
479.22	458.5
479.439	475.5
479.658	470.5
479.876	487.5
480.095	462.5
480.313	517.5
480.532	480.5
480.751	492.5
480.969	496.5
481.188	544.5
481.406	597.5
481.624	530.5
481.843	514.5
482.061	502.5
482.28	485.5
482.498	448.5
482.717	453.5
482.935	470.5
483.153	488.5
483.372	490.5
483.59	492.5
483.808	487.5
484.027	484.5
484.245	469.5
484.463	483.5
484.681	500.5
484.9	470.5
485.118	481.5
485.336	493.5
485.554	478.5
485.772	477.5
485.99	452.5
486.209	467.5
486.427	515.5
486.645	508.5
486.863	501.5
487.081	506.5
487.299	511.5
487.517	521.5
487.735	507.5
487.953	519.5
488.171	493.5
488.389	509.5
488.607	496.5
488.825	480.5
489.043	496.5
489.261	502.5
489.479	526.5
489.696	517.5
489.914	518.5
490.132	509.5
490.35	515.5
490.568	532.5
490.786	556.5
491.003	545.5
491.221	566.5
491.439	564.5
491.657	579.5
491.874	564.5
492.092	562.5
492.31	577.5
492.527	564.5
492.745	559.5
492.963	571.5
493.18	593.5
493.398	576.5
493.615	590.5
493.833	594.5
494.05	600.5
494.268	586.5
494.485	605.5
494.703	584.5
494.92	594.5
495.138	588.5
495.355	576.5
495.573	587.5
495.79	604.5
496.008	608.5
496.225	595.5
496.442	597.5
496.66	585.5
496.877	583.5
497.094	620.5
497.312	595.5
497.529	612.5
497.746	632.5
497.963	626.5
498.181	603.5
498.398	679.5
498.615	672.5
498.832	669.5
499.049	692.5
499.267	672.5
499.484	700.5
499.701	702.5
499.918	701.5
500.135	737.5
500.352	749.5
500.569	776.5
500.786	747.5
501.003	761.5
501.22	754.5
501.437	759.5
501.654	728.5
501.871	725.5
502.088	713.5
502.305	688.5
502.522	632.5
502.739	648.5
502.956	642.5
503.172	628.5
503.389	614.5
503.606	616.5
503.823	638.5
504.04	586.5
504.256	616.5
504.473	603.5
504.69	582.5
504.907	595.5
505.123	609.5
505.34	586.5
505.557	584.5
505.773	576.5
505.99	568.5
506.207	569.5
506.423	564.5
506.64	567.5
506.856	544.5
507.073	568.5
507.289	573.5
507.506	572.5
507.722	578.5
507.939	610.5
508.155	579.5
508.372	577.5
508.588	565.5
508.805	538.5
509.021	545.5
509.238	560.5
509.454	553.5
509.67	552.5
509.887	549.5
510.103	564.5
510.319	577.5
510.536	660.5
510.752	1162.5
510.968	916.5
511.184	593.5
511.401	569.5
511.617	556.5
511.833	502.5
512.049	551.5
512.265	528.5
512.481	537.5
512.698	514.5
512.914	527.5
513.13	507.5
513.346	515.5
513.562	516.5
513.778	529.5
513.994	533.5
514.21	557.5
514.426	572.5
514.642	630.5
514.858	634.5
515.074	672.5
515.29	848.5
515.506	1258.5
515.721	996.5
515.937	672.5
516.153	597.5
516.369	562.5
516.585	568.5
516.801	549.5
517.016	541.5
517.232	543.5
517.448	542.5
517.664	542.5
517.879	532.5
518.095	536.5
518.311	513.5
518.527	554.5
518.742	514.5
518.958	536.5
519.173	539.5
519.389	534.5
519.605	524.5
519.82	514.5
520.036	546.5
