Data from 1965.PennyLincolnUp.Lamp.En5.5.200Scan.071719.P1._HRD10591_14-10-28-912.txt Node
Date: Thu Jul 18 14:10:28 EDT 2019
User: cochatt
Spectrometer: HR+D1059
Trigger mode: 1
Integration Time (sec): 1.000000E-1
Scans to average: 1
Electric dark correction enabled: true
Nonlinearity correction enabled: false
Boxcar width: 0
XAxis mode: Wavelengths
Number of Pixels in Spectrum: 2048
>>>>>Begin Spectral Data<<<<<
223.165	-13.25
223.4	-13.25
223.635	-13.25
223.869	-18.25
224.104	-30.25
224.338	-5.25
224.573	-18.25
224.808	-10.25
225.042	-2.25
225.277	6.75
225.511	3.75
225.746	-4.25
225.98	8.75
226.215	6.75
226.449	17.75
226.683	9.75
226.918	18.75
227.152	29.75
227.387	29.75
227.621	52.75
227.856	49.75
228.09	49.75
228.324	53.75
228.559	53.75
228.793	45.75
229.027	100.75
229.262	101.75
229.496	94.75
229.73	142.75
229.964	149.75
230.199	121.75
230.433	109.75
230.667	107.75
230.901	109.75
231.136	114.75
231.37	102.75
231.604	113.75
231.838	101.75
232.072	93.75
232.306	105.75
232.541	114.75
232.775	114.75
233.009	111.75
233.243	116.75
233.477	113.75
233.711	114.75
233.945	110.75
234.179	101.75
234.413	115.75
234.647	123.75
234.881	101.75
235.115	110.75
235.349	125.75
235.583	106.75
235.817	117.75
236.051	116.75
236.285	127.75
236.519	125.75
236.753	130.75
236.987	154.75
237.221	182.75
237.455	240.75
237.689	172.75
237.922	140.75
238.156	124.75
238.39	117.75
238.624	130.75
238.858	128.75
239.091	117.75
239.325	120.75
239.559	116.75
239.793	119.75
240.027	119.75
240.26	137.75
240.494	162.75
240.728	142.75
240.961	150.75
241.195	144.75
241.429	133.75
241.662	136.75
241.896	128.75
242.13	118.75
242.363	123.75
242.597	138.75
242.83	114.75
243.064	122.75
243.298	120.75
243.531	130.75
243.765	121.75
243.998	149.75
244.232	129.75
244.465	137.75
244.699	123.75
244.932	130.75
245.166	140.75
245.399	129.75
245.633	127.75
245.866	142.75
246.099	141.75
246.333	127.75
246.566	135.75
246.8	126.75
247.033	134.75
247.266	152.75
247.5	151.75
247.733	150.75
247.966	147.75
248.2	153.75
248.433	157.75
248.666	156.75
248.899	177.75
249.133	184.75
249.366	202.75
249.599	184.75
249.832	177.75
250.066	163.75
250.299	155.75
250.532	180.75
250.765	193.75
250.998	203.75
251.231	189.75
251.465	194.75
251.698	200.75
251.931	180.75
252.164	181.75
252.397	187.75
252.63	179.75
252.863	190.75
253.096	210.75
253.329	197.75
253.562	211.75
253.795	209.75
254.028	190.75
254.261	197.75
254.494	221.75
254.727	244.75
254.96	257.75
255.193	270.75
255.426	242.75
255.659	208.75
255.892	221.75
256.124	213.75
256.357	210.75
256.59	203.75
256.823	191.75
257.056	210.75
257.289	191.75
257.521	191.75
257.754	192.75
257.987	179.75
258.22	207.75
258.452	200.75
258.685	209.75
258.918	184.75
259.151	199.75
259.383	211.75
259.616	209.75
259.849	207.75
260.081	218.75
260.314	221.75
260.547	257.75
260.779	234.75
261.012	220.75
261.244	208.75
261.477	207.75
261.71	210.75
261.942	220.75
262.175	219.75
262.407	216.75
262.64	198.75
262.872	203.75
263.105	185.75
263.337	194.75
263.57	188.75
263.802	197.75
264.035	198.75
264.267	206.75
264.499	180.75
264.732	197.75
264.964	199.75
265.197	192.75
265.429	191.75
265.661	188.75
265.894	203.75
266.126	201.75
266.358	200.75
266.591	200.75
266.823	217.75
267.055	198.75
267.287	204.75
267.52	215.75
267.752	206.75
267.984	215.75
268.216	212.75
268.448	215.75
268.681	227.75
268.913	214.75
269.145	250.75
269.377	245.75
269.609	230.75
269.841	236.75
270.073	259.75
270.306	269.75
270.538	299.75
270.77	293.75
271.002	282.75
271.234	267.75
271.466	273.75
271.698	292.75
271.93	298.75
272.162	295.75
272.394	288.75
272.626	267.75
272.858	263.75
273.09	253.75
273.322	258.75
273.553	249.75
273.785	258.75
274.017	227.75
274.249	253.75
274.481	233.75
274.713	255.75
274.945	247.75
275.176	238.75
275.408	247.75
275.64	232.75
275.872	248.75
276.104	257.75
276.335	228.75
276.567	244.75
276.799	276.75
277.031	277.75
277.262	287.75
277.494	290.75
277.726	280.75
277.957	269.75
278.189	268.75
278.421	267.75
278.652	256.75
278.884	246.75
279.115	241.75
279.347	248.75
279.579	253.75
279.81	219.75
280.042	247.75
280.273	242.75
280.505	226.75
280.736	228.75
280.968	226.75
281.199	236.75
281.431	235.75
281.662	239.75
281.894	247.75
282.125	245.75
282.356	274.75
282.588	294.75
282.819	279.75
283.051	234.75
283.282	253.75
283.513	249.75
283.745	245.75
283.976	231.75
284.207	267.75
284.439	244.75
284.67	242.75
284.901	252.75
285.132	236.75
285.364	259.75
285.595	285.75
285.826	248.75
286.057	237.75
286.288	237.75
286.52	231.75
286.751	247.75
286.982	239.75
287.213	267.75
287.444	270.75
287.675	262.75
287.906	269.75
288.138	265.75
288.369	265.75
288.6	280.75
288.831	281.75
289.062	270.75
289.293	271.75
289.524	260.75
289.755	269.75
289.986	275.75
290.217	264.75
290.448	249.75
290.679	260.75
290.91	247.75
291.141	263.75
291.371	245.75
291.602	266.75
291.833	258.75
292.064	267.75
292.295	257.75
292.526	251.75
292.757	259.75
292.987	258.75
293.218	261.75
293.449	269.75
293.68	252.75
293.91	260.75
294.141	255.75
294.372	253.75
294.603	258.75
294.833	248.75
295.064	268.75
295.295	267.75
295.525	266.75
295.756	248.75
295.987	279.75
296.217	297.75
296.448	317.75
296.679	275.75
296.909	278.75
297.14	275.75
297.37	253.75
297.601	268.75
297.831	276.75
298.062	263.75
298.292	271.75
298.523	277.75
298.753	269.75
298.984	270.75
299.214	286.75
299.445	263.75
299.675	279.75
299.905	269.75
300.136	267.75
300.366	279.75
300.597	266.75
300.827	268.75
301.057	287.75
301.288	289.75
301.518	286.75
301.748	295.75
301.979	290.75
302.209	286.75
302.439	276.75
302.669	291.75
302.9	293.75
303.13	289.75
303.36	295.75
303.59	279.75
303.82	286.75
304.051	290.75
304.281	292.75
304.511	285.75
304.741	282.75
304.971	299.75
305.201	295.75
305.431	279.75
305.661	301.75
305.891	303.75
306.121	302.75
306.352	302.75
306.582	294.75
306.812	301.75
307.042	291.75
307.272	289.75
307.502	311.75
307.731	291.75
307.961	293.75
308.191	297.75
308.421	292.75
308.651	304.75
308.881	295.75
309.111	301.75
309.341	299.75
309.571	306.75
309.8	329.75
310.03	326.75
310.26	355.75
310.49	332.75
310.72	350.75
310.949	372.75
311.179	371.75
311.409	344.75
311.639	364.75
311.868	354.75
312.098	362.75
312.328	356.75
312.557	362.75
312.787	397.75
313.017	393.75
313.246	387.75
313.476	343.75
313.706	354.75
313.935	366.75
314.165	359.75
314.394	386.75
314.624	367.75
314.853	345.75
315.083	353.75
315.312	338.75
315.542	330.75
315.771	339.75
316.001	325.75
316.23	346.75
316.46	333.75
316.689	364.75
316.919	345.75
317.148	353.75
317.377	367.75
317.607	374.75
317.836	366.75
318.065	365.75
318.295	344.75
318.524	342.75
318.753	339.75
318.983	345.75
319.212	348.75
319.441	345.75
319.67	340.75
319.9	344.75
320.129	349.75
320.358	339.75
320.587	351.75
320.816	352.75
321.046	383.75
321.275	381.75
321.504	382.75
321.733	384.75
321.962	390.75
322.191	397.75
322.42	393.75
322.649	417.75
322.878	420.75
323.108	441.75
323.337	462.75
323.566	493.75
323.795	513.75
324.024	577.75
324.253	722.75
324.482	1064.75
324.71	1654.75
324.939	2228.75
325.168	1823.75
325.397	988.75
325.626	641.75
325.855	548.75
326.084	495.75
326.313	509.75
326.542	506.75
326.77	541.75
326.999	673.75
327.228	946.75
327.457	1428.75
327.686	1634.75
327.914	1093.75
328.143	714.75
328.372	650.75
328.6	574.75
328.829	574.75
329.058	584.75
329.287	571.75
329.515	539.75
329.744	498.75
329.972	494.75
330.201	529.75
330.43	555.75
330.658	584.75
330.887	614.75
331.115	575.75
331.344	513.75
331.572	473.75
331.801	461.75
332.03	464.75
332.258	437.75
332.486	431.75
332.715	415.75
332.943	398.75
333.172	416.75
333.4	405.75
333.629	424.75
333.857	458.75
334.085	465.75
334.314	453.75
334.542	519.75
334.771	522.75
334.999	482.75
335.227	443.75
335.455	414.75
335.684	401.75
335.912	411.75
336.14	419.75
336.369	410.75
336.597	398.75
336.825	403.75
337.053	430.75
337.281	403.75
337.51	406.75
337.738	427.75
337.966	410.75
338.194	399.75
338.422	420.75
338.65	406.75
338.878	394.75
339.106	375.75
339.334	377.75
339.562	382.75
339.79	374.75
340.018	374.75
340.246	386.75
340.474	409.75
340.702	401.75
340.93	389.75
341.158	382.75
341.386	394.75
341.614	391.75
341.842	391.75
342.07	375.75
342.298	379.75
342.526	381.75
342.754	381.75
342.981	370.75
343.209	386.75
343.437	377.75
343.665	398.75
343.893	386.75
344.12	392.75
344.348	374.75
344.576	388.75
344.804	389.75
345.031	407.75
345.259	403.75
345.487	402.75
345.714	392.75
345.942	394.75
346.17	372.75
346.397	390.75
346.625	386.75
346.853	390.75
347.08	380.75
347.308	399.75
347.535	398.75
347.763	391.75
347.99	405.75
348.218	391.75
348.445	395.75
348.673	394.75
348.9	377.75
349.128	381.75
349.355	374.75
349.583	373.75
349.81	374.75
350.037	363.75
350.265	369.75
350.492	361.75
350.72	379.75
350.947	371.75
351.174	392.75
351.402	405.75
351.629	392.75
351.856	386.75
352.083	393.75
352.311	412.75
352.538	417.75
352.765	416.75
352.992	391.75
353.22	382.75
353.447	385.75
353.674	369.75
353.901	357.75
354.128	373.75
354.355	361.75
354.583	355.75
354.81	341.75
355.037	347.75
355.264	343.75
355.491	352.75
355.718	361.75
355.945	341.75
356.172	346.75
356.399	358.75
356.626	347.75
356.853	349.75
357.08	335.75
357.307	349.75
357.534	372.75
357.761	347.75
357.988	350.75
358.215	356.75
358.441	340.75
358.668	336.75
358.895	326.75
359.122	358.75
359.349	383.75
359.576	388.75
359.802	418.75
360.029	440.75
360.256	459.75
360.483	406.75
360.709	381.75
360.936	375.75
361.163	389.75
361.39	374.75
361.616	391.75
361.843	381.75
362.07	374.75
362.296	374.75
362.523	393.75
362.749	375.75
362.976	385.75
363.203	373.75
363.429	362.75
363.656	345.75
363.882	372.75
364.109	361.75
364.335	372.75
364.562	341.75
364.788	354.75
365.015	356.75
365.241	372.75
365.468	371.75
365.694	362.75
365.92	356.75
366.147	350.75
366.373	362.75
366.599	365.75
366.826	346.75
367.052	344.75
367.278	359.75
367.505	355.75
367.731	353.75
367.957	347.75
368.184	356.75
368.41	361.75
368.636	348.75
368.862	385.75
369.089	343.75
369.315	363.75
369.541	333.75
369.767	349.75
369.993	347.75
370.219	357.75
370.445	355.75
370.672	349.75
370.898	356.75
371.124	360.75
371.35	372.75
371.576	353.75
371.802	355.75
372.028	335.75
372.254	333.75
372.48	347.75
372.706	353.75
372.932	352.75
373.158	364.75
373.384	353.75
373.61	337.75
373.835	351.75
374.061	344.75
374.287	352.75
374.513	354.75
374.739	359.75
374.965	364.75
375.191	369.75
375.416	348.75
375.642	357.75
375.868	366.75
376.094	347.75
376.319	338.75
376.545	354.75
376.771	332.75
376.997	343.75
377.222	351.75
377.448	353.75
377.674	348.75
377.899	344.75
378.125	356.75
378.35	333.75
378.576	331.75
378.802	342.75
379.027	328.75
379.253	341.75
379.478	328.75
379.704	347.75
379.929	356.75
380.155	343.75
380.38	341.75
380.606	372.75
380.831	353.75
381.057	347.75
381.282	345.75
381.507	361.75
381.733	345.75
381.958	356.75
382.184	364.75
382.409	353.75
382.634	367.75
382.86	363.75
383.085	365.75
383.31	351.75
383.535	365.75
383.761	348.75
383.986	355.75
384.211	365.75
384.436	377.75
384.662	379.75
384.887	377.75
385.112	366.75
385.337	377.75
385.562	354.75
385.787	363.75
386.013	390.75
386.238	357.75
386.463	374.75
386.688	380.75
386.913	373.75
387.138	387.75
387.363	365.75
387.588	365.75
387.813	380.75
388.038	363.75
388.263	365.75
388.488	381.75
388.713	370.75
388.938	378.75
389.163	385.75
389.387	393.75
389.612	373.75
389.837	384.75
390.062	378.75
390.287	353.75
390.512	353.75
390.736	381.75
390.961	383.75
391.186	383.75
391.411	387.75
391.636	378.75
391.86	364.75
392.085	377.75
392.31	375.75
392.534	360.75
392.759	374.75
392.984	386.75
393.208	365.75
393.433	389.75
393.658	386.75
393.882	363.75
394.107	368.75
394.331	365.75
394.556	359.75
394.78	363.75
395.005	361.75
395.229	361.75
395.454	364.75
395.678	385.75
395.903	393.75
396.127	418.75
396.352	425.75
396.576	385.75
396.801	393.75
397.025	377.75
397.249	390.75
397.474	405.75
397.698	399.75
397.922	425.75
398.147	428.75
398.371	431.75
398.595	412.75
398.82	409.75
399.044	420.75
399.268	413.75
399.492	471.75
399.717	464.75
399.941	476.75
400.165	506.75
400.389	516.75
400.613	477.75
400.837	456.75
401.062	435.75
401.286	422.75
401.51	419.75
401.734	411.75
401.958	452.75
402.182	447.75
402.406	440.75
402.63	450.75
402.854	441.75
403.078	439.75
403.302	439.75
403.526	441.75
403.75	423.75
403.974	454.75
404.198	425.75
404.422	435.75
404.645	455.75
404.869	453.75
405.093	499.75
405.317	537.75
405.541	518.75
405.765	483.75
405.988	466.75
406.212	475.75
406.436	489.75
406.66	500.75
406.883	480.75
407.107	517.75
407.331	536.75
407.555	598.75
407.778	580.75
408.002	549.75
408.226	476.75
408.449	482.75
408.673	509.75
408.896	523.75
409.12	526.75
409.344	507.75
409.567	457.75
409.791	471.75
410.014	449.75
410.238	444.75
410.461	449.75
410.685	450.75
410.908	453.75
411.132	480.75
411.355	518.75
411.578	489.75
411.802	483.75
412.025	446.75
412.249	463.75
412.472	474.75
412.695	497.75
412.919	502.75
413.142	453.75
413.365	426.75
413.589	434.75
413.812	433.75
414.035	423.75
414.258	415.75
414.482	397.75
414.705	402.75
414.928	411.75
415.151	409.75
415.374	400.75
415.597	404.75
415.821	402.75
416.044	418.75
416.267	417.75
416.49	398.75
416.713	411.75
416.936	399.75
417.159	419.75
417.382	417.75
417.605	421.75
417.828	430.75
418.051	444.75
418.274	457.75
418.497	414.75
418.72	419.75
418.943	408.75
419.166	419.75
419.389	437.75
419.611	427.75
419.834	444.75
420.057	430.75
420.28	440.75
420.503	442.75
420.726	434.75
420.948	466.75
421.171	500.75
421.394	518.75
421.617	478.75
421.839	437.75
422.062	436.75
422.285	448.75
422.507	493.75
422.73	561.75
422.953	529.75
423.175	459.75
423.398	465.75
423.621	457.75
423.843	481.75
424.066	481.75
424.288	477.75
424.511	492.75
424.733	545.75
424.956	581.75
425.178	555.75
425.401	593.75
425.623	589.75
425.846	529.75
426.068	468.75
426.291	465.75
426.513	457.75
426.735	493.75
426.958	520.75
427.18	617.75
427.402	703.75
427.625	749.75
427.847	663.75
428.069	587.75
428.292	548.75
428.514	482.75
428.736	445.75
428.958	471.75
429.181	449.75
429.403	441.75
429.625	448.75
429.847	491.75
430.069	533.75
430.292	569.75
430.514	481.75
430.736	437.75
430.958	449.75
431.18	423.75
431.402	420.75
431.624	404.75
431.846	410.75
432.068	399.75
432.29	433.75
432.512	432.75
432.734	430.75
432.956	409.75
433.178	438.75
433.4	421.75
433.622	438.75
433.844	424.75
434.066	409.75
434.287	430.75
434.509	430.75
434.731	403.75
434.953	437.75
435.175	449.75
435.397	473.75
435.618	477.75
435.84	522.75
436.062	585.75
436.284	663.75
436.505	540.75
436.727	518.75
436.949	457.75
437.17	449.75
437.392	444.75
437.614	456.75
437.835	508.75
438.057	605.75
438.278	677.75
438.5	657.75
438.721	713.75
438.943	656.75
439.165	574.75
439.386	503.75
439.608	490.75
439.829	509.75
440.05	530.75
440.272	567.75
440.493	539.75
440.715	505.75
440.936	471.75
441.158	460.75
441.379	455.75
441.6	471.75
441.822	474.75
442.043	547.75
442.264	583.75
442.486	622.75
442.707	535.75
442.928	503.75
443.149	503.75
443.371	508.75
443.592	565.75
443.813	653.75
444.034	669.75
444.255	570.75
444.476	494.75
444.698	485.75
444.919	488.75
445.14	603.75
445.361	534.75
445.582	529.75
445.803	606.75
446.024	685.75
446.245	685.75
446.466	628.75
446.687	526.75
446.908	483.75
447.129	462.75
447.35	444.75
447.571	442.75
447.792	457.75
448.013	469.75
448.234	460.75
448.455	543.75
448.675	623.75
448.896	711.75
449.117	629.75
449.338	576.75
449.559	685.75
449.779	716.75
450	586.75
450.221	513.75
450.442	481.75
450.662	461.75
450.883	454.75
451.104	482.75
451.324	464.75
451.545	433.75
451.766	407.75
451.986	403.75
452.207	409.75
452.428	410.75
452.648	406.75
452.869	404.75
453.089	422.75
453.31	428.75
453.53	407.75
453.751	409.75
453.971	431.75
454.192	439.75
454.412	408.75
454.633	402.75
454.853	399.75
455.073	399.75
455.294	426.75
455.514	488.75
455.734	482.75
455.955	393.75
456.175	380.75
456.395	393.75
456.616	384.75
456.836	389.75
457.056	379.75
457.276	379.75
457.497	376.75
457.717	378.75
457.937	385.75
458.157	387.75
458.377	409.75
458.598	414.75
458.818	492.75
459.038	555.75
459.258	580.75
459.478	460.75
459.698	426.75
459.918	439.75
460.138	424.75
460.358	435.75
460.578	417.75
460.798	428.75
461.018	414.75
461.238	417.75
461.458	413.75
461.678	405.75
461.898	412.75
462.118	415.75
462.338	414.75
462.558	436.75
462.777	420.75
462.997	426.75
463.217	424.75
463.437	437.75
463.657	441.75
463.876	434.75
464.096	442.75
464.316	451.75
464.536	453.75
464.755	451.75
464.975	476.75
465.195	500.75
465.414	622.75
465.634	537.75
465.854	469.75
466.073	430.75
466.293	424.75
466.512	428.75
466.732	418.75
466.951	400.75
467.171	402.75
467.391	400.75
467.61	410.75
467.829	445.75
468.049	440.75
468.268	435.75
468.488	406.75
468.707	415.75
468.927	402.75
469.146	404.75
469.365	410.75
469.585	409.75
469.804	408.75
470.023	438.75
470.243	421.75
470.462	409.75
470.681	455.75
470.901	444.75
471.12	450.75
471.339	419.75
471.558	417.75
471.777	402.75
471.997	405.75
472.216	427.75
472.435	467.75
472.654	468.75
472.873	422.75
473.092	435.75
473.311	409.75
473.53	420.75
473.749	441.75
473.968	471.75
474.187	550.75
474.406	571.75
474.625	483.75
474.844	444.75
475.063	435.75
475.282	410.75
475.501	430.75
475.72	456.75
475.939	427.75
476.158	418.75
476.377	434.75
476.596	417.75
476.814	437.75
477.033	446.75
477.252	441.75
477.471	428.75
477.69	436.75
477.908	445.75
478.127	446.75
478.346	461.75
478.564	449.75
478.783	459.75
479.002	482.75
479.22	486.75
479.439	487.75
479.658	520.75
479.876	520.75
480.095	519.75
480.313	534.75
480.532	541.75
480.751	501.75
480.969	537.75
481.188	603.75
481.406	660.75
481.624	573.75
481.843	509.75
482.061	508.75
482.28	490.75
482.498	490.75
482.717	472.75
482.935	483.75
483.153	490.75
483.372	473.75
483.59	476.75
483.808	497.75
484.027	493.75
484.245	511.75
484.463	489.75
484.681	503.75
484.9	499.75
485.118	516.75
485.336	499.75
485.554	495.75
485.772	493.75
485.99	526.75
486.209	523.75
486.427	511.75
486.645	535.75
486.863	565.75
487.081	551.75
487.299	540.75
487.517	550.75
487.735	519.75
487.953	528.75
488.171	493.75
488.389	523.75
488.607	553.75
488.825	525.75
489.043	524.75
489.261	534.75
489.479	527.75
489.696	543.75
489.914	548.75
490.132	541.75
490.35	570.75
490.568	553.75
490.786	542.75
491.003	554.75
491.221	574.75
491.439	584.75
491.657	609.75
491.874	623.75
492.092	615.75
492.31	623.75
492.527	638.75
492.745	611.75
492.963	614.75
493.18	611.75
493.398	621.75
493.615	628.75
493.833	625.75
494.05	607.75
494.268	626.75
494.485	618.75
494.703	622.75
494.92	626.75
495.138	617.75
495.355	641.75
495.573	613.75
495.79	615.75
496.008	628.75
496.225	605.75
496.442	631.75
496.66	625.75
496.877	632.75
497.094	621.75
497.312	644.75
497.529	640.75
497.746	649.75
497.963	647.75
498.181	681.75
498.398	665.75
498.615	663.75
498.832	686.75
499.049	690.75
499.267	681.75
499.484	715.75
499.701	762.75
499.918	748.75
500.135	733.75
500.352	781.75
500.569	794.75
500.786	780.75
501.003	794.75
501.22	765.75
501.437	772.75
501.654	749.75
501.871	759.75
