Data from 1965.PennyLincolnUp.Lamp.En5.5.200Scan.071719.P1._HRD10591_14-09-48-912.txt Node
Date: Thu Jul 18 14:09:48 EDT 2019
User: cochatt
Spectrometer: HR+D1059
Trigger mode: 1
Integration Time (sec): 1.000000E-1
Scans to average: 1
Electric dark correction enabled: true
Nonlinearity correction enabled: false
Boxcar width: 0
XAxis mode: Wavelengths
Number of Pixels in Spectrum: 2048
>>>>>Begin Spectral Data<<<<<
223.165	4.25
223.4	4.25
223.635	4.25
223.869	-15.75
224.104	-8.75
224.338	-23.75
224.573	-15.75
224.808	-29.75
225.042	-2.75
225.277	-13.75
225.511	-6.75
225.746	9.25
225.98	5.25
226.215	21.25
226.449	21.25
226.683	10.25
226.918	20.25
227.152	25.25
227.387	22.25
227.621	24.25
227.856	36.25
228.09	34.25
228.324	38.25
228.559	36.25
228.793	37.25
229.027	96.25
229.262	109.25
229.496	113.25
229.73	129.25
229.964	143.25
230.199	113.25
230.433	96.25
230.667	114.25
230.901	96.25
231.136	109.25
231.37	97.25
231.604	105.25
231.838	96.25
232.072	106.25
232.306	102.25
232.541	113.25
232.775	103.25
233.009	87.25
233.243	102.25
233.477	92.25
233.711	91.25
233.945	107.25
234.179	104.25
234.413	99.25
234.647	97.25
234.881	112.25
235.115	103.25
235.349	106.25
235.583	115.25
235.817	104.25
236.051	110.25
236.285	116.25
236.519	113.25
236.753	117.25
236.987	137.25
237.221	164.25
237.455	230.25
237.689	169.25
237.922	128.25
238.156	134.25
238.39	118.25
238.624	118.25
238.858	115.25
239.091	114.25
239.325	115.25
239.559	114.25
239.793	115.25
240.027	124.25
240.26	123.25
240.494	156.25
240.728	136.25
240.961	134.25
241.195	145.25
241.429	130.25
241.662	124.25
241.896	116.25
242.13	117.25
242.363	113.25
242.597	120.25
242.83	135.25
243.064	121.25
243.298	148.25
243.531	126.25
243.765	118.25
243.998	122.25
244.232	126.25
244.465	125.25
244.699	124.25
244.932	139.25
245.166	140.25
245.399	132.25
245.633	130.25
245.866	130.25
246.099	141.25
246.333	132.25
246.566	137.25
246.8	127.25
247.033	144.25
247.266	148.25
247.5	151.25
247.733	130.25
247.966	137.25
248.2	150.25
248.433	151.25
248.666	150.25
248.899	158.25
249.133	172.25
249.366	192.25
249.599	175.25
249.832	172.25
250.066	164.25
250.299	154.25
250.532	164.25
250.765	202.25
250.998	186.25
251.231	208.25
251.465	182.25
251.698	199.25
251.931	185.25
252.164	170.25
252.397	157.25
252.63	182.25
252.863	187.25
253.096	197.25
253.329	190.25
253.562	215.25
253.795	200.25
254.028	199.25
254.261	201.25
254.494	205.25
254.727	241.25
254.96	249.25
255.193	243.25
255.426	219.25
255.659	216.25
255.892	212.25
256.124	217.25
256.357	210.25
256.59	192.25
256.823	204.25
257.056	184.25
257.289	185.25
257.521	192.25
257.754	175.25
257.987	184.25
258.22	190.25
258.452	176.25
258.685	179.25
258.918	181.25
259.151	180.25
259.383	178.25
259.616	195.25
259.849	197.25
260.081	215.25
260.314	231.25
260.547	237.25
260.779	211.25
261.012	200.25
261.244	204.25
261.477	228.25
261.71	207.25
261.942	200.25
262.175	221.25
262.407	197.25
262.64	181.25
262.872	182.25
263.105	188.25
263.337	193.25
263.57	180.25
263.802	193.25
264.035	174.25
264.267	196.25
264.499	200.25
264.732	212.25
264.964	182.25
265.197	193.25
265.429	180.25
265.661	171.25
265.894	188.25
266.126	197.25
266.358	191.25
266.591	206.25
266.823	198.25
267.055	204.25
267.287	196.25
267.52	203.25
267.752	201.25
267.984	212.25
268.216	212.25
268.448	206.25
268.681	213.25
268.913	211.25
269.145	217.25
269.377	232.25
269.609	245.25
269.841	216.25
270.073	248.25
270.306	272.25
270.538	278.25
270.77	278.25
271.002	263.25
271.234	250.25
271.466	268.25
271.698	280.25
271.93	264.25
272.162	279.25
272.394	292.25
272.626	270.25
272.858	261.25
273.09	262.25
273.322	261.25
273.553	230.25
273.785	236.25
274.017	254.25
274.249	246.25
274.481	243.25
274.713	234.25
274.945	230.25
275.176	243.25
275.408	234.25
275.64	234.25
275.872	229.25
276.104	234.25
276.335	234.25
276.567	245.25
276.799	262.25
277.031	268.25
277.262	271.25
277.494	289.25
277.726	260.25
277.957	253.25
278.189	240.25
278.421	244.25
278.652	246.25
278.884	228.25
279.115	246.25
279.347	248.25
279.579	235.25
279.81	226.25
280.042	226.25
280.273	240.25
280.505	237.25
280.736	240.25
280.968	243.25
281.199	237.25
281.431	252.25
281.662	230.25
281.894	229.25
282.125	241.25
282.356	248.25
282.588	284.25
282.819	278.25
283.051	247.25
283.282	223.25
283.513	232.25
283.745	233.25
283.976	246.25
284.207	256.25
284.439	236.25
284.67	226.25
284.901	249.25
285.132	252.25
285.364	247.25
285.595	246.25
285.826	240.25
286.057	253.25
286.288	254.25
286.52	241.25
286.751	252.25
286.982	228.25
287.213	248.25
287.444	241.25
287.675	237.25
287.906	259.25
288.138	262.25
288.369	267.25
288.6	265.25
288.831	256.25
289.062	245.25
289.293	263.25
289.524	251.25
289.755	260.25
289.986	234.25
290.217	253.25
290.448	251.25
290.679	249.25
290.91	246.25
291.141	237.25
291.371	236.25
291.602	263.25
291.833	254.25
292.064	261.25
292.295	232.25
292.526	232.25
292.757	243.25
292.987	264.25
293.218	270.25
293.449	258.25
293.68	233.25
293.91	257.25
294.141	242.25
294.372	254.25
294.603	242.25
294.833	242.25
295.064	227.25
295.295	258.25
295.525	256.25
295.756	249.25
295.987	269.25
296.217	268.25
296.448	297.25
296.679	286.25
296.909	262.25
297.14	256.25
297.37	257.25
297.601	265.25
297.831	253.25
298.062	260.25
298.292	258.25
298.523	272.25
298.753	260.25
298.984	256.25
299.214	263.25
299.445	258.25
299.675	273.25
299.905	272.25
300.136	260.25
300.366	276.25
300.597	270.25
300.827	270.25
301.057	285.25
301.288	285.25
301.518	297.25
301.748	275.25
301.979	276.25
302.209	277.25
302.439	275.25
302.669	290.25
302.9	274.25
303.13	284.25
303.36	300.25
303.59	281.25
303.82	307.25
304.051	292.25
304.281	293.25
304.511	282.25
304.741	292.25
304.971	276.25
305.201	287.25
305.431	268.25
305.661	284.25
305.891	282.25
306.121	286.25
306.352	309.25
306.582	308.25
306.812	295.25
307.042	306.25
307.272	290.25
307.502	291.25
307.731	296.25
307.961	285.25
308.191	294.25
308.421	279.25
308.651	276.25
308.881	288.25
309.111	292.25
309.341	292.25
309.571	288.25
309.8	315.25
310.03	318.25
310.26	343.25
310.49	338.25
310.72	338.25
310.949	365.25
311.179	361.25
311.409	333.25
311.639	331.25
311.868	328.25
312.098	337.25
312.328	357.25
312.557	354.25
312.787	376.25
313.017	364.25
313.246	341.25
313.476	329.25
313.706	332.25
313.935	333.25
314.165	334.25
314.394	364.25
314.624	352.25
314.853	345.25
315.083	345.25
315.312	336.25
315.542	310.25
315.771	341.25
316.001	344.25
316.23	316.25
316.46	316.25
316.689	343.25
316.919	325.25
317.148	326.25
317.377	337.25
317.607	337.25
317.836	318.25
318.065	350.25
318.295	330.25
318.524	344.25
318.753	328.25
318.983	330.25
319.212	330.25
319.441	336.25
319.67	362.25
319.9	343.25
320.129	337.25
320.358	339.25
320.587	356.25
320.816	342.25
321.046	361.25
321.275	345.25
321.504	355.25
321.733	346.25
321.962	368.25
322.191	371.25
322.42	388.25
322.649	419.25
322.878	407.25
323.108	436.25
323.337	431.25
323.566	480.25
323.795	494.25
324.024	560.25
324.253	716.25
324.482	1014.25
324.71	1546.25
324.939	2109.25
325.168	1754.25
325.397	912.25
325.626	648.25
325.855	522.25
326.084	454.25
326.313	458.25
326.542	459.25
326.77	526.25
326.999	613.25
327.228	876.25
327.457	1352.25
327.686	1544.25
327.914	1006.25
328.143	691.25
328.372	607.25
328.6	568.25
328.829	530.25
329.058	537.25
329.287	555.25
329.515	531.25
329.744	480.25
329.972	461.25
330.201	493.25
330.43	542.25
330.658	578.25
330.887	597.25
331.115	564.25
331.344	493.25
331.572	459.25
331.801	436.25
332.03	438.25
332.258	419.25
332.486	402.25
332.715	402.25
332.943	394.25
333.172	387.25
333.4	408.25
333.629	402.25
333.857	415.25
334.085	427.25
334.314	453.25
334.542	469.25
334.771	488.25
334.999	440.25
335.227	405.25
335.455	395.25
335.684	403.25
335.912	390.25
336.14	392.25
336.369	371.25
336.597	383.25
336.825	385.25
337.053	371.25
337.281	380.25
337.51	373.25
337.738	381.25
337.966	385.25
338.194	396.25
338.422	398.25
338.65	362.25
338.878	381.25
339.106	398.25
339.334	390.25
339.562	371.25
339.79	362.25
340.018	386.25
340.246	406.25
340.474	380.25
340.702	371.25
340.93	375.25
341.158	349.25
341.386	364.25
341.614	376.25
341.842	375.25
342.07	381.25
342.298	368.25
342.526	386.25
342.754	357.25
342.981	348.25
343.209	360.25
343.437	386.25
343.665	366.25
343.893	359.25
344.12	389.25
344.348	384.25
344.576	383.25
344.804	390.25
345.031	394.25
345.259	399.25
345.487	418.25
345.714	370.25
345.942	382.25
346.17	357.25
346.397	382.25
346.625	387.25
346.853	375.25
347.08	355.25
347.308	378.25
347.535	359.25
347.763	392.25
347.99	368.25
348.218	381.25
348.445	372.25
348.673	376.25
348.9	372.25
349.128	372.25
349.355	355.25
349.583	351.25
349.81	364.25
350.037	344.25
350.265	361.25
350.492	354.25
350.72	356.25
350.947	368.25
351.174	360.25
351.402	388.25
351.629	384.25
351.856	369.25
352.083	379.25
352.311	389.25
352.538	389.25
352.765	385.25
352.992	376.25
353.22	358.25
353.447	378.25
353.674	364.25
353.901	349.25
354.128	355.25
354.355	343.25
354.583	351.25
354.81	346.25
355.037	322.25
355.264	345.25
355.491	341.25
355.718	337.25
355.945	342.25
356.172	320.25
356.399	331.25
356.626	335.25
356.853	336.25
357.08	331.25
357.307	317.25
357.534	324.25
357.761	340.25
357.988	332.25
358.215	339.25
358.441	354.25
358.668	364.25
358.895	334.25
359.122	349.25
359.349	324.25
359.576	364.25
359.802	395.25
360.029	436.25
360.256	436.25
360.483	411.25
360.709	372.25
360.936	380.25
361.163	366.25
361.39	340.25
361.616	355.25
361.843	358.25
362.07	363.25
362.296	375.25
362.523	362.25
362.749	364.25
362.976	373.25
363.203	348.25
363.429	343.25
363.656	350.25
363.882	354.25
364.109	348.25
364.335	345.25
364.562	332.25
364.788	339.25
365.015	343.25
365.241	339.25
365.468	357.25
365.694	348.25
365.92	345.25
366.147	351.25
366.373	343.25
366.599	324.25
366.826	356.25
367.052	349.25
367.278	364.25
367.505	351.25
367.731	354.25
367.957	352.25
368.184	325.25
368.41	362.25
368.636	350.25
368.862	364.25
369.089	356.25
369.315	360.25
369.541	340.25
369.767	355.25
369.993	337.25
370.219	333.25
370.445	347.25
370.672	349.25
370.898	340.25
371.124	349.25
371.35	346.25
371.576	337.25
371.802	322.25
372.028	362.25
372.254	326.25
372.48	336.25
372.706	341.25
372.932	329.25
373.158	346.25
373.384	352.25
373.61	333.25
373.835	333.25
374.061	330.25
374.287	343.25
374.513	361.25
374.739	352.25
374.965	330.25
375.191	344.25
375.416	343.25
375.642	360.25
375.868	345.25
376.094	341.25
376.319	340.25
376.545	328.25
376.771	332.25
376.997	346.25
377.222	334.25
377.448	326.25
377.674	326.25
377.899	354.25
378.125	321.25
378.35	323.25
378.576	323.25
378.802	338.25
379.027	341.25
379.253	326.25
379.478	322.25
379.704	341.25
379.929	338.25
380.155	348.25
380.38	333.25
380.606	327.25
380.831	332.25
381.057	336.25
381.282	334.25
381.507	342.25
381.733	326.25
381.958	318.25
382.184	344.25
382.409	351.25
382.634	323.25
382.86	333.25
383.085	343.25
383.31	360.25
383.535	353.25
383.761	349.25
383.986	338.25
384.211	358.25
384.436	356.25
384.662	344.25
384.887	357.25
385.112	346.25
385.337	346.25
385.562	375.25
385.787	379.25
386.013	345.25
386.238	360.25
386.463	376.25
386.688	352.25
386.913	363.25
387.138	345.25
387.363	382.25
387.588	356.25
387.813	376.25
388.038	365.25
388.263	355.25
388.488	360.25
388.713	365.25
388.938	354.25
389.163	350.25
389.387	375.25
389.612	360.25
389.837	349.25
390.062	360.25
390.287	359.25
390.512	369.25
390.736	356.25
390.961	363.25
391.186	363.25
391.411	374.25
391.636	376.25
391.86	363.25
392.085	366.25
392.31	378.25
392.534	370.25
392.759	382.25
392.984	343.25
393.208	360.25
393.433	379.25
393.658	368.25
393.882	371.25
394.107	370.25
394.331	366.25
394.556	362.25
394.78	363.25
395.005	374.25
395.229	380.25
395.454	350.25
395.678	384.25
395.903	368.25
396.127	417.25
396.352	412.25
396.576	386.25
396.801	377.25
397.025	365.25
397.249	375.25
397.474	393.25
397.698	415.25
397.922	413.25
398.147	405.25
398.371	399.25
398.595	395.25
398.82	401.25
399.044	421.25
399.268	428.25
399.492	453.25
399.717	466.25
399.941	474.25
400.165	503.25
400.389	514.25
400.613	473.25
400.837	438.25
401.062	422.25
401.286	416.25
401.51	414.25
401.734	400.25
401.958	421.25
402.182	432.25
402.406	437.25
402.63	428.25
402.854	394.25
403.078	406.25
403.302	430.25
403.526	421.25
403.75	425.25
403.974	429.25
404.198	411.25
404.422	432.25
404.645	436.25
404.869	458.25
405.093	459.25
405.317	491.25
405.541	506.25
405.765	479.25
405.988	445.25
406.212	461.25
406.436	505.25
406.66	481.25
406.883	468.25
407.107	498.25
407.331	520.25
407.555	558.25
407.778	561.25
408.002	530.25
408.226	497.25
408.449	459.25
408.673	471.25
408.896	457.25
409.12	532.25
409.344	497.25
409.567	442.25
409.791	421.25
410.014	439.25
410.238	410.25
410.461	418.25
410.685	436.25
410.908	449.25
411.132	479.25
411.355	500.25
411.578	460.25
411.802	456.25
412.025	436.25
412.249	429.25
412.472	450.25
412.695	482.25
412.919	466.25
413.142	452.25
413.365	412.25
413.589	404.25
413.812	408.25
414.035	399.25
414.258	409.25
414.482	410.25
414.705	391.25
414.928	392.25
415.151	398.25
415.374	386.25
415.597	384.25
415.821	413.25
416.044	401.25
416.267	382.25
416.49	404.25
416.713	414.25
416.936	416.25
417.159	405.25
417.382	412.25
417.605	422.25
417.828	429.25
418.051	428.25
418.274	399.25
418.497	394.25
418.72	401.25
418.943	416.25
419.166	419.25
419.389	422.25
419.611	429.25
419.834	426.25
420.057	434.25
420.28	437.25
420.503	413.25
420.726	436.25
420.948	438.25
421.171	478.25
421.394	514.25
421.617	446.25
421.839	432.25
422.062	429.25
422.285	445.25
422.507	491.25
422.73	520.25
422.953	517.25
423.175	468.25
423.398	458.25
423.621	449.25
423.843	450.25
424.066	449.25
424.288	451.25
424.511	478.25
424.733	499.25
424.956	582.25
425.178	535.25
425.401	566.25
425.623	590.25
425.846	498.25
426.068	483.25
426.291	474.25
426.513	459.25
426.735	461.25
426.958	485.25
427.18	559.25
427.402	683.25
427.625	752.25
427.847	665.25
428.069	592.25
428.292	514.25
428.514	471.25
428.736	453.25
428.958	453.25
429.181	419.25
429.403	428.25
429.625	448.25
429.847	478.25
430.069	526.25
430.292	509.25
430.514	456.25
430.736	425.25
430.958	463.25
431.18	427.25
431.402	428.25
431.624	403.25
431.846	398.25
432.068	411.25
432.29	396.25
432.512	412.25
432.734	413.25
432.956	416.25
433.178	425.25
433.4	411.25
433.622	419.25
433.844	419.25
434.066	411.25
434.287	406.25
434.509	391.25
434.731	420.25
434.953	422.25
435.175	432.25
435.397	462.25
435.618	474.25
435.84	516.25
436.062	586.25
436.284	633.25
436.505	536.25
436.727	490.25
436.949	441.25
437.17	410.25
437.392	418.25
437.614	454.25
437.835	473.25
438.057	559.25
438.278	646.25
438.5	633.25
438.721	688.25
438.943	637.25
439.165	551.25
439.386	503.25
439.608	488.25
439.829	475.25
440.05	525.25
440.272	564.25
440.493	524.25
440.715	470.25
440.936	453.25
441.158	456.25
441.379	448.25
441.6	443.25
441.822	478.25
442.043	508.25
442.264	572.25
442.486	610.25
442.707	526.25
442.928	484.25
443.149	475.25
443.371	476.25
443.592	551.25
443.813	607.25
444.034	661.25
444.255	562.25
444.476	492.25
444.698	456.25
444.919	454.25
445.14	598.25
445.361	530.25
445.582	491.25
445.803	563.25
446.024	663.25
446.245	659.25
446.466	597.25
446.687	511.25
446.908	474.25
447.129	438.25
447.35	446.25
447.571	449.25
447.792	448.25
448.013	452.25
448.234	463.25
448.455	517.25
448.675	582.25
448.896	657.25
449.117	566.25
449.338	550.25
449.559	642.25
449.779	690.25
450	553.25
450.221	491.25
450.442	457.25
450.662	426.25
450.883	428.25
451.104	454.25
451.324	453.25
451.545	428.25
451.766	396.25
451.986	389.25
452.207	409.25
452.428	375.25
452.648	389.25
452.869	394.25
453.089	413.25
453.31	417.25
453.53	414.25
453.751	376.25
453.971	380.25
454.192	400.25
454.412	415.25
454.633	409.25
454.853	395.25
455.073	381.25
455.294	401.25
455.514	470.25
455.734	447.25
455.955	409.25
456.175	388.25
456.395	384.25
456.616	377.25
456.836	328.25
457.056	365.25
457.276	372.25
457.497	386.25
457.717	354.25
457.937	380.25
458.157	398.25
458.377	374.25
458.598	392.25
458.818	463.25
459.038	562.25
459.258	558.25
459.478	460.25
459.698	445.25
459.918	415.25
460.138	428.25
460.358	418.25
460.578	383.25
460.798	396.25
461.018	415.25
461.238	413.25
461.458	406.25
461.678	423.25
461.898	413.25
462.118	395.25
462.338	426.25
462.558	407.25
462.777	429.25
462.997	429.25
463.217	422.25
463.437	423.25
463.657	426.25
463.876	410.25
464.096	432.25
464.316	442.25
464.536	440.25
464.755	450.25
464.975	461.25
465.195	492.25
465.414	584.25
465.634	515.25
465.854	438.25
466.073	420.25
466.293	425.25
466.512	421.25
466.732	403.25
466.951	405.25
467.171	379.25
467.391	388.25
467.61	412.25
467.829	426.25
468.049	429.25
468.268	392.25
468.488	410.25
468.707	395.25
468.927	408.25
469.146	390.25
469.365	389.25
469.585	389.25
469.804	394.25
470.023	411.25
470.243	410.25
470.462	423.25
470.681	442.25
470.901	419.25
471.12	406.25
471.339	410.25
471.558	398.25
471.777	409.25
471.997	380.25
472.216	404.25
472.435	458.25
472.654	444.25
472.873	405.25
473.092	406.25
473.311	404.25
473.53	417.25
473.749	416.25
473.968	468.25
474.187	541.25
474.406	565.25
474.625	455.25
474.844	409.25
475.063	403.25
475.282	415.25
475.501	411.25
475.72	422.25
475.939	428.25
476.158	412.25
476.377	419.25
476.596	418.25
476.814	432.25
477.033	433.25
477.252	449.25
477.471	417.25
477.69	428.25
477.908	452.25
478.127	420.25
478.346	423.25
478.564	442.25
478.783	454.25
479.002	451.25
479.22	464.25
479.439	458.25
479.658	496.25
479.876	488.25
480.095	454.25
480.313	530.25
480.532	508.25
480.751	511.25
480.969	487.25
481.188	610.25
481.406	616.25
481.624	548.25
481.843	501.25
482.061	512.25
482.28	502.25
482.498	486.25
482.717	466.25
482.935	468.25
483.153	482.25
483.372	475.25
483.59	489.25
483.808	463.25
484.027	474.25
484.245	468.25
484.463	472.25
484.681	510.25
484.9	491.25
485.118	477.25
485.336	488.25
485.554	483.25
485.772	491.25
485.99	498.25
486.209	487.25
486.427	496.25
486.645	516.25
486.863	537.25
487.081	501.25
487.299	526.25
487.517	525.25
487.735	502.25
487.953	502.25
488.171	516.25
488.389	511.25
488.607	509.25
488.825	508.25
489.043	513.25
489.261	500.25
489.479	493.25
489.696	530.25
489.914	534.25
490.132	525.25
490.35	538.25
490.568	526.25
490.786	556.25
491.003	567.25
491.221	575.25
491.439	580.25
491.657	558.25
491.874	572.25
492.092	589.25
492.31	612.25
492.527	600.25
492.745	601.25
492.963	595.25
493.18	590.25
493.398	589.25
493.615	587.25
493.833	614.25
494.05	613.25
494.268	615.25
494.485	587.25
494.703	589.25
494.92	634.25
495.138	604.25
495.355	605.25
495.573	622.25
495.79	581.25
496.008	601.25
496.225	615.25
496.442	626.25
496.66	626.25
496.877	599.25
497.094	600.25
497.312	635.25
497.529	613.25
497.746	607.25
497.963	619.25
498.181	652.25
498.398	665.25
498.615	648.25
498.832	652.25
499.049	667.25
499.267	664.25
499.484	684.25
499.701	713.25
499.918	709.25
500.135	713.25
500.352	753.25
500.569	756.25
500.786	752.25
501.003	739.25
501.22	746.25
501.437	755.25
501.654	734.25
501.871	750.25
502.088	719.25
