Data from 1965.PennyLincolnUp.Lamp.En5.5.200Scan.071719.P1._HRD10591_14-07-54-911.txt Node
Date: Thu Jul 18 14:07:54 EDT 2019
User: cochatt
Spectrometer: HR+D1059
Trigger mode: 1
Integration Time (sec): 1.000000E-1
Scans to average: 1
Electric dark correction enabled: true
Nonlinearity correction enabled: false
Boxcar width: 0
XAxis mode: Wavelengths
Number of Pixels in Spectrum: 2048
>>>>>Begin Spectral Data<<<<<
223.165	-8.19
223.4	-8.19
223.635	-8.19
223.869	-11.19
224.104	-8.19
224.338	-0.19
224.573	-11.19
224.808	-18.19
225.042	-0.19
225.277	-12.19
225.511	-4.19
225.746	-1.19
225.98	8.81
226.215	3.81
226.449	-4.19
226.683	22.81
226.918	15.81
227.152	27.81
227.387	38.81
227.621	37.81
227.856	49.81
228.09	31.81
228.324	57.81
228.559	65.81
228.793	64.81
229.027	75.81
229.262	95.81
229.496	100.81
229.73	102.81
229.964	128.81
230.199	109.81
230.433	108.81
230.667	106.81
230.901	97.81
231.136	93.81
231.37	105.81
231.604	102.81
231.838	100.81
232.072	100.81
232.306	92.81
232.541	105.81
232.775	102.81
233.009	95.81
233.243	120.81
233.477	105.81
233.711	111.81
233.945	96.81
234.179	112.81
234.413	107.81
234.647	116.81
234.881	109.81
235.115	104.81
235.349	119.81
235.583	113.81
235.817	108.81
236.051	117.81
236.285	101.81
236.519	116.81
236.753	106.81
236.987	113.81
237.221	151.81
237.455	175.81
237.689	154.81
237.922	120.81
238.156	125.81
238.39	116.81
238.624	105.81
238.858	103.81
239.091	101.81
239.325	116.81
239.559	115.81
239.793	85.81
240.027	120.81
240.26	125.81
240.494	143.81
240.728	132.81
240.961	127.81
241.195	129.81
241.429	117.81
241.662	110.81
241.896	109.81
242.13	120.81
242.363	115.81
242.597	112.81
242.83	108.81
243.064	121.81
243.298	131.81
243.531	117.81
243.765	119.81
243.998	117.81
244.232	111.81
244.465	119.81
244.699	135.81
244.932	128.81
245.166	124.81
245.399	113.81
245.633	125.81
245.866	115.81
246.099	120.81
246.333	122.81
246.566	127.81
246.8	135.81
247.033	136.81
247.266	133.81
247.5	152.81
247.733	127.81
247.966	131.81
248.2	151.81
248.433	141.81
248.666	155.81
248.899	166.81
249.133	132.81
249.366	166.81
249.599	168.81
249.832	140.81
250.066	143.81
250.299	146.81
250.532	138.81
250.765	161.81
250.998	170.81
251.231	177.81
251.465	175.81
251.698	169.81
251.931	163.81
252.164	175.81
252.397	162.81
252.63	171.81
252.863	164.81
253.096	166.81
253.329	180.81
253.562	181.81
253.795	184.81
254.028	183.81
254.261	185.81
254.494	183.81
254.727	182.81
254.96	202.81
255.193	204.81
255.426	196.81
255.659	187.81
255.892	187.81
256.124	186.81
256.357	186.81
256.59	182.81
256.823	161.81
257.056	164.81
257.289	179.81
257.521	165.81
257.754	171.81
257.987	169.81
258.22	166.81
258.452	171.81
258.685	172.81
258.918	179.81
259.151	183.81
259.383	166.81
259.616	175.81
259.849	170.81
260.081	175.81
260.314	206.81
260.547	211.81
260.779	213.81
261.012	212.81
261.244	176.81
261.477	198.81
261.71	188.81
261.942	177.81
262.175	183.81
262.407	189.81
262.64	163.81
262.872	163.81
263.105	160.81
263.337	175.81
263.57	181.81
263.802	169.81
264.035	183.81
264.267	183.81
264.499	172.81
264.732	176.81
264.964	170.81
265.197	167.81
265.429	187.81
265.661	166.81
265.894	179.81
266.126	175.81
266.358	181.81
266.591	179.81
266.823	183.81
267.055	185.81
267.287	184.81
267.52	184.81
267.752	179.81
267.984	180.81
268.216	195.81
268.448	183.81
268.681	191.81
268.913	205.81
269.145	195.81
269.377	209.81
269.609	195.81
269.841	215.81
270.073	216.81
270.306	213.81
270.538	264.81
270.77	219.81
271.002	211.81
271.234	227.81
271.466	214.81
271.698	237.81
271.93	232.81
272.162	248.81
272.394	231.81
272.626	220.81
272.858	228.81
273.09	229.81
273.322	208.81
273.553	209.81
273.785	214.81
274.017	199.81
274.249	217.81
274.481	210.81
274.713	211.81
274.945	209.81
275.176	213.81
275.408	189.81
275.64	212.81
275.872	215.81
276.104	198.81
276.335	208.81
276.567	213.81
276.799	222.81
277.031	231.81
277.262	255.81
277.494	237.81
277.726	228.81
277.957	221.81
278.189	230.81
278.421	197.81
278.652	216.81
278.884	216.81
279.115	219.81
279.347	229.81
279.579	211.81
279.81	212.81
280.042	196.81
280.273	195.81
280.505	214.81
280.736	207.81
280.968	192.81
281.199	198.81
281.431	207.81
281.662	227.81
281.894	213.81
282.125	219.81
282.356	236.81
282.588	240.81
282.819	233.81
283.051	217.81
283.282	220.81
283.513	213.81
283.745	221.81
283.976	196.81
284.207	222.81
284.439	218.81
284.67	232.81
284.901	222.81
285.132	228.81
285.364	216.81
285.595	212.81
285.826	221.81
286.057	214.81
286.288	206.81
286.52	225.81
286.751	229.81
286.982	219.81
287.213	209.81
287.444	224.81
287.675	225.81
287.906	222.81
288.138	232.81
288.369	241.81
288.6	233.81
288.831	226.81
289.062	222.81
289.293	236.81
289.524	218.81
289.755	233.81
289.986	243.81
290.217	239.81
290.448	244.81
290.679	227.81
290.91	228.81
291.141	224.81
291.371	224.81
291.602	230.81
291.833	245.81
292.064	231.81
292.295	230.81
292.526	217.81
292.757	236.81
292.987	221.81
293.218	220.81
293.449	230.81
293.68	236.81
293.91	225.81
294.141	215.81
294.372	213.81
294.603	234.81
294.833	223.81
295.064	234.81
295.295	249.81
295.525	229.81
295.756	249.81
295.987	238.81
296.217	248.81
296.448	236.81
296.679	235.81
296.909	237.81
297.14	226.81
297.37	235.81
297.601	243.81
297.831	221.81
298.062	252.81
298.292	221.81
298.523	246.81
298.753	254.81
298.984	238.81
299.214	239.81
299.445	247.81
299.675	236.81
299.905	233.81
300.136	238.81
300.366	238.81
300.597	247.81
300.827	246.81
301.057	244.81
301.288	255.81
301.518	248.81
301.748	250.81
301.979	262.81
302.209	270.81
302.439	242.81
302.669	261.81
302.9	271.81
303.13	234.81
303.36	260.81
303.59	245.81
303.82	250.81
304.051	267.81
304.281	260.81
304.511	263.81
304.741	262.81
304.971	260.81
305.201	271.81
305.431	248.81
305.661	251.81
305.891	236.81
306.121	263.81
306.352	269.81
306.582	250.81
306.812	249.81
307.042	257.81
307.272	249.81
307.502	271.81
307.731	260.81
307.961	255.81
308.191	277.81
308.421	269.81
308.651	272.81
308.881	247.81
309.111	257.81
309.341	274.81
309.571	283.81
309.8	277.81
310.03	277.81
310.26	288.81
310.49	277.81
310.72	295.81
310.949	300.81
311.179	303.81
311.409	298.81
311.639	288.81
311.868	303.81
312.098	283.81
312.328	280.81
312.557	299.81
312.787	311.81
313.017	318.81
313.246	296.81
313.476	297.81
313.706	303.81
313.935	291.81
314.165	313.81
314.394	308.81
314.624	297.81
314.853	278.81
315.083	289.81
315.312	293.81
315.542	297.81
315.771	310.81
316.001	293.81
316.23	291.81
316.46	278.81
316.689	303.81
316.919	297.81
317.148	300.81
317.377	317.81
317.607	310.81
317.836	297.81
318.065	303.81
318.295	295.81
318.524	280.81
318.753	293.81
318.983	300.81
319.212	280.81
319.441	291.81
319.67	289.81
319.9	302.81
320.129	293.81
320.358	300.81
320.587	300.81
320.816	336.81
321.046	294.81
321.275	316.81
321.504	311.81
321.733	305.81
321.962	314.81
322.191	320.81
322.42	313.81
322.649	325.81
322.878	345.81
323.108	378.81
323.337	377.81
323.566	402.81
323.795	410.81
324.024	429.81
324.253	544.81
324.482	745.81
324.71	1143.81
324.939	1553.81
325.168	1272.81
325.397	669.81
325.626	494.81
325.855	407.81
326.084	391.81
326.313	375.81
326.542	391.81
326.77	429.81
326.999	497.81
327.228	668.81
327.457	981.81
327.686	1142.81
327.914	761.81
328.143	513.81
328.372	478.81
328.6	432.81
328.829	431.81
329.058	428.81
329.287	418.81
329.515	428.81
329.744	383.81
329.972	390.81
330.201	397.81
330.43	409.81
330.658	417.81
330.887	464.81
331.115	441.81
331.344	402.81
331.572	386.81
331.801	406.81
332.03	390.81
332.258	362.81
332.486	338.81
332.715	334.81
332.943	347.81
333.172	333.81
333.4	333.81
333.629	358.81
333.857	348.81
334.085	386.81
334.314	373.81
334.542	399.81
334.771	411.81
334.999	357.81
335.227	356.81
335.455	356.81
335.684	355.81
335.912	332.81
336.14	360.81
336.369	324.81
336.597	358.81
336.825	358.81
337.053	320.81
337.281	327.81
337.51	325.81
337.738	320.81
337.966	333.81
338.194	347.81
338.422	343.81
338.65	327.81
338.878	339.81
339.106	344.81
339.334	327.81
339.562	319.81
339.79	315.81
340.018	321.81
340.246	339.81
340.474	330.81
340.702	334.81
340.93	310.81
341.158	326.81
341.386	337.81
341.614	332.81
341.842	316.81
342.07	320.81
342.298	331.81
342.526	322.81
342.754	317.81
342.981	318.81
343.209	344.81
343.437	320.81
343.665	335.81
343.893	344.81
344.12	326.81
344.348	337.81
344.576	338.81
344.804	331.81
345.031	345.81
345.259	357.81
345.487	339.81
345.714	335.81
345.942	319.81
346.17	343.81
346.397	311.81
346.625	316.81
346.853	321.81
347.08	314.81
347.308	333.81
347.535	334.81
347.763	323.81
347.99	332.81
348.218	317.81
348.445	331.81
348.673	349.81
348.9	327.81
349.128	311.81
349.355	328.81
349.583	311.81
349.81	330.81
350.037	313.81
350.265	327.81
350.492	320.81
350.72	310.81
350.947	323.81
351.174	310.81
351.402	350.81
351.629	342.81
351.856	333.81
352.083	331.81
352.311	324.81
352.538	326.81
352.765	336.81
352.992	332.81
353.22	333.81
353.447	352.81
353.674	331.81
353.901	293.81
354.128	309.81
354.355	307.81
354.583	303.81
354.81	305.81
355.037	295.81
355.264	297.81
355.491	323.81
355.718	295.81
355.945	323.81
356.172	299.81
356.399	293.81
356.626	323.81
356.853	295.81
357.08	311.81
357.307	293.81
357.534	305.81
357.761	309.81
357.988	317.81
358.215	301.81
358.441	292.81
358.668	300.81
358.895	322.81
359.122	302.81
359.349	305.81
359.576	333.81
359.802	339.81
360.029	345.81
360.256	376.81
360.483	355.81
360.709	323.81
360.936	337.81
361.163	340.81
361.39	326.81
361.616	342.81
361.843	327.81
362.07	302.81
362.296	336.81
362.523	331.81
362.749	320.81
362.976	331.81
363.203	309.81
363.429	308.81
363.656	309.81
363.882	312.81
364.109	318.81
364.335	341.81
364.562	302.81
364.788	295.81
365.015	307.81
365.241	321.81
365.468	314.81
365.694	329.81
365.92	324.81
366.147	295.81
366.373	311.81
366.599	313.81
366.826	309.81
367.052	311.81
367.278	318.81
367.505	307.81
367.731	312.81
367.957	319.81
368.184	302.81
368.41	317.81
368.636	314.81
368.862	339.81
369.089	316.81
369.315	309.81
369.541	333.81
369.767	316.81
369.993	312.81
370.219	323.81
370.445	303.81
370.672	281.81
370.898	319.81
371.124	315.81
371.35	316.81
371.576	307.81
371.802	296.81
372.028	302.81
372.254	309.81
372.48	284.81
372.706	306.81
372.932	319.81
373.158	303.81
373.384	332.81
373.61	316.81
373.835	319.81
374.061	319.81
374.287	313.81
374.513	327.81
374.739	319.81
374.965	318.81
375.191	312.81
375.416	310.81
375.642	315.81
375.868	317.81
376.094	303.81
376.319	315.81
376.545	307.81
376.771	307.81
376.997	326.81
377.222	311.81
377.448	315.81
377.674	305.81
377.899	315.81
378.125	300.81
378.35	315.81
378.576	285.81
378.802	292.81
379.027	320.81
379.253	330.81
379.478	307.81
379.704	312.81
379.929	295.81
380.155	312.81
380.38	302.81
380.606	321.81
380.831	322.81
381.057	311.81
381.282	324.81
381.507	321.81
381.733	325.81
381.958	329.81
382.184	315.81
382.409	320.81
382.634	320.81
382.86	335.81
383.085	342.81
383.31	324.81
383.535	317.81
383.761	319.81
383.986	325.81
384.211	322.81
384.436	327.81
384.662	312.81
384.887	316.81
385.112	324.81
385.337	333.81
385.562	337.81
385.787	321.81
386.013	350.81
386.238	345.81
386.463	351.81
386.688	331.81
386.913	318.81
387.138	345.81
387.363	337.81
387.588	344.81
387.813	332.81
388.038	320.81
388.263	335.81
388.488	335.81
388.713	320.81
388.938	341.81
389.163	324.81
389.387	333.81
389.612	340.81
389.837	348.81
390.062	340.81
390.287	337.81
390.512	334.81
390.736	325.81
390.961	326.81
391.186	338.81
391.411	333.81
391.636	341.81
391.86	332.81
392.085	330.81
392.31	330.81
392.534	365.81
392.759	346.81
392.984	346.81
393.208	342.81
393.433	348.81
393.658	335.81
393.882	340.81
394.107	330.81
394.331	329.81
394.556	359.81
394.78	361.81
395.005	341.81
395.229	349.81
395.454	352.81
395.678	341.81
395.903	364.81
396.127	381.81
396.352	362.81
396.576	349.81
396.801	345.81
397.025	359.81
397.249	359.81
397.474	330.81
397.698	357.81
397.922	382.81
398.147	400.81
398.371	371.81
398.595	371.81
398.82	384.81
399.044	395.81
399.268	379.81
399.492	407.81
399.717	439.81
399.941	456.81
400.165	454.81
400.389	436.81
400.613	415.81
400.837	380.81
401.062	384.81
401.286	381.81
401.51	379.81
401.734	376.81
401.958	381.81
402.182	379.81
402.406	399.81
402.63	394.81
402.854	396.81
403.078	390.81
403.302	353.81
403.526	399.81
403.75	406.81
403.974	402.81
404.198	397.81
404.422	405.81
404.645	396.81
404.869	409.81
405.093	409.81
405.317	431.81
405.541	476.81
405.765	447.81
405.988	411.81
406.212	422.81
406.436	459.81
406.66	444.81
406.883	435.81
407.107	460.81
407.331	467.81
407.555	491.81
407.778	501.81
408.002	480.81
408.226	431.81
408.449	437.81
408.673	426.81
408.896	437.81
409.12	447.81
409.344	453.81
409.567	405.81
409.791	401.81
410.014	397.81
410.238	395.81
410.461	382.81
410.685	406.81
410.908	397.81
411.132	439.81
411.355	457.81
411.578	436.81
411.802	398.81
412.025	382.81
412.249	399.81
412.472	426.81
412.695	450.81
412.919	401.81
413.142	421.81
413.365	393.81
413.589	393.81
413.812	380.81
414.035	379.81
414.258	368.81
414.482	375.81
414.705	379.81
414.928	379.81
415.151	379.81
415.374	393.81
415.597	375.81
415.821	371.81
416.044	377.81
416.267	365.81
416.49	371.81
416.713	375.81
416.936	395.81
417.159	376.81
417.382	379.81
417.605	376.81
417.828	384.81
418.051	380.81
418.274	372.81
418.497	361.81
418.72	364.81
418.943	360.81
419.166	383.81
419.389	380.81
419.611	399.81
419.834	396.81
420.057	390.81
420.28	368.81
420.503	364.81
420.726	364.81
420.948	408.81
421.171	446.81
421.394	431.81
421.617	393.81
421.839	383.81
422.062	390.81
422.285	407.81
422.507	443.81
422.73	494.81
422.953	475.81
423.175	409.81
423.398	389.81
423.621	398.81
423.843	416.81
424.066	407.81
424.288	422.81
424.511	435.81
424.733	474.81
424.956	537.81
425.178	497.81
425.401	503.81
425.623	505.81
425.846	442.81
426.068	419.81
426.291	421.81
426.513	399.81
426.735	430.81
426.958	459.81
427.18	517.81
427.402	583.81
427.625	651.81
427.847	573.81
428.069	497.81
428.292	454.81
428.514	415.81
428.736	411.81
428.958	374.81
429.181	377.81
429.403	392.81
429.625	395.81
429.847	416.81
430.069	470.81
430.292	456.81
430.514	425.81
430.736	383.81
430.958	379.81
431.18	383.81
431.402	379.81
431.624	365.81
431.846	367.81
432.068	369.81
432.29	371.81
432.512	377.81
432.734	391.81
432.956	378.81
433.178	379.81
433.4	366.81
433.622	366.81
433.844	358.81
434.066	374.81
434.287	352.81
434.509	373.81
434.731	375.81
434.953	397.81
435.175	401.81
435.397	416.81
435.618	417.81
435.84	469.81
436.062	527.81
436.284	564.81
436.505	483.81
436.727	431.81
436.949	412.81
437.17	380.81
437.392	387.81
437.614	408.81
437.835	441.81
438.057	477.81
438.278	560.81
438.5	562.81
438.721	621.81
438.943	583.81
439.165	488.81
439.386	441.81
439.608	449.81
439.829	431.81
440.05	442.81
440.272	469.81
440.493	447.81
440.715	431.81
440.936	407.81
441.158	411.81
441.379	405.81
441.6	414.81
441.822	408.81
442.043	455.81
442.264	488.81
442.486	513.81
442.707	461.81
442.928	440.81
443.149	431.81
443.371	429.81
443.592	488.81
443.813	531.81
444.034	582.81
444.255	483.81
444.476	423.81
444.698	411.81
444.919	431.81
445.14	486.81
445.361	479.81
445.582	480.81
445.803	516.81
446.024	575.81
446.245	551.81
446.466	503.81
446.687	443.81
446.908	430.81
447.129	409.81
447.35	411.81
447.571	380.81
447.792	403.81
448.013	402.81
448.234	413.81
448.455	438.81
448.675	511.81
448.896	593.81
449.117	503.81
449.338	503.81
449.559	583.81
449.779	640.81
450	508.81
450.221	419.81
450.442	415.81
450.662	382.81
450.883	381.81
451.104	394.81
451.324	390.81
451.545	377.81
451.766	358.81
451.986	365.81
452.207	331.81
452.428	351.81
452.648	355.81
452.869	350.81
453.089	355.81
453.31	366.81
453.53	380.81
453.751	340.81
453.971	358.81
454.192	363.81
454.412	376.81
454.633	348.81
454.853	343.81
455.073	346.81
455.294	393.81
455.514	425.81
455.734	419.81
455.955	374.81
456.175	345.81
456.395	317.81
456.616	319.81
456.836	351.81
457.056	351.81
457.276	331.81
457.497	317.81
457.717	335.81
457.937	343.81
458.157	339.81
458.377	349.81
458.598	360.81
458.818	407.81
459.038	482.81
459.258	474.81
459.478	419.81
459.698	364.81
459.918	361.81
460.138	387.81
460.358	387.81
460.578	387.81
460.798	377.81
461.018	367.81
461.238	377.81
461.458	370.81
461.678	375.81
461.898	376.81
462.118	369.81
462.338	383.81
462.558	367.81
462.777	411.81
462.997	394.81
463.217	405.81
463.437	389.81
463.657	389.81
463.876	393.81
464.096	392.81
464.316	402.81
464.536	413.81
464.755	396.81
464.975	413.81
465.195	453.81
465.414	491.81
465.634	443.81
465.854	405.81
466.073	383.81
466.293	379.81
466.512	349.81
466.732	363.81
466.951	366.81
467.171	346.81
467.391	380.81
467.61	393.81
467.829	383.81
468.049	364.81
468.268	365.81
468.488	373.81
468.707	364.81
468.927	345.81
469.146	353.81
469.365	341.81
469.585	348.81
469.804	375.81
470.023	379.81
470.243	373.81
470.462	343.81
470.681	377.81
470.901	389.81
471.12	362.81
471.339	342.81
471.558	351.81
471.777	370.81
471.997	366.81
472.216	358.81
472.435	417.81
472.654	387.81
472.873	380.81
473.092	360.81
473.311	355.81
473.53	363.81
473.749	375.81
473.968	421.81
474.187	496.81
474.406	483.81
474.625	405.81
474.844	384.81
475.063	404.81
475.282	371.81
475.501	379.81
475.72	376.81
475.939	383.81
476.158	376.81
476.377	391.81
476.596	389.81
476.814	399.81
477.033	388.81
477.252	393.81
477.471	401.81
477.69	397.81
477.908	401.81
478.127	394.81
478.346	408.81
478.564	387.81
478.783	399.81
479.002	413.81
479.22	423.81
479.439	441.81
479.658	462.81
479.876	457.81
480.095	445.81
480.313	459.81
480.532	452.81
480.751	433.81
480.969	457.81
481.188	511.81
481.406	537.81
481.624	468.81
481.843	437.81
482.061	462.81
482.28	433.81
482.498	445.81
482.717	435.81
482.935	442.81
483.153	441.81
483.372	442.81
483.59	455.81
483.808	445.81
484.027	437.81
484.245	445.81
484.463	428.81
484.681	454.81
484.9	440.81
485.118	445.81
485.336	468.81
485.554	447.81
485.772	457.81
485.99	463.81
486.209	448.81
486.427	455.81
486.645	463.81
486.863	481.81
487.081	462.81
487.299	465.81
487.517	486.81
487.735	463.81
487.953	447.81
488.171	464.81
488.389	476.81
488.607	462.81
488.825	475.81
489.043	488.81
489.261	474.81
489.479	478.81
489.696	473.81
489.914	481.81
490.132	469.81
490.35	500.81
490.568	475.81
490.786	489.81
491.003	501.81
491.221	514.81
491.439	530.81
491.657	522.81
491.874	529.81
492.092	518.81
492.31	517.81
492.527	519.81
492.745	527.81
492.963	526.81
493.18	531.81
493.398	535.81
493.615	551.81
493.833	532.81
494.05	554.81
494.268	535.81
494.485	505.81
494.703	535.81
494.92	540.81
495.138	549.81
495.355	555.81
495.573	559.81
495.79	549.81
496.008	550.81
496.225	555.81
496.442	499.81
496.66	531.81
496.877	542.81
497.094	553.81
497.312	536.81
497.529	561.81
497.746	576.81
497.963	559.81
498.181	571.81
498.398	577.81
498.615	585.81
498.832	615.81
499.049	615.81
499.267	620.81
499.484	631.81
499.701	650.81
499.918	679.81
500.135	676.81
500.352	696.81
500.569	721.81
500.786	700.81
501.003	732.81
501.22	698.81
501.437	686.81
501.654	668.81
501.871	677.81
502.088	641.81
