Data from 1965.PennyLincolnUp.Lamp.En5.5.200Scan.071719.P1._HRD10591_14-10-39-913.txt Node
Date: Thu Jul 18 14:10:39 EDT 2019
User: cochatt
Spectrometer: HR+D1059
Trigger mode: 1
Integration Time (sec): 1.000000E-1
Scans to average: 1
Electric dark correction enabled: true
Nonlinearity correction enabled: false
Boxcar width: 0
XAxis mode: Wavelengths
Number of Pixels in Spectrum: 2048
>>>>>Begin Spectral Data<<<<<
223.165	-2.56
223.4	-2.56
223.635	-2.56
223.869	-20.56
224.104	-17.56
224.338	-7.56
224.573	-9.56
224.808	-14.56
225.042	-9.56
225.277	-7.56
225.511	-3.56
225.746	10.44
225.98	-0.56
226.215	9.44
226.449	19.44
226.683	17.44
226.918	14.44
227.152	22.44
227.387	15.44
227.621	38.44
227.856	53.44
228.09	48.44
228.324	53.44
228.559	55.44
228.793	77.44
229.027	110.44
229.262	101.44
229.496	106.44
229.73	126.44
229.964	155.44
230.199	126.44
230.433	115.44
230.667	107.44
230.901	115.44
231.136	114.44
231.37	109.44
231.604	110.44
231.838	124.44
232.072	111.44
232.306	93.44
232.541	120.44
232.775	102.44
233.009	102.44
233.243	107.44
233.477	112.44
233.711	119.44
233.945	107.44
234.179	117.44
234.413	108.44
234.647	122.44
234.881	105.44
235.115	107.44
235.349	123.44
235.583	124.44
235.817	119.44
236.051	125.44
236.285	116.44
236.519	122.44
236.753	131.44
236.987	156.44
237.221	189.44
237.455	230.44
237.689	190.44
237.922	142.44
238.156	138.44
238.39	131.44
238.624	112.44
238.858	111.44
239.091	112.44
239.325	125.44
239.559	119.44
239.793	122.44
240.027	128.44
240.26	118.44
240.494	139.44
240.728	141.44
240.961	149.44
241.195	133.44
241.429	142.44
241.662	132.44
241.896	107.44
242.13	125.44
242.363	133.44
242.597	122.44
242.83	120.44
243.064	121.44
243.298	118.44
243.531	120.44
243.765	134.44
243.998	125.44
244.232	122.44
244.465	132.44
244.699	132.44
244.932	118.44
245.166	125.44
245.399	144.44
245.633	138.44
245.866	132.44
246.099	139.44
246.333	141.44
246.566	136.44
246.8	136.44
247.033	124.44
247.266	141.44
247.5	149.44
247.733	153.44
247.966	154.44
248.2	154.44
248.433	155.44
248.666	170.44
248.899	166.44
249.133	176.44
249.366	188.44
249.599	188.44
249.832	166.44
250.066	163.44
250.299	176.44
250.532	177.44
250.765	187.44
250.998	209.44
251.231	205.44
251.465	204.44
251.698	181.44
251.931	182.44
252.164	180.44
252.397	189.44
252.63	195.44
252.863	174.44
253.096	192.44
253.329	194.44
253.562	207.44
253.795	203.44
254.028	189.44
254.261	203.44
254.494	216.44
254.727	219.44
254.96	258.44
255.193	250.44
255.426	223.44
255.659	217.44
255.892	203.44
256.124	214.44
256.357	213.44
256.59	209.44
256.823	228.44
257.056	189.44
257.289	188.44
257.521	184.44
257.754	199.44
257.987	200.44
258.22	189.44
258.452	179.44
258.685	181.44
258.918	189.44
259.151	190.44
259.383	207.44
259.616	217.44
259.849	204.44
260.081	224.44
260.314	228.44
260.547	244.44
260.779	233.44
261.012	216.44
261.244	217.44
261.477	195.44
261.71	196.44
261.942	207.44
262.175	207.44
262.407	201.44
262.64	196.44
262.872	204.44
263.105	201.44
263.337	190.44
263.57	197.44
263.802	201.44
264.035	196.44
264.267	205.44
264.499	192.44
264.732	200.44
264.964	206.44
265.197	202.44
265.429	188.44
265.661	193.44
265.894	194.44
266.126	187.44
266.358	183.44
266.591	197.44
266.823	203.44
267.055	215.44
267.287	203.44
267.52	206.44
267.752	215.44
267.984	200.44
268.216	225.44
268.448	194.44
268.681	209.44
268.913	209.44
269.145	245.44
269.377	253.44
269.609	257.44
269.841	235.44
270.073	234.44
270.306	279.44
270.538	317.44
270.77	294.44
271.002	271.44
271.234	271.44
271.466	284.44
271.698	293.44
271.93	276.44
272.162	282.44
272.394	285.44
272.626	264.44
272.858	265.44
273.09	254.44
273.322	229.44
273.553	243.44
273.785	262.44
274.017	236.44
274.249	236.44
274.481	237.44
274.713	249.44
274.945	263.44
275.176	235.44
275.408	259.44
275.64	232.44
275.872	224.44
276.104	225.44
276.335	249.44
276.567	261.44
276.799	249.44
277.031	292.44
277.262	278.44
277.494	276.44
277.726	279.44
277.957	271.44
278.189	268.44
278.421	264.44
278.652	244.44
278.884	231.44
279.115	227.44
279.347	243.44
279.579	233.44
279.81	231.44
280.042	223.44
280.273	251.44
280.505	229.44
280.736	254.44
280.968	223.44
281.199	243.44
281.431	233.44
281.662	230.44
281.894	231.44
282.125	259.44
282.356	251.44
282.588	290.44
282.819	279.44
283.051	250.44
283.282	240.44
283.513	231.44
283.745	236.44
283.976	252.44
284.207	255.44
284.439	238.44
284.67	227.44
284.901	232.44
285.132	239.44
285.364	230.44
285.595	222.44
285.826	223.44
286.057	249.44
286.288	251.44
286.52	262.44
286.751	243.44
286.982	251.44
287.213	234.44
287.444	250.44
287.675	261.44
287.906	255.44
288.138	279.44
288.369	266.44
288.6	274.44
288.831	261.44
289.062	264.44
289.293	272.44
289.524	252.44
289.755	252.44
289.986	238.44
290.217	249.44
290.448	232.44
290.679	249.44
290.91	259.44
291.141	269.44
291.371	250.44
291.602	269.44
291.833	245.44
292.064	235.44
292.295	248.44
292.526	254.44
292.757	251.44
292.987	242.44
293.218	255.44
293.449	267.44
293.68	254.44
293.91	265.44
294.141	250.44
294.372	243.44
294.603	251.44
294.833	250.44
295.064	261.44
295.295	262.44
295.525	261.44
295.756	276.44
295.987	277.44
296.217	304.44
296.448	298.44
296.679	278.44
296.909	266.44
297.14	265.44
297.37	259.44
297.601	276.44
297.831	262.44
298.062	239.44
298.292	273.44
298.523	293.44
298.753	257.44
298.984	268.44
299.214	253.44
299.445	266.44
299.675	273.44
299.905	265.44
300.136	277.44
300.366	251.44
300.597	283.44
300.827	263.44
301.057	276.44
301.288	299.44
301.518	287.44
301.748	283.44
301.979	277.44
302.209	309.44
302.439	297.44
302.669	308.44
302.9	281.44
303.13	273.44
303.36	291.44
303.59	284.44
303.82	292.44
304.051	297.44
304.281	278.44
304.511	279.44
304.741	283.44
304.971	277.44
305.201	279.44
305.431	288.44
305.661	283.44
305.891	285.44
306.121	295.44
306.352	303.44
306.582	312.44
306.812	291.44
307.042	285.44
307.272	302.44
307.502	295.44
307.731	296.44
307.961	292.44
308.191	292.44
308.421	301.44
308.651	303.44
308.881	294.44
309.111	312.44
309.341	313.44
309.571	299.44
309.8	311.44
310.03	339.44
310.26	341.44
310.49	344.44
310.72	344.44
310.949	372.44
311.179	375.44
311.409	335.44
311.639	330.44
311.868	345.44
312.098	363.44
312.328	341.44
312.557	377.44
312.787	392.44
313.017	368.44
313.246	345.44
313.476	327.44
313.706	338.44
313.935	344.44
314.165	373.44
314.394	361.44
314.624	355.44
314.853	343.44
315.083	337.44
315.312	345.44
315.542	336.44
315.771	341.44
316.001	332.44
316.23	326.44
316.46	337.44
316.689	322.44
316.919	352.44
317.148	359.44
317.377	356.44
317.607	343.44
317.836	350.44
318.065	336.44
318.295	348.44
318.524	357.44
318.753	341.44
318.983	342.44
319.212	342.44
319.441	348.44
319.67	353.44
319.9	348.44
320.129	359.44
320.358	359.44
320.587	338.44
320.816	345.44
321.046	371.44
321.275	330.44
321.504	367.44
321.733	357.44
321.962	380.44
322.191	392.44
322.42	395.44
322.649	422.44
322.878	435.44
323.108	432.44
323.337	456.44
323.566	471.44
323.795	522.44
324.024	582.44
324.253	707.44
324.482	1023.44
324.71	1591.44
324.939	2235.44
325.168	1819.44
325.397	970.44
325.626	647.44
325.855	516.44
326.084	517.44
326.313	489.44
326.542	491.44
326.77	544.44
326.999	672.44
327.228	924.44
327.457	1396.44
327.686	1606.44
327.914	1051.44
328.143	739.44
328.372	620.44
328.6	591.44
328.829	563.44
329.058	551.44
329.287	577.44
329.515	536.44
329.744	519.44
329.972	488.44
330.201	509.44
330.43	570.44
330.658	604.44
330.887	598.44
331.115	578.44
331.344	489.44
331.572	462.44
331.801	482.44
332.03	455.44
332.258	439.44
332.486	414.44
332.715	399.44
332.943	391.44
333.172	405.44
333.4	397.44
333.629	431.44
333.857	434.44
334.085	445.44
334.314	462.44
334.542	486.44
334.771	508.44
334.999	436.44
335.227	407.44
335.455	416.44
335.684	400.44
335.912	393.44
336.14	373.44
336.369	392.44
336.597	394.44
336.825	397.44
337.053	383.44
337.281	363.44
337.51	379.44
337.738	392.44
337.966	391.44
338.194	411.44
338.422	404.44
338.65	393.44
338.878	391.44
339.106	376.44
339.334	371.44
339.562	376.44
339.79	389.44
340.018	395.44
340.246	387.44
340.474	375.44
340.702	398.44
340.93	373.44
341.158	381.44
341.386	371.44
341.614	380.44
341.842	374.44
342.07	379.44
342.298	381.44
342.526	378.44
342.754	360.44
342.981	353.44
343.209	387.44
343.437	374.44
343.665	385.44
343.893	371.44
344.12	381.44
344.348	377.44
344.576	385.44
344.804	378.44
345.031	402.44
345.259	399.44
345.487	385.44
345.714	373.44
345.942	383.44
346.17	360.44
346.397	349.44
346.625	360.44
346.853	383.44
347.08	357.44
347.308	368.44
347.535	360.44
347.763	406.44
347.99	385.44
348.218	381.44
348.445	384.44
348.673	387.44
348.9	381.44
349.128	359.44
349.355	355.44
349.583	349.44
349.81	353.44
350.037	349.44
350.265	360.44
350.492	345.44
350.72	350.44
350.947	363.44
351.174	370.44
351.402	375.44
351.629	377.44
351.856	382.44
352.083	381.44
352.311	392.44
352.538	389.44
352.765	398.44
352.992	396.44
353.22	379.44
353.447	352.44
353.674	377.44
353.901	378.44
354.128	363.44
354.355	327.44
354.583	341.44
354.81	350.44
355.037	349.44
355.264	337.44
355.491	334.44
355.718	331.44
355.945	323.44
356.172	332.44
356.399	316.44
356.626	346.44
356.853	349.44
357.08	330.44
357.307	329.44
357.534	318.44
357.761	335.44
357.988	338.44
358.215	337.44
358.441	340.44
358.668	359.44
358.895	352.44
359.122	347.44
359.349	349.44
359.576	345.44
359.802	380.44
360.029	427.44
360.256	415.44
360.483	407.44
360.709	391.44
360.936	380.44
361.163	373.44
361.39	394.44
361.616	380.44
361.843	369.44
362.07	361.44
362.296	366.44
362.523	370.44
362.749	360.44
362.976	357.44
363.203	391.44
363.429	349.44
363.656	351.44
363.882	366.44
364.109	348.44
364.335	358.44
364.562	340.44
364.788	359.44
365.015	353.44
365.241	361.44
365.468	364.44
365.694	355.44
365.92	350.44
366.147	353.44
366.373	340.44
366.599	351.44
366.826	352.44
367.052	330.44
367.278	328.44
367.505	339.44
367.731	350.44
367.957	346.44
368.184	356.44
368.41	360.44
368.636	376.44
368.862	371.44
369.089	365.44
369.315	335.44
369.541	336.44
369.767	350.44
369.993	350.44
370.219	345.44
370.445	342.44
370.672	336.44
370.898	338.44
371.124	334.44
371.35	325.44
371.576	337.44
371.802	344.44
372.028	355.44
372.254	333.44
372.48	320.44
372.706	347.44
372.932	323.44
373.158	344.44
373.384	351.44
373.61	360.44
373.835	366.44
374.061	328.44
374.287	337.44
374.513	348.44
374.739	350.44
374.965	343.44
375.191	332.44
375.416	336.44
375.642	340.44
375.868	332.44
376.094	347.44
376.319	343.44
376.545	351.44
376.771	326.44
376.997	336.44
377.222	321.44
377.448	342.44
377.674	340.44
377.899	328.44
378.125	321.44
378.35	329.44
378.576	355.44
378.802	331.44
379.027	348.44
379.253	347.44
379.478	332.44
379.704	335.44
379.929	348.44
380.155	346.44
380.38	357.44
380.606	337.44
380.831	330.44
381.057	333.44
381.282	351.44
381.507	341.44
381.733	349.44
381.958	347.44
382.184	348.44
382.409	342.44
382.634	343.44
382.86	339.44
383.085	320.44
383.31	351.44
383.535	352.44
383.761	347.44
383.986	336.44
384.211	331.44
384.436	352.44
384.662	346.44
384.887	352.44
385.112	355.44
385.337	336.44
385.562	348.44
385.787	358.44
386.013	364.44
386.238	371.44
386.463	399.44
386.688	360.44
386.913	336.44
387.138	343.44
387.363	349.44
387.588	359.44
387.813	381.44
388.038	340.44
388.263	338.44
388.488	354.44
388.713	353.44
388.938	359.44
389.163	380.44
389.387	341.44
389.612	357.44
389.837	377.44
390.062	352.44
390.287	368.44
390.512	376.44
390.736	376.44
390.961	356.44
391.186	349.44
391.411	363.44
391.636	354.44
391.86	371.44
392.085	369.44
392.31	378.44
392.534	363.44
392.759	383.44
392.984	356.44
393.208	377.44
393.433	358.44
393.658	361.44
393.882	357.44
394.107	363.44
394.331	370.44
394.556	383.44
394.78	348.44
395.005	375.44
395.229	359.44
395.454	370.44
395.678	371.44
395.903	393.44
396.127	396.44
396.352	408.44
396.576	371.44
396.801	375.44
397.025	376.44
397.249	375.44
397.474	391.44
397.698	384.44
397.922	401.44
398.147	381.44
398.371	415.44
398.595	389.44
398.82	417.44
399.044	397.44
399.268	417.44
399.492	447.44
399.717	449.44
399.941	464.44
400.165	476.44
400.389	497.44
400.613	468.44
400.837	427.44
401.062	430.44
401.286	406.44
401.51	413.44
401.734	427.44
401.958	409.44
402.182	419.44
402.406	426.44
402.63	436.44
402.854	436.44
403.078	426.44
403.302	405.44
403.526	432.44
403.75	424.44
403.974	425.44
404.198	408.44
404.422	413.44
404.645	435.44
404.869	439.44
405.093	455.44
405.317	524.44
405.541	518.44
405.765	486.44
405.988	477.44
406.212	471.44
406.436	484.44
406.66	484.44
406.883	460.44
407.107	474.44
407.331	507.44
407.555	563.44
407.778	549.44
408.002	500.44
408.226	473.44
408.449	452.44
408.673	463.44
408.896	482.44
409.12	529.44
409.344	519.44
409.567	435.44
409.791	438.44
410.014	435.44
410.238	425.44
410.461	418.44
410.685	424.44
410.908	457.44
411.132	473.44
411.355	509.44
411.578	495.44
411.802	439.44
412.025	425.44
412.249	430.44
412.472	456.44
412.695	483.44
412.919	485.44
413.142	454.44
413.365	437.44
413.589	429.44
413.812	391.44
414.035	405.44
414.258	413.44
414.482	399.44
414.705	400.44
414.928	414.44
415.151	406.44
415.374	414.44
415.597	400.44
415.821	407.44
416.044	422.44
416.267	411.44
416.49	404.44
416.713	396.44
416.936	394.44
417.159	413.44
417.382	400.44
417.605	395.44
417.828	426.44
418.051	438.44
418.274	439.44
418.497	400.44
418.72	401.44
418.943	406.44
419.166	428.44
419.389	426.44
419.611	443.44
419.834	443.44
420.057	424.44
420.28	407.44
420.503	409.44
420.726	443.44
420.948	431.44
421.171	473.44
421.394	499.44
421.617	461.44
421.839	417.44
422.062	425.44
422.285	453.44
422.507	471.44
422.73	522.44
422.953	520.44
423.175	471.44
423.398	451.44
423.621	443.44
423.843	443.44
424.066	457.44
424.288	457.44
424.511	457.44
424.733	536.44
424.956	607.44
425.178	569.44
425.401	586.44
425.623	582.44
425.846	522.44
426.068	471.44
426.291	459.44
426.513	442.44
426.735	475.44
426.958	512.44
427.18	605.44
427.402	694.44
427.625	771.44
427.847	697.44
428.069	599.44
428.292	543.44
428.514	453.44
428.736	425.44
428.958	453.44
429.181	435.44
429.403	426.44
429.625	461.44
429.847	468.44
430.069	533.44
430.292	529.44
430.514	449.44
430.736	429.44
430.958	424.44
431.18	407.44
431.402	393.44
431.624	411.44
431.846	403.44
432.068	420.44
432.29	400.44
432.512	417.44
432.734	437.44
432.956	410.44
433.178	415.44
433.4	440.44
433.622	440.44
433.844	411.44
434.066	404.44
434.287	399.44
434.509	431.44
434.731	397.44
434.953	428.44
435.175	420.44
435.397	462.44
435.618	469.44
435.84	533.44
436.062	588.44
436.284	653.44
436.505	539.44
436.727	479.44
436.949	453.44
437.17	430.44
437.392	426.44
437.614	451.44
437.835	498.44
438.057	600.44
438.278	667.44
438.5	645.44
438.721	707.44
438.943	676.44
439.165	539.44
439.386	487.44
439.608	481.44
439.829	472.44
440.05	518.44
440.272	558.44
440.493	520.44
440.715	477.44
440.936	445.44
441.158	447.44
441.379	431.44
441.6	463.44
441.822	468.44
442.043	512.44
442.264	600.44
442.486	639.44
442.707	517.44
442.928	512.44
443.149	496.44
443.371	517.44
443.592	554.44
443.813	603.44
444.034	669.44
444.255	551.44
444.476	476.44
444.698	477.44
444.919	469.44
445.14	548.44
445.361	517.44
445.582	522.44
445.803	586.44
446.024	666.44
446.245	658.44
446.466	590.44
446.687	521.44
446.908	471.44
447.129	432.44
447.35	431.44
447.571	435.44
447.792	437.44
448.013	433.44
448.234	459.44
448.455	529.44
448.675	605.44
448.896	684.44
449.117	605.44
449.338	580.44
449.559	645.44
449.779	708.44
450	583.44
450.221	485.44
450.442	460.44
450.662	426.44
450.883	428.44
451.104	448.44
451.324	465.44
451.545	442.44
451.766	402.44
451.986	383.44
452.207	392.44
452.428	383.44
452.648	396.44
452.869	393.44
453.089	392.44
453.31	409.44
453.53	406.44
453.751	377.44
453.971	392.44
454.192	418.44
454.412	416.44
454.633	419.44
454.853	402.44
455.073	387.44
455.294	421.44
455.514	470.44
455.734	467.44
455.955	415.44
456.175	370.44
456.395	383.44
456.616	362.44
456.836	371.44
457.056	363.44
457.276	352.44
457.497	357.44
457.717	388.44
457.937	377.44
458.157	358.44
458.377	371.44
458.598	400.44
458.818	436.44
459.038	558.44
459.258	543.44
459.478	450.44
459.698	439.44
459.918	408.44
460.138	421.44
460.358	415.44
460.578	410.44
460.798	399.44
461.018	414.44
461.238	409.44
461.458	412.44
461.678	396.44
461.898	409.44
462.118	392.44
462.338	429.44
462.558	428.44
462.777	421.44
462.997	416.44
463.217	403.44
463.437	417.44
463.657	431.44
463.876	429.44
464.096	437.44
464.316	443.44
464.536	427.44
464.755	431.44
464.975	451.44
465.195	506.44
465.414	585.44
465.634	515.44
465.854	425.44
466.073	423.44
466.293	393.44
466.512	412.44
466.732	423.44
466.951	405.44
467.171	379.44
467.391	424.44
467.61	444.44
467.829	423.44
468.049	415.44
468.268	425.44
468.488	405.44
468.707	389.44
468.927	391.44
469.146	412.44
469.365	393.44
469.585	397.44
469.804	412.44
470.023	397.44
470.243	432.44
470.462	400.44
470.681	422.44
470.901	445.44
471.12	396.44
471.339	407.44
471.558	407.44
471.777	414.44
471.997	407.44
472.216	415.44
472.435	477.44
472.654	425.44
472.873	410.44
473.092	412.44
473.311	417.44
473.53	418.44
473.749	415.44
473.968	453.44
474.187	550.44
474.406	553.44
474.625	440.44
474.844	434.44
475.063	424.44
475.282	421.44
475.501	406.44
475.72	400.44
475.939	411.44
476.158	416.44
476.377	433.44
476.596	408.44
476.814	426.44
477.033	423.44
477.252	442.44
477.471	432.44
477.69	432.44
477.908	441.44
478.127	460.44
478.346	430.44
478.564	428.44
478.783	438.44
479.002	452.44
479.22	464.44
479.439	475.44
479.658	480.44
479.876	504.44
480.095	526.44
480.313	527.44
480.532	496.44
480.751	504.44
480.969	509.44
481.188	611.44
481.406	649.44
481.624	540.44
481.843	507.44
482.061	491.44
482.28	512.44
482.498	467.44
482.717	475.44
482.935	477.44
483.153	501.44
483.372	466.44
483.59	483.44
483.808	475.44
484.027	480.44
484.245	485.44
484.463	479.44
484.681	490.44
484.9	503.44
485.118	491.44
485.336	500.44
485.554	504.44
485.772	494.44
485.99	488.44
486.209	499.44
486.427	526.44
486.645	511.44
486.863	524.44
487.081	526.44
487.299	504.44
487.517	504.44
487.735	514.44
487.953	501.44
488.171	529.44
488.389	521.44
488.607	516.44
488.825	509.44
489.043	535.44
489.261	539.44
489.479	527.44
489.696	507.44
489.914	533.44
490.132	538.44
490.35	538.44
490.568	547.44
490.786	547.44
491.003	561.44
491.221	579.44
491.439	588.44
491.657	602.44
491.874	602.44
492.092	566.44
492.31	605.44
492.527	579.44
492.745	604.44
492.963	572.44
493.18	578.44
493.398	605.44
493.615	616.44
493.833	613.44
494.05	614.44
494.268	606.44
494.485	599.44
494.703	621.44
494.92	642.44
495.138	603.44
495.355	610.44
495.573	607.44
495.79	628.44
496.008	613.44
496.225	618.44
496.442	625.44
496.66	620.44
496.877	630.44
497.094	627.44
497.312	630.44
497.529	638.44
497.746	625.44
497.963	634.44
498.181	655.44
498.398	657.44
498.615	659.44
498.832	677.44
499.049	681.44
499.267	687.44
499.484	681.44
499.701	726.44
499.918	715.44
500.135	727.44
500.352	757.44
500.569	757.44
500.786	753.44
501.003	755.44
501.22	731.44
501.437	743.44
501.654	740.44
501.871	736.44
