Data from 1965.PennyLincolnUp.Lamp.En5.5.200Scan.071719.P1._HRD10591_14-09-53-912.txt Node
Date: Thu Jul 18 14:09:53 EDT 2019
User: cochatt
Spectrometer: HR+D1059
Trigger mode: 1
Integration Time (sec): 1.000000E-1
Scans to average: 1
Electric dark correction enabled: true
Nonlinearity correction enabled: false
Boxcar width: 0
XAxis mode: Wavelengths
Number of Pixels in Spectrum: 2048
>>>>>Begin Spectral Data<<<<<
223.165	-17.94
223.4	-17.94
223.635	-17.94
223.869	-13.94
224.104	-7.94
224.338	-9.94
224.573	-11.94
224.808	-12.94
225.042	5.06
225.277	-13.94
225.511	4.06
225.746	5.06
225.98	-10.94
226.215	6.06
226.449	17.06
226.683	25.06
226.918	21.06
227.152	16.06
227.387	15.06
227.621	39.06
227.856	26.06
228.09	39.06
228.324	65.06
228.559	54.06
228.793	68.06
229.027	103.06
229.262	103.06
229.496	112.06
229.73	128.06
229.964	151.06
230.199	131.06
230.433	102.06
230.667	95.06
230.901	114.06
231.136	106.06
231.37	117.06
231.604	107.06
231.838	106.06
232.072	101.06
232.306	104.06
232.541	90.06
232.775	97.06
233.009	96.06
233.243	111.06
233.477	91.06
233.711	112.06
233.945	112.06
234.179	113.06
234.413	115.06
234.647	118.06
234.881	113.06
235.115	103.06
235.349	104.06
235.583	108.06
235.817	116.06
236.051	117.06
236.285	118.06
236.519	106.06
236.753	105.06
236.987	137.06
237.221	170.06
237.455	218.06
237.689	183.06
237.922	121.06
238.156	111.06
238.39	108.06
238.624	118.06
238.858	122.06
239.091	115.06
239.325	105.06
239.559	113.06
239.793	118.06
240.027	129.06
240.26	148.06
240.494	150.06
240.728	149.06
240.961	156.06
241.195	130.06
241.429	122.06
241.662	121.06
241.896	117.06
242.13	121.06
242.363	112.06
242.597	126.06
242.83	121.06
243.064	130.06
243.298	121.06
243.531	122.06
243.765	124.06
243.998	131.06
244.232	126.06
244.465	116.06
244.699	124.06
244.932	110.06
245.166	120.06
245.399	124.06
245.633	117.06
245.866	129.06
246.099	135.06
246.333	138.06
246.566	139.06
246.8	141.06
247.033	149.06
247.266	123.06
247.5	140.06
247.733	157.06
247.966	136.06
248.2	148.06
248.433	156.06
248.666	141.06
248.899	179.06
249.133	182.06
249.366	189.06
249.599	179.06
249.832	155.06
250.066	167.06
250.299	165.06
250.532	176.06
250.765	190.06
250.998	189.06
251.231	193.06
251.465	197.06
251.698	172.06
251.931	179.06
252.164	162.06
252.397	180.06
252.63	192.06
252.863	173.06
253.096	196.06
253.329	190.06
253.562	206.06
253.795	201.06
254.028	194.06
254.261	205.06
254.494	209.06
254.727	243.06
254.96	243.06
255.193	245.06
255.426	219.06
255.659	204.06
255.892	212.06
256.124	221.06
256.357	213.06
256.59	219.06
256.823	197.06
257.056	196.06
257.289	190.06
257.521	202.06
257.754	213.06
257.987	189.06
258.22	171.06
258.452	192.06
258.685	183.06
258.918	184.06
259.151	192.06
259.383	188.06
259.616	193.06
259.849	207.06
260.081	207.06
260.314	225.06
260.547	234.06
260.779	214.06
261.012	201.06
261.244	202.06
261.477	209.06
261.71	208.06
261.942	209.06
262.175	209.06
262.407	206.06
262.64	198.06
262.872	176.06
263.105	195.06
263.337	192.06
263.57	167.06
263.802	196.06
264.035	193.06
264.267	181.06
264.499	178.06
264.732	179.06
264.964	194.06
265.197	191.06
265.429	192.06
265.661	184.06
265.894	189.06
266.126	192.06
266.358	192.06
266.591	193.06
266.823	203.06
267.055	205.06
267.287	197.06
267.52	198.06
267.752	192.06
267.984	209.06
268.216	198.06
268.448	211.06
268.681	214.06
268.913	214.06
269.145	235.06
269.377	235.06
269.609	229.06
269.841	243.06
270.073	248.06
270.306	262.06
270.538	305.06
270.77	277.06
271.002	269.06
271.234	263.06
271.466	262.06
271.698	288.06
271.93	299.06
272.162	284.06
272.394	291.06
272.626	264.06
272.858	254.06
273.09	243.06
273.322	251.06
273.553	253.06
273.785	240.06
274.017	224.06
274.249	217.06
274.481	244.06
274.713	228.06
274.945	231.06
275.176	232.06
275.408	236.06
275.64	234.06
275.872	230.06
276.104	230.06
276.335	229.06
276.567	248.06
276.799	252.06
277.031	276.06
277.262	280.06
277.494	286.06
277.726	272.06
277.957	253.06
278.189	235.06
278.421	230.06
278.652	235.06
278.884	249.06
279.115	240.06
279.347	260.06
279.579	219.06
279.81	249.06
280.042	237.06
280.273	231.06
280.505	233.06
280.736	243.06
280.968	240.06
281.199	242.06
281.431	219.06
281.662	232.06
281.894	238.06
282.125	258.06
282.356	273.06
282.588	288.06
282.819	280.06
283.051	243.06
283.282	242.06
283.513	237.06
283.745	236.06
283.976	242.06
284.207	246.06
284.439	243.06
284.67	229.06
284.901	251.06
285.132	244.06
285.364	244.06
285.595	236.06
285.826	260.06
286.057	252.06
286.288	256.06
286.52	250.06
286.751	254.06
286.982	260.06
287.213	229.06
287.444	232.06
287.675	232.06
287.906	263.06
288.138	264.06
288.369	256.06
288.6	247.06
288.831	258.06
289.062	260.06
289.293	273.06
289.524	236.06
289.755	241.06
289.986	254.06
290.217	265.06
290.448	246.06
290.679	240.06
290.91	270.06
291.141	262.06
291.371	264.06
291.602	264.06
291.833	248.06
292.064	255.06
292.295	260.06
292.526	260.06
292.757	249.06
292.987	263.06
293.218	246.06
293.449	255.06
293.68	245.06
293.91	264.06
294.141	250.06
294.372	242.06
294.603	252.06
294.833	241.06
295.064	256.06
295.295	262.06
295.525	262.06
295.756	263.06
295.987	276.06
296.217	276.06
296.448	289.06
296.679	272.06
296.909	262.06
297.14	266.06
297.37	266.06
297.601	258.06
297.831	251.06
298.062	257.06
298.292	269.06
298.523	270.06
298.753	267.06
298.984	250.06
299.214	269.06
299.445	276.06
299.675	280.06
299.905	284.06
300.136	264.06
300.366	276.06
300.597	265.06
300.827	265.06
301.057	275.06
301.288	291.06
301.518	286.06
301.748	280.06
301.979	285.06
302.209	285.06
302.439	274.06
302.669	300.06
302.9	286.06
303.13	276.06
303.36	290.06
303.59	298.06
303.82	302.06
304.051	295.06
304.281	292.06
304.511	297.06
304.741	291.06
304.971	290.06
305.201	307.06
305.431	278.06
305.661	273.06
305.891	271.06
306.121	289.06
306.352	288.06
306.582	305.06
306.812	293.06
307.042	300.06
307.272	290.06
307.502	295.06
307.731	308.06
307.961	280.06
308.191	284.06
308.421	278.06
308.651	296.06
308.881	322.06
309.111	316.06
309.341	312.06
309.571	328.06
309.8	324.06
310.03	327.06
310.26	329.06
310.49	314.06
310.72	346.06
310.949	349.06
311.179	341.06
311.409	339.06
311.639	346.06
311.868	340.06
312.098	345.06
312.328	341.06
312.557	379.06
312.787	392.06
313.017	363.06
313.246	357.06
313.476	351.06
313.706	339.06
313.935	342.06
314.165	364.06
314.394	358.06
314.624	348.06
314.853	344.06
315.083	327.06
315.312	324.06
315.542	336.06
315.771	333.06
316.001	339.06
316.23	316.06
316.46	329.06
316.689	327.06
316.919	332.06
317.148	325.06
317.377	348.06
317.607	360.06
317.836	345.06
318.065	359.06
318.295	327.06
318.524	317.06
318.753	317.06
318.983	334.06
319.212	334.06
319.441	330.06
319.67	352.06
319.9	333.06
320.129	324.06
320.358	346.06
320.587	358.06
320.816	378.06
321.046	355.06
321.275	360.06
321.504	357.06
321.733	355.06
321.962	379.06
322.191	371.06
322.42	392.06
322.649	405.06
322.878	428.06
323.108	414.06
323.337	456.06
323.566	473.06
323.795	502.06
324.024	584.06
324.253	691.06
324.482	1042.06
324.71	1588.06
324.939	2148.06
325.168	1805.06
325.397	972.06
325.626	650.06
325.855	548.06
326.084	493.06
326.313	466.06
326.542	464.06
326.77	531.06
326.999	628.06
327.228	926.06
327.457	1381.06
327.686	1584.06
327.914	1064.06
328.143	728.06
328.372	617.06
328.6	586.06
328.829	544.06
329.058	569.06
329.287	563.06
329.515	525.06
329.744	503.06
329.972	486.06
330.201	508.06
330.43	545.06
330.658	564.06
330.887	578.06
331.115	586.06
331.344	490.06
331.572	458.06
331.801	465.06
332.03	442.06
332.258	438.06
332.486	412.06
332.715	407.06
332.943	413.06
333.172	418.06
333.4	410.06
333.629	426.06
333.857	443.06
334.085	454.06
334.314	472.06
334.542	489.06
334.771	512.06
334.999	465.06
335.227	426.06
335.455	422.06
335.684	412.06
335.912	387.06
336.14	392.06
336.369	395.06
336.597	409.06
336.825	410.06
337.053	376.06
337.281	386.06
337.51	396.06
337.738	381.06
337.966	385.06
338.194	409.06
338.422	416.06
338.65	387.06
338.878	393.06
339.106	377.06
339.334	370.06
339.562	352.06
339.79	368.06
340.018	358.06
340.246	392.06
340.474	375.06
340.702	376.06
340.93	379.06
341.158	366.06
341.386	400.06
341.614	394.06
341.842	386.06
342.07	381.06
342.298	371.06
342.526	378.06
342.754	379.06
342.981	371.06
343.209	355.06
343.437	355.06
343.665	388.06
343.893	361.06
344.12	390.06
344.348	380.06
344.576	401.06
344.804	386.06
345.031	389.06
345.259	400.06
345.487	388.06
345.714	376.06
345.942	374.06
346.17	375.06
346.397	385.06
346.625	374.06
346.853	344.06
347.08	369.06
347.308	382.06
347.535	378.06
347.763	386.06
347.99	378.06
348.218	382.06
348.445	405.06
348.673	382.06
348.9	375.06
349.128	358.06
349.355	361.06
349.583	347.06
349.81	362.06
350.037	364.06
350.265	357.06
350.492	359.06
350.72	370.06
350.947	376.06
351.174	376.06
351.402	390.06
351.629	383.06
351.856	394.06
352.083	383.06
352.311	372.06
352.538	379.06
352.765	410.06
352.992	373.06
353.22	388.06
353.447	373.06
353.674	361.06
353.901	368.06
354.128	343.06
354.355	352.06
354.583	346.06
354.81	346.06
355.037	338.06
355.264	333.06
355.491	330.06
355.718	334.06
355.945	330.06
356.172	352.06
356.399	350.06
356.626	353.06
356.853	346.06
357.08	341.06
357.307	328.06
357.534	345.06
357.761	328.06
357.988	344.06
358.215	350.06
358.441	314.06
358.668	353.06
358.895	354.06
359.122	366.06
359.349	327.06
359.576	359.06
359.802	396.06
360.029	436.06
360.256	430.06
360.483	422.06
360.709	405.06
360.936	387.06
361.163	392.06
361.39	370.06
361.616	360.06
361.843	370.06
362.07	390.06
362.296	362.06
362.523	358.06
362.749	366.06
362.976	350.06
363.203	348.06
363.429	342.06
363.656	355.06
363.882	356.06
364.109	361.06
364.335	337.06
364.562	356.06
364.788	340.06
365.015	340.06
365.241	342.06
365.468	361.06
365.694	381.06
365.92	345.06
366.147	354.06
366.373	341.06
366.599	352.06
366.826	342.06
367.052	347.06
367.278	326.06
367.505	322.06
367.731	336.06
367.957	330.06
368.184	351.06
368.41	356.06
368.636	364.06
368.862	374.06
369.089	360.06
369.315	350.06
369.541	339.06
369.767	340.06
369.993	330.06
370.219	345.06
370.445	350.06
370.672	332.06
370.898	327.06
371.124	341.06
371.35	348.06
371.576	332.06
371.802	332.06
372.028	346.06
372.254	342.06
372.48	327.06
372.706	349.06
372.932	349.06
373.158	348.06
373.384	355.06
373.61	340.06
373.835	340.06
374.061	348.06
374.287	335.06
374.513	331.06
374.739	343.06
374.965	341.06
375.191	355.06
375.416	358.06
375.642	334.06
375.868	358.06
376.094	349.06
376.319	336.06
376.545	334.06
376.771	336.06
376.997	339.06
377.222	354.06
377.448	361.06
377.674	334.06
377.899	325.06
378.125	338.06
378.35	317.06
378.576	331.06
378.802	330.06
379.027	331.06
379.253	331.06
379.478	321.06
379.704	359.06
379.929	345.06
380.155	330.06
380.38	334.06
380.606	360.06
380.831	349.06
381.057	352.06
381.282	348.06
381.507	329.06
381.733	338.06
381.958	350.06
382.184	354.06
382.409	332.06
382.634	359.06
382.86	344.06
383.085	334.06
383.31	353.06
383.535	342.06
383.761	340.06
383.986	355.06
384.211	365.06
384.436	355.06
384.662	339.06
384.887	358.06
385.112	350.06
385.337	353.06
385.562	362.06
385.787	358.06
386.013	377.06
386.238	388.06
386.463	372.06
386.688	372.06
386.913	352.06
387.138	360.06
387.363	357.06
387.588	359.06
387.813	362.06
388.038	369.06
388.263	350.06
388.488	357.06
388.713	360.06
388.938	362.06
389.163	381.06
389.387	368.06
389.612	362.06
389.837	365.06
390.062	363.06
390.287	374.06
390.512	354.06
390.736	354.06
390.961	363.06
391.186	351.06
391.411	344.06
391.636	357.06
391.86	360.06
392.085	368.06
392.31	372.06
392.534	382.06
392.759	377.06
392.984	362.06
393.208	355.06
393.433	359.06
393.658	366.06
393.882	377.06
394.107	360.06
394.331	362.06
394.556	380.06
394.78	374.06
395.005	368.06
395.229	378.06
395.454	372.06
395.678	369.06
395.903	381.06
396.127	390.06
396.352	380.06
396.576	391.06
396.801	394.06
397.025	376.06
397.249	374.06
397.474	399.06
397.698	360.06
397.922	388.06
398.147	413.06
398.371	373.06
398.595	398.06
398.82	413.06
399.044	415.06
399.268	430.06
399.492	442.06
399.717	448.06
399.941	486.06
400.165	494.06
400.389	517.06
400.613	468.06
400.837	422.06
401.062	412.06
401.286	416.06
401.51	414.06
401.734	412.06
401.958	409.06
402.182	405.06
402.406	441.06
402.63	428.06
402.854	425.06
403.078	431.06
403.302	436.06
403.526	425.06
403.75	419.06
403.974	416.06
404.198	414.06
404.422	416.06
404.645	456.06
404.869	416.06
405.093	468.06
405.317	477.06
405.541	529.06
405.765	496.06
405.988	453.06
406.212	483.06
406.436	468.06
406.66	486.06
406.883	486.06
407.107	492.06
407.331	501.06
407.555	562.06
407.778	542.06
408.002	516.06
408.226	497.06
408.449	469.06
408.673	472.06
408.896	512.06
409.12	511.06
409.344	498.06
409.567	454.06
409.791	424.06
410.014	444.06
410.238	422.06
410.461	421.06
410.685	455.06
410.908	436.06
411.132	477.06
411.355	483.06
411.578	480.06
411.802	426.06
412.025	445.06
412.249	439.06
412.472	466.06
412.695	489.06
412.919	474.06
413.142	441.06
413.365	449.06
413.589	413.06
413.812	416.06
414.035	410.06
414.258	398.06
414.482	396.06
414.705	419.06
414.928	419.06
415.151	393.06
415.374	420.06
415.597	410.06
415.821	402.06
416.044	390.06
416.267	429.06
416.49	413.06
416.713	404.06
416.936	392.06
417.159	417.06
417.382	423.06
417.605	407.06
417.828	425.06
418.051	432.06
418.274	410.06
418.497	419.06
418.72	412.06
418.943	406.06
419.166	424.06
419.389	426.06
419.611	439.06
419.834	427.06
420.057	430.06
420.28	406.06
420.503	418.06
420.726	437.06
420.948	442.06
421.171	471.06
421.394	488.06
421.617	433.06
421.839	438.06
422.062	435.06
422.285	451.06
422.507	513.06
422.73	539.06
422.953	502.06
423.175	447.06
423.398	446.06
423.621	450.06
423.843	455.06
424.066	460.06
424.288	441.06
424.511	500.06
424.733	526.06
424.956	613.06
425.178	562.06
425.401	552.06
425.623	578.06
425.846	493.06
426.068	471.06
426.291	468.06
426.513	475.06
426.735	470.06
426.958	506.06
427.18	579.06
427.402	673.06
427.625	750.06
427.847	688.06
428.069	586.06
428.292	529.06
428.514	474.06
428.736	468.06
428.958	441.06
429.181	445.06
429.403	437.06
429.625	435.06
429.847	488.06
430.069	533.06
430.292	518.06
430.514	436.06
430.736	453.06
430.958	423.06
431.18	419.06
431.402	407.06
431.624	419.06
431.846	399.06
432.068	396.06
432.29	417.06
432.512	414.06
432.734	417.06
432.956	413.06
433.178	438.06
433.4	446.06
433.622	436.06
433.844	421.06
434.066	412.06
434.287	429.06
434.509	411.06
434.731	424.06
434.953	422.06
435.175	442.06
435.397	457.06
435.618	466.06
435.84	518.06
436.062	593.06
436.284	632.06
436.505	525.06
436.727	473.06
436.949	446.06
437.17	458.06
437.392	423.06
437.614	450.06
437.835	482.06
438.057	574.06
438.278	673.06
438.5	632.06
438.721	684.06
438.943	678.06
439.165	529.06
439.386	504.06
439.608	488.06
439.829	493.06
440.05	518.06
440.272	555.06
440.493	519.06
440.715	461.06
440.936	469.06
441.158	446.06
441.379	450.06
441.6	467.06
441.822	481.06
442.043	492.06
442.264	556.06
442.486	609.06
442.707	510.06
442.928	506.06
443.149	483.06
443.371	522.06
443.592	558.06
443.813	609.06
444.034	649.06
444.255	515.06
444.476	492.06
444.698	454.06
444.919	469.06
445.14	591.06
445.361	541.06
445.582	530.06
445.803	584.06
446.024	668.06
446.245	672.06
446.466	597.06
446.687	532.06
446.908	462.06
447.129	461.06
447.35	427.06
447.571	438.06
447.792	458.06
448.013	460.06
448.234	470.06
448.455	528.06
448.675	630.06
448.896	668.06
449.117	592.06
449.338	569.06
449.559	637.06
449.779	710.06
450	587.06
450.221	475.06
450.442	481.06
450.662	448.06
450.883	434.06
451.104	467.06
451.324	461.06
451.545	430.06
451.766	408.06
451.986	399.06
452.207	384.06
452.428	404.06
452.648	406.06
452.869	389.06
453.089	404.06
453.31	420.06
453.53	410.06
453.751	405.06
453.971	415.06
454.192	414.06
454.412	433.06
454.633	400.06
454.853	405.06
455.073	382.06
455.294	429.06
455.514	506.06
455.734	470.06
455.955	404.06
456.175	363.06
456.395	384.06
456.616	373.06
456.836	389.06
457.056	370.06
457.276	336.06
457.497	378.06
457.717	376.06
457.937	376.06
458.157	391.06
458.377	389.06
458.598	414.06
458.818	470.06
459.038	562.06
459.258	552.06
459.478	473.06
459.698	412.06
459.918	408.06
460.138	408.06
460.358	419.06
460.578	398.06
460.798	423.06
461.018	411.06
461.238	406.06
461.458	392.06
461.678	399.06
461.898	414.06
462.118	388.06
462.338	413.06
462.558	420.06
462.777	402.06
462.997	440.06
463.217	442.06
463.437	435.06
463.657	440.06
463.876	428.06
464.096	430.06
464.316	425.06
464.536	442.06
464.755	444.06
464.975	453.06
465.195	496.06
465.414	576.06
465.634	503.06
465.854	438.06
466.073	456.06
466.293	414.06
466.512	411.06
466.732	396.06
466.951	394.06
467.171	395.06
467.391	406.06
467.61	408.06
467.829	403.06
468.049	423.06
468.268	433.06
468.488	386.06
468.707	384.06
468.927	394.06
469.146	376.06
469.365	397.06
469.585	379.06
469.804	380.06
470.023	416.06
470.243	425.06
470.462	399.06
470.681	428.06
470.901	413.06
471.12	416.06
471.339	388.06
471.558	412.06
471.777	407.06
471.997	401.06
472.216	411.06
472.435	442.06
472.654	448.06
472.873	408.06
473.092	416.06
473.311	397.06
473.53	400.06
473.749	424.06
473.968	480.06
474.187	578.06
474.406	585.06
474.625	449.06
474.844	428.06
475.063	398.06
475.282	426.06
475.501	428.06
475.72	406.06
475.939	444.06
476.158	426.06
476.377	414.06
476.596	423.06
476.814	423.06
477.033	437.06
477.252	424.06
477.471	433.06
477.69	435.06
477.908	437.06
478.127	444.06
478.346	435.06
478.564	449.06
478.783	436.06
479.002	466.06
479.22	457.06
479.439	479.06
479.658	502.06
479.876	491.06
480.095	491.06
480.313	516.06
480.532	513.06
480.751	504.06
480.969	504.06
481.188	596.06
481.406	624.06
481.624	514.06
481.843	514.06
482.061	506.06
482.28	493.06
482.498	482.06
482.717	482.06
482.935	475.06
483.153	474.06
483.372	466.06
483.59	478.06
483.808	488.06
484.027	470.06
484.245	483.06
484.463	469.06
484.681	493.06
484.9	493.06
485.118	484.06
485.336	495.06
485.554	481.06
485.772	477.06
485.99	476.06
486.209	493.06
486.427	498.06
486.645	520.06
486.863	520.06
487.081	554.06
487.299	516.06
487.517	522.06
487.735	496.06
487.953	518.06
488.171	517.06
488.389	510.06
488.607	513.06
488.825	535.06
489.043	526.06
489.261	531.06
489.479	547.06
489.696	513.06
489.914	520.06
490.132	551.06
490.35	521.06
490.568	558.06
490.786	538.06
491.003	561.06
491.221	574.06
491.439	564.06
491.657	590.06
491.874	593.06
492.092	594.06
492.31	584.06
492.527	596.06
492.745	586.06
492.963	589.06
493.18	619.06
493.398	617.06
493.615	608.06
493.833	621.06
494.05	609.06
494.268	610.06
494.485	597.06
494.703	596.06
494.92	609.06
495.138	612.06
495.355	623.06
495.573	626.06
495.79	607.06
496.008	628.06
496.225	624.06
496.442	613.06
496.66	612.06
496.877	609.06
497.094	609.06
497.312	621.06
497.529	609.06
497.746	636.06
497.963	658.06
498.181	648.06
498.398	644.06
498.615	657.06
498.832	668.06
499.049	669.06
499.267	678.06
499.484	706.06
499.701	704.06
499.918	717.06
500.135	772.06
500.352	749.06
500.569	777.06
500.786	774.06
501.003	738.06
501.22	770.06
501.437	749.06
501.654	758.06
501.871	772.06
502.088	745.06
