Data from 1965.PennyLincolnUp.Lamp.En5.5.200Scan.071719.P1._HRD10591_14-09-30-911.txt Node
Date: Thu Jul 18 14:09:30 EDT 2019
User: cochatt
Spectrometer: HR+D1059
Trigger mode: 1
Integration Time (sec): 1.000000E-1
Scans to average: 1
Electric dark correction enabled: true
Nonlinearity correction enabled: false
Boxcar width: 0
XAxis mode: Wavelengths
Number of Pixels in Spectrum: 2048
>>>>>Begin Spectral Data<<<<<
223.165	-14.88
223.4	-14.88
223.635	-14.88
223.869	-9.88
224.104	-15.88
224.338	5.12
224.573	-0.88
224.808	-24.88
225.042	-10.88
225.277	-5.88
225.511	0.12
225.746	0.12
225.98	8.12
226.215	9.12
226.449	1.12
226.683	4.12
226.918	21.12
227.152	34.12
227.387	29.12
227.621	21.12
227.856	44.12
228.09	43.12
228.324	32.12
228.559	62.12
228.793	63.12
229.027	101.12
229.262	94.12
229.496	93.12
229.73	119.12
229.964	145.12
230.199	121.12
230.433	110.12
230.667	103.12
230.901	97.12
231.136	96.12
231.37	108.12
231.604	110.12
231.838	99.12
232.072	105.12
232.306	121.12
232.541	114.12
232.775	100.12
233.009	101.12
233.243	109.12
233.477	96.12
233.711	97.12
233.945	113.12
234.179	113.12
234.413	91.12
234.647	94.12
234.881	95.12
235.115	101.12
235.349	101.12
235.583	93.12
235.817	122.12
236.051	117.12
236.285	105.12
236.519	106.12
236.753	106.12
236.987	127.12
237.221	160.12
237.455	202.12
237.689	171.12
237.922	140.12
238.156	131.12
238.39	125.12
238.624	118.12
238.858	118.12
239.091	121.12
239.325	114.12
239.559	110.12
239.793	128.12
240.027	125.12
240.26	114.12
240.494	139.12
240.728	128.12
240.961	132.12
241.195	137.12
241.429	127.12
241.662	128.12
241.896	127.12
242.13	116.12
242.363	111.12
242.597	125.12
242.83	126.12
243.064	122.12
243.298	117.12
243.531	127.12
243.765	125.12
243.998	125.12
244.232	132.12
244.465	121.12
244.699	126.12
244.932	113.12
245.166	133.12
245.399	134.12
245.633	117.12
245.866	129.12
246.099	118.12
246.333	121.12
246.566	133.12
246.8	140.12
247.033	148.12
247.266	150.12
247.5	166.12
247.733	161.12
247.966	160.12
248.2	151.12
248.433	163.12
248.666	152.12
248.899	165.12
249.133	173.12
249.366	192.12
249.599	178.12
249.832	162.12
250.066	154.12
250.299	166.12
250.532	173.12
250.765	193.12
250.998	187.12
251.231	197.12
251.465	201.12
251.698	186.12
251.931	190.12
252.164	185.12
252.397	178.12
252.63	173.12
252.863	193.12
253.096	191.12
253.329	203.12
253.562	194.12
253.795	186.12
254.028	187.12
254.261	185.12
254.494	205.12
254.727	246.12
254.96	255.12
255.193	235.12
255.426	208.12
255.659	211.12
255.892	209.12
256.124	208.12
256.357	199.12
256.59	215.12
256.823	201.12
257.056	182.12
257.289	172.12
257.521	206.12
257.754	189.12
257.987	179.12
258.22	179.12
258.452	178.12
258.685	177.12
258.918	193.12
259.151	189.12
259.383	194.12
259.616	198.12
259.849	199.12
260.081	218.12
260.314	225.12
260.547	242.12
260.779	221.12
261.012	207.12
261.244	205.12
261.477	185.12
261.71	200.12
261.942	201.12
262.175	198.12
262.407	203.12
262.64	198.12
262.872	190.12
263.105	195.12
263.337	188.12
263.57	172.12
263.802	186.12
264.035	193.12
264.267	186.12
264.499	196.12
264.732	183.12
264.964	196.12
265.197	177.12
265.429	202.12
265.661	199.12
265.894	194.12
266.126	190.12
266.358	202.12
266.591	198.12
266.823	189.12
267.055	199.12
267.287	190.12
267.52	184.12
267.752	215.12
267.984	216.12
268.216	206.12
268.448	206.12
268.681	219.12
268.913	225.12
269.145	239.12
269.377	262.12
269.609	233.12
269.841	228.12
270.073	258.12
270.306	273.12
270.538	290.12
270.77	277.12
271.002	277.12
271.234	266.12
271.466	268.12
271.698	282.12
271.93	290.12
272.162	273.12
272.394	272.12
272.626	266.12
272.858	260.12
273.09	242.12
273.322	237.12
273.553	237.12
273.785	214.12
274.017	239.12
274.249	229.12
274.481	233.12
274.713	224.12
274.945	239.12
275.176	238.12
275.408	247.12
275.64	224.12
275.872	238.12
276.104	243.12
276.335	249.12
276.567	266.12
276.799	271.12
277.031	287.12
277.262	275.12
277.494	290.12
277.726	250.12
277.957	249.12
278.189	243.12
278.421	245.12
278.652	228.12
278.884	223.12
279.115	237.12
279.347	233.12
279.579	218.12
279.81	232.12
280.042	256.12
280.273	242.12
280.505	233.12
280.736	237.12
280.968	237.12
281.199	220.12
281.431	243.12
281.662	235.12
281.894	240.12
282.125	230.12
282.356	257.12
282.588	261.12
282.819	274.12
283.051	248.12
283.282	249.12
283.513	251.12
283.745	245.12
283.976	244.12
284.207	234.12
284.439	240.12
284.67	241.12
284.901	227.12
285.132	237.12
285.364	216.12
285.595	241.12
285.826	234.12
286.057	252.12
286.288	225.12
286.52	250.12
286.751	248.12
286.982	237.12
287.213	240.12
287.444	257.12
287.675	241.12
287.906	257.12
288.138	278.12
288.369	260.12
288.6	256.12
288.831	255.12
289.062	260.12
289.293	260.12
289.524	263.12
289.755	246.12
289.986	245.12
290.217	244.12
290.448	269.12
290.679	230.12
290.91	247.12
291.141	261.12
291.371	274.12
291.602	257.12
291.833	248.12
292.064	250.12
292.295	256.12
292.526	273.12
292.757	257.12
292.987	241.12
293.218	252.12
293.449	256.12
293.68	245.12
293.91	230.12
294.141	249.12
294.372	230.12
294.603	253.12
294.833	239.12
295.064	256.12
295.295	268.12
295.525	249.12
295.756	251.12
295.987	265.12
296.217	287.12
296.448	287.12
296.679	266.12
296.909	249.12
297.14	238.12
297.37	256.12
297.601	257.12
297.831	281.12
298.062	261.12
298.292	270.12
298.523	241.12
298.753	258.12
298.984	282.12
299.214	273.12
299.445	261.12
299.675	263.12
299.905	268.12
300.136	258.12
300.366	265.12
300.597	266.12
300.827	282.12
301.057	290.12
301.288	287.12
301.518	291.12
301.748	272.12
301.979	275.12
302.209	290.12
302.439	301.12
302.669	285.12
302.9	282.12
303.13	264.12
303.36	307.12
303.59	295.12
303.82	278.12
304.051	280.12
304.281	282.12
304.511	282.12
304.741	276.12
304.971	288.12
305.201	293.12
305.431	286.12
305.661	283.12
305.891	285.12
306.121	282.12
306.352	297.12
306.582	302.12
306.812	286.12
307.042	278.12
307.272	302.12
307.502	297.12
307.731	297.12
307.961	293.12
308.191	286.12
308.421	307.12
308.651	301.12
308.881	292.12
309.111	287.12
309.341	315.12
309.571	327.12
309.8	309.12
310.03	325.12
310.26	338.12
310.49	326.12
310.72	346.12
310.949	350.12
311.179	337.12
311.409	332.12
311.639	350.12
311.868	337.12
312.098	329.12
312.328	344.12
312.557	361.12
312.787	387.12
313.017	361.12
313.246	329.12
313.476	329.12
313.706	325.12
313.935	353.12
314.165	349.12
314.394	368.12
314.624	378.12
314.853	352.12
315.083	329.12
315.312	323.12
315.542	336.12
315.771	335.12
316.001	330.12
316.23	317.12
316.46	327.12
316.689	311.12
316.919	346.12
317.148	367.12
317.377	341.12
317.607	347.12
317.836	344.12
318.065	345.12
318.295	334.12
318.524	343.12
318.753	321.12
318.983	338.12
319.212	324.12
319.441	342.12
319.67	366.12
319.9	345.12
320.129	341.12
320.358	338.12
320.587	349.12
320.816	365.12
321.046	348.12
321.275	353.12
321.504	357.12
321.733	358.12
321.962	351.12
322.191	380.12
322.42	400.12
322.649	433.12
322.878	416.12
323.108	445.12
323.337	450.12
323.566	480.12
323.795	504.12
324.024	551.12
324.253	682.12
324.482	1005.12
324.71	1549.12
324.939	2138.12
325.168	1721.12
325.397	931.12
325.626	625.12
325.855	525.12
326.084	501.12
326.313	487.12
326.542	497.12
326.77	546.12
326.999	635.12
327.228	874.12
327.457	1343.12
327.686	1508.12
327.914	1048.12
328.143	682.12
328.372	611.12
328.6	571.12
328.829	546.12
329.058	547.12
329.287	540.12
329.515	518.12
329.744	491.12
329.972	454.12
330.201	514.12
330.43	515.12
330.658	561.12
330.887	575.12
331.115	554.12
331.344	494.12
331.572	453.12
331.801	447.12
332.03	436.12
332.258	413.12
332.486	401.12
332.715	395.12
332.943	402.12
333.172	398.12
333.4	415.12
333.629	387.12
333.857	390.12
334.085	450.12
334.314	456.12
334.542	478.12
334.771	509.12
334.999	442.12
335.227	419.12
335.455	401.12
335.684	402.12
335.912	393.12
336.14	407.12
336.369	403.12
336.597	400.12
336.825	406.12
337.053	391.12
337.281	374.12
337.51	381.12
337.738	358.12
337.966	383.12
338.194	391.12
338.422	412.12
338.65	365.12
338.878	375.12
339.106	372.12
339.334	369.12
339.562	383.12
339.79	378.12
340.018	370.12
340.246	397.12
340.474	385.12
340.702	365.12
340.93	369.12
341.158	380.12
341.386	369.12
341.614	385.12
341.842	394.12
342.07	379.12
342.298	374.12
342.526	375.12
342.754	344.12
342.981	349.12
343.209	345.12
343.437	368.12
343.665	367.12
343.893	390.12
344.12	380.12
344.348	375.12
344.576	389.12
344.804	403.12
345.031	400.12
345.259	398.12
345.487	401.12
345.714	358.12
345.942	371.12
346.17	366.12
346.397	353.12
346.625	340.12
346.853	363.12
347.08	388.12
347.308	373.12
347.535	381.12
347.763	381.12
347.99	379.12
348.218	361.12
348.445	381.12
348.673	369.12
348.9	375.12
349.128	374.12
349.355	335.12
349.583	348.12
349.81	358.12
350.037	363.12
350.265	391.12
350.492	361.12
350.72	346.12
350.947	383.12
351.174	375.12
351.402	377.12
351.629	389.12
351.856	370.12
352.083	389.12
352.311	399.12
352.538	379.12
352.765	396.12
352.992	382.12
353.22	369.12
353.447	370.12
353.674	350.12
353.901	349.12
354.128	345.12
354.355	355.12
354.583	310.12
354.81	346.12
355.037	343.12
355.264	348.12
355.491	332.12
355.718	344.12
355.945	330.12
356.172	330.12
356.399	322.12
356.626	327.12
356.853	324.12
357.08	337.12
357.307	365.12
357.534	353.12
357.761	341.12
357.988	353.12
358.215	340.12
358.441	313.12
358.668	349.12
358.895	341.12
359.122	346.12
359.349	357.12
359.576	377.12
359.802	385.12
360.029	421.12
360.256	419.12
360.483	420.12
360.709	362.12
360.936	375.12
361.163	381.12
361.39	375.12
361.616	365.12
361.843	362.12
362.07	373.12
362.296	375.12
362.523	376.12
362.749	372.12
362.976	357.12
363.203	343.12
363.429	336.12
363.656	381.12
363.882	356.12
364.109	352.12
364.335	344.12
364.562	353.12
364.788	331.12
365.015	344.12
365.241	343.12
365.468	360.12
365.694	341.12
365.92	356.12
366.147	361.12
366.373	345.12
366.599	346.12
366.826	351.12
367.052	331.12
367.278	360.12
367.505	350.12
367.731	357.12
367.957	330.12
368.184	345.12
368.41	344.12
368.636	351.12
368.862	363.12
369.089	362.12
369.315	340.12
369.541	349.12
369.767	368.12
369.993	328.12
370.219	340.12
370.445	343.12
370.672	358.12
370.898	336.12
371.124	345.12
371.35	354.12
371.576	330.12
371.802	340.12
372.028	332.12
372.254	354.12
372.48	330.12
372.706	342.12
372.932	344.12
373.158	342.12
373.384	359.12
373.61	343.12
373.835	344.12
374.061	337.12
374.287	354.12
374.513	340.12
374.739	343.12
374.965	350.12
375.191	337.12
375.416	308.12
375.642	352.12
375.868	355.12
376.094	328.12
376.319	351.12
376.545	344.12
376.771	346.12
376.997	353.12
377.222	327.12
377.448	345.12
377.674	339.12
377.899	326.12
378.125	345.12
378.35	323.12
378.576	318.12
378.802	324.12
379.027	323.12
379.253	333.12
379.478	345.12
379.704	339.12
379.929	333.12
380.155	339.12
380.38	333.12
380.606	342.12
380.831	350.12
381.057	334.12
381.282	334.12
381.507	344.12
381.733	344.12
381.958	354.12
382.184	350.12
382.409	361.12
382.634	341.12
382.86	347.12
383.085	350.12
383.31	335.12
383.535	366.12
383.761	345.12
383.986	363.12
384.211	350.12
384.436	359.12
384.662	366.12
384.887	351.12
385.112	373.12
385.337	354.12
385.562	338.12
385.787	358.12
386.013	375.12
386.238	361.12
386.463	373.12
386.688	383.12
386.913	364.12
387.138	370.12
387.363	362.12
387.588	375.12
387.813	349.12
388.038	379.12
388.263	369.12
388.488	364.12
388.713	386.12
388.938	376.12
389.163	369.12
389.387	371.12
389.612	369.12
389.837	370.12
390.062	372.12
390.287	352.12
390.512	363.12
390.736	333.12
390.961	385.12
391.186	369.12
391.411	369.12
391.636	373.12
391.86	363.12
392.085	375.12
392.31	385.12
392.534	385.12
392.759	369.12
392.984	358.12
393.208	384.12
393.433	371.12
393.658	378.12
393.882	360.12
394.107	362.12
394.331	368.12
394.556	365.12
394.78	370.12
395.005	365.12
395.229	359.12
395.454	389.12
395.678	370.12
395.903	384.12
396.127	410.12
396.352	411.12
396.576	403.12
396.801	388.12
397.025	368.12
397.249	379.12
397.474	391.12
397.698	386.12
397.922	390.12
398.147	414.12
398.371	418.12
398.595	425.12
398.82	400.12
399.044	409.12
399.268	446.12
399.492	433.12
399.717	479.12
399.941	488.12
400.165	494.12
400.389	502.12
400.613	498.12
400.837	440.12
401.062	439.12
401.286	434.12
401.51	415.12
401.734	418.12
401.958	420.12
402.182	429.12
402.406	440.12
402.63	420.12
402.854	433.12
403.078	429.12
403.302	423.12
403.526	445.12
403.75	452.12
403.974	438.12
404.198	418.12
404.422	455.12
404.645	434.12
404.869	441.12
405.093	473.12
405.317	498.12
405.541	529.12
405.765	470.12
405.988	476.12
406.212	450.12
406.436	503.12
406.66	501.12
406.883	491.12
407.107	500.12
407.331	512.12
407.555	577.12
407.778	561.12
408.002	538.12
408.226	474.12
408.449	481.12
408.673	491.12
408.896	488.12
409.12	541.12
409.344	498.12
409.567	448.12
409.791	439.12
410.014	444.12
410.238	429.12
410.461	433.12
410.685	453.12
410.908	464.12
411.132	477.12
411.355	494.12
411.578	458.12
411.802	426.12
412.025	422.12
412.249	440.12
412.472	466.12
412.695	508.12
412.919	476.12
413.142	432.12
413.365	442.12
413.589	430.12
413.812	414.12
414.035	421.12
414.258	420.12
414.482	413.12
414.705	395.12
414.928	421.12
415.151	413.12
415.374	393.12
415.597	426.12
415.821	391.12
416.044	411.12
416.267	415.12
416.49	411.12
416.713	410.12
416.936	411.12
417.159	402.12
417.382	407.12
417.605	422.12
417.828	431.12
418.051	414.12
418.274	411.12
418.497	405.12
418.72	415.12
418.943	409.12
419.166	425.12
419.389	443.12
419.611	425.12
419.834	445.12
420.057	441.12
420.28	427.12
420.503	439.12
420.726	431.12
420.948	440.12
421.171	482.12
421.394	495.12
421.617	445.12
421.839	431.12
422.062	439.12
422.285	455.12
422.507	490.12
422.73	535.12
422.953	496.12
423.175	464.12
423.398	479.12
423.621	441.12
423.843	474.12
424.066	466.12
424.288	464.12
424.511	507.12
424.733	523.12
424.956	594.12
425.178	557.12
425.401	586.12
425.623	588.12
425.846	509.12
426.068	461.12
426.291	459.12
426.513	483.12
426.735	490.12
426.958	499.12
427.18	599.12
427.402	700.12
427.625	757.12
427.847	665.12
428.069	616.12
428.292	534.12
428.514	458.12
428.736	453.12
428.958	451.12
429.181	423.12
429.403	437.12
429.625	458.12
429.847	486.12
430.069	520.12
430.292	533.12
430.514	477.12
430.736	433.12
430.958	425.12
431.18	431.12
431.402	406.12
431.624	408.12
431.846	411.12
432.068	399.12
432.29	426.12
432.512	417.12
432.734	414.12
432.956	400.12
433.178	409.12
433.4	420.12
433.622	421.12
433.844	426.12
434.066	416.12
434.287	390.12
434.509	419.12
434.731	419.12
434.953	422.12
435.175	439.12
435.397	445.12
435.618	477.12
435.84	519.12
436.062	589.12
436.284	629.12
436.505	531.12
436.727	476.12
436.949	447.12
437.17	455.12
437.392	457.12
437.614	447.12
437.835	512.12
438.057	569.12
438.278	634.12
438.5	658.12
438.721	685.12
438.943	655.12
439.165	553.12
439.386	480.12
439.608	483.12
439.829	484.12
440.05	532.12
440.272	545.12
440.493	523.12
440.715	485.12
440.936	441.12
441.158	420.12
441.379	421.12
441.6	464.12
441.822	505.12
442.043	499.12
442.264	559.12
442.486	631.12
442.707	544.12
442.928	480.12
443.149	476.12
443.371	518.12
443.592	535.12
443.813	623.12
444.034	691.12
444.255	549.12
444.476	500.12
444.698	467.12
444.919	472.12
445.14	573.12
445.361	531.12
445.582	495.12
445.803	554.12
446.024	651.12
446.245	675.12
446.466	626.12
446.687	519.12
446.908	488.12
447.129	451.12
447.35	451.12
447.571	430.12
447.792	430.12
448.013	450.12
448.234	471.12
448.455	495.12
448.675	605.12
448.896	682.12
449.117	574.12
449.338	566.12
449.559	667.12
449.779	689.12
450	584.12
450.221	486.12
450.442	449.12
450.662	448.12
450.883	440.12
451.104	469.12
451.324	439.12
451.545	415.12
451.766	408.12
451.986	410.12
452.207	374.12
452.428	402.12
452.648	393.12
452.869	408.12
453.089	413.12
453.31	416.12
453.53	385.12
453.751	398.12
453.971	419.12
454.192	429.12
454.412	415.12
454.633	390.12
454.853	389.12
455.073	402.12
455.294	419.12
455.514	474.12
455.734	445.12
455.955	399.12
456.175	383.12
456.395	381.12
456.616	356.12
456.836	389.12
457.056	369.12
457.276	356.12
457.497	377.12
457.717	384.12
457.937	377.12
458.157	385.12
458.377	405.12
458.598	409.12
458.818	455.12
459.038	550.12
459.258	567.12
459.478	464.12
459.698	430.12
459.918	427.12
460.138	425.12
460.358	406.12
460.578	423.12
460.798	430.12
461.018	385.12
461.238	411.12
461.458	432.12
461.678	399.12
461.898	406.12
462.118	421.12
462.338	421.12
462.558	434.12
462.777	448.12
462.997	432.12
463.217	436.12
463.437	443.12
463.657	433.12
463.876	409.12
464.096	434.12
464.316	453.12
464.536	451.12
464.755	449.12
464.975	450.12
465.195	504.12
465.414	582.12
465.634	488.12
465.854	464.12
466.073	411.12
466.293	408.12
466.512	421.12
466.732	402.12
466.951	412.12
467.171	410.12
467.391	419.12
467.61	418.12
467.829	433.12
468.049	402.12
468.268	405.12
468.488	405.12
468.707	393.12
468.927	374.12
469.146	388.12
469.365	417.12
469.585	400.12
469.804	386.12
470.023	417.12
470.243	395.12
470.462	403.12
470.681	427.12
470.901	421.12
471.12	403.12
471.339	420.12
471.558	423.12
471.777	384.12
471.997	413.12
472.216	431.12
472.435	472.12
472.654	449.12
472.873	405.12
473.092	407.12
473.311	398.12
473.53	403.12
473.749	418.12
473.968	468.12
474.187	562.12
474.406	575.12
474.625	475.12
474.844	431.12
475.063	421.12
475.282	415.12
475.501	411.12
475.72	429.12
475.939	422.12
476.158	401.12
476.377	412.12
476.596	413.12
476.814	442.12
477.033	417.12
477.252	435.12
477.471	421.12
477.69	443.12
477.908	440.12
478.127	458.12
478.346	441.12
478.564	449.12
478.783	464.12
479.002	452.12
479.22	484.12
479.439	468.12
479.658	494.12
479.876	500.12
480.095	498.12
480.313	515.12
480.532	486.12
480.751	513.12
480.969	530.12
481.188	593.12
481.406	631.12
481.624	530.12
481.843	513.12
482.061	495.12
482.28	482.12
482.498	493.12
482.717	481.12
482.935	477.12
483.153	487.12
483.372	496.12
483.59	473.12
483.808	471.12
484.027	475.12
484.245	495.12
484.463	486.12
484.681	497.12
484.9	469.12
485.118	493.12
485.336	510.12
485.554	492.12
485.772	507.12
485.99	498.12
486.209	505.12
486.427	501.12
486.645	514.12
486.863	513.12
487.081	529.12
487.299	525.12
487.517	506.12
487.735	513.12
487.953	513.12
488.171	517.12
488.389	523.12
488.607	534.12
488.825	533.12
489.043	516.12
489.261	513.12
489.479	521.12
489.696	540.12
489.914	517.12
490.132	528.12
490.35	554.12
490.568	547.12
490.786	529.12
491.003	560.12
491.221	576.12
491.439	572.12
491.657	568.12
491.874	593.12
492.092	579.12
492.31	595.12
492.527	584.12
492.745	584.12
492.963	588.12
493.18	607.12
493.398	583.12
493.615	618.12
493.833	627.12
494.05	613.12
494.268	616.12
494.485	606.12
494.703	648.12
494.92	619.12
495.138	599.12
495.355	613.12
495.573	613.12
495.79	615.12
496.008	622.12
496.225	623.12
496.442	628.12
496.66	613.12
496.877	602.12
497.094	613.12
497.312	631.12
497.529	624.12
497.746	618.12
497.963	649.12
498.181	663.12
498.398	633.12
498.615	667.12
498.832	674.12
499.049	693.12
499.267	726.12
499.484	695.12
499.701	728.12
499.918	723.12
500.135	740.12
500.352	772.12
500.569	787.12
500.786	799.12
501.003	806.12
501.22	796.12
501.437	757.12
501.654	730.12
501.871	707.12
502.088	749.12
