Data from 1965.PennyLincolnUp.Lamp.En5.5.200Scan.071719.P1._HRD10591_14-10-04-911.txt Node
Date: Thu Jul 18 14:10:04 EDT 2019
User: cochatt
Spectrometer: HR+D1059
Trigger mode: 1
Integration Time (sec): 1.000000E-1
Scans to average: 1
Electric dark correction enabled: true
Nonlinearity correction enabled: false
Boxcar width: 0
XAxis mode: Wavelengths
Number of Pixels in Spectrum: 2048
>>>>>Begin Spectral Data<<<<<
223.165	-11.69
223.4	-11.69
223.635	-11.69
223.869	-28.69
224.104	-11.69
224.338	-12.69
224.573	-11.69
224.808	-17.69
225.042	-6.69
225.277	-12.69
225.511	4.31
225.746	0.31
225.98	6.31
226.215	13.31
226.449	16.31
226.683	24.31
226.918	11.31
227.152	37.31
227.387	47.31
227.621	47.31
227.856	36.31
228.09	46.31
228.324	26.31
228.559	57.31
228.793	87.31
229.027	90.31
229.262	100.31
229.496	122.31
229.73	131.31
229.964	139.31
230.199	115.31
230.433	103.31
230.667	108.31
230.901	115.31
231.136	115.31
231.37	120.31
231.604	124.31
231.838	111.31
232.072	102.31
232.306	106.31
232.541	118.31
232.775	105.31
233.009	112.31
233.243	95.31
233.477	99.31
233.711	121.31
233.945	119.31
234.179	120.31
234.413	125.31
234.647	120.31
234.881	109.31
235.115	103.31
235.349	106.31
235.583	122.31
235.817	128.31
236.051	127.31
236.285	119.31
236.519	122.31
236.753	125.31
236.987	135.31
237.221	172.31
237.455	216.31
237.689	184.31
237.922	131.31
238.156	124.31
238.39	118.31
238.624	118.31
238.858	126.31
239.091	121.31
239.325	117.31
239.559	136.31
239.793	122.31
240.027	109.31
240.26	130.31
240.494	129.31
240.728	137.31
240.961	155.31
241.195	133.31
241.429	134.31
241.662	113.31
241.896	122.31
242.13	115.31
242.363	121.31
242.597	117.31
242.83	141.31
243.064	127.31
243.298	133.31
243.531	131.31
243.765	116.31
243.998	123.31
244.232	120.31
244.465	134.31
244.699	127.31
244.932	135.31
245.166	146.31
245.399	141.31
245.633	133.31
245.866	140.31
246.099	132.31
246.333	135.31
246.566	151.31
246.8	157.31
247.033	137.31
247.266	132.31
247.5	162.31
247.733	163.31
247.966	159.31
248.2	158.31
248.433	161.31
248.666	165.31
248.899	171.31
249.133	174.31
249.366	197.31
249.599	196.31
249.832	183.31
250.066	167.31
250.299	159.31
250.532	181.31
250.765	194.31
250.998	211.31
251.231	195.31
251.465	176.31
251.698	188.31
251.931	179.31
252.164	175.31
252.397	184.31
252.63	187.31
252.863	194.31
253.096	173.31
253.329	206.31
253.562	211.31
253.795	206.31
254.028	195.31
254.261	207.31
254.494	214.31
254.727	224.31
254.96	257.31
255.193	246.31
255.426	228.31
255.659	223.31
255.892	227.31
256.124	211.31
256.357	220.31
256.59	210.31
256.823	214.31
257.056	205.31
257.289	206.31
257.521	210.31
257.754	199.31
257.987	192.31
258.22	181.31
258.452	195.31
258.685	188.31
258.918	191.31
259.151	198.31
259.383	210.31
259.616	214.31
259.849	213.31
260.081	208.31
260.314	228.31
260.547	222.31
260.779	201.31
261.012	209.31
261.244	207.31
261.477	207.31
261.71	199.31
261.942	206.31
262.175	222.31
262.407	209.31
262.64	208.31
262.872	192.31
263.105	209.31
263.337	216.31
263.57	205.31
263.802	206.31
264.035	196.31
264.267	193.31
264.499	206.31
264.732	179.31
264.964	201.31
265.197	199.31
265.429	199.31
265.661	186.31
265.894	180.31
266.126	212.31
266.358	184.31
266.591	212.31
266.823	196.31
267.055	204.31
267.287	202.31
267.52	201.31
267.752	201.31
267.984	207.31
268.216	199.31
268.448	230.31
268.681	221.31
268.913	216.31
269.145	221.31
269.377	255.31
269.609	250.31
269.841	236.31
270.073	255.31
270.306	259.31
270.538	294.31
270.77	284.31
271.002	283.31
271.234	258.31
271.466	268.31
271.698	281.31
271.93	287.31
272.162	292.31
272.394	281.31
272.626	276.31
272.858	259.31
273.09	264.31
273.322	265.31
273.553	252.31
273.785	249.31
274.017	222.31
274.249	245.31
274.481	240.31
274.713	238.31
274.945	243.31
275.176	239.31
275.408	244.31
275.64	240.31
275.872	237.31
276.104	247.31
276.335	245.31
276.567	237.31
276.799	257.31
277.031	287.31
277.262	278.31
277.494	283.31
277.726	263.31
277.957	260.31
278.189	241.31
278.421	248.31
278.652	255.31
278.884	228.31
279.115	249.31
279.347	230.31
279.579	238.31
279.81	234.31
280.042	248.31
280.273	237.31
280.505	247.31
280.736	233.31
280.968	237.31
281.199	233.31
281.431	242.31
281.662	247.31
281.894	243.31
282.125	247.31
282.356	266.31
282.588	288.31
282.819	261.31
283.051	259.31
283.282	254.31
283.513	266.31
283.745	241.31
283.976	243.31
284.207	232.31
284.439	247.31
284.67	258.31
284.901	260.31
285.132	246.31
285.364	248.31
285.595	236.31
285.826	251.31
286.057	263.31
286.288	235.31
286.52	247.31
286.751	270.31
286.982	250.31
287.213	231.31
287.444	243.31
287.675	263.31
287.906	277.31
288.138	269.31
288.369	272.31
288.6	270.31
288.831	268.31
289.062	272.31
289.293	251.31
289.524	263.31
289.755	247.31
289.986	252.31
290.217	246.31
290.448	228.31
290.679	243.31
290.91	257.31
291.141	257.31
291.371	258.31
291.602	248.31
291.833	267.31
292.064	249.31
292.295	250.31
292.526	254.31
292.757	264.31
292.987	269.31
293.218	247.31
293.449	257.31
293.68	244.31
293.91	259.31
294.141	246.31
294.372	237.31
294.603	263.31
294.833	264.31
295.064	262.31
295.295	259.31
295.525	255.31
295.756	271.31
295.987	262.31
296.217	291.31
296.448	300.31
296.679	268.31
296.909	256.31
297.14	268.31
297.37	267.31
297.601	284.31
297.831	257.31
298.062	268.31
298.292	251.31
298.523	283.31
298.753	261.31
298.984	264.31
299.214	275.31
299.445	271.31
299.675	263.31
299.905	299.31
300.136	279.31
300.366	291.31
300.597	271.31
300.827	275.31
301.057	293.31
301.288	284.31
301.518	281.31
301.748	280.31
301.979	278.31
302.209	286.31
302.439	304.31
302.669	283.31
302.9	276.31
303.13	268.31
303.36	286.31
303.59	304.31
303.82	295.31
304.051	302.31
304.281	296.31
304.511	280.31
304.741	284.31
304.971	295.31
305.201	290.31
305.431	289.31
305.661	296.31
305.891	296.31
306.121	292.31
306.352	281.31
306.582	305.31
306.812	299.31
307.042	290.31
307.272	310.31
307.502	303.31
307.731	302.31
307.961	290.31
308.191	285.31
308.421	291.31
308.651	302.31
308.881	313.31
309.111	315.31
309.341	327.31
309.571	304.31
309.8	335.31
310.03	332.31
310.26	354.31
310.49	337.31
310.72	356.31
310.949	343.31
311.179	371.31
311.409	341.31
311.639	339.31
311.868	320.31
312.098	361.31
312.328	366.31
312.557	379.31
312.787	375.31
313.017	363.31
313.246	351.31
313.476	354.31
313.706	335.31
313.935	353.31
314.165	360.31
314.394	357.31
314.624	373.31
314.853	367.31
315.083	341.31
315.312	334.31
315.542	328.31
315.771	334.31
316.001	335.31
316.23	331.31
316.46	343.31
316.689	333.31
316.919	339.31
317.148	342.31
317.377	354.31
317.607	336.31
317.836	347.31
318.065	326.31
318.295	340.31
318.524	348.31
318.753	341.31
318.983	327.31
319.212	346.31
319.441	351.31
319.67	348.31
319.9	346.31
320.129	331.31
320.358	348.31
320.587	342.31
320.816	360.31
321.046	352.31
321.275	390.31
321.504	373.31
321.733	381.31
321.962	382.31
322.191	385.31
322.42	402.31
322.649	401.31
322.878	427.31
323.108	429.31
323.337	441.31
323.566	470.31
323.795	521.31
324.024	573.31
324.253	683.31
324.482	1021.31
324.71	1575.31
324.939	2131.31
325.168	1807.31
325.397	932.31
325.626	635.31
325.855	530.31
326.084	489.31
326.313	476.31
326.542	491.31
326.77	541.31
326.999	650.31
327.228	921.31
327.457	1358.31
327.686	1559.31
327.914	1041.31
328.143	716.31
328.372	637.31
328.6	574.31
328.829	553.31
329.058	557.31
329.287	543.31
329.515	529.31
329.744	494.31
329.972	487.31
330.201	521.31
330.43	556.31
330.658	576.31
330.887	588.31
331.115	560.31
331.344	492.31
331.572	435.31
331.801	466.31
332.03	421.31
332.258	442.31
332.486	423.31
332.715	414.31
332.943	426.31
333.172	394.31
333.4	405.31
333.629	420.31
333.857	439.31
334.085	449.31
334.314	465.31
334.542	488.31
334.771	524.31
334.999	450.31
335.227	419.31
335.455	420.31
335.684	394.31
335.912	411.31
336.14	392.31
336.369	402.31
336.597	401.31
336.825	421.31
337.053	410.31
337.281	400.31
337.51	367.31
337.738	391.31
337.966	398.31
338.194	399.31
338.422	413.31
338.65	410.31
338.878	370.31
339.106	379.31
339.334	368.31
339.562	383.31
339.79	366.31
340.018	383.31
340.246	389.31
340.474	399.31
340.702	402.31
340.93	392.31
341.158	385.31
341.386	402.31
341.614	405.31
341.842	393.31
342.07	362.31
342.298	383.31
342.526	383.31
342.754	372.31
342.981	358.31
343.209	344.31
343.437	364.31
343.665	385.31
343.893	389.31
344.12	381.31
344.348	383.31
344.576	385.31
344.804	387.31
345.031	411.31
345.259	413.31
345.487	391.31
345.714	399.31
345.942	363.31
346.17	383.31
346.397	364.31
346.625	391.31
346.853	366.31
347.08	361.31
347.308	389.31
347.535	376.31
347.763	403.31
347.99	386.31
348.218	399.31
348.445	406.31
348.673	393.31
348.9	386.31
349.128	367.31
349.355	350.31
349.583	375.31
349.81	373.31
350.037	357.31
350.265	366.31
350.492	346.31
350.72	368.31
350.947	351.31
351.174	360.31
351.402	377.31
351.629	395.31
351.856	382.31
352.083	365.31
352.311	409.31
352.538	387.31
352.765	411.31
352.992	390.31
353.22	383.31
353.447	375.31
353.674	368.31
353.901	357.31
354.128	348.31
354.355	366.31
354.583	345.31
354.81	356.31
355.037	342.31
355.264	357.31
355.491	341.31
355.718	329.31
355.945	344.31
356.172	335.31
356.399	345.31
356.626	351.31
356.853	336.31
357.08	337.31
357.307	352.31
357.534	356.31
357.761	359.31
357.988	344.31
358.215	343.31
358.441	361.31
358.668	353.31
358.895	359.31
359.122	368.31
359.349	359.31
359.576	354.31
359.802	396.31
360.029	420.31
360.256	459.31
360.483	415.31
360.709	405.31
360.936	378.31
361.163	368.31
361.39	373.31
361.616	375.31
361.843	363.31
362.07	378.31
362.296	375.31
362.523	377.31
362.749	363.31
362.976	366.31
363.203	356.31
363.429	357.31
363.656	366.31
363.882	344.31
364.109	352.31
364.335	363.31
364.562	351.31
364.788	354.31
365.015	352.31
365.241	355.31
365.468	368.31
365.694	366.31
365.92	356.31
366.147	376.31
366.373	343.31
366.599	343.31
366.826	342.31
367.052	352.31
367.278	343.31
367.505	361.31
367.731	364.31
367.957	369.31
368.184	361.31
368.41	354.31
368.636	381.31
368.862	374.31
369.089	358.31
369.315	354.31
369.541	368.31
369.767	356.31
369.993	340.31
370.219	333.31
370.445	349.31
370.672	345.31
370.898	360.31
371.124	348.31
371.35	360.31
371.576	353.31
371.802	356.31
372.028	342.31
372.254	331.31
372.48	337.31
372.706	354.31
372.932	338.31
373.158	349.31
373.384	341.31
373.61	330.31
373.835	343.31
374.061	345.31
374.287	349.31
374.513	339.31
374.739	362.31
374.965	343.31
375.191	336.31
375.416	348.31
375.642	334.31
375.868	352.31
376.094	358.31
376.319	337.31
376.545	358.31
376.771	337.31
376.997	354.31
377.222	335.31
377.448	349.31
377.674	360.31
377.899	341.31
378.125	357.31
378.35	337.31
378.576	363.31
378.802	346.31
379.027	346.31
379.253	354.31
379.478	342.31
379.704	331.31
379.929	333.31
380.155	335.31
380.38	342.31
380.606	336.31
380.831	336.31
381.057	353.31
381.282	343.31
381.507	358.31
381.733	353.31
381.958	362.31
382.184	335.31
382.409	325.31
382.634	352.31
382.86	353.31
383.085	356.31
383.31	384.31
383.535	357.31
383.761	343.31
383.986	358.31
384.211	355.31
384.436	365.31
384.662	357.31
384.887	347.31
385.112	366.31
385.337	366.31
385.562	381.31
385.787	387.31
386.013	376.31
386.238	349.31
386.463	363.31
386.688	373.31
386.913	362.31
387.138	367.31
387.363	356.31
387.588	368.31
387.813	380.31
388.038	371.31
388.263	375.31
388.488	360.31
388.713	359.31
388.938	373.31
389.163	360.31
389.387	365.31
389.612	362.31
389.837	361.31
390.062	375.31
390.287	362.31
390.512	361.31
390.736	352.31
390.961	353.31
391.186	351.31
391.411	358.31
391.636	383.31
391.86	364.31
392.085	371.31
392.31	365.31
392.534	379.31
392.759	384.31
392.984	363.31
393.208	380.31
393.433	391.31
393.658	358.31
393.882	358.31
394.107	380.31
394.331	369.31
394.556	376.31
394.78	377.31
395.005	374.31
395.229	365.31
395.454	391.31
395.678	385.31
395.903	392.31
396.127	409.31
396.352	420.31
396.576	385.31
396.801	389.31
397.025	391.31
397.249	396.31
397.474	406.31
397.698	400.31
397.922	393.31
398.147	420.31
398.371	403.31
398.595	389.31
398.82	420.31
399.044	426.31
399.268	420.31
399.492	451.31
399.717	469.31
399.941	489.31
400.165	509.31
400.389	509.31
400.613	462.31
400.837	444.31
401.062	432.31
401.286	419.31
401.51	410.31
401.734	417.31
401.958	421.31
402.182	428.31
402.406	428.31
402.63	422.31
402.854	425.31
403.078	436.31
403.302	439.31
403.526	426.31
403.75	415.31
403.974	436.31
404.198	435.31
404.422	449.31
404.645	431.31
404.869	441.31
405.093	423.31
405.317	481.31
405.541	534.31
405.765	475.31
405.988	457.31
406.212	462.31
406.436	507.31
406.66	527.31
406.883	486.31
407.107	469.31
407.331	516.31
407.555	575.31
407.778	577.31
408.002	534.31
408.226	480.31
408.449	457.31
408.673	498.31
408.896	496.31
409.12	523.31
409.344	501.31
409.567	454.31
409.791	457.31
410.014	439.31
410.238	423.31
410.461	428.31
410.685	432.31
410.908	440.31
411.132	491.31
411.355	517.31
411.578	490.31
411.802	445.31
412.025	434.31
412.249	459.31
412.472	468.31
412.695	493.31
412.919	496.31
413.142	444.31
413.365	418.31
413.589	447.31
413.812	416.31
414.035	414.31
414.258	428.31
414.482	405.31
414.705	413.31
414.928	405.31
415.151	416.31
415.374	404.31
415.597	408.31
415.821	395.31
416.044	381.31
416.267	415.31
416.49	415.31
416.713	412.31
416.936	411.31
417.159	407.31
417.382	407.31
417.605	420.31
417.828	430.31
418.051	445.31
418.274	439.31
418.497	410.31
418.72	428.31
418.943	420.31
419.166	414.31
419.389	425.31
419.611	430.31
419.834	430.31
420.057	439.31
420.28	429.31
420.503	437.31
420.726	441.31
420.948	445.31
421.171	488.31
421.394	502.31
421.617	445.31
421.839	431.31
422.062	427.31
422.285	441.31
422.507	496.31
422.73	548.31
422.953	528.31
423.175	495.31
423.398	439.31
423.621	472.31
423.843	472.31
424.066	463.31
424.288	463.31
424.511	487.31
424.733	529.31
424.956	605.31
425.178	557.31
425.401	564.31
425.623	576.31
425.846	504.31
426.068	480.31
426.291	479.31
426.513	455.31
426.735	495.31
426.958	509.31
427.18	599.31
427.402	708.31
427.625	773.31
427.847	698.31
428.069	607.31
428.292	538.31
428.514	474.31
428.736	460.31
428.958	460.31
429.181	457.31
429.403	448.31
429.625	457.31
429.847	489.31
430.069	549.31
430.292	534.31
430.514	466.31
430.736	448.31
430.958	460.31
431.18	414.31
431.402	394.31
431.624	405.31
431.846	415.31
432.068	402.31
432.29	406.31
432.512	404.31
432.734	425.31
432.956	405.31
433.178	435.31
433.4	438.31
433.622	409.31
433.844	407.31
434.066	396.31
434.287	405.31
434.509	418.31
434.731	420.31
434.953	427.31
435.175	439.31
435.397	469.31
435.618	483.31
435.84	517.31
436.062	608.31
436.284	645.31
436.505	547.31
436.727	491.31
436.949	449.31
437.17	448.31
437.392	463.31
437.614	457.31
437.835	489.31
438.057	581.31
438.278	653.31
438.5	655.31
438.721	693.31
438.943	656.31
439.165	553.31
439.386	527.31
439.608	483.31
439.829	473.31
440.05	523.31
440.272	559.31
440.493	516.31
440.715	477.31
440.936	472.31
441.158	462.31
441.379	459.31
441.6	448.31
441.822	455.31
442.043	519.31
442.264	576.31
442.486	582.31
442.707	521.31
442.928	481.31
443.149	519.31
443.371	535.31
443.592	562.31
443.813	611.31
444.034	675.31
444.255	551.31
444.476	479.31
444.698	478.31
444.919	454.31
445.14	585.31
445.361	534.31
445.582	525.31
445.803	567.31
446.024	650.31
446.245	645.31
446.466	620.31
446.687	532.31
446.908	472.31
447.129	435.31
447.35	451.31
447.571	439.31
447.792	438.31
448.013	420.31
448.234	455.31
448.455	517.31
448.675	603.31
448.896	686.31
449.117	600.31
449.338	556.31
449.559	655.31
449.779	709.31
450	582.31
450.221	515.31
450.442	452.31
450.662	452.31
450.883	436.31
451.104	473.31
451.324	445.31
451.545	445.31
451.766	435.31
451.986	408.31
452.207	396.31
452.428	395.31
452.648	407.31
452.869	400.31
453.089	413.31
453.31	426.31
453.53	421.31
453.751	396.31
453.971	399.31
454.192	408.31
454.412	431.31
454.633	400.31
454.853	407.31
455.073	413.31
455.294	412.31
455.514	502.31
455.734	471.31
455.955	406.31
456.175	406.31
456.395	390.31
456.616	381.31
456.836	375.31
457.056	370.31
457.276	346.31
457.497	350.31
457.717	376.31
457.937	392.31
458.157	361.31
458.377	401.31
458.598	413.31
458.818	477.31
459.038	563.31
459.258	548.31
459.478	453.31
459.698	409.31
459.918	412.31
460.138	410.31
460.358	423.31
460.578	420.31
460.798	416.31
461.018	413.31
461.238	421.31
461.458	410.31
461.678	425.31
461.898	419.31
462.118	413.31
462.338	440.31
462.558	435.31
462.777	412.31
462.997	439.31
463.217	405.31
463.437	432.31
463.657	426.31
463.876	425.31
464.096	442.31
464.316	451.31
464.536	448.31
464.755	424.31
464.975	446.31
465.195	492.31
465.414	566.31
465.634	502.31
465.854	439.31
466.073	445.31
466.293	411.31
466.512	411.31
466.732	421.31
466.951	405.31
467.171	415.31
467.391	398.31
467.61	416.31
467.829	407.31
468.049	406.31
468.268	412.31
468.488	413.31
468.707	390.31
468.927	405.31
469.146	396.31
469.365	397.31
469.585	390.31
469.804	412.31
470.023	422.31
470.243	416.31
470.462	433.31
470.681	444.31
470.901	427.31
471.12	432.31
471.339	418.31
471.558	420.31
471.777	429.31
471.997	403.31
472.216	423.31
472.435	454.31
472.654	452.31
472.873	420.31
473.092	409.31
473.311	429.31
473.53	423.31
473.749	424.31
473.968	474.31
474.187	570.31
474.406	596.31
474.625	461.31
474.844	461.31
475.063	416.31
475.282	417.31
475.501	414.31
475.72	439.31
475.939	417.31
476.158	415.31
476.377	433.31
476.596	420.31
476.814	441.31
477.033	442.31
477.252	443.31
477.471	428.31
477.69	438.31
477.908	451.31
478.127	442.31
478.346	433.31
478.564	448.31
478.783	459.31
479.002	469.31
479.22	493.31
479.439	486.31
479.658	503.31
479.876	484.31
480.095	505.31
480.313	535.31
480.532	537.31
480.751	517.31
480.969	519.31
481.188	599.31
481.406	652.31
481.624	545.31
481.843	502.31
482.061	493.31
482.28	483.31
482.498	485.31
482.717	470.31
482.935	496.31
483.153	485.31
483.372	499.31
483.59	468.31
483.808	506.31
484.027	495.31
484.245	470.31
484.463	493.31
484.681	495.31
484.9	499.31
485.118	463.31
485.336	486.31
485.554	485.31
485.772	491.31
485.99	479.31
486.209	502.31
486.427	502.31
486.645	499.31
486.863	536.31
487.081	515.31
487.299	532.31
487.517	529.31
487.735	492.31
487.953	543.31
488.171	528.31
488.389	515.31
488.607	536.31
488.825	536.31
489.043	525.31
489.261	541.31
489.479	542.31
489.696	541.31
489.914	546.31
490.132	533.31
490.35	542.31
490.568	558.31
490.786	538.31
491.003	578.31
491.221	576.31
491.439	597.31
491.657	591.31
491.874	602.31
492.092	605.31
492.31	584.31
492.527	589.31
492.745	595.31
492.963	608.31
493.18	616.31
493.398	623.31
493.615	617.31
493.833	598.31
494.05	634.31
494.268	591.31
494.485	609.31
494.703	603.31
494.92	629.31
495.138	635.31
495.355	598.31
495.573	613.31
495.79	595.31
496.008	629.31
496.225	627.31
496.442	636.31
496.66	617.31
496.877	624.31
497.094	622.31
497.312	613.31
497.529	637.31
497.746	640.31
497.963	605.31
498.181	638.31
498.398	647.31
498.615	658.31
498.832	712.31
499.049	674.31
499.267	703.31
499.484	711.31
499.701	704.31
499.918	722.31
500.135	750.31
500.352	770.31
500.569	773.31
500.786	764.31
501.003	760.31
501.22	763.31
501.437	766.31
501.654	740.31
501.871	729.31
