Data from 1965.PennyLincolnUp.Lamp.En5.5.200Scan.071719.P1._HRD10591_14-09-43-913.txt Node
Date: Thu Jul 18 14:09:43 EDT 2019
User: cochatt
Spectrometer: HR+D1059
Trigger mode: 1
Integration Time (sec): 1.000000E-1
Scans to average: 1
Electric dark correction enabled: true
Nonlinearity correction enabled: false
Boxcar width: 0
XAxis mode: Wavelengths
Number of Pixels in Spectrum: 2048
>>>>>Begin Spectral Data<<<<<
223.165	-29.12
223.4	-29.12
223.635	-29.12
223.869	-11.12
224.104	-9.12
224.338	-5.12
224.573	-8.12
224.808	-20.12
225.042	-5.12
225.277	-13.12
225.511	-13.12
225.746	2.88
225.98	15.88
226.215	18.88
226.449	10.88
226.683	10.88
226.918	31.88
227.152	22.88
227.387	27.88
227.621	36.88
227.856	50.88
228.09	49.88
228.324	53.88
228.559	56.88
228.793	54.88
229.027	89.88
229.262	100.88
229.496	112.88
229.73	119.88
229.964	143.88
230.199	122.88
230.433	110.88
230.667	93.88
230.901	96.88
231.136	102.88
231.37	107.88
231.604	114.88
231.838	105.88
232.072	102.88
232.306	100.88
232.541	107.88
232.775	112.88
233.009	117.88
233.243	108.88
233.477	124.88
233.711	102.88
233.945	105.88
234.179	118.88
234.413	121.88
234.647	100.88
234.881	102.88
235.115	112.88
235.349	107.88
235.583	132.88
235.817	112.88
236.051	124.88
236.285	129.88
236.519	110.88
236.753	130.88
236.987	146.88
237.221	188.88
237.455	207.88
237.689	172.88
237.922	141.88
238.156	121.88
238.39	128.88
238.624	133.88
238.858	130.88
239.091	123.88
239.325	112.88
239.559	118.88
239.793	122.88
240.027	126.88
240.26	119.88
240.494	126.88
240.728	150.88
240.961	143.88
241.195	141.88
241.429	113.88
241.662	136.88
241.896	128.88
242.13	143.88
242.363	117.88
242.597	121.88
242.83	124.88
243.064	130.88
243.298	124.88
243.531	117.88
243.765	122.88
243.998	130.88
244.232	127.88
244.465	124.88
244.699	124.88
244.932	138.88
245.166	139.88
245.399	122.88
245.633	126.88
245.866	135.88
246.099	127.88
246.333	127.88
246.566	117.88
246.8	132.88
247.033	147.88
247.266	132.88
247.5	126.88
247.733	145.88
247.966	164.88
248.2	152.88
248.433	157.88
248.666	153.88
248.899	178.88
249.133	185.88
249.366	195.88
249.599	188.88
249.832	165.88
250.066	154.88
250.299	180.88
250.532	157.88
250.765	206.88
250.998	197.88
251.231	211.88
251.465	189.88
251.698	178.88
251.931	181.88
252.164	177.88
252.397	187.88
252.63	172.88
252.863	196.88
253.096	184.88
253.329	194.88
253.562	199.88
253.795	184.88
254.028	198.88
254.261	189.88
254.494	194.88
254.727	250.88
254.96	272.88
255.193	250.88
255.426	235.88
255.659	196.88
255.892	218.88
256.124	236.88
256.357	198.88
256.59	213.88
256.823	196.88
257.056	192.88
257.289	196.88
257.521	184.88
257.754	194.88
257.987	187.88
258.22	198.88
258.452	190.88
258.685	179.88
258.918	180.88
259.151	188.88
259.383	195.88
259.616	207.88
259.849	204.88
260.081	200.88
260.314	232.88
260.547	224.88
260.779	219.88
261.012	205.88
261.244	184.88
261.477	198.88
261.71	207.88
261.942	203.88
262.175	206.88
262.407	210.88
262.64	211.88
262.872	182.88
263.105	184.88
263.337	189.88
263.57	176.88
263.802	192.88
264.035	205.88
264.267	199.88
264.499	192.88
264.732	188.88
264.964	182.88
265.197	182.88
265.429	201.88
265.661	192.88
265.894	194.88
266.126	194.88
266.358	197.88
266.591	197.88
266.823	196.88
267.055	196.88
267.287	201.88
267.52	185.88
267.752	198.88
267.984	198.88
268.216	204.88
268.448	208.88
268.681	213.88
268.913	216.88
269.145	234.88
269.377	255.88
269.609	265.88
269.841	233.88
270.073	244.88
270.306	260.88
270.538	291.88
270.77	275.88
271.002	273.88
271.234	267.88
271.466	280.88
271.698	276.88
271.93	280.88
272.162	285.88
272.394	282.88
272.626	274.88
272.858	267.88
273.09	260.88
273.322	258.88
273.553	232.88
273.785	245.88
274.017	246.88
274.249	251.88
274.481	234.88
274.713	234.88
274.945	235.88
275.176	235.88
275.408	244.88
275.64	225.88
275.872	245.88
276.104	244.88
276.335	228.88
276.567	246.88
276.799	249.88
277.031	268.88
277.262	294.88
277.494	284.88
277.726	272.88
277.957	246.88
278.189	261.88
278.421	243.88
278.652	252.88
278.884	248.88
279.115	234.88
279.347	247.88
279.579	218.88
279.81	247.88
280.042	247.88
280.273	218.88
280.505	237.88
280.736	225.88
280.968	249.88
281.199	237.88
281.431	238.88
281.662	249.88
281.894	234.88
282.125	235.88
282.356	257.88
282.588	280.88
282.819	279.88
283.051	260.88
283.282	236.88
283.513	249.88
283.745	245.88
283.976	233.88
284.207	244.88
284.439	264.88
284.67	258.88
284.901	238.88
285.132	234.88
285.364	239.88
285.595	260.88
285.826	241.88
286.057	255.88
286.288	259.88
286.52	265.88
286.751	236.88
286.982	264.88
287.213	237.88
287.444	262.88
287.675	267.88
287.906	265.88
288.138	267.88
288.369	266.88
288.6	259.88
288.831	256.88
289.062	261.88
289.293	259.88
289.524	248.88
289.755	242.88
289.986	256.88
290.217	248.88
290.448	247.88
290.679	250.88
290.91	261.88
291.141	255.88
291.371	243.88
291.602	247.88
291.833	253.88
292.064	264.88
292.295	249.88
292.526	245.88
292.757	241.88
292.987	248.88
293.218	248.88
293.449	262.88
293.68	251.88
293.91	251.88
294.141	241.88
294.372	234.88
294.603	237.88
294.833	245.88
295.064	256.88
295.295	262.88
295.525	246.88
295.756	253.88
295.987	241.88
296.217	293.88
296.448	289.88
296.679	249.88
296.909	262.88
297.14	240.88
297.37	254.88
297.601	263.88
297.831	255.88
298.062	274.88
298.292	260.88
298.523	241.88
298.753	264.88
298.984	278.88
299.214	260.88
299.445	285.88
299.675	273.88
299.905	285.88
300.136	283.88
300.366	269.88
300.597	269.88
300.827	275.88
301.057	283.88
301.288	289.88
301.518	289.88
301.748	277.88
301.979	282.88
302.209	284.88
302.439	299.88
302.669	276.88
302.9	290.88
303.13	287.88
303.36	277.88
303.59	307.88
303.82	292.88
304.051	287.88
304.281	288.88
304.511	286.88
304.741	288.88
304.971	292.88
305.201	281.88
305.431	260.88
305.661	280.88
305.891	293.88
306.121	298.88
306.352	299.88
306.582	318.88
306.812	281.88
307.042	294.88
307.272	295.88
307.502	310.88
307.731	301.88
307.961	291.88
308.191	318.88
308.421	296.88
308.651	309.88
308.881	308.88
309.111	308.88
309.341	310.88
309.571	315.88
309.8	333.88
310.03	332.88
310.26	336.88
310.49	335.88
310.72	347.88
310.949	360.88
311.179	356.88
311.409	327.88
311.639	356.88
311.868	352.88
312.098	347.88
312.328	349.88
312.557	370.88
312.787	362.88
313.017	372.88
313.246	364.88
313.476	339.88
313.706	342.88
313.935	345.88
314.165	351.88
314.394	360.88
314.624	357.88
314.853	339.88
315.083	329.88
315.312	357.88
315.542	333.88
315.771	349.88
316.001	349.88
316.23	357.88
316.46	327.88
316.689	328.88
316.919	337.88
317.148	356.88
317.377	360.88
317.607	344.88
317.836	343.88
318.065	326.88
318.295	340.88
318.524	334.88
318.753	336.88
318.983	340.88
319.212	334.88
319.441	342.88
319.67	363.88
319.9	330.88
320.129	333.88
320.358	363.88
320.587	344.88
320.816	356.88
321.046	386.88
321.275	363.88
321.504	372.88
321.733	349.88
321.962	362.88
322.191	376.88
322.42	398.88
322.649	415.88
322.878	429.88
323.108	427.88
323.337	453.88
323.566	477.88
323.795	516.88
324.024	540.88
324.253	667.88
324.482	1019.88
324.71	1539.88
324.939	2130.88
325.168	1762.88
325.397	928.88
325.626	628.88
325.855	554.88
326.084	493.88
326.313	480.88
326.542	492.88
326.77	548.88
326.999	644.88
327.228	888.88
327.457	1380.88
327.686	1568.88
327.914	1054.88
328.143	725.88
328.372	618.88
328.6	587.88
328.829	534.88
329.058	572.88
329.287	569.88
329.515	539.88
329.744	476.88
329.972	486.88
330.201	493.88
330.43	545.88
330.658	539.88
330.887	596.88
331.115	576.88
331.344	504.88
331.572	456.88
331.801	430.88
332.03	461.88
332.258	432.88
332.486	428.88
332.715	413.88
332.943	412.88
333.172	413.88
333.4	416.88
333.629	422.88
333.857	426.88
334.085	460.88
334.314	457.88
334.542	495.88
334.771	501.88
334.999	462.88
335.227	419.88
335.455	417.88
335.684	379.88
335.912	391.88
336.14	390.88
336.369	379.88
336.597	398.88
336.825	393.88
337.053	388.88
337.281	376.88
337.51	381.88
337.738	413.88
337.966	367.88
338.194	376.88
338.422	414.88
338.65	378.88
338.878	382.88
339.106	382.88
339.334	377.88
339.562	378.88
339.79	380.88
340.018	370.88
340.246	372.88
340.474	384.88
340.702	374.88
340.93	356.88
341.158	372.88
341.386	390.88
341.614	400.88
341.842	385.88
342.07	349.88
342.298	376.88
342.526	380.88
342.754	368.88
342.981	373.88
343.209	364.88
343.437	362.88
343.665	363.88
343.893	382.88
344.12	356.88
344.348	370.88
344.576	373.88
344.804	372.88
345.031	408.88
345.259	406.88
345.487	398.88
345.714	380.88
345.942	370.88
346.17	357.88
346.397	374.88
346.625	370.88
346.853	355.88
347.08	362.88
347.308	370.88
347.535	392.88
347.763	383.88
347.99	380.88
348.218	382.88
348.445	394.88
348.673	372.88
348.9	378.88
349.128	386.88
349.355	366.88
349.583	354.88
349.81	360.88
350.037	339.88
350.265	352.88
350.492	360.88
350.72	361.88
350.947	368.88
351.174	376.88
351.402	388.88
351.629	396.88
351.856	366.88
352.083	391.88
352.311	395.88
352.538	389.88
352.765	390.88
352.992	405.88
353.22	370.88
353.447	369.88
353.674	370.88
353.901	358.88
354.128	340.88
354.355	338.88
354.583	340.88
354.81	348.88
355.037	333.88
355.264	325.88
355.491	323.88
355.718	317.88
355.945	344.88
356.172	331.88
356.399	327.88
356.626	336.88
356.853	350.88
357.08	323.88
357.307	338.88
357.534	341.88
357.761	350.88
357.988	345.88
358.215	344.88
358.441	327.88
358.668	355.88
358.895	360.88
359.122	346.88
359.349	356.88
359.576	372.88
359.802	386.88
360.029	426.88
360.256	429.88
360.483	414.88
360.709	380.88
360.936	385.88
361.163	368.88
361.39	378.88
361.616	384.88
361.843	374.88
362.07	372.88
362.296	373.88
362.523	380.88
362.749	372.88
362.976	371.88
363.203	365.88
363.429	344.88
363.656	346.88
363.882	351.88
364.109	363.88
364.335	356.88
364.562	349.88
364.788	335.88
365.015	363.88
365.241	340.88
365.468	357.88
365.694	362.88
365.92	350.88
366.147	338.88
366.373	350.88
366.599	350.88
366.826	350.88
367.052	346.88
367.278	354.88
367.505	353.88
367.731	357.88
367.957	354.88
368.184	349.88
368.41	359.88
368.636	355.88
368.862	360.88
369.089	353.88
369.315	328.88
369.541	340.88
369.767	347.88
369.993	346.88
370.219	365.88
370.445	365.88
370.672	332.88
370.898	343.88
371.124	323.88
371.35	354.88
371.576	347.88
371.802	340.88
372.028	328.88
372.254	339.88
372.48	338.88
372.706	343.88
372.932	347.88
373.158	332.88
373.384	344.88
373.61	360.88
373.835	352.88
374.061	346.88
374.287	328.88
374.513	350.88
374.739	360.88
374.965	346.88
375.191	359.88
375.416	349.88
375.642	353.88
375.868	350.88
376.094	351.88
376.319	338.88
376.545	346.88
376.771	336.88
376.997	331.88
377.222	359.88
377.448	347.88
377.674	332.88
377.899	334.88
378.125	342.88
378.35	356.88
378.576	341.88
378.802	344.88
379.027	340.88
379.253	332.88
379.478	335.88
379.704	330.88
379.929	346.88
380.155	348.88
380.38	339.88
380.606	320.88
380.831	361.88
381.057	343.88
381.282	328.88
381.507	352.88
381.733	336.88
381.958	346.88
382.184	343.88
382.409	339.88
382.634	347.88
382.86	359.88
383.085	355.88
383.31	345.88
383.535	364.88
383.761	364.88
383.986	346.88
384.211	345.88
384.436	345.88
384.662	360.88
384.887	359.88
385.112	362.88
385.337	348.88
385.562	354.88
385.787	380.88
386.013	380.88
386.238	386.88
386.463	409.88
386.688	353.88
386.913	354.88
387.138	363.88
387.363	348.88
387.588	355.88
387.813	361.88
388.038	361.88
388.263	365.88
388.488	385.88
388.713	368.88
388.938	372.88
389.163	376.88
389.387	383.88
389.612	352.88
389.837	363.88
390.062	376.88
390.287	388.88
390.512	383.88
390.736	376.88
390.961	373.88
391.186	355.88
391.411	346.88
391.636	360.88
391.86	369.88
392.085	377.88
392.31	368.88
392.534	369.88
392.759	377.88
392.984	371.88
393.208	380.88
393.433	362.88
393.658	361.88
393.882	362.88
394.107	357.88
394.331	364.88
394.556	376.88
394.78	368.88
395.005	387.88
395.229	366.88
395.454	388.88
395.678	375.88
395.903	374.88
396.127	416.88
396.352	427.88
396.576	384.88
396.801	377.88
397.025	366.88
397.249	363.88
397.474	389.88
397.698	390.88
397.922	395.88
398.147	400.88
398.371	422.88
398.595	422.88
398.82	441.88
399.044	423.88
399.268	413.88
399.492	441.88
399.717	460.88
399.941	478.88
400.165	494.88
400.389	501.88
400.613	470.88
400.837	437.88
401.062	428.88
401.286	433.88
401.51	409.88
401.734	421.88
401.958	406.88
402.182	418.88
402.406	412.88
402.63	422.88
402.854	430.88
403.078	418.88
403.302	403.88
403.526	426.88
403.75	437.88
403.974	451.88
404.198	421.88
404.422	435.88
404.645	461.88
404.869	444.88
405.093	478.88
405.317	489.88
405.541	510.88
405.765	476.88
405.988	444.88
406.212	450.88
406.436	473.88
406.66	513.88
406.883	484.88
407.107	492.88
407.331	526.88
407.555	557.88
407.778	573.88
408.002	541.88
408.226	459.88
408.449	469.88
408.673	474.88
408.896	524.88
409.12	520.88
409.344	506.88
409.567	464.88
409.791	456.88
410.014	419.88
410.238	450.88
410.461	441.88
410.685	421.88
410.908	432.88
411.132	456.88
411.355	514.88
411.578	470.88
411.802	461.88
412.025	445.88
412.249	426.88
412.472	454.88
412.695	469.88
412.919	492.88
413.142	448.88
413.365	424.88
413.589	450.88
413.812	435.88
414.035	426.88
414.258	408.88
414.482	420.88
414.705	416.88
414.928	422.88
415.151	402.88
415.374	413.88
415.597	413.88
415.821	414.88
416.044	422.88
416.267	415.88
416.49	391.88
416.713	399.88
416.936	394.88
417.159	416.88
417.382	417.88
417.605	404.88
417.828	425.88
418.051	437.88
418.274	422.88
418.497	394.88
418.72	417.88
418.943	393.88
419.166	403.88
419.389	436.88
419.611	422.88
419.834	441.88
420.057	432.88
420.28	439.88
420.503	426.88
420.726	448.88
420.948	425.88
421.171	473.88
421.394	477.88
421.617	461.88
421.839	413.88
422.062	444.88
422.285	460.88
422.507	499.88
422.73	548.88
422.953	524.88
423.175	471.88
423.398	450.88
423.621	438.88
423.843	459.88
424.066	449.88
424.288	466.88
424.511	485.88
424.733	523.88
424.956	589.88
425.178	587.88
425.401	546.88
425.623	556.88
425.846	502.88
426.068	454.88
426.291	472.88
426.513	483.88
426.735	473.88
426.958	508.88
427.18	598.88
427.402	696.88
427.625	778.88
427.847	697.88
428.069	557.88
428.292	520.88
428.514	479.88
428.736	448.88
428.958	449.88
429.181	414.88
429.403	430.88
429.625	458.88
429.847	477.88
430.069	542.88
430.292	514.88
430.514	446.88
430.736	425.88
430.958	414.88
431.18	412.88
431.402	398.88
431.624	414.88
431.846	398.88
432.068	403.88
432.29	400.88
432.512	406.88
432.734	412.88
432.956	404.88
433.178	430.88
433.4	412.88
433.622	413.88
433.844	418.88
434.066	420.88
434.287	402.88
434.509	410.88
434.731	405.88
434.953	438.88
435.175	433.88
435.397	460.88
435.618	459.88
435.84	511.88
436.062	600.88
436.284	621.88
436.505	548.88
436.727	469.88
436.949	457.88
437.17	441.88
437.392	439.88
437.614	451.88
437.835	505.88
438.057	589.88
438.278	653.88
438.5	653.88
438.721	723.88
438.943	660.88
439.165	553.88
439.386	490.88
439.608	498.88
439.829	477.88
440.05	515.88
440.272	553.88
440.493	513.88
440.715	483.88
440.936	462.88
441.158	446.88
441.379	445.88
441.6	469.88
441.822	471.88
442.043	480.88
442.264	592.88
442.486	631.88
442.707	516.88
442.928	498.88
443.149	502.88
443.371	510.88
443.592	570.88
443.813	630.88
444.034	668.88
444.255	541.88
444.476	497.88
444.698	493.88
444.919	471.88
445.14	590.88
445.361	552.88
445.582	518.88
445.803	564.88
446.024	664.88
446.245	664.88
446.466	590.88
446.687	530.88
446.908	504.88
447.129	449.88
447.35	452.88
447.571	458.88
447.792	425.88
448.013	439.88
448.234	440.88
448.455	490.88
448.675	620.88
448.896	667.88
449.117	576.88
449.338	572.88
449.559	649.88
449.779	710.88
450	582.88
450.221	501.88
450.442	447.88
450.662	438.88
450.883	444.88
451.104	458.88
451.324	451.88
451.545	442.88
451.766	424.88
451.986	397.88
452.207	407.88
452.428	409.88
452.648	421.88
452.869	434.88
453.089	410.88
453.31	420.88
453.53	407.88
453.751	397.88
453.971	414.88
454.192	418.88
454.412	414.88
454.633	402.88
454.853	421.88
455.073	398.88
455.294	434.88
455.514	473.88
455.734	474.88
455.955	392.88
456.175	368.88
456.395	386.88
456.616	384.88
456.836	383.88
457.056	372.88
457.276	349.88
457.497	376.88
457.717	378.88
457.937	370.88
458.157	381.88
458.377	394.88
458.598	434.88
458.818	496.88
459.038	569.88
459.258	555.88
459.478	480.88
459.698	438.88
459.918	410.88
460.138	399.88
460.358	400.88
460.578	420.88
460.798	413.88
461.018	408.88
461.238	396.88
461.458	420.88
461.678	400.88
461.898	410.88
462.118	418.88
462.338	429.88
462.558	412.88
462.777	417.88
462.997	415.88
463.217	427.88
463.437	438.88
463.657	446.88
463.876	437.88
464.096	424.88
464.316	447.88
464.536	470.88
464.755	474.88
464.975	467.88
465.195	497.88
465.414	595.88
465.634	498.88
465.854	426.88
466.073	416.88
466.293	414.88
466.512	402.88
466.732	418.88
466.951	413.88
467.171	398.88
467.391	410.88
467.61	410.88
467.829	428.88
468.049	419.88
468.268	416.88
468.488	406.88
468.707	392.88
468.927	395.88
469.146	392.88
469.365	381.88
469.585	371.88
469.804	408.88
470.023	393.88
470.243	410.88
470.462	391.88
470.681	428.88
470.901	432.88
471.12	428.88
471.339	414.88
471.558	438.88
471.777	392.88
471.997	398.88
472.216	401.88
472.435	456.88
472.654	447.88
472.873	426.88
473.092	391.88
473.311	419.88
473.53	414.88
473.749	427.88
473.968	471.88
474.187	546.88
474.406	554.88
474.625	490.88
474.844	419.88
475.063	395.88
475.282	425.88
475.501	419.88
475.72	427.88
475.939	416.88
476.158	402.88
476.377	429.88
476.596	432.88
476.814	440.88
477.033	436.88
477.252	454.88
477.471	413.88
477.69	436.88
477.908	431.88
478.127	442.88
478.346	449.88
478.564	459.88
478.783	444.88
479.002	440.88
479.22	452.88
479.439	470.88
479.658	518.88
479.876	511.88
480.095	501.88
480.313	520.88
480.532	517.88
480.751	507.88
480.969	525.88
481.188	584.88
481.406	634.88
481.624	530.88
481.843	516.88
482.061	490.88
482.28	506.88
482.498	458.88
482.717	469.88
482.935	488.88
483.153	478.88
483.372	490.88
483.59	480.88
483.808	486.88
484.027	468.88
484.245	492.88
484.463	490.88
484.681	492.88
484.9	492.88
485.118	502.88
485.336	496.88
485.554	496.88
485.772	498.88
485.99	505.88
486.209	527.88
486.427	529.88
486.645	502.88
486.863	530.88
487.081	533.88
487.299	528.88
487.517	507.88
487.735	513.88
487.953	518.88
488.171	507.88
488.389	531.88
488.607	523.88
488.825	550.88
489.043	518.88
489.261	539.88
489.479	523.88
489.696	510.88
489.914	506.88
490.132	525.88
490.35	536.88
490.568	552.88
490.786	565.88
491.003	547.88
491.221	589.88
491.439	607.88
491.657	579.88
491.874	581.88
492.092	616.88
492.31	589.88
492.527	599.88
492.745	602.88
492.963	589.88
493.18	582.88
493.398	607.88
493.615	606.88
493.833	624.88
494.05	634.88
494.268	615.88
494.485	592.88
494.703	599.88
494.92	613.88
495.138	608.88
495.355	603.88
495.573	593.88
495.79	606.88
496.008	601.88
496.225	634.88
496.442	605.88
496.66	625.88
496.877	610.88
497.094	629.88
497.312	640.88
497.529	603.88
497.746	632.88
497.963	633.88
498.181	664.88
498.398	658.88
498.615	658.88
498.832	683.88
499.049	675.88
499.267	698.88
499.484	714.88
499.701	724.88
499.918	718.88
500.135	762.88
500.352	742.88
500.569	761.88
500.786	796.88
501.003	765.88
501.22	753.88
501.437	754.88
501.654	754.88
501.871	758.88
