Data from 1965.PennyLincolnUp.Lamp.En5.5.200Scan.071719.P1._HRD10591_14-10-17-912.txt Node
Date: Thu Jul 18 14:10:17 EDT 2019
User: cochatt
Spectrometer: HR+D1059
Trigger mode: 1
Integration Time (sec): 1.000000E-1
Scans to average: 1
Electric dark correction enabled: true
Nonlinearity correction enabled: false
Boxcar width: 0
XAxis mode: Wavelengths
Number of Pixels in Spectrum: 2048
>>>>>Begin Spectral Data<<<<<
223.165	-15.69
223.4	-15.69
223.635	-15.69
223.869	-14.69
224.104	-6.69
224.338	-25.69
224.573	-7.69
224.808	-10.69
225.042	5.31
225.277	-7.69
225.511	0.31
225.746	1.31
225.98	2.31
226.215	13.31
226.449	1.31
226.683	13.31
226.918	24.31
227.152	27.31
227.387	25.31
227.621	39.31
227.856	42.31
228.09	66.31
228.324	40.31
228.559	54.31
228.793	62.31
229.027	93.31
229.262	103.31
229.496	113.31
229.73	126.31
229.964	145.31
230.199	131.31
230.433	117.31
230.667	116.31
230.901	117.31
231.136	110.31
231.37	115.31
231.604	101.31
231.838	116.31
232.072	108.31
232.306	108.31
232.541	118.31
232.775	112.31
233.009	98.31
233.243	84.31
233.477	115.31
233.711	111.31
233.945	108.31
234.179	125.31
234.413	110.31
234.647	105.31
234.881	112.31
235.115	116.31
235.349	111.31
235.583	110.31
235.817	101.31
236.051	119.31
236.285	129.31
236.519	125.31
236.753	118.31
236.987	144.31
237.221	184.31
237.455	216.31
237.689	176.31
237.922	139.31
238.156	117.31
238.39	130.31
238.624	109.31
238.858	109.31
239.091	130.31
239.325	132.31
239.559	127.31
239.793	104.31
240.027	135.31
240.26	139.31
240.494	156.31
240.728	133.31
240.961	140.31
241.195	130.31
241.429	133.31
241.662	128.31
241.896	117.31
242.13	121.31
242.363	114.31
242.597	135.31
242.83	125.31
243.064	135.31
243.298	135.31
243.531	125.31
243.765	129.31
243.998	119.31
244.232	117.31
244.465	136.31
244.699	133.31
244.932	122.31
245.166	124.31
245.399	140.31
245.633	134.31
245.866	129.31
246.099	138.31
246.333	140.31
246.566	135.31
246.8	137.31
247.033	149.31
247.266	138.31
247.5	167.31
247.733	164.31
247.966	145.31
248.2	157.31
248.433	166.31
248.666	168.31
248.899	183.31
249.133	175.31
249.366	180.31
249.599	203.31
249.832	171.31
250.066	157.31
250.299	169.31
250.532	191.31
250.765	181.31
250.998	219.31
251.231	213.31
251.465	188.31
251.698	183.31
251.931	168.31
252.164	174.31
252.397	172.31
252.63	184.31
252.863	187.31
253.096	189.31
253.329	208.31
253.562	205.31
253.795	204.31
254.028	199.31
254.261	210.31
254.494	220.31
254.727	242.31
254.96	256.31
255.193	250.31
255.426	246.31
255.659	208.31
255.892	223.31
256.124	218.31
256.357	228.31
256.59	213.31
256.823	213.31
257.056	199.31
257.289	207.31
257.521	195.31
257.754	197.31
257.987	192.31
258.22	206.31
258.452	190.31
258.685	199.31
258.918	186.31
259.151	204.31
259.383	201.31
259.616	198.31
259.849	216.31
260.081	216.31
260.314	229.31
260.547	229.31
260.779	220.31
261.012	212.31
261.244	201.31
261.477	205.31
261.71	216.31
261.942	225.31
262.175	229.31
262.407	219.31
262.64	190.31
262.872	181.31
263.105	195.31
263.337	203.31
263.57	219.31
263.802	189.31
264.035	186.31
264.267	208.31
264.499	200.31
264.732	209.31
264.964	199.31
265.197	200.31
265.429	205.31
265.661	177.31
265.894	195.31
266.126	192.31
266.358	191.31
266.591	203.31
266.823	204.31
267.055	209.31
267.287	207.31
267.52	213.31
267.752	216.31
267.984	209.31
268.216	208.31
268.448	208.31
268.681	214.31
268.913	243.31
269.145	238.31
269.377	265.31
269.609	258.31
269.841	234.31
270.073	248.31
270.306	262.31
270.538	265.31
270.77	293.31
271.002	281.31
271.234	277.31
271.466	259.31
271.698	313.31
271.93	298.31
272.162	302.31
272.394	302.31
272.626	273.31
272.858	276.31
273.09	251.31
273.322	245.31
273.553	237.31
273.785	249.31
274.017	243.31
274.249	260.31
274.481	248.31
274.713	249.31
274.945	254.31
275.176	241.31
275.408	238.31
275.64	256.31
275.872	249.31
276.104	237.31
276.335	237.31
276.567	240.31
276.799	264.31
277.031	283.31
277.262	291.31
277.494	290.31
277.726	282.31
277.957	260.31
278.189	271.31
278.421	257.31
278.652	247.31
278.884	267.31
279.115	239.31
279.347	243.31
279.579	245.31
279.81	238.31
280.042	269.31
280.273	249.31
280.505	255.31
280.736	230.31
280.968	241.31
281.199	228.31
281.431	240.31
281.662	242.31
281.894	250.31
282.125	222.31
282.356	259.31
282.588	276.31
282.819	302.31
283.051	256.31
283.282	247.31
283.513	251.31
283.745	253.31
283.976	255.31
284.207	261.31
284.439	257.31
284.67	248.31
284.901	246.31
285.132	241.31
285.364	251.31
285.595	247.31
285.826	260.31
286.057	259.31
286.288	255.31
286.52	251.31
286.751	264.31
286.982	245.31
287.213	253.31
287.444	247.31
287.675	264.31
287.906	251.31
288.138	261.31
288.369	263.31
288.6	265.31
288.831	271.31
289.062	263.31
289.293	260.31
289.524	277.31
289.755	264.31
289.986	267.31
290.217	244.31
290.448	237.31
290.679	248.31
290.91	283.31
291.141	294.31
291.371	268.31
291.602	259.31
291.833	270.31
292.064	263.31
292.295	252.31
292.526	266.31
292.757	262.31
292.987	252.31
293.218	251.31
293.449	265.31
293.68	264.31
293.91	257.31
294.141	263.31
294.372	251.31
294.603	268.31
294.833	260.31
295.064	253.31
295.295	251.31
295.525	251.31
295.756	288.31
295.987	282.31
296.217	289.31
296.448	313.31
296.679	288.31
296.909	259.31
297.14	259.31
297.37	270.31
297.601	276.31
297.831	293.31
298.062	270.31
298.292	253.31
298.523	286.31
298.753	263.31
298.984	286.31
299.214	282.31
299.445	263.31
299.675	271.31
299.905	291.31
300.136	255.31
300.366	287.31
300.597	264.31
300.827	265.31
301.057	282.31
301.288	297.31
301.518	295.31
301.748	304.31
301.979	297.31
302.209	287.31
302.439	287.31
302.669	287.31
302.9	269.31
303.13	273.31
303.36	299.31
303.59	300.31
303.82	288.31
304.051	300.31
304.281	289.31
304.511	307.31
304.741	302.31
304.971	297.31
305.201	280.31
305.431	274.31
305.661	291.31
305.891	287.31
306.121	295.31
306.352	297.31
306.582	296.31
306.812	290.31
307.042	309.31
307.272	305.31
307.502	309.31
307.731	295.31
307.961	312.31
308.191	297.31
308.421	298.31
308.651	305.31
308.881	303.31
309.111	308.31
309.341	309.31
309.571	321.31
309.8	352.31
310.03	319.31
310.26	352.31
310.49	343.31
310.72	364.31
310.949	365.31
311.179	365.31
311.409	352.31
311.639	341.31
311.868	341.31
312.098	351.31
312.328	376.31
312.557	375.31
312.787	378.31
313.017	369.31
313.246	353.31
313.476	342.31
313.706	344.31
313.935	356.31
314.165	378.31
314.394	383.31
314.624	378.31
314.853	356.31
315.083	351.31
315.312	347.31
315.542	334.31
315.771	339.31
316.001	336.31
316.23	331.31
316.46	324.31
316.689	351.31
316.919	353.31
317.148	361.31
317.377	355.31
317.607	353.31
317.836	361.31
318.065	345.31
318.295	336.31
318.524	353.31
318.753	347.31
318.983	337.31
319.212	369.31
319.441	372.31
319.67	371.31
319.9	329.31
320.129	335.31
320.358	338.31
320.587	363.31
320.816	363.31
321.046	375.31
321.275	373.31
321.504	366.31
321.733	363.31
321.962	401.31
322.191	401.31
322.42	396.31
322.649	430.31
322.878	416.31
323.108	424.31
323.337	483.31
323.566	482.31
323.795	510.31
324.024	586.31
324.253	716.31
324.482	1062.31
324.71	1573.31
324.939	2202.31
325.168	1833.31
325.397	931.31
325.626	656.31
325.855	559.31
326.084	477.31
326.313	495.31
326.542	491.31
326.77	554.31
326.999	651.31
327.228	933.31
327.457	1391.31
327.686	1626.31
327.914	1060.31
328.143	727.31
328.372	627.31
328.6	582.31
328.829	560.31
329.058	578.31
329.287	572.31
329.515	535.31
329.744	506.31
329.972	509.31
330.201	510.31
330.43	563.31
330.658	620.31
330.887	623.31
331.115	585.31
331.344	500.31
331.572	458.31
331.801	480.31
332.03	460.31
332.258	446.31
332.486	431.31
332.715	435.31
332.943	421.31
333.172	440.31
333.4	421.31
333.629	411.31
333.857	431.31
334.085	449.31
334.314	472.31
334.542	511.31
334.771	521.31
334.999	468.31
335.227	447.31
335.455	408.31
335.684	391.31
335.912	398.31
336.14	396.31
336.369	393.31
336.597	392.31
336.825	424.31
337.053	394.31
337.281	383.31
337.51	404.31
337.738	406.31
337.966	379.31
338.194	399.31
338.422	399.31
338.65	397.31
338.878	386.31
339.106	379.31
339.334	375.31
339.562	381.31
339.79	391.31
340.018	382.31
340.246	392.31
340.474	398.31
340.702	397.31
340.93	360.31
341.158	399.31
341.386	401.31
341.614	401.31
341.842	397.31
342.07	394.31
342.298	392.31
342.526	370.31
342.754	358.31
342.981	381.31
343.209	387.31
343.437	383.31
343.665	398.31
343.893	349.31
344.12	399.31
344.348	388.31
344.576	388.31
344.804	401.31
345.031	398.31
345.259	400.31
345.487	393.31
345.714	377.31
345.942	383.31
346.17	384.31
346.397	360.31
346.625	373.31
346.853	381.31
347.08	376.31
347.308	385.31
347.535	389.31
347.763	396.31
347.99	399.31
348.218	381.31
348.445	395.31
348.673	405.31
348.9	383.31
349.128	380.31
349.355	370.31
349.583	355.31
349.81	369.31
350.037	377.31
350.265	379.31
350.492	356.31
350.72	351.31
350.947	373.31
351.174	366.31
351.402	376.31
351.629	401.31
351.856	365.31
352.083	406.31
352.311	391.31
352.538	403.31
352.765	399.31
352.992	391.31
353.22	365.31
353.447	386.31
353.674	350.31
353.901	379.31
354.128	368.31
354.355	346.31
354.583	344.31
354.81	359.31
355.037	363.31
355.264	367.31
355.491	343.31
355.718	341.31
355.945	344.31
356.172	334.31
356.399	349.31
356.626	342.31
356.853	331.31
357.08	331.31
357.307	353.31
357.534	345.31
357.761	350.31
357.988	349.31
358.215	342.31
358.441	346.31
358.668	354.31
358.895	355.31
359.122	356.31
359.349	368.31
359.576	375.31
359.802	423.31
360.029	421.31
360.256	434.31
360.483	421.31
360.709	383.31
360.936	397.31
361.163	392.31
361.39	406.31
361.616	385.31
361.843	387.31
362.07	393.31
362.296	383.31
362.523	384.31
362.749	374.31
362.976	364.31
363.203	371.31
363.429	352.31
363.656	360.31
363.882	358.31
364.109	365.31
364.335	379.31
364.562	345.31
364.788	369.31
365.015	369.31
365.241	365.31
365.468	355.31
365.694	351.31
365.92	384.31
366.147	364.31
366.373	371.31
366.599	349.31
366.826	362.31
367.052	363.31
367.278	358.31
367.505	360.31
367.731	355.31
367.957	339.31
368.184	371.31
368.41	379.31
368.636	375.31
368.862	378.31
369.089	362.31
369.315	357.31
369.541	366.31
369.767	356.31
369.993	345.31
370.219	347.31
370.445	364.31
370.672	346.31
370.898	352.31
371.124	359.31
371.35	327.31
371.576	360.31
371.802	357.31
372.028	360.31
372.254	353.31
372.48	358.31
372.706	346.31
372.932	334.31
373.158	359.31
373.384	340.31
373.61	371.31
373.835	392.31
374.061	365.31
374.287	357.31
374.513	362.31
374.739	359.31
374.965	353.31
375.191	356.31
375.416	337.31
375.642	346.31
375.868	359.31
376.094	352.31
376.319	350.31
376.545	347.31
376.771	352.31
376.997	355.31
377.222	355.31
377.448	342.31
377.674	346.31
377.899	349.31
378.125	340.31
378.35	352.31
378.576	335.31
378.802	345.31
379.027	345.31
379.253	348.31
379.478	336.31
379.704	337.31
379.929	344.31
380.155	355.31
380.38	343.31
380.606	347.31
380.831	359.31
381.057	342.31
381.282	343.31
381.507	337.31
381.733	367.31
381.958	357.31
382.184	364.31
382.409	358.31
382.634	357.31
382.86	366.31
383.085	361.31
383.31	360.31
383.535	363.31
383.761	345.31
383.986	351.31
384.211	332.31
384.436	360.31
384.662	369.31
384.887	369.31
385.112	377.31
385.337	372.31
385.562	361.31
385.787	363.31
386.013	369.31
386.238	373.31
386.463	377.31
386.688	375.31
386.913	364.31
387.138	364.31
387.363	353.31
387.588	347.31
387.813	375.31
388.038	364.31
388.263	379.31
388.488	393.31
388.713	387.31
388.938	361.31
389.163	380.31
389.387	374.31
389.612	364.31
389.837	364.31
390.062	367.31
390.287	389.31
390.512	371.31
390.736	371.31
390.961	359.31
391.186	359.31
391.411	375.31
391.636	389.31
391.86	382.31
392.085	391.31
392.31	374.31
392.534	375.31
392.759	375.31
392.984	379.31
393.208	367.31
393.433	375.31
393.658	380.31
393.882	359.31
394.107	373.31
394.331	354.31
394.556	368.31
394.78	396.31
395.005	359.31
395.229	371.31
395.454	394.31
395.678	379.31
395.903	399.31
396.127	404.31
396.352	391.31
396.576	379.31
396.801	385.31
397.025	398.31
397.249	398.31
397.474	406.31
397.698	389.31
397.922	408.31
398.147	419.31
398.371	397.31
398.595	420.31
398.82	419.31
399.044	421.31
399.268	433.31
399.492	418.31
399.717	469.31
399.941	496.31
400.165	505.31
400.389	517.31
400.613	500.31
400.837	435.31
401.062	447.31
401.286	429.31
401.51	433.31
401.734	425.31
401.958	421.31
402.182	418.31
402.406	425.31
402.63	449.31
402.854	433.31
403.078	423.31
403.302	445.31
403.526	456.31
403.75	443.31
403.974	439.31
404.198	417.31
404.422	431.31
404.645	431.31
404.869	450.31
405.093	477.31
405.317	495.31
405.541	539.31
405.765	486.31
405.988	489.31
406.212	477.31
406.436	491.31
406.66	507.31
406.883	484.31
407.107	509.31
407.331	541.31
407.555	596.31
407.778	558.31
408.002	518.31
408.226	484.31
408.449	466.31
408.673	467.31
408.896	492.31
409.12	552.31
409.344	496.31
409.567	462.31
409.791	449.31
410.014	448.31
410.238	452.31
410.461	451.31
410.685	432.31
410.908	452.31
411.132	489.31
411.355	505.31
411.578	483.31
411.802	474.31
412.025	436.31
412.249	459.31
412.472	473.31
412.695	507.31
412.919	492.31
413.142	454.31
413.365	439.31
413.589	436.31
413.812	411.31
414.035	424.31
414.258	401.31
414.482	416.31
414.705	408.31
414.928	404.31
415.151	431.31
415.374	405.31
415.597	415.31
415.821	408.31
416.044	427.31
416.267	421.31
416.49	403.31
416.713	391.31
416.936	379.31
417.159	442.31
417.382	412.31
417.605	427.31
417.828	436.31
418.051	458.31
418.274	453.31
418.497	416.31
418.72	426.31
418.943	415.31
419.166	425.31
419.389	454.31
419.611	445.31
419.834	417.31
420.057	450.31
420.28	431.31
420.503	420.31
420.726	447.31
420.948	439.31
421.171	500.31
421.394	515.31
421.617	471.31
421.839	439.31
422.062	445.31
422.285	440.31
422.507	511.31
422.73	553.31
422.953	536.31
423.175	479.31
423.398	445.31
423.621	456.31
423.843	463.31
424.066	492.31
424.288	468.31
424.511	475.31
424.733	507.31
424.956	619.31
425.178	576.31
425.401	567.31
425.623	611.31
425.846	515.31
426.068	482.31
426.291	467.31
426.513	481.31
426.735	471.31
426.958	511.31
427.18	587.31
427.402	700.31
427.625	798.31
427.847	708.31
428.069	593.31
428.292	531.31
428.514	505.31
428.736	472.31
428.958	452.31
429.181	436.31
429.403	449.31
429.625	456.31
429.847	488.31
430.069	552.31
430.292	542.31
430.514	447.31
430.736	459.31
430.958	449.31
431.18	441.31
431.402	425.31
431.624	416.31
431.846	424.31
432.068	415.31
432.29	413.31
432.512	422.31
432.734	435.31
432.956	430.31
433.178	454.31
433.4	444.31
433.622	435.31
433.844	415.31
434.066	421.31
434.287	430.31
434.509	420.31
434.731	414.31
434.953	417.31
435.175	457.31
435.397	460.31
435.618	507.31
435.84	517.31
436.062	584.31
436.284	637.31
436.505	526.31
436.727	499.31
436.949	483.31
437.17	450.31
437.392	473.31
437.614	453.31
437.835	508.31
438.057	614.31
438.278	703.31
438.5	655.31
438.721	714.31
438.943	671.31
439.165	547.31
439.386	502.31
439.608	492.31
439.829	513.31
440.05	495.31
440.272	548.31
440.493	543.31
440.715	473.31
440.936	455.31
441.158	454.31
441.379	459.31
441.6	474.31
441.822	481.31
442.043	517.31
442.264	597.31
442.486	615.31
442.707	545.31
442.928	487.31
443.149	495.31
443.371	528.31
443.592	583.31
443.813	647.31
444.034	686.31
444.255	580.31
444.476	492.31
444.698	479.31
444.919	498.31
445.14	564.31
445.361	551.31
445.582	529.31
445.803	589.31
446.024	687.31
446.245	656.31
446.466	628.31
446.687	514.31
446.908	497.31
447.129	459.31
447.35	445.31
447.571	442.31
447.792	443.31
448.013	465.31
448.234	492.31
448.455	546.31
448.675	639.31
448.896	714.31
449.117	599.31
449.338	567.31
449.559	686.31
449.779	742.31
450	579.31
450.221	511.31
450.442	470.31
450.662	461.31
450.883	456.31
451.104	466.31
451.324	461.31
451.545	441.31
451.766	414.31
451.986	398.31
452.207	400.31
452.428	405.31
452.648	405.31
452.869	404.31
453.089	411.31
453.31	452.31
453.53	435.31
453.751	440.31
453.971	414.31
454.192	444.31
454.412	399.31
454.633	428.31
454.853	397.31
455.073	401.31
455.294	437.31
455.514	472.31
455.734	474.31
455.955	422.31
456.175	381.31
456.395	373.31
456.616	385.31
456.836	367.31
457.056	373.31
457.276	379.31
457.497	402.31
457.717	375.31
457.937	384.31
458.157	388.31
458.377	404.31
458.598	442.31
458.818	479.31
459.038	577.31
459.258	544.31
459.478	479.31
459.698	432.31
459.918	429.31
460.138	423.31
460.358	409.31
460.578	418.31
460.798	402.31
461.018	428.31
461.238	412.31
461.458	408.31
461.678	422.31
461.898	433.31
462.118	423.31
462.338	432.31
462.558	422.31
462.777	430.31
462.997	439.31
463.217	440.31
463.437	432.31
463.657	421.31
463.876	432.31
464.096	428.31
464.316	436.31
464.536	477.31
464.755	437.31
464.975	463.31
465.195	519.31
465.414	592.31
465.634	519.31
465.854	451.31
466.073	420.31
466.293	430.31
466.512	398.31
466.732	415.31
466.951	404.31
467.171	422.31
467.391	426.31
467.61	419.31
467.829	416.31
468.049	421.31
468.268	417.31
468.488	410.31
468.707	390.31
468.927	391.31
469.146	377.31
469.365	409.31
469.585	415.31
469.804	387.31
470.023	441.31
470.243	403.31
470.462	421.31
470.681	452.31
470.901	435.31
471.12	408.31
471.339	421.31
471.558	419.31
471.777	414.31
471.997	405.31
472.216	431.31
472.435	460.31
472.654	448.31
472.873	428.31
473.092	415.31
473.311	413.31
473.53	423.31
473.749	430.31
473.968	453.31
474.187	575.31
474.406	579.31
474.625	470.31
474.844	435.31
475.063	427.31
475.282	411.31
475.501	423.31
475.72	424.31
475.939	433.31
476.158	434.31
476.377	431.31
476.596	423.31
476.814	435.31
477.033	443.31
477.252	451.31
477.471	464.31
477.69	431.31
477.908	447.31
478.127	444.31
478.346	459.31
478.564	477.31
478.783	451.31
479.002	456.31
479.22	476.31
479.439	467.31
479.658	503.31
479.876	504.31
480.095	517.31
480.313	529.31
480.532	511.31
480.751	521.31
480.969	519.31
481.188	608.31
481.406	641.31
481.624	550.31
481.843	529.31
482.061	530.31
482.28	496.31
482.498	491.31
482.717	469.31
482.935	480.31
483.153	483.31
483.372	486.31
483.59	509.31
483.808	480.31
484.027	496.31
484.245	501.31
484.463	483.31
484.681	492.31
484.9	501.31
485.118	491.31
485.336	478.31
485.554	515.31
485.772	519.31
485.99	511.31
486.209	529.31
486.427	511.31
486.645	508.31
486.863	542.31
487.081	534.31
487.299	534.31
487.517	517.31
487.735	495.31
487.953	513.31
488.171	541.31
488.389	521.31
488.607	536.31
488.825	557.31
489.043	526.31
489.261	507.31
489.479	549.31
489.696	521.31
489.914	548.31
490.132	535.31
490.35	560.31
490.568	564.31
490.786	582.31
491.003	549.31
491.221	585.31
491.439	589.31
491.657	599.31
491.874	597.31
492.092	593.31
492.31	599.31
492.527	601.31
492.745	617.31
492.963	637.31
493.18	603.31
493.398	625.31
493.615	641.31
493.833	609.31
494.05	607.31
494.268	617.31
494.485	609.31
494.703	624.31
494.92	624.31
495.138	634.31
495.355	620.31
495.573	617.31
495.79	618.31
496.008	606.31
496.225	623.31
496.442	612.31
496.66	652.31
496.877	628.31
497.094	614.31
497.312	645.31
497.529	642.31
497.746	650.31
497.963	669.31
498.181	656.31
498.398	658.31
498.615	657.31
498.832	715.31
499.049	686.31
499.267	713.31
499.484	712.31
499.701	718.31
499.918	739.31
500.135	751.31
500.352	783.31
500.569	784.31
500.786	823.31
501.003	788.31
501.22	761.31
501.437	775.31
501.654	747.31
501.871	756.31
502.088	742.31
