Data from 1965.PennyLincolnUp.Lamp.En5.5.200Scan.071719.P1._HRD10591_14-10-42-914.txt Node
Date: Thu Jul 18 14:10:42 EDT 2019
User: cochatt
Spectrometer: HR+D1059
Trigger mode: 1
Integration Time (sec): 1.000000E-1
Scans to average: 1
Electric dark correction enabled: true
Nonlinearity correction enabled: false
Boxcar width: 0
XAxis mode: Wavelengths
Number of Pixels in Spectrum: 2048
>>>>>Begin Spectral Data<<<<<
223.165	-12.81
223.4	-12.81
223.635	-12.81
223.869	-32.81
224.104	-25.81
224.338	-17.81
224.573	-21.81
224.808	-19.81
225.042	-14.81
225.277	3.19
225.511	4.19
225.746	6.19
225.98	16.19
226.215	7.19
226.449	28.19
226.683	41.19
226.918	22.19
227.152	17.19
227.387	29.19
227.621	33.19
227.856	43.19
228.09	46.19
228.324	45.19
228.559	43.19
228.793	45.19
229.027	92.19
229.262	111.19
229.496	114.19
229.73	137.19
229.964	137.19
230.199	112.19
230.433	99.19
230.667	103.19
230.901	119.19
231.136	105.19
231.37	103.19
231.604	110.19
231.838	104.19
232.072	109.19
232.306	102.19
232.541	99.19
232.775	111.19
233.009	120.19
233.243	105.19
233.477	118.19
233.711	102.19
233.945	117.19
234.179	103.19
234.413	107.19
234.647	114.19
234.881	117.19
235.115	105.19
235.349	120.19
235.583	114.19
235.817	128.19
236.051	123.19
236.285	121.19
236.519	108.19
236.753	121.19
236.987	147.19
237.221	173.19
237.455	226.19
237.689	171.19
237.922	119.19
238.156	142.19
238.39	115.19
238.624	118.19
238.858	118.19
239.091	122.19
239.325	108.19
239.559	126.19
239.793	128.19
240.027	113.19
240.26	143.19
240.494	165.19
240.728	136.19
240.961	143.19
241.195	123.19
241.429	125.19
241.662	141.19
241.896	119.19
242.13	119.19
242.363	131.19
242.597	132.19
242.83	140.19
243.064	123.19
243.298	124.19
243.531	127.19
243.765	133.19
243.998	125.19
244.232	138.19
244.465	134.19
244.699	130.19
244.932	137.19
245.166	137.19
245.399	126.19
245.633	139.19
245.866	137.19
246.099	144.19
246.333	143.19
246.566	133.19
246.8	138.19
247.033	135.19
247.266	141.19
247.5	153.19
247.733	154.19
247.966	153.19
248.2	141.19
248.433	155.19
248.666	159.19
248.899	159.19
249.133	189.19
249.366	198.19
249.599	166.19
249.832	162.19
250.066	169.19
250.299	174.19
250.532	174.19
250.765	191.19
250.998	199.19
251.231	202.19
251.465	189.19
251.698	185.19
251.931	177.19
252.164	183.19
252.397	190.19
252.63	199.19
252.863	177.19
253.096	196.19
253.329	211.19
253.562	212.19
253.795	190.19
254.028	205.19
254.261	201.19
254.494	220.19
254.727	220.19
254.96	251.19
255.193	262.19
255.426	229.19
255.659	214.19
255.892	229.19
256.124	220.19
256.357	213.19
256.59	215.19
256.823	195.19
257.056	202.19
257.289	200.19
257.521	198.19
257.754	192.19
257.987	199.19
258.22	191.19
258.452	189.19
258.685	194.19
258.918	204.19
259.151	183.19
259.383	200.19
259.616	207.19
259.849	206.19
260.081	210.19
260.314	233.19
260.547	222.19
260.779	233.19
261.012	206.19
261.244	207.19
261.477	206.19
261.71	185.19
261.942	209.19
262.175	221.19
262.407	216.19
262.64	185.19
262.872	189.19
263.105	202.19
263.337	191.19
263.57	198.19
263.802	193.19
264.035	193.19
264.267	184.19
264.499	195.19
264.732	183.19
264.964	185.19
265.197	195.19
265.429	193.19
265.661	195.19
265.894	185.19
266.126	191.19
266.358	189.19
266.591	200.19
266.823	212.19
267.055	214.19
267.287	207.19
267.52	196.19
267.752	203.19
267.984	218.19
268.216	210.19
268.448	207.19
268.681	211.19
268.913	232.19
269.145	244.19
269.377	234.19
269.609	241.19
269.841	234.19
270.073	238.19
270.306	266.19
270.538	290.19
270.77	274.19
271.002	271.19
271.234	254.19
271.466	276.19
271.698	296.19
271.93	281.19
272.162	279.19
272.394	299.19
272.626	299.19
272.858	261.19
273.09	267.19
273.322	235.19
273.553	254.19
273.785	244.19
274.017	242.19
274.249	246.19
274.481	247.19
274.713	238.19
274.945	226.19
275.176	245.19
275.408	257.19
275.64	233.19
275.872	228.19
276.104	227.19
276.335	218.19
276.567	238.19
276.799	249.19
277.031	309.19
277.262	277.19
277.494	282.19
277.726	266.19
277.957	268.19
278.189	247.19
278.421	229.19
278.652	237.19
278.884	238.19
279.115	237.19
279.347	242.19
279.579	255.19
279.81	232.19
280.042	227.19
280.273	238.19
280.505	244.19
280.736	230.19
280.968	229.19
281.199	222.19
281.431	239.19
281.662	234.19
281.894	235.19
282.125	237.19
282.356	266.19
282.588	269.19
282.819	275.19
283.051	247.19
283.282	234.19
283.513	258.19
283.745	229.19
283.976	231.19
284.207	246.19
284.439	243.19
284.67	249.19
284.901	237.19
285.132	225.19
285.364	234.19
285.595	247.19
285.826	248.19
286.057	241.19
286.288	236.19
286.52	246.19
286.751	244.19
286.982	237.19
287.213	245.19
287.444	248.19
287.675	261.19
287.906	268.19
288.138	265.19
288.369	271.19
288.6	269.19
288.831	261.19
289.062	270.19
289.293	257.19
289.524	251.19
289.755	257.19
289.986	230.19
290.217	230.19
290.448	258.19
290.679	261.19
290.91	243.19
291.141	257.19
291.371	264.19
291.602	247.19
291.833	259.19
292.064	243.19
292.295	263.19
292.526	258.19
292.757	251.19
292.987	257.19
293.218	252.19
293.449	257.19
293.68	267.19
293.91	236.19
294.141	248.19
294.372	259.19
294.603	258.19
294.833	263.19
295.064	251.19
295.295	268.19
295.525	257.19
295.756	257.19
295.987	279.19
296.217	294.19
296.448	299.19
296.679	247.19
296.909	238.19
297.14	260.19
297.37	254.19
297.601	262.19
297.831	264.19
298.062	249.19
298.292	251.19
298.523	260.19
298.753	275.19
298.984	261.19
299.214	263.19
299.445	278.19
299.675	271.19
299.905	275.19
300.136	288.19
300.366	271.19
300.597	278.19
300.827	259.19
301.057	282.19
301.288	293.19
301.518	288.19
301.748	291.19
301.979	279.19
302.209	287.19
302.439	284.19
302.669	275.19
302.9	275.19
303.13	284.19
303.36	297.19
303.59	281.19
303.82	310.19
304.051	287.19
304.281	285.19
304.511	293.19
304.741	283.19
304.971	282.19
305.201	289.19
305.431	285.19
305.661	289.19
305.891	272.19
306.121	297.19
306.352	266.19
306.582	286.19
306.812	289.19
307.042	288.19
307.272	287.19
307.502	291.19
307.731	302.19
307.961	279.19
308.191	277.19
308.421	294.19
308.651	300.19
308.881	310.19
309.111	297.19
309.341	298.19
309.571	326.19
309.8	324.19
310.03	338.19
310.26	365.19
310.49	347.19
310.72	345.19
310.949	358.19
311.179	358.19
311.409	329.19
311.639	341.19
311.868	329.19
312.098	333.19
312.328	362.19
312.557	374.19
312.787	373.19
313.017	362.19
313.246	347.19
313.476	335.19
313.706	321.19
313.935	347.19
314.165	351.19
314.394	358.19
314.624	370.19
314.853	339.19
315.083	347.19
315.312	330.19
315.542	346.19
315.771	323.19
316.001	321.19
316.23	314.19
316.46	323.19
316.689	332.19
316.919	341.19
317.148	343.19
317.377	353.19
317.607	353.19
317.836	344.19
318.065	336.19
318.295	347.19
318.524	345.19
318.753	346.19
318.983	359.19
319.212	334.19
319.441	334.19
319.67	353.19
319.9	341.19
320.129	343.19
320.358	324.19
320.587	356.19
320.816	348.19
321.046	353.19
321.275	343.19
321.504	358.19
321.733	358.19
321.962	353.19
322.191	353.19
322.42	405.19
322.649	405.19
322.878	426.19
323.108	430.19
323.337	458.19
323.566	471.19
323.795	508.19
324.024	573.19
324.253	699.19
324.482	1030.19
324.71	1579.19
324.939	2183.19
325.168	1834.19
325.397	925.19
325.626	645.19
325.855	524.19
326.084	497.19
326.313	466.19
326.542	473.19
326.77	535.19
326.999	626.19
327.228	933.19
327.457	1349.19
327.686	1604.19
327.914	1075.19
328.143	711.19
328.372	604.19
328.6	581.19
328.829	541.19
329.058	543.19
329.287	551.19
329.515	539.19
329.744	490.19
329.972	473.19
330.201	493.19
330.43	561.19
330.658	561.19
330.887	601.19
331.115	564.19
331.344	464.19
331.572	450.19
331.801	462.19
332.03	450.19
332.258	417.19
332.486	422.19
332.715	394.19
332.943	392.19
333.172	412.19
333.4	393.19
333.629	431.19
333.857	425.19
334.085	439.19
334.314	470.19
334.542	510.19
334.771	503.19
334.999	468.19
335.227	449.19
335.455	402.19
335.684	385.19
335.912	387.19
336.14	379.19
336.369	395.19
336.597	385.19
336.825	404.19
337.053	390.19
337.281	389.19
337.51	398.19
337.738	389.19
337.966	391.19
338.194	392.19
338.422	403.19
338.65	386.19
338.878	393.19
339.106	390.19
339.334	380.19
339.562	381.19
339.79	380.19
340.018	379.19
340.246	380.19
340.474	386.19
340.702	393.19
340.93	384.19
341.158	363.19
341.386	387.19
341.614	374.19
341.842	396.19
342.07	346.19
342.298	367.19
342.526	366.19
342.754	354.19
342.981	360.19
343.209	360.19
343.437	362.19
343.665	358.19
343.893	357.19
344.12	375.19
344.348	365.19
344.576	366.19
344.804	371.19
345.031	385.19
345.259	399.19
345.487	387.19
345.714	381.19
345.942	365.19
346.17	380.19
346.397	359.19
346.625	355.19
346.853	351.19
347.08	371.19
347.308	385.19
347.535	375.19
347.763	371.19
347.99	362.19
348.218	381.19
348.445	391.19
348.673	381.19
348.9	377.19
349.128	371.19
349.355	361.19
349.583	358.19
349.81	358.19
350.037	350.19
350.265	351.19
350.492	356.19
350.72	362.19
350.947	354.19
351.174	380.19
351.402	381.19
351.629	376.19
351.856	385.19
352.083	393.19
352.311	385.19
352.538	383.19
352.765	385.19
352.992	387.19
353.22	385.19
353.447	371.19
353.674	375.19
353.901	350.19
354.128	342.19
354.355	341.19
354.583	354.19
354.81	340.19
355.037	358.19
355.264	343.19
355.491	338.19
355.718	331.19
355.945	339.19
356.172	339.19
356.399	335.19
356.626	339.19
356.853	335.19
357.08	343.19
357.307	331.19
357.534	329.19
357.761	336.19
357.988	344.19
358.215	323.19
358.441	329.19
358.668	338.19
358.895	335.19
359.122	362.19
359.349	350.19
359.576	365.19
359.802	414.19
360.029	417.19
360.256	441.19
360.483	407.19
360.709	366.19
360.936	377.19
361.163	361.19
361.39	364.19
361.616	379.19
361.843	378.19
362.07	386.19
362.296	375.19
362.523	384.19
362.749	379.19
362.976	366.19
363.203	354.19
363.429	349.19
363.656	351.19
363.882	350.19
364.109	371.19
364.335	368.19
364.562	340.19
364.788	346.19
365.015	358.19
365.241	353.19
365.468	367.19
365.694	364.19
365.92	353.19
366.147	351.19
366.373	349.19
366.599	354.19
366.826	342.19
367.052	347.19
367.278	339.19
367.505	341.19
367.731	347.19
367.957	340.19
368.184	367.19
368.41	346.19
368.636	373.19
368.862	369.19
369.089	353.19
369.315	335.19
369.541	342.19
369.767	322.19
369.993	321.19
370.219	327.19
370.445	353.19
370.672	347.19
370.898	341.19
371.124	327.19
371.35	354.19
371.576	333.19
371.802	327.19
372.028	359.19
372.254	335.19
372.48	350.19
372.706	333.19
372.932	337.19
373.158	337.19
373.384	352.19
373.61	333.19
373.835	330.19
374.061	327.19
374.287	331.19
374.513	335.19
374.739	338.19
374.965	339.19
375.191	328.19
375.416	339.19
375.642	335.19
375.868	355.19
376.094	342.19
376.319	320.19
376.545	339.19
376.771	345.19
376.997	332.19
377.222	339.19
377.448	353.19
377.674	349.19
377.899	345.19
378.125	336.19
378.35	322.19
378.576	326.19
378.802	321.19
379.027	329.19
379.253	333.19
379.478	343.19
379.704	344.19
379.929	335.19
380.155	330.19
380.38	334.19
380.606	328.19
380.831	342.19
381.057	356.19
381.282	354.19
381.507	332.19
381.733	347.19
381.958	351.19
382.184	326.19
382.409	332.19
382.634	355.19
382.86	349.19
383.085	326.19
383.31	342.19
383.535	350.19
383.761	349.19
383.986	352.19
384.211	352.19
384.436	351.19
384.662	348.19
384.887	369.19
385.112	362.19
385.337	357.19
385.562	342.19
385.787	358.19
386.013	370.19
386.238	370.19
386.463	346.19
386.688	357.19
386.913	341.19
387.138	354.19
387.363	358.19
387.588	354.19
387.813	354.19
388.038	361.19
388.263	355.19
388.488	362.19
388.713	346.19
388.938	364.19
389.163	349.19
389.387	370.19
389.612	355.19
389.837	347.19
390.062	363.19
390.287	366.19
390.512	357.19
390.736	361.19
390.961	341.19
391.186	355.19
391.411	363.19
391.636	354.19
391.86	344.19
392.085	371.19
392.31	350.19
392.534	381.19
392.759	377.19
392.984	381.19
393.208	357.19
393.433	358.19
393.658	350.19
393.882	346.19
394.107	346.19
394.331	371.19
394.556	361.19
394.78	359.19
395.005	359.19
395.229	355.19
395.454	373.19
395.678	369.19
395.903	379.19
396.127	390.19
396.352	379.19
396.576	385.19
396.801	370.19
397.025	373.19
397.249	375.19
397.474	382.19
397.698	384.19
397.922	366.19
398.147	405.19
398.371	407.19
398.595	403.19
398.82	420.19
399.044	404.19
399.268	429.19
399.492	429.19
399.717	443.19
399.941	457.19
400.165	489.19
400.389	494.19
400.613	464.19
400.837	446.19
401.062	417.19
401.286	414.19
401.51	402.19
401.734	402.19
401.958	433.19
402.182	426.19
402.406	429.19
402.63	422.19
402.854	406.19
403.078	410.19
403.302	422.19
403.526	408.19
403.75	414.19
403.974	425.19
404.198	419.19
404.422	444.19
404.645	439.19
404.869	433.19
405.093	465.19
405.317	477.19
405.541	522.19
405.765	482.19
405.988	454.19
406.212	454.19
406.436	460.19
406.66	487.19
406.883	450.19
407.107	498.19
407.331	499.19
407.555	553.19
407.778	528.19
408.002	504.19
408.226	462.19
408.449	452.19
408.673	465.19
408.896	513.19
409.12	521.19
409.344	482.19
409.567	453.19
409.791	433.19
410.014	417.19
410.238	417.19
410.461	433.19
410.685	429.19
410.908	461.19
411.132	491.19
411.355	499.19
411.578	473.19
411.802	444.19
412.025	434.19
412.249	436.19
412.472	459.19
412.695	482.19
412.919	470.19
413.142	437.19
413.365	426.19
413.589	418.19
413.812	426.19
414.035	417.19
414.258	397.19
414.482	402.19
414.705	371.19
414.928	390.19
415.151	383.19
415.374	408.19
415.597	391.19
415.821	407.19
416.044	406.19
416.267	413.19
416.49	411.19
416.713	402.19
416.936	400.19
417.159	408.19
417.382	398.19
417.605	398.19
417.828	423.19
418.051	444.19
418.274	404.19
418.497	393.19
418.72	398.19
418.943	405.19
419.166	395.19
419.389	444.19
419.611	449.19
419.834	442.19
420.057	412.19
420.28	428.19
420.503	413.19
420.726	414.19
420.948	450.19
421.171	490.19
421.394	485.19
421.617	439.19
421.839	438.19
422.062	425.19
422.285	437.19
422.507	490.19
422.73	561.19
422.953	533.19
423.175	472.19
423.398	442.19
423.621	436.19
423.843	476.19
424.066	455.19
424.288	464.19
424.511	483.19
424.733	531.19
424.956	591.19
425.178	548.19
425.401	578.19
425.623	587.19
425.846	496.19
426.068	467.19
426.291	466.19
426.513	462.19
426.735	482.19
426.958	514.19
427.18	593.19
427.402	683.19
427.625	744.19
427.847	684.19
428.069	587.19
428.292	531.19
428.514	479.19
428.736	441.19
428.958	459.19
429.181	425.19
429.403	453.19
429.625	426.19
429.847	463.19
430.069	507.19
430.292	526.19
430.514	453.19
430.736	430.19
430.958	441.19
431.18	395.19
431.402	423.19
431.624	392.19
431.846	403.19
432.068	399.19
432.29	413.19
432.512	406.19
432.734	418.19
432.956	418.19
433.178	427.19
433.4	411.19
433.622	407.19
433.844	397.19
434.066	414.19
434.287	407.19
434.509	403.19
434.731	412.19
434.953	427.19
435.175	423.19
435.397	462.19
435.618	500.19
435.84	503.19
436.062	560.19
436.284	638.19
436.505	542.19
436.727	497.19
436.949	474.19
437.17	457.19
437.392	472.19
437.614	442.19
437.835	484.19
438.057	585.19
438.278	654.19
438.5	653.19
438.721	709.19
438.943	659.19
439.165	531.19
439.386	487.19
439.608	490.19
439.829	468.19
440.05	521.19
440.272	547.19
440.493	509.19
440.715	467.19
440.936	437.19
441.158	444.19
441.379	446.19
441.6	466.19
441.822	477.19
442.043	498.19
442.264	599.19
442.486	606.19
442.707	528.19
442.928	507.19
443.149	502.19
443.371	527.19
443.592	530.19
443.813	623.19
444.034	656.19
444.255	557.19
444.476	492.19
444.698	474.19
444.919	462.19
445.14	557.19
445.361	493.19
445.582	493.19
445.803	569.19
446.024	643.19
446.245	669.19
446.466	615.19
446.687	537.19
446.908	497.19
447.129	472.19
447.35	439.19
447.571	452.19
447.792	450.19
448.013	435.19
448.234	455.19
448.455	500.19
448.675	623.19
448.896	693.19
449.117	605.19
449.338	568.19
449.559	650.19
449.779	724.19
450	603.19
450.221	490.19
450.442	463.19
450.662	426.19
450.883	455.19
451.104	474.19
451.324	425.19
451.545	422.19
451.766	430.19
451.986	406.19
452.207	388.19
452.428	393.19
452.648	404.19
452.869	408.19
453.089	410.19
453.31	395.19
453.53	405.19
453.751	365.19
453.971	408.19
454.192	427.19
454.412	414.19
454.633	393.19
454.853	386.19
455.073	401.19
455.294	422.19
455.514	467.19
455.734	452.19
455.955	395.19
456.175	371.19
456.395	361.19
456.616	389.19
456.836	373.19
457.056	367.19
457.276	360.19
457.497	383.19
457.717	376.19
457.937	376.19
458.157	379.19
458.377	405.19
458.598	409.19
458.818	461.19
459.038	533.19
459.258	556.19
459.478	462.19
459.698	433.19
459.918	424.19
460.138	407.19
460.358	405.19
460.578	405.19
460.798	412.19
461.018	407.19
461.238	398.19
461.458	397.19
461.678	392.19
461.898	381.19
462.118	416.19
462.338	411.19
462.558	402.19
462.777	414.19
462.997	443.19
463.217	421.19
463.437	429.19
463.657	424.19
463.876	424.19
464.096	404.19
464.316	428.19
464.536	428.19
464.755	428.19
464.975	442.19
465.195	500.19
465.414	594.19
465.634	489.19
465.854	438.19
466.073	437.19
466.293	426.19
466.512	400.19
466.732	411.19
466.951	397.19
467.171	407.19
467.391	415.19
467.61	398.19
467.829	422.19
468.049	443.19
468.268	397.19
468.488	409.19
468.707	382.19
468.927	395.19
469.146	384.19
469.365	378.19
469.585	373.19
469.804	405.19
470.023	411.19
470.243	423.19
470.462	412.19
470.681	418.19
470.901	424.19
471.12	406.19
471.339	403.19
471.558	416.19
471.777	404.19
471.997	412.19
472.216	390.19
472.435	463.19
472.654	437.19
472.873	405.19
473.092	410.19
473.311	404.19
473.53	410.19
473.749	404.19
473.968	443.19
474.187	553.19
474.406	558.19
474.625	469.19
474.844	433.19
475.063	412.19
475.282	416.19
475.501	417.19
475.72	424.19
475.939	415.19
476.158	408.19
476.377	404.19
476.596	424.19
476.814	435.19
477.033	445.19
477.252	419.19
477.471	428.19
477.69	419.19
477.908	451.19
478.127	429.19
478.346	422.19
478.564	447.19
478.783	429.19
479.002	445.19
479.22	470.19
479.439	464.19
479.658	478.19
479.876	499.19
480.095	492.19
480.313	520.19
480.532	497.19
480.751	513.19
480.969	515.19
481.188	596.19
481.406	649.19
481.624	535.19
481.843	519.19
482.061	502.19
482.28	483.19
482.498	507.19
482.717	478.19
482.935	485.19
483.153	473.19
483.372	470.19
483.59	465.19
483.808	469.19
484.027	464.19
484.245	467.19
484.463	463.19
484.681	490.19
484.9	464.19
485.118	505.19
485.336	478.19
485.554	483.19
485.772	485.19
485.99	474.19
486.209	493.19
486.427	501.19
486.645	524.19
486.863	542.19
487.081	537.19
487.299	519.19
487.517	502.19
487.735	500.19
487.953	500.19
488.171	518.19
488.389	499.19
488.607	516.19
488.825	526.19
489.043	521.19
489.261	523.19
489.479	543.19
489.696	535.19
489.914	530.19
490.132	541.19
490.35	528.19
490.568	523.19
490.786	541.19
491.003	540.19
491.221	567.19
491.439	586.19
491.657	575.19
491.874	578.19
492.092	571.19
492.31	597.19
492.527	605.19
492.745	586.19
492.963	594.19
493.18	611.19
493.398	609.19
493.615	604.19
493.833	597.19
494.05	628.19
494.268	589.19
494.485	587.19
494.703	603.19
494.92	631.19
495.138	610.19
495.355	605.19
495.573	595.19
495.79	613.19
496.008	590.19
496.225	595.19
496.442	610.19
496.66	630.19
496.877	601.19
497.094	632.19
497.312	625.19
497.529	625.19
497.746	613.19
497.963	633.19
498.181	641.19
498.398	658.19
498.615	661.19
498.832	674.19
499.049	673.19
499.267	687.19
499.484	713.19
499.701	705.19
499.918	723.19
500.135	749.19
500.352	759.19
500.569	748.19
500.786	771.19
501.003	762.19
501.22	769.19
501.437	726.19
501.654	722.19
501.871	715.19
