Data from 1965.PennyLincolnUp.Lamp.En5.5.200Scan.071719.P1._HRD10591_14-10-36-912.txt Node
Date: Thu Jul 18 14:10:36 EDT 2019
User: cochatt
Spectrometer: HR+D1059
Trigger mode: 1
Integration Time (sec): 1.000000E-1
Scans to average: 1
Electric dark correction enabled: true
Nonlinearity correction enabled: false
Boxcar width: 0
XAxis mode: Wavelengths
Number of Pixels in Spectrum: 2048
>>>>>Begin Spectral Data<<<<<
223.165	-18.25
223.4	-18.25
223.635	-18.25
223.869	-10.25
224.104	-21.25
224.338	-13.25
224.573	-12.25
224.808	-5.25
225.042	-0.25
225.277	-3.25
225.511	-4.25
225.746	-8.25
225.98	7.75
226.215	2.75
226.449	5.75
226.683	28.75
226.918	22.75
227.152	28.75
227.387	38.75
227.621	21.75
227.856	39.75
228.09	43.75
228.324	48.75
228.559	49.75
228.793	60.75
229.027	85.75
229.262	90.75
229.496	98.75
229.73	129.75
229.964	143.75
230.199	121.75
230.433	112.75
230.667	116.75
230.901	104.75
231.136	98.75
231.37	100.75
231.604	104.75
231.838	104.75
232.072	104.75
232.306	114.75
232.541	114.75
232.775	109.75
233.009	113.75
233.243	97.75
233.477	98.75
233.711	99.75
233.945	114.75
234.179	107.75
234.413	112.75
234.647	99.75
234.881	124.75
235.115	109.75
235.349	90.75
235.583	88.75
235.817	126.75
236.051	124.75
236.285	123.75
236.519	134.75
236.753	136.75
236.987	136.75
237.221	166.75
237.455	214.75
237.689	165.75
237.922	126.75
238.156	124.75
238.39	120.75
238.624	124.75
238.858	118.75
239.091	118.75
239.325	106.75
239.559	111.75
239.793	118.75
240.027	130.75
240.26	131.75
240.494	134.75
240.728	138.75
240.961	128.75
241.195	138.75
241.429	122.75
241.662	108.75
241.896	133.75
242.13	116.75
242.363	121.75
242.597	117.75
242.83	130.75
243.064	126.75
243.298	122.75
243.531	136.75
243.765	135.75
243.998	133.75
244.232	129.75
244.465	133.75
244.699	131.75
244.932	127.75
245.166	141.75
245.399	138.75
245.633	121.75
245.866	147.75
246.099	142.75
246.333	141.75
246.566	128.75
246.8	123.75
247.033	135.75
247.266	140.75
247.5	148.75
247.733	142.75
247.966	163.75
248.2	149.75
248.433	156.75
248.666	145.75
248.899	164.75
249.133	186.75
249.366	178.75
249.599	167.75
249.832	155.75
250.066	180.75
250.299	169.75
250.532	169.75
250.765	176.75
250.998	205.75
251.231	186.75
251.465	184.75
251.698	182.75
251.931	184.75
252.164	188.75
252.397	172.75
252.63	197.75
252.863	183.75
253.096	201.75
253.329	204.75
253.562	177.75
253.795	179.75
254.028	188.75
254.261	194.75
254.494	202.75
254.727	224.75
254.96	256.75
255.193	229.75
255.426	224.75
255.659	217.75
255.892	216.75
256.124	195.75
256.357	187.75
256.59	186.75
256.823	189.75
257.056	200.75
257.289	203.75
257.521	180.75
257.754	178.75
257.987	193.75
258.22	188.75
258.452	204.75
258.685	198.75
258.918	189.75
259.151	169.75
259.383	212.75
259.616	200.75
259.849	201.75
260.081	213.75
260.314	232.75
260.547	233.75
260.779	225.75
261.012	220.75
261.244	211.75
261.477	194.75
261.71	202.75
261.942	197.75
262.175	224.75
262.407	204.75
262.64	198.75
262.872	188.75
263.105	195.75
263.337	201.75
263.57	193.75
263.802	192.75
264.035	185.75
264.267	188.75
264.499	187.75
264.732	188.75
264.964	197.75
265.197	169.75
265.429	197.75
265.661	178.75
265.894	182.75
266.126	184.75
266.358	212.75
266.591	179.75
266.823	194.75
267.055	192.75
267.287	206.75
267.52	188.75
267.752	203.75
267.984	194.75
268.216	197.75
268.448	202.75
268.681	216.75
268.913	218.75
269.145	236.75
269.377	252.75
269.609	232.75
269.841	265.75
270.073	231.75
270.306	260.75
270.538	282.75
270.77	268.75
271.002	274.75
271.234	282.75
271.466	258.75
271.698	289.75
271.93	286.75
272.162	282.75
272.394	281.75
272.626	274.75
272.858	256.75
273.09	249.75
273.322	232.75
273.553	220.75
273.785	224.75
274.017	225.75
274.249	237.75
274.481	247.75
274.713	235.75
274.945	240.75
275.176	228.75
275.408	220.75
275.64	234.75
275.872	248.75
276.104	228.75
276.335	222.75
276.567	234.75
276.799	247.75
277.031	260.75
277.262	270.75
277.494	292.75
277.726	256.75
277.957	258.75
278.189	246.75
278.421	250.75
278.652	232.75
278.884	233.75
279.115	236.75
279.347	217.75
279.579	221.75
279.81	229.75
280.042	228.75
280.273	242.75
280.505	239.75
280.736	237.75
280.968	241.75
281.199	222.75
281.431	233.75
281.662	234.75
281.894	234.75
282.125	235.75
282.356	236.75
282.588	274.75
282.819	289.75
283.051	249.75
283.282	238.75
283.513	238.75
283.745	256.75
283.976	228.75
284.207	241.75
284.439	237.75
284.67	257.75
284.901	236.75
285.132	238.75
285.364	237.75
285.595	255.75
285.826	228.75
286.057	260.75
286.288	248.75
286.52	242.75
286.751	243.75
286.982	244.75
287.213	236.75
287.444	246.75
287.675	244.75
287.906	278.75
288.138	261.75
288.369	250.75
288.6	250.75
288.831	256.75
289.062	249.75
289.293	253.75
289.524	259.75
289.755	242.75
289.986	258.75
290.217	249.75
290.448	246.75
290.679	266.75
290.91	245.75
291.141	256.75
291.371	256.75
291.602	252.75
291.833	237.75
292.064	260.75
292.295	239.75
292.526	246.75
292.757	246.75
292.987	235.75
293.218	232.75
293.449	249.75
293.68	273.75
293.91	245.75
294.141	243.75
294.372	251.75
294.603	261.75
294.833	247.75
295.064	248.75
295.295	252.75
295.525	260.75
295.756	262.75
295.987	266.75
296.217	294.75
296.448	315.75
296.679	279.75
296.909	247.75
297.14	248.75
297.37	262.75
297.601	238.75
297.831	238.75
298.062	258.75
298.292	263.75
298.523	274.75
298.753	258.75
298.984	276.75
299.214	264.75
299.445	268.75
299.675	273.75
299.905	278.75
300.136	272.75
300.366	266.75
300.597	276.75
300.827	284.75
301.057	281.75
301.288	284.75
301.518	280.75
301.748	282.75
301.979	284.75
302.209	290.75
302.439	297.75
302.669	300.75
302.9	287.75
303.13	291.75
303.36	287.75
303.59	285.75
303.82	274.75
304.051	277.75
304.281	284.75
304.511	264.75
304.741	266.75
304.971	279.75
305.201	282.75
305.431	268.75
305.661	273.75
305.891	292.75
306.121	289.75
306.352	300.75
306.582	306.75
306.812	268.75
307.042	304.75
307.272	297.75
307.502	300.75
307.731	287.75
307.961	278.75
308.191	312.75
308.421	303.75
308.651	308.75
308.881	307.75
309.111	316.75
309.341	309.75
309.571	315.75
309.8	327.75
310.03	330.75
310.26	335.75
310.49	346.75
310.72	352.75
310.949	365.75
311.179	362.75
311.409	334.75
311.639	344.75
311.868	359.75
312.098	334.75
312.328	340.75
312.557	350.75
312.787	371.75
313.017	380.75
313.246	348.75
313.476	320.75
313.706	328.75
313.935	361.75
314.165	369.75
314.394	356.75
314.624	348.75
314.853	350.75
315.083	333.75
315.312	337.75
315.542	320.75
315.771	306.75
316.001	305.75
316.23	321.75
316.46	348.75
316.689	341.75
316.919	343.75
317.148	332.75
317.377	340.75
317.607	353.75
317.836	340.75
318.065	349.75
318.295	350.75
318.524	332.75
318.753	329.75
318.983	340.75
319.212	348.75
319.441	352.75
319.67	345.75
319.9	336.75
320.129	326.75
320.358	333.75
320.587	341.75
320.816	342.75
321.046	375.75
321.275	352.75
321.504	356.75
321.733	377.75
321.962	394.75
322.191	398.75
322.42	388.75
322.649	407.75
322.878	415.75
323.108	427.75
323.337	460.75
323.566	459.75
323.795	504.75
324.024	562.75
324.253	681.75
324.482	1005.75
324.71	1523.75
324.939	2128.75
325.168	1816.75
325.397	940.75
325.626	622.75
325.855	520.75
326.084	475.75
326.313	468.75
326.542	483.75
326.77	519.75
326.999	638.75
327.228	896.75
327.457	1302.75
327.686	1614.75
327.914	1038.75
328.143	689.75
328.372	650.75
328.6	576.75
328.829	553.75
329.058	550.75
329.287	545.75
329.515	517.75
329.744	485.75
329.972	471.75
330.201	483.75
330.43	526.75
330.658	570.75
330.887	573.75
331.115	551.75
331.344	503.75
331.572	465.75
331.801	425.75
332.03	435.75
332.258	427.75
332.486	421.75
332.715	406.75
332.943	404.75
333.172	401.75
333.4	399.75
333.629	415.75
333.857	419.75
334.085	436.75
334.314	452.75
334.542	494.75
334.771	501.75
334.999	429.75
335.227	428.75
335.455	395.75
335.684	412.75
335.912	378.75
336.14	380.75
336.369	383.75
336.597	394.75
336.825	406.75
337.053	397.75
337.281	375.75
337.51	367.75
337.738	391.75
337.966	384.75
338.194	388.75
338.422	397.75
338.65	394.75
338.878	354.75
339.106	384.75
339.334	391.75
339.562	355.75
339.79	378.75
340.018	370.75
340.246	372.75
340.474	371.75
340.702	378.75
340.93	379.75
341.158	374.75
341.386	369.75
341.614	375.75
341.842	391.75
342.07	372.75
342.298	358.75
342.526	364.75
342.754	370.75
342.981	330.75
343.209	349.75
343.437	351.75
343.665	363.75
343.893	355.75
344.12	384.75
344.348	379.75
344.576	372.75
344.804	388.75
345.031	377.75
345.259	384.75
345.487	392.75
345.714	389.75
345.942	369.75
346.17	361.75
346.397	368.75
346.625	364.75
346.853	367.75
347.08	372.75
347.308	374.75
347.535	357.75
347.763	384.75
347.99	396.75
348.218	370.75
348.445	398.75
348.673	393.75
348.9	375.75
349.128	374.75
349.355	360.75
349.583	348.75
349.81	363.75
350.037	342.75
350.265	325.75
350.492	348.75
350.72	370.75
350.947	354.75
351.174	368.75
351.402	376.75
351.629	377.75
351.856	362.75
352.083	380.75
352.311	394.75
352.538	388.75
352.765	381.75
352.992	389.75
353.22	367.75
353.447	362.75
353.674	358.75
353.901	334.75
354.128	322.75
354.355	322.75
354.583	343.75
354.81	362.75
355.037	324.75
355.264	335.75
355.491	339.75
355.718	339.75
355.945	328.75
356.172	330.75
356.399	323.75
356.626	351.75
356.853	346.75
357.08	325.75
357.307	335.75
357.534	363.75
357.761	346.75
357.988	324.75
358.215	351.75
358.441	342.75
358.668	340.75
358.895	324.75
359.122	349.75
359.349	354.75
359.576	369.75
359.802	388.75
360.029	432.75
360.256	435.75
360.483	408.75
360.709	361.75
360.936	373.75
361.163	358.75
361.39	379.75
361.616	362.75
361.843	378.75
362.07	383.75
362.296	384.75
362.523	380.75
362.749	371.75
362.976	354.75
363.203	354.75
363.429	363.75
363.656	351.75
363.882	350.75
364.109	378.75
364.335	349.75
364.562	352.75
364.788	342.75
365.015	346.75
365.241	338.75
365.468	339.75
365.694	330.75
365.92	357.75
366.147	360.75
366.373	334.75
366.599	369.75
366.826	352.75
367.052	338.75
367.278	347.75
367.505	340.75
367.731	332.75
367.957	337.75
368.184	345.75
368.41	360.75
368.636	382.75
368.862	364.75
369.089	353.75
369.315	343.75
369.541	336.75
369.767	339.75
369.993	357.75
370.219	337.75
370.445	333.75
370.672	345.75
370.898	335.75
371.124	314.75
371.35	337.75
371.576	325.75
371.802	345.75
372.028	342.75
372.254	317.75
372.48	329.75
372.706	323.75
372.932	343.75
373.158	336.75
373.384	336.75
373.61	328.75
373.835	336.75
374.061	322.75
374.287	356.75
374.513	348.75
374.739	346.75
374.965	347.75
375.191	335.75
375.416	346.75
375.642	325.75
375.868	334.75
376.094	333.75
376.319	317.75
376.545	338.75
376.771	332.75
376.997	322.75
377.222	341.75
377.448	352.75
377.674	348.75
377.899	337.75
378.125	336.75
378.35	346.75
378.576	330.75
378.802	329.75
379.027	322.75
379.253	322.75
379.478	325.75
379.704	325.75
379.929	326.75
380.155	329.75
380.38	329.75
380.606	348.75
380.831	335.75
381.057	338.75
381.282	315.75
381.507	344.75
381.733	347.75
381.958	345.75
382.184	331.75
382.409	346.75
382.634	340.75
382.86	329.75
383.085	340.75
383.31	340.75
383.535	338.75
383.761	354.75
383.986	354.75
384.211	369.75
384.436	344.75
384.662	363.75
384.887	354.75
385.112	341.75
385.337	325.75
385.562	351.75
385.787	342.75
386.013	373.75
386.238	357.75
386.463	354.75
386.688	349.75
386.913	353.75
387.138	341.75
387.363	333.75
387.588	353.75
387.813	347.75
388.038	359.75
388.263	361.75
388.488	377.75
388.713	360.75
388.938	365.75
389.163	366.75
389.387	366.75
389.612	326.75
389.837	353.75
390.062	362.75
390.287	348.75
390.512	363.75
390.736	352.75
390.961	350.75
391.186	348.75
391.411	338.75
391.636	356.75
391.86	363.75
392.085	368.75
392.31	376.75
392.534	367.75
392.759	371.75
392.984	352.75
393.208	361.75
393.433	363.75
393.658	355.75
393.882	354.75
394.107	368.75
394.331	369.75
394.556	337.75
394.78	350.75
395.005	358.75
395.229	365.75
395.454	366.75
395.678	385.75
395.903	398.75
396.127	426.75
396.352	417.75
396.576	396.75
396.801	366.75
397.025	359.75
397.249	354.75
397.474	387.75
397.698	382.75
397.922	395.75
398.147	389.75
398.371	406.75
398.595	402.75
398.82	399.75
399.044	411.75
399.268	397.75
399.492	406.75
399.717	455.75
399.941	450.75
400.165	474.75
400.389	483.75
400.613	468.75
400.837	436.75
401.062	424.75
401.286	416.75
401.51	426.75
401.734	422.75
401.958	398.75
402.182	397.75
402.406	438.75
402.63	436.75
402.854	408.75
403.078	430.75
403.302	409.75
403.526	432.75
403.75	412.75
403.974	434.75
404.198	425.75
404.422	412.75
404.645	416.75
404.869	418.75
405.093	458.75
405.317	486.75
405.541	512.75
405.765	471.75
405.988	460.75
406.212	461.75
406.436	478.75
406.66	495.75
406.883	457.75
407.107	467.75
407.331	531.75
407.555	573.75
407.778	557.75
408.002	520.75
408.226	465.75
408.449	491.75
408.673	472.75
408.896	484.75
409.12	494.75
409.344	473.75
409.567	435.75
409.791	452.75
410.014	430.75
410.238	445.75
410.461	429.75
410.685	430.75
410.908	447.75
411.132	490.75
411.355	493.75
411.578	477.75
411.802	429.75
412.025	408.75
412.249	432.75
412.472	454.75
412.695	477.75
412.919	497.75
413.142	436.75
413.365	436.75
413.589	418.75
413.812	405.75
414.035	398.75
414.258	391.75
414.482	380.75
414.705	400.75
414.928	401.75
415.151	381.75
415.374	398.75
415.597	409.75
415.821	402.75
416.044	390.75
416.267	427.75
416.49	424.75
416.713	377.75
416.936	408.75
417.159	393.75
417.382	410.75
417.605	402.75
417.828	408.75
418.051	435.75
418.274	409.75
418.497	403.75
418.72	388.75
418.943	396.75
419.166	414.75
419.389	428.75
419.611	410.75
419.834	425.75
420.057	432.75
420.28	437.75
420.503	436.75
420.726	452.75
420.948	452.75
421.171	467.75
421.394	503.75
421.617	453.75
421.839	422.75
422.062	429.75
422.285	427.75
422.507	504.75
422.73	556.75
422.953	523.75
423.175	448.75
423.398	426.75
423.621	435.75
423.843	443.75
424.066	441.75
424.288	462.75
424.511	478.75
424.733	528.75
424.956	592.75
425.178	557.75
425.401	538.75
425.623	568.75
425.846	498.75
426.068	462.75
426.291	440.75
426.513	432.75
426.735	470.75
426.958	492.75
427.18	565.75
427.402	691.75
427.625	733.75
427.847	672.75
428.069	576.75
428.292	488.75
428.514	450.75
428.736	440.75
428.958	438.75
429.181	414.75
429.403	422.75
429.625	416.75
429.847	449.75
430.069	524.75
430.292	500.75
430.514	422.75
430.736	417.75
430.958	437.75
431.18	412.75
431.402	436.75
431.624	388.75
431.846	399.75
432.068	378.75
432.29	407.75
432.512	408.75
432.734	386.75
432.956	412.75
433.178	416.75
433.4	414.75
433.622	418.75
433.844	416.75
434.066	405.75
434.287	398.75
434.509	414.75
434.731	417.75
434.953	423.75
435.175	411.75
435.397	443.75
435.618	469.75
435.84	524.75
436.062	592.75
436.284	632.75
436.505	516.75
436.727	490.75
436.949	430.75
437.17	423.75
437.392	450.75
437.614	448.75
437.835	515.75
438.057	576.75
438.278	657.75
438.5	653.75
438.721	677.75
438.943	649.75
439.165	505.75
439.386	491.75
439.608	475.75
439.829	488.75
440.05	514.75
440.272	550.75
440.493	520.75
440.715	452.75
440.936	465.75
441.158	437.75
441.379	425.75
441.6	455.75
441.822	467.75
442.043	498.75
442.264	570.75
442.486	590.75
442.707	507.75
442.928	470.75
443.149	504.75
443.371	507.75
443.592	564.75
443.813	608.75
444.034	625.75
444.255	526.75
444.476	482.75
444.698	480.75
444.919	462.75
445.14	553.75
445.361	516.75
445.582	509.75
445.803	580.75
446.024	648.75
446.245	669.75
446.466	594.75
446.687	497.75
446.908	470.75
447.129	453.75
447.35	447.75
447.571	433.75
447.792	417.75
448.013	416.75
448.234	457.75
448.455	492.75
448.675	608.75
448.896	655.75
449.117	582.75
449.338	545.75
449.559	646.75
449.779	709.75
450	566.75
450.221	492.75
450.442	463.75
450.662	443.75
450.883	441.75
451.104	458.75
451.324	473.75
451.545	419.75
451.766	403.75
451.986	402.75
452.207	411.75
452.428	384.75
452.648	388.75
452.869	389.75
453.089	384.75
453.31	408.75
453.53	404.75
453.751	407.75
453.971	398.75
454.192	420.75
454.412	413.75
454.633	399.75
454.853	396.75
455.073	392.75
455.294	414.75
455.514	480.75
455.734	479.75
455.955	406.75
456.175	375.75
456.395	369.75
456.616	361.75
456.836	357.75
457.056	359.75
457.276	369.75
457.497	368.75
457.717	364.75
457.937	368.75
458.157	379.75
458.377	392.75
458.598	405.75
458.818	440.75
459.038	530.75
459.258	520.75
459.478	468.75
459.698	419.75
459.918	401.75
460.138	413.75
460.358	407.75
460.578	393.75
460.798	392.75
461.018	405.75
461.238	423.75
461.458	413.75
461.678	407.75
461.898	409.75
462.118	409.75
462.338	423.75
462.558	404.75
462.777	418.75
462.997	434.75
463.217	428.75
463.437	427.75
463.657	416.75
463.876	406.75
464.096	440.75
464.316	408.75
464.536	436.75
464.755	432.75
464.975	450.75
465.195	486.75
465.414	584.75
465.634	499.75
465.854	422.75
466.073	437.75
466.293	422.75
466.512	388.75
466.732	405.75
466.951	387.75
467.171	393.75
467.391	390.75
467.61	407.75
467.829	410.75
468.049	411.75
468.268	404.75
468.488	404.75
468.707	407.75
468.927	397.75
469.146	384.75
469.365	380.75
469.585	420.75
469.804	399.75
470.023	410.75
470.243	413.75
470.462	409.75
470.681	427.75
470.901	409.75
471.12	413.75
471.339	389.75
471.558	396.75
471.777	397.75
471.997	392.75
472.216	416.75
472.435	457.75
472.654	444.75
472.873	418.75
473.092	416.75
473.311	419.75
473.53	421.75
473.749	410.75
473.968	463.75
474.187	542.75
474.406	547.75
474.625	461.75
474.844	411.75
475.063	395.75
475.282	401.75
475.501	410.75
475.72	408.75
475.939	416.75
476.158	414.75
476.377	419.75
476.596	399.75
476.814	423.75
477.033	433.75
477.252	434.75
477.471	421.75
477.69	424.75
477.908	436.75
478.127	435.75
478.346	410.75
478.564	440.75
478.783	412.75
479.002	469.75
479.22	446.75
479.439	460.75
479.658	478.75
479.876	487.75
480.095	477.75
480.313	521.75
480.532	504.75
480.751	479.75
480.969	514.75
481.188	570.75
481.406	628.75
481.624	532.75
481.843	499.75
482.061	501.75
482.28	495.75
482.498	484.75
482.717	477.75
482.935	473.75
483.153	470.75
483.372	480.75
483.59	473.75
483.808	475.75
484.027	462.75
484.245	450.75
484.463	474.75
484.681	475.75
484.9	485.75
485.118	491.75
485.336	502.75
485.554	483.75
485.772	484.75
485.99	477.75
486.209	496.75
486.427	485.75
486.645	532.75
486.863	522.75
487.081	520.75
487.299	525.75
487.517	518.75
487.735	514.75
487.953	529.75
488.171	517.75
488.389	507.75
488.607	530.75
488.825	512.75
489.043	506.75
489.261	494.75
489.479	536.75
489.696	537.75
489.914	533.75
490.132	522.75
490.35	518.75
490.568	515.75
490.786	516.75
491.003	562.75
491.221	557.75
491.439	582.75
491.657	580.75
491.874	589.75
492.092	580.75
492.31	592.75
492.527	593.75
492.745	593.75
492.963	583.75
493.18	604.75
493.398	599.75
493.615	594.75
493.833	602.75
494.05	609.75
494.268	611.75
494.485	592.75
494.703	589.75
494.92	599.75
495.138	594.75
495.355	614.75
495.573	612.75
495.79	614.75
496.008	605.75
496.225	593.75
496.442	593.75
496.66	630.75
496.877	603.75
497.094	609.75
497.312	603.75
497.529	615.75
497.746	632.75
497.963	637.75
498.181	636.75
498.398	647.75
498.615	672.75
498.832	663.75
499.049	635.75
499.267	666.75
499.484	671.75
499.701	717.75
499.918	716.75
500.135	714.75
500.352	761.75
500.569	785.75
500.786	748.75
501.003	757.75
501.22	744.75
501.437	712.75
501.654	736.75
501.871	726.75
502.088	738.75
