Data from 1965.PennyLincolnUp.Lamp.En5.5.200Scan.071719.P1._HRD10591_14-10-51-912.txt Node
Date: Thu Jul 18 14:10:51 EDT 2019
User: cochatt
Spectrometer: HR+D1059
Trigger mode: 1
Integration Time (sec): 1.000000E-1
Scans to average: 1
Electric dark correction enabled: true
Nonlinearity correction enabled: false
Boxcar width: 0
XAxis mode: Wavelengths
Number of Pixels in Spectrum: 2048
>>>>>Begin Spectral Data<<<<<
223.165	-18.56
223.4	-18.56
223.635	-18.56
223.869	-29.56
224.104	-11.56
224.338	-12.56
224.573	-21.56
224.808	-3.56
225.042	-10.56
225.277	-4.56
225.511	-7.56
225.746	10.44
225.98	17.44
226.215	10.44
226.449	15.44
226.683	14.44
226.918	30.44
227.152	21.44
227.387	28.44
227.621	37.44
227.856	54.44
228.09	39.44
228.324	46.44
228.559	56.44
228.793	62.44
229.027	85.44
229.262	105.44
229.496	121.44
229.73	132.44
229.964	139.44
230.199	135.44
230.433	121.44
230.667	125.44
230.901	121.44
231.136	97.44
231.37	106.44
231.604	105.44
231.838	102.44
232.072	99.44
232.306	108.44
232.541	106.44
232.775	108.44
233.009	124.44
233.243	102.44
233.477	108.44
233.711	112.44
233.945	119.44
234.179	111.44
234.413	102.44
234.647	105.44
234.881	109.44
235.115	111.44
235.349	124.44
235.583	125.44
235.817	120.44
236.051	120.44
236.285	106.44
236.519	107.44
236.753	124.44
236.987	146.44
237.221	170.44
237.455	224.44
237.689	187.44
237.922	151.44
238.156	132.44
238.39	141.44
238.624	115.44
238.858	132.44
239.091	104.44
239.325	121.44
239.559	131.44
239.793	120.44
240.027	141.44
240.26	130.44
240.494	163.44
240.728	160.44
240.961	148.44
241.195	145.44
241.429	135.44
241.662	131.44
241.896	128.44
242.13	124.44
242.363	132.44
242.597	127.44
242.83	129.44
243.064	111.44
243.298	137.44
243.531	138.44
243.765	130.44
243.998	149.44
244.232	138.44
244.465	138.44
244.699	138.44
244.932	129.44
245.166	128.44
245.399	136.44
245.633	134.44
245.866	131.44
246.099	133.44
246.333	147.44
246.566	143.44
246.8	149.44
247.033	155.44
247.266	141.44
247.5	159.44
247.733	163.44
247.966	155.44
248.2	171.44
248.433	163.44
248.666	170.44
248.899	192.44
249.133	191.44
249.366	215.44
249.599	173.44
249.832	186.44
250.066	182.44
250.299	176.44
250.532	179.44
250.765	188.44
250.998	225.44
251.231	224.44
251.465	201.44
251.698	195.44
251.931	175.44
252.164	186.44
252.397	195.44
252.63	184.44
252.863	201.44
253.096	201.44
253.329	212.44
253.562	218.44
253.795	191.44
254.028	193.44
254.261	195.44
254.494	224.44
254.727	248.44
254.96	277.44
255.193	243.44
255.426	211.44
255.659	220.44
255.892	217.44
256.124	231.44
256.357	216.44
256.59	221.44
256.823	195.44
257.056	201.44
257.289	213.44
257.521	210.44
257.754	213.44
257.987	191.44
258.22	179.44
258.452	189.44
258.685	183.44
258.918	211.44
259.151	205.44
259.383	207.44
259.616	202.44
259.849	215.44
260.081	219.44
260.314	245.44
260.547	245.44
260.779	228.44
261.012	208.44
261.244	205.44
261.477	225.44
261.71	219.44
261.942	219.44
262.175	227.44
262.407	223.44
262.64	199.44
262.872	212.44
263.105	197.44
263.337	202.44
263.57	190.44
263.802	191.44
264.035	191.44
264.267	202.44
264.499	203.44
264.732	201.44
264.964	199.44
265.197	205.44
265.429	198.44
265.661	197.44
265.894	205.44
266.126	213.44
266.358	195.44
266.591	223.44
266.823	196.44
267.055	214.44
267.287	214.44
267.52	215.44
267.752	216.44
267.984	204.44
268.216	220.44
268.448	210.44
268.681	222.44
268.913	223.44
269.145	242.44
269.377	273.44
269.609	269.44
269.841	256.44
270.073	255.44
270.306	283.44
270.538	299.44
270.77	298.44
271.002	286.44
271.234	264.44
271.466	296.44
271.698	278.44
271.93	302.44
272.162	288.44
272.394	297.44
272.626	287.44
272.858	261.44
273.09	271.44
273.322	249.44
273.553	241.44
273.785	243.44
274.017	255.44
274.249	249.44
274.481	255.44
274.713	234.44
274.945	237.44
275.176	250.44
275.408	254.44
275.64	241.44
275.872	247.44
276.104	247.44
276.335	257.44
276.567	253.44
276.799	272.44
277.031	290.44
277.262	304.44
277.494	288.44
277.726	284.44
277.957	263.44
278.189	272.44
278.421	248.44
278.652	262.44
278.884	248.44
279.115	239.44
279.347	236.44
279.579	265.44
279.81	237.44
280.042	261.44
280.273	237.44
280.505	252.44
280.736	244.44
280.968	256.44
281.199	251.44
281.431	233.44
281.662	237.44
281.894	254.44
282.125	273.44
282.356	272.44
282.588	296.44
282.819	285.44
283.051	254.44
283.282	251.44
283.513	253.44
283.745	282.44
283.976	269.44
284.207	289.44
284.439	266.44
284.67	271.44
284.901	254.44
285.132	259.44
285.364	245.44
285.595	246.44
285.826	271.44
286.057	255.44
286.288	251.44
286.52	251.44
286.751	255.44
286.982	272.44
287.213	275.44
287.444	265.44
287.675	257.44
287.906	281.44
288.138	285.44
288.369	298.44
288.6	267.44
288.831	269.44
289.062	289.44
289.293	266.44
289.524	260.44
289.755	266.44
289.986	254.44
290.217	255.44
290.448	268.44
290.679	268.44
290.91	256.44
291.141	257.44
291.371	257.44
291.602	288.44
291.833	247.44
292.064	260.44
292.295	255.44
292.526	261.44
292.757	255.44
292.987	277.44
293.218	269.44
293.449	263.44
293.68	269.44
293.91	255.44
294.141	255.44
294.372	251.44
294.603	269.44
294.833	266.44
295.064	277.44
295.295	267.44
295.525	259.44
295.756	288.44
295.987	280.44
296.217	299.44
296.448	304.44
296.679	309.44
296.909	259.44
297.14	259.44
297.37	278.44
297.601	278.44
297.831	283.44
298.062	267.44
298.292	266.44
298.523	273.44
298.753	271.44
298.984	280.44
299.214	308.44
299.445	278.44
299.675	291.44
299.905	286.44
300.136	308.44
300.366	291.44
300.597	273.44
300.827	302.44
301.057	294.44
301.288	301.44
301.518	276.44
301.748	307.44
301.979	304.44
302.209	303.44
302.439	315.44
302.669	302.44
302.9	309.44
303.13	288.44
303.36	301.44
303.59	315.44
303.82	320.44
304.051	298.44
304.281	307.44
304.511	298.44
304.741	285.44
304.971	301.44
305.201	303.44
305.431	292.44
305.661	287.44
305.891	298.44
306.121	304.44
306.352	307.44
306.582	315.44
306.812	303.44
307.042	300.44
307.272	294.44
307.502	308.44
307.731	320.44
307.961	320.44
308.191	341.44
308.421	285.44
308.651	315.44
308.881	327.44
309.111	315.44
309.341	305.44
309.571	326.44
309.8	343.44
310.03	346.44
310.26	351.44
310.49	365.44
310.72	350.44
310.949	382.44
311.179	381.44
311.409	363.44
311.639	363.44
311.868	346.44
312.098	364.44
312.328	354.44
312.557	362.44
312.787	381.44
313.017	376.44
313.246	353.44
313.476	363.44
313.706	367.44
313.935	377.44
314.165	372.44
314.394	383.44
314.624	371.44
314.853	358.44
315.083	373.44
315.312	340.44
315.542	350.44
315.771	349.44
316.001	335.44
316.23	354.44
316.46	362.44
316.689	363.44
316.919	337.44
317.148	358.44
317.377	360.44
317.607	347.44
317.836	360.44
318.065	352.44
318.295	358.44
318.524	349.44
318.753	355.44
318.983	370.44
319.212	358.44
319.441	356.44
319.67	371.44
319.9	343.44
320.129	352.44
320.358	368.44
320.587	369.44
320.816	372.44
321.046	387.44
321.275	378.44
321.504	384.44
321.733	376.44
321.962	380.44
322.191	408.44
322.42	404.44
322.649	437.44
322.878	439.44
323.108	458.44
323.337	472.44
323.566	483.44
323.795	534.44
324.024	604.44
324.253	752.44
324.482	1101.44
324.71	1676.44
324.939	2296.44
325.168	1909.44
325.397	989.44
325.626	673.44
325.855	552.44
326.084	504.44
326.313	522.44
326.542	495.44
326.77	537.44
326.999	694.44
327.228	957.44
327.457	1411.44
327.686	1745.44
327.914	1119.44
328.143	759.44
328.372	663.44
328.6	603.44
328.829	566.44
329.058	577.44
329.287	579.44
329.515	548.44
329.744	521.44
329.972	511.44
330.201	544.44
330.43	591.44
330.658	582.44
330.887	611.44
331.115	593.44
331.344	507.44
331.572	467.44
331.801	483.44
332.03	468.44
332.258	422.44
332.486	420.44
332.715	430.44
332.943	428.44
333.172	431.44
333.4	435.44
333.629	433.44
333.857	436.44
334.085	464.44
334.314	472.44
334.542	551.44
334.771	535.44
334.999	513.44
335.227	456.44
335.455	416.44
335.684	421.44
335.912	424.44
336.14	408.44
336.369	412.44
336.597	440.44
336.825	416.44
337.053	414.44
337.281	413.44
337.51	398.44
337.738	389.44
337.966	388.44
338.194	396.44
338.422	405.44
338.65	397.44
338.878	408.44
339.106	400.44
339.334	402.44
339.562	393.44
339.79	393.44
340.018	404.44
340.246	394.44
340.474	417.44
340.702	385.44
340.93	400.44
341.158	412.44
341.386	411.44
341.614	396.44
341.842	398.44
342.07	409.44
342.298	375.44
342.526	380.44
342.754	390.44
342.981	384.44
343.209	367.44
343.437	379.44
343.665	389.44
343.893	405.44
344.12	397.44
344.348	398.44
344.576	392.44
344.804	404.44
345.031	421.44
345.259	413.44
345.487	421.44
345.714	410.44
345.942	377.44
346.17	393.44
346.397	377.44
346.625	386.44
346.853	383.44
347.08	399.44
347.308	384.44
347.535	380.44
347.763	388.44
347.99	405.44
348.218	401.44
348.445	401.44
348.673	399.44
348.9	388.44
349.128	409.44
349.355	368.44
349.583	383.44
349.81	382.44
350.037	392.44
350.265	401.44
350.492	368.44
350.72	359.44
350.947	393.44
351.174	398.44
351.402	409.44
351.629	395.44
351.856	381.44
352.083	425.44
352.311	419.44
352.538	412.44
352.765	417.44
352.992	413.44
353.22	393.44
353.447	401.44
353.674	382.44
353.901	364.44
354.128	361.44
354.355	356.44
354.583	375.44
354.81	368.44
355.037	361.44
355.264	358.44
355.491	361.44
355.718	338.44
355.945	374.44
356.172	353.44
356.399	350.44
356.626	351.44
356.853	343.44
357.08	367.44
357.307	344.44
357.534	357.44
357.761	340.44
357.988	358.44
358.215	361.44
358.441	365.44
358.668	373.44
358.895	369.44
359.122	368.44
359.349	377.44
359.576	391.44
359.802	415.44
360.029	439.44
360.256	446.44
360.483	441.44
360.709	399.44
360.936	409.44
361.163	379.44
361.39	396.44
361.616	395.44
361.843	378.44
362.07	385.44
362.296	397.44
362.523	381.44
362.749	375.44
362.976	389.44
363.203	375.44
363.429	382.44
363.656	377.44
363.882	371.44
364.109	349.44
364.335	355.44
364.562	363.44
364.788	363.44
365.015	373.44
365.241	363.44
365.468	356.44
365.694	381.44
365.92	382.44
366.147	377.44
366.373	375.44
366.599	374.44
366.826	361.44
367.052	351.44
367.278	362.44
367.505	376.44
367.731	376.44
367.957	361.44
368.184	355.44
368.41	369.44
368.636	404.44
368.862	391.44
369.089	377.44
369.315	359.44
369.541	355.44
369.767	356.44
369.993	361.44
370.219	349.44
370.445	363.44
370.672	349.44
370.898	348.44
371.124	360.44
371.35	367.44
371.576	355.44
371.802	365.44
372.028	357.44
372.254	368.44
372.48	346.44
372.706	368.44
372.932	357.44
373.158	371.44
373.384	377.44
373.61	357.44
373.835	354.44
374.061	358.44
374.287	372.44
374.513	351.44
374.739	381.44
374.965	366.44
375.191	357.44
375.416	373.44
375.642	355.44
375.868	356.44
376.094	360.44
376.319	372.44
376.545	365.44
376.771	358.44
376.997	367.44
377.222	355.44
377.448	358.44
377.674	358.44
377.899	353.44
378.125	360.44
378.35	328.44
378.576	334.44
378.802	340.44
379.027	356.44
379.253	342.44
379.478	344.44
379.704	329.44
379.929	336.44
380.155	342.44
380.38	343.44
380.606	355.44
380.831	370.44
381.057	369.44
381.282	352.44
381.507	361.44
381.733	356.44
381.958	363.44
382.184	359.44
382.409	368.44
382.634	360.44
382.86	367.44
383.085	364.44
383.31	365.44
383.535	374.44
383.761	348.44
383.986	359.44
384.211	377.44
384.436	379.44
384.662	364.44
384.887	369.44
385.112	367.44
385.337	384.44
385.562	378.44
385.787	361.44
386.013	407.44
386.238	373.44
386.463	388.44
386.688	382.44
386.913	368.44
387.138	381.44
387.363	371.44
387.588	369.44
387.813	379.44
388.038	361.44
388.263	375.44
388.488	377.44
388.713	381.44
388.938	378.44
389.163	387.44
389.387	378.44
389.612	367.44
389.837	389.44
390.062	399.44
390.287	385.44
390.512	380.44
390.736	395.44
390.961	369.44
391.186	382.44
391.411	380.44
391.636	384.44
391.86	386.44
392.085	365.44
392.31	384.44
392.534	387.44
392.759	375.44
392.984	393.44
393.208	389.44
393.433	391.44
393.658	379.44
393.882	393.44
394.107	381.44
394.331	386.44
394.556	379.44
394.78	398.44
395.005	388.44
395.229	375.44
395.454	387.44
395.678	399.44
395.903	402.44
396.127	419.44
396.352	422.44
396.576	405.44
396.801	413.44
397.025	400.44
397.249	398.44
397.474	401.44
397.698	399.44
397.922	406.44
398.147	435.44
398.371	451.44
398.595	437.44
398.82	421.44
399.044	423.44
399.268	445.44
399.492	461.44
399.717	479.44
399.941	495.44
400.165	503.44
400.389	515.44
400.613	483.44
400.837	428.44
401.062	446.44
401.286	435.44
401.51	450.44
401.734	418.44
401.958	416.44
402.182	433.44
402.406	460.44
402.63	459.44
402.854	444.44
403.078	444.44
403.302	430.44
403.526	455.44
403.75	443.44
403.974	424.44
404.198	432.44
404.422	468.44
404.645	476.44
404.869	450.44
405.093	500.44
405.317	520.44
405.541	538.44
405.765	508.44
405.988	490.44
406.212	501.44
406.436	499.44
406.66	507.44
406.883	520.44
407.107	499.44
407.331	540.44
407.555	591.44
407.778	583.44
408.002	551.44
408.226	526.44
408.449	495.44
408.673	486.44
408.896	537.44
409.12	534.44
409.344	523.44
409.567	498.44
409.791	456.44
410.014	454.44
410.238	452.44
410.461	437.44
410.685	431.44
410.908	458.44
411.132	496.44
411.355	539.44
411.578	501.44
411.802	456.44
412.025	451.44
412.249	450.44
412.472	469.44
412.695	539.44
412.919	502.44
413.142	459.44
413.365	429.44
413.589	455.44
413.812	420.44
414.035	436.44
414.258	441.44
414.482	435.44
414.705	430.44
414.928	435.44
415.151	432.44
415.374	419.44
415.597	407.44
415.821	424.44
416.044	439.44
416.267	431.44
416.49	413.44
416.713	415.44
416.936	428.44
417.159	422.44
417.382	432.44
417.605	425.44
417.828	439.44
418.051	455.44
418.274	439.44
418.497	440.44
418.72	411.44
418.943	415.44
419.166	426.44
419.389	450.44
419.611	464.44
419.834	443.44
420.057	457.44
420.28	448.44
420.503	423.44
420.726	451.44
420.948	474.44
421.171	477.44
421.394	519.44
421.617	458.44
421.839	438.44
422.062	444.44
422.285	464.44
422.507	498.44
422.73	571.44
422.953	563.44
423.175	479.44
423.398	481.44
423.621	464.44
423.843	504.44
424.066	481.44
424.288	460.44
424.511	514.44
424.733	540.44
424.956	609.44
425.178	597.44
425.401	581.44
425.623	584.44
425.846	537.44
426.068	518.44
426.291	510.44
426.513	495.44
426.735	488.44
426.958	555.44
427.18	609.44
427.402	735.44
427.625	793.44
427.847	713.44
428.069	639.44
428.292	555.44
428.514	499.44
428.736	479.44
428.958	472.44
429.181	460.44
429.403	474.44
429.625	439.44
429.847	486.44
430.069	557.44
430.292	563.44
430.514	485.44
430.736	460.44
430.958	447.44
431.18	453.44
431.402	436.44
431.624	423.44
431.846	415.44
432.068	433.44
432.29	427.44
432.512	419.44
432.734	434.44
432.956	428.44
433.178	449.44
433.4	437.44
433.622	439.44
433.844	419.44
434.066	429.44
434.287	417.44
434.509	416.44
434.731	447.44
434.953	443.44
435.175	460.44
435.397	498.44
435.618	509.44
435.84	534.44
436.062	601.44
436.284	651.44
436.505	556.44
436.727	507.44
436.949	469.44
437.17	461.44
437.392	444.44
437.614	488.44
437.835	507.44
438.057	623.44
438.278	685.44
438.5	674.44
438.721	741.44
438.943	694.44
439.165	565.44
439.386	496.44
439.608	514.44
439.829	519.44
440.05	534.44
440.272	596.44
440.493	538.44
440.715	486.44
440.936	477.44
441.158	465.44
441.379	452.44
441.6	461.44
441.822	472.44
442.043	529.44
442.264	612.44
442.486	635.44
442.707	544.44
442.928	515.44
443.149	548.44
443.371	558.44
443.592	594.44
443.813	658.44
444.034	704.44
444.255	565.44
444.476	512.44
444.698	478.44
444.919	486.44
445.14	556.44
445.361	529.44
445.582	548.44
445.803	593.44
446.024	681.44
446.245	704.44
446.466	635.44
446.687	556.44
446.908	513.44
447.129	463.44
447.35	469.44
447.571	447.44
447.792	460.44
448.013	460.44
448.234	498.44
448.455	531.44
448.675	634.44
448.896	716.44
449.117	614.44
449.338	571.44
449.559	663.44
449.779	750.44
450	608.44
450.221	506.44
450.442	480.44
450.662	466.44
450.883	473.44
451.104	475.44
451.324	464.44
451.545	453.44
451.766	443.44
451.986	432.44
452.207	419.44
452.428	405.44
452.648	429.44
452.869	422.44
453.089	410.44
453.31	424.44
453.53	426.44
453.751	413.44
453.971	446.44
454.192	453.44
454.412	439.44
454.633	417.44
454.853	417.44
455.073	435.44
455.294	441.44
455.514	524.44
455.734	464.44
455.955	422.44
456.175	394.44
456.395	374.44
456.616	399.44
456.836	391.44
457.056	388.44
457.276	371.44
457.497	388.44
457.717	378.44
457.937	407.44
458.157	405.44
458.377	407.44
458.598	428.44
458.818	499.44
459.038	594.44
459.258	591.44
459.478	501.44
459.698	448.44
459.918	441.44
460.138	445.44
460.358	450.44
460.578	417.44
460.798	400.44
461.018	435.44
461.238	422.44
461.458	412.44
461.678	417.44
461.898	443.44
462.118	434.44
462.338	440.44
462.558	442.44
462.777	445.44
462.997	441.44
463.217	443.44
463.437	437.44
463.657	472.44
463.876	424.44
464.096	427.44
464.316	447.44
464.536	452.44
464.755	456.44
464.975	480.44
465.195	520.44
465.414	620.44
465.634	543.44
465.854	485.44
466.073	460.44
466.293	427.44
466.512	426.44
466.732	424.44
466.951	418.44
467.171	417.44
467.391	410.44
467.61	429.44
467.829	451.44
468.049	443.44
468.268	438.44
468.488	434.44
468.707	422.44
468.927	398.44
469.146	412.44
469.365	419.44
469.585	409.44
469.804	427.44
470.023	428.44
470.243	423.44
470.462	443.44
470.681	451.44
470.901	439.44
471.12	452.44
471.339	419.44
471.558	449.44
471.777	412.44
471.997	415.44
472.216	427.44
472.435	478.44
472.654	470.44
472.873	444.44
473.092	416.44
473.311	404.44
473.53	429.44
473.749	451.44
473.968	467.44
474.187	589.44
474.406	591.44
474.625	475.44
474.844	444.44
475.063	425.44
475.282	405.44
475.501	427.44
475.72	440.44
475.939	429.44
476.158	453.44
476.377	445.44
476.596	426.44
476.814	454.44
477.033	473.44
477.252	457.44
477.471	447.44
477.69	438.44
477.908	447.44
478.127	456.44
478.346	475.44
478.564	469.44
478.783	477.44
479.002	458.44
479.22	480.44
479.439	497.44
479.658	513.44
479.876	514.44
480.095	525.44
480.313	552.44
480.532	529.44
480.751	513.44
480.969	549.44
481.188	606.44
481.406	671.44
481.624	578.44
481.843	537.44
482.061	517.44
482.28	517.44
482.498	503.44
482.717	529.44
482.935	497.44
483.153	508.44
483.372	500.44
483.59	499.44
483.808	470.44
484.027	505.44
484.245	473.44
484.463	522.44
484.681	514.44
484.9	506.44
485.118	513.44
485.336	527.44
485.554	521.44
485.772	518.44
485.99	523.44
486.209	524.44
486.427	537.44
486.645	542.44
486.863	538.44
487.081	556.44
487.299	532.44
487.517	551.44
487.735	511.44
487.953	531.44
488.171	533.44
488.389	530.44
488.607	555.44
488.825	530.44
489.043	560.44
489.261	554.44
489.479	560.44
489.696	559.44
489.914	554.44
490.132	555.44
490.35	580.44
490.568	568.44
490.786	577.44
491.003	590.44
491.221	583.44
491.439	627.44
491.657	596.44
491.874	614.44
492.092	605.44
492.31	623.44
492.527	621.44
492.745	607.44
492.963	629.44
493.18	640.44
493.398	633.44
493.615	635.44
493.833	645.44
494.05	662.44
494.268	643.44
494.485	637.44
494.703	650.44
494.92	645.44
495.138	649.44
495.355	667.44
495.573	653.44
495.79	648.44
496.008	629.44
496.225	648.44
496.442	653.44
496.66	633.44
496.877	617.44
497.094	645.44
497.312	661.44
497.529	640.44
497.746	675.44
497.963	662.44
498.181	706.44
498.398	680.44
498.615	705.44
498.832	705.44
499.049	699.44
499.267	682.44
499.484	725.44
499.701	739.44
499.918	776.44
500.135	777.44
500.352	784.44
500.569	815.44
500.786	814.44
501.003	809.44
501.22	783.44
501.437	782.44
501.654	787.44
501.871	769.44
