Data from 1965.PennyLincolnUp.Lamp.En5.5.200Scan.071719.P1._HRD10591_14-08-16-911.txt Node
Date: Thu Jul 18 14:08:16 EDT 2019
User: cochatt
Spectrometer: HR+D1059
Trigger mode: 1
Integration Time (sec): 1.000000E-1
Scans to average: 1
Electric dark correction enabled: true
Nonlinearity correction enabled: false
Boxcar width: 0
XAxis mode: Wavelengths
Number of Pixels in Spectrum: 2048
>>>>>Begin Spectral Data<<<<<
223.165	-12.5
223.4	-12.5
223.635	-12.5
223.869	-0.5
224.104	-29.5
224.338	-19.5
224.573	-14.5
224.808	-18.5
225.042	2.5
225.277	-8.5
225.511	-3.5
225.746	9.5
225.98	0.5
226.215	4.5
226.449	13.5
226.683	11.5
226.918	41.5
227.152	23.5
227.387	31.5
227.621	33.5
227.856	51.5
228.09	46.5
228.324	48.5
228.559	55.5
228.793	69.5
229.027	89.5
229.262	99.5
229.496	117.5
229.73	119.5
229.964	129.5
230.199	116.5
230.433	103.5
230.667	95.5
230.901	110.5
231.136	111.5
231.37	110.5
231.604	97.5
231.838	94.5
232.072	96.5
232.306	107.5
232.541	121.5
232.775	94.5
233.009	95.5
233.243	87.5
233.477	91.5
233.711	117.5
233.945	104.5
234.179	106.5
234.413	111.5
234.647	113.5
234.881	101.5
235.115	103.5
235.349	115.5
235.583	110.5
235.817	124.5
236.051	129.5
236.285	113.5
236.519	121.5
236.753	127.5
236.987	128.5
237.221	151.5
237.455	195.5
237.689	157.5
237.922	109.5
238.156	115.5
238.39	117.5
238.624	115.5
238.858	116.5
239.091	121.5
239.325	109.5
239.559	132.5
239.793	111.5
240.027	125.5
240.26	126.5
240.494	144.5
240.728	124.5
240.961	117.5
241.195	117.5
241.429	127.5
241.662	134.5
241.896	115.5
242.13	121.5
242.363	108.5
242.597	104.5
242.83	127.5
243.064	114.5
243.298	127.5
243.531	124.5
243.765	123.5
243.998	118.5
244.232	131.5
244.465	124.5
244.699	122.5
244.932	125.5
245.166	119.5
245.399	126.5
245.633	139.5
245.866	118.5
246.099	127.5
246.333	119.5
246.566	119.5
246.8	129.5
247.033	133.5
247.266	142.5
247.5	131.5
247.733	143.5
247.966	155.5
248.2	153.5
248.433	147.5
248.666	172.5
248.899	168.5
249.133	177.5
249.366	183.5
249.599	150.5
249.832	157.5
250.066	155.5
250.299	144.5
250.532	167.5
250.765	168.5
250.998	182.5
251.231	202.5
251.465	182.5
251.698	161.5
251.931	169.5
252.164	181.5
252.397	165.5
252.63	183.5
252.863	169.5
253.096	172.5
253.329	195.5
253.562	184.5
253.795	193.5
254.028	190.5
254.261	172.5
254.494	180.5
254.727	222.5
254.96	240.5
255.193	212.5
255.426	197.5
255.659	164.5
255.892	191.5
256.124	181.5
256.357	196.5
256.59	185.5
256.823	196.5
257.056	190.5
257.289	191.5
257.521	175.5
257.754	188.5
257.987	191.5
258.22	181.5
258.452	164.5
258.685	170.5
258.918	175.5
259.151	193.5
259.383	180.5
259.616	192.5
259.849	200.5
260.081	182.5
260.314	198.5
260.547	217.5
260.779	206.5
261.012	188.5
261.244	195.5
261.477	194.5
261.71	205.5
261.942	188.5
262.175	188.5
262.407	185.5
262.64	179.5
262.872	190.5
263.105	196.5
263.337	183.5
263.57	188.5
263.802	189.5
264.035	187.5
264.267	168.5
264.499	174.5
264.732	176.5
264.964	164.5
265.197	182.5
265.429	174.5
265.661	175.5
265.894	165.5
266.126	195.5
266.358	199.5
266.591	201.5
266.823	192.5
267.055	193.5
267.287	198.5
267.52	175.5
267.752	178.5
267.984	187.5
268.216	192.5
268.448	191.5
268.681	200.5
268.913	189.5
269.145	209.5
269.377	223.5
269.609	226.5
269.841	226.5
270.073	220.5
270.306	247.5
270.538	246.5
270.77	254.5
271.002	244.5
271.234	238.5
271.466	269.5
271.698	258.5
271.93	265.5
272.162	255.5
272.394	264.5
272.626	243.5
272.858	249.5
273.09	240.5
273.322	224.5
273.553	210.5
273.785	203.5
274.017	231.5
274.249	207.5
274.481	212.5
274.713	219.5
274.945	230.5
275.176	217.5
275.408	231.5
275.64	203.5
275.872	206.5
276.104	223.5
276.335	230.5
276.567	233.5
276.799	246.5
277.031	243.5
277.262	250.5
277.494	265.5
277.726	240.5
277.957	230.5
278.189	242.5
278.421	213.5
278.652	214.5
278.884	220.5
279.115	219.5
279.347	224.5
279.579	208.5
279.81	211.5
280.042	214.5
280.273	228.5
280.505	216.5
280.736	231.5
280.968	207.5
281.199	231.5
281.431	224.5
281.662	225.5
281.894	206.5
282.125	223.5
282.356	227.5
282.588	261.5
282.819	259.5
283.051	225.5
283.282	218.5
283.513	225.5
283.745	216.5
283.976	227.5
284.207	235.5
284.439	227.5
284.67	232.5
284.901	205.5
285.132	205.5
285.364	223.5
285.595	223.5
285.826	218.5
286.057	216.5
286.288	227.5
286.52	220.5
286.751	223.5
286.982	227.5
287.213	235.5
287.444	228.5
287.675	218.5
287.906	230.5
288.138	237.5
288.369	230.5
288.6	239.5
288.831	236.5
289.062	228.5
289.293	236.5
289.524	241.5
289.755	233.5
289.986	243.5
290.217	241.5
290.448	233.5
290.679	246.5
290.91	223.5
291.141	218.5
291.371	232.5
291.602	236.5
291.833	231.5
292.064	229.5
292.295	238.5
292.526	223.5
292.757	237.5
292.987	225.5
293.218	221.5
293.449	244.5
293.68	231.5
293.91	238.5
294.141	228.5
294.372	222.5
294.603	242.5
294.833	257.5
295.064	232.5
295.295	232.5
295.525	232.5
295.756	244.5
295.987	248.5
296.217	284.5
296.448	267.5
296.679	248.5
296.909	233.5
297.14	233.5
297.37	248.5
297.601	258.5
297.831	248.5
298.062	240.5
298.292	241.5
298.523	243.5
298.753	263.5
298.984	238.5
299.214	240.5
299.445	245.5
299.675	248.5
299.905	279.5
300.136	249.5
300.366	258.5
300.597	262.5
300.827	249.5
301.057	256.5
301.288	261.5
301.518	279.5
301.748	254.5
301.979	257.5
302.209	275.5
302.439	260.5
302.669	263.5
302.9	258.5
303.13	264.5
303.36	272.5
303.59	264.5
303.82	273.5
304.051	281.5
304.281	283.5
304.511	268.5
304.741	269.5
304.971	271.5
305.201	278.5
305.431	274.5
305.661	280.5
305.891	253.5
306.121	254.5
306.352	265.5
306.582	273.5
306.812	273.5
307.042	271.5
307.272	261.5
307.502	250.5
307.731	275.5
307.961	260.5
308.191	271.5
308.421	283.5
308.651	255.5
308.881	278.5
309.111	269.5
309.341	276.5
309.571	293.5
309.8	288.5
310.03	312.5
310.26	313.5
310.49	308.5
310.72	320.5
310.949	318.5
311.179	330.5
311.409	308.5
311.639	308.5
311.868	308.5
312.098	323.5
312.328	326.5
312.557	326.5
312.787	336.5
313.017	329.5
313.246	315.5
313.476	307.5
313.706	296.5
313.935	308.5
314.165	322.5
314.394	309.5
314.624	332.5
314.853	315.5
315.083	304.5
315.312	307.5
315.542	311.5
315.771	287.5
316.001	305.5
316.23	307.5
316.46	304.5
316.689	300.5
316.919	292.5
317.148	316.5
317.377	323.5
317.607	325.5
317.836	307.5
318.065	325.5
318.295	320.5
318.524	320.5
318.753	308.5
318.983	321.5
319.212	311.5
319.441	336.5
319.67	337.5
319.9	324.5
320.129	323.5
320.358	314.5
320.587	315.5
320.816	314.5
321.046	321.5
321.275	344.5
321.504	331.5
321.733	339.5
321.962	336.5
322.191	364.5
322.42	340.5
322.649	390.5
322.878	379.5
323.108	381.5
323.337	384.5
323.566	426.5
323.795	447.5
324.024	486.5
324.253	622.5
324.482	871.5
324.71	1313.5
324.939	1810.5
325.168	1539.5
325.397	801.5
325.626	563.5
325.855	469.5
326.084	448.5
326.313	437.5
326.542	441.5
326.77	472.5
326.999	545.5
327.228	765.5
327.457	1177.5
327.686	1352.5
327.914	892.5
328.143	605.5
328.372	542.5
328.6	484.5
328.829	473.5
329.058	471.5
329.287	487.5
329.515	459.5
329.744	417.5
329.972	440.5
330.201	443.5
330.43	480.5
330.658	501.5
330.887	494.5
331.115	487.5
331.344	433.5
331.572	409.5
331.801	399.5
332.03	398.5
332.258	424.5
332.486	373.5
332.715	375.5
332.943	385.5
333.172	364.5
333.4	355.5
333.629	389.5
333.857	371.5
334.085	398.5
334.314	385.5
334.542	441.5
334.771	434.5
334.999	413.5
335.227	404.5
335.455	363.5
335.684	362.5
335.912	347.5
336.14	348.5
336.369	338.5
336.597	351.5
336.825	358.5
337.053	347.5
337.281	349.5
337.51	357.5
337.738	357.5
337.966	373.5
338.194	349.5
338.422	374.5
338.65	353.5
338.878	357.5
339.106	341.5
339.334	350.5
339.562	346.5
339.79	366.5
340.018	350.5
340.246	353.5
340.474	351.5
340.702	351.5
340.93	331.5
341.158	337.5
341.386	339.5
341.614	339.5
341.842	335.5
342.07	337.5
342.298	353.5
342.526	343.5
342.754	344.5
342.981	340.5
343.209	327.5
343.437	345.5
343.665	325.5
343.893	345.5
344.12	362.5
344.348	354.5
344.576	355.5
344.804	350.5
345.031	368.5
345.259	361.5
345.487	369.5
345.714	341.5
345.942	331.5
346.17	342.5
346.397	340.5
346.625	335.5
346.853	319.5
347.08	340.5
347.308	350.5
347.535	356.5
347.763	365.5
347.99	357.5
348.218	351.5
348.445	348.5
348.673	364.5
348.9	335.5
349.128	328.5
349.355	319.5
349.583	316.5
349.81	333.5
350.037	346.5
350.265	329.5
350.492	331.5
350.72	339.5
350.947	341.5
351.174	342.5
351.402	347.5
351.629	336.5
351.856	353.5
352.083	353.5
352.311	348.5
352.538	344.5
352.765	357.5
352.992	350.5
353.22	341.5
353.447	326.5
353.674	328.5
353.901	330.5
354.128	320.5
354.355	334.5
354.583	315.5
354.81	320.5
355.037	303.5
355.264	335.5
355.491	321.5
355.718	324.5
355.945	311.5
356.172	299.5
356.399	308.5
356.626	326.5
356.853	320.5
357.08	334.5
357.307	316.5
357.534	319.5
357.761	313.5
357.988	322.5
358.215	328.5
358.441	317.5
358.668	323.5
358.895	335.5
359.122	328.5
359.349	350.5
359.576	347.5
359.802	351.5
360.029	369.5
360.256	397.5
360.483	365.5
360.709	345.5
360.936	328.5
361.163	347.5
361.39	343.5
361.616	372.5
361.843	333.5
362.07	339.5
362.296	348.5
362.523	345.5
362.749	342.5
362.976	345.5
363.203	344.5
363.429	325.5
363.656	329.5
363.882	327.5
364.109	329.5
364.335	307.5
364.562	332.5
364.788	325.5
365.015	325.5
365.241	335.5
365.468	327.5
365.694	338.5
365.92	336.5
366.147	347.5
366.373	334.5
366.599	342.5
366.826	323.5
367.052	320.5
367.278	339.5
367.505	337.5
367.731	331.5
367.957	327.5
368.184	316.5
368.41	328.5
368.636	322.5
368.862	338.5
369.089	331.5
369.315	321.5
369.541	321.5
369.767	332.5
369.993	317.5
370.219	313.5
370.445	333.5
370.672	319.5
370.898	325.5
371.124	327.5
371.35	328.5
371.576	309.5
371.802	319.5
372.028	304.5
372.254	322.5
372.48	309.5
372.706	320.5
372.932	319.5
373.158	321.5
373.384	318.5
373.61	332.5
373.835	333.5
374.061	325.5
374.287	320.5
374.513	327.5
374.739	323.5
374.965	336.5
375.191	326.5
375.416	320.5
375.642	334.5
375.868	332.5
376.094	334.5
376.319	323.5
376.545	318.5
376.771	311.5
376.997	308.5
377.222	323.5
377.448	331.5
377.674	337.5
377.899	330.5
378.125	297.5
378.35	315.5
378.576	321.5
378.802	316.5
379.027	336.5
379.253	327.5
379.478	309.5
379.704	314.5
379.929	343.5
380.155	305.5
380.38	322.5
380.606	317.5
380.831	318.5
381.057	317.5
381.282	337.5
381.507	344.5
381.733	332.5
381.958	324.5
382.184	328.5
382.409	328.5
382.634	330.5
382.86	333.5
383.085	342.5
383.31	328.5
383.535	345.5
383.761	317.5
383.986	348.5
384.211	337.5
384.436	321.5
384.662	344.5
384.887	336.5
385.112	341.5
385.337	336.5
385.562	339.5
385.787	336.5
386.013	351.5
386.238	342.5
386.463	347.5
386.688	350.5
386.913	324.5
387.138	328.5
387.363	332.5
387.588	326.5
387.813	338.5
388.038	337.5
388.263	333.5
388.488	362.5
388.713	347.5
388.938	358.5
389.163	353.5
389.387	353.5
389.612	350.5
389.837	359.5
390.062	348.5
390.287	353.5
390.512	350.5
390.736	341.5
390.961	352.5
391.186	341.5
391.411	336.5
391.636	347.5
391.86	357.5
392.085	354.5
392.31	334.5
392.534	343.5
392.759	366.5
392.984	346.5
393.208	346.5
393.433	344.5
393.658	332.5
393.882	344.5
394.107	335.5
394.331	354.5
394.556	339.5
394.78	345.5
395.005	343.5
395.229	343.5
395.454	378.5
395.678	368.5
395.903	362.5
396.127	387.5
396.352	363.5
396.576	378.5
396.801	353.5
397.025	382.5
397.249	347.5
397.474	358.5
397.698	373.5
397.922	381.5
398.147	373.5
398.371	368.5
398.595	389.5
398.82	385.5
399.044	375.5
399.268	401.5
399.492	415.5
399.717	450.5
399.941	443.5
400.165	485.5
400.389	458.5
400.613	432.5
400.837	406.5
401.062	395.5
401.286	391.5
401.51	378.5
401.734	389.5
401.958	388.5
402.182	396.5
402.406	412.5
402.63	382.5
402.854	387.5
403.078	389.5
403.302	400.5
403.526	396.5
403.75	412.5
403.974	408.5
404.198	412.5
404.422	417.5
404.645	406.5
404.869	408.5
405.093	424.5
405.317	455.5
405.541	465.5
405.765	435.5
405.988	434.5
406.212	427.5
406.436	451.5
406.66	449.5
406.883	445.5
407.107	469.5
407.331	496.5
407.555	542.5
407.778	536.5
408.002	489.5
408.226	457.5
408.449	463.5
408.673	456.5
408.896	464.5
409.12	493.5
409.344	462.5
409.567	400.5
409.791	400.5
410.014	410.5
410.238	415.5
410.461	411.5
410.685	415.5
410.908	414.5
411.132	440.5
411.355	475.5
411.578	439.5
411.802	402.5
412.025	391.5
412.249	402.5
412.472	424.5
412.695	442.5
412.919	428.5
413.142	427.5
413.365	401.5
413.589	388.5
413.812	373.5
414.035	382.5
414.258	376.5
414.482	390.5
414.705	401.5
414.928	393.5
415.151	368.5
415.374	384.5
415.597	377.5
415.821	375.5
416.044	374.5
416.267	383.5
416.49	386.5
416.713	383.5
416.936	365.5
417.159	381.5
417.382	378.5
417.605	413.5
417.828	402.5
418.051	409.5
418.274	393.5
418.497	381.5
418.72	392.5
418.943	368.5
419.166	411.5
419.389	429.5
419.611	396.5
419.834	406.5
420.057	413.5
420.28	400.5
420.503	392.5
420.726	380.5
420.948	391.5
421.171	461.5
421.394	467.5
421.617	404.5
421.839	423.5
422.062	402.5
422.285	418.5
422.507	455.5
422.73	509.5
422.953	475.5
423.175	441.5
423.398	422.5
423.621	413.5
423.843	423.5
424.066	436.5
424.288	428.5
424.511	463.5
424.733	494.5
424.956	532.5
425.178	501.5
425.401	518.5
425.623	535.5
425.846	464.5
426.068	441.5
426.291	459.5
426.513	432.5
426.735	441.5
426.958	470.5
427.18	538.5
427.402	604.5
427.625	686.5
427.847	631.5
428.069	536.5
428.292	480.5
428.514	444.5
428.736	415.5
428.958	407.5
429.181	398.5
429.403	411.5
429.625	395.5
429.847	443.5
430.069	479.5
430.292	499.5
430.514	419.5
430.736	416.5
430.958	380.5
431.18	384.5
431.402	384.5
431.624	392.5
431.846	372.5
432.068	368.5
432.29	387.5
432.512	376.5
432.734	394.5
432.956	383.5
433.178	402.5
433.4	395.5
433.622	393.5
433.844	391.5
434.066	388.5
434.287	401.5
434.509	375.5
434.731	404.5
434.953	401.5
435.175	409.5
435.397	449.5
435.618	427.5
435.84	473.5
436.062	540.5
436.284	568.5
436.505	478.5
436.727	431.5
436.949	418.5
437.17	414.5
437.392	414.5
437.614	426.5
437.835	445.5
438.057	534.5
438.278	600.5
438.5	597.5
438.721	664.5
438.943	625.5
439.165	481.5
439.386	451.5
439.608	451.5
439.829	465.5
440.05	469.5
440.272	502.5
440.493	477.5
440.715	429.5
440.936	423.5
441.158	427.5
441.379	422.5
441.6	435.5
441.822	444.5
442.043	471.5
442.264	547.5
442.486	543.5
442.707	463.5
442.928	451.5
443.149	455.5
443.371	496.5
443.592	479.5
443.813	577.5
444.034	598.5
444.255	496.5
444.476	449.5
444.698	440.5
444.919	402.5
445.14	499.5
445.361	482.5
445.582	479.5
445.803	535.5
446.024	606.5
446.245	614.5
446.466	533.5
446.687	480.5
446.908	440.5
447.129	410.5
447.35	413.5
447.571	404.5
447.792	411.5
448.013	423.5
448.234	447.5
448.455	464.5
448.675	553.5
448.896	637.5
449.117	529.5
449.338	521.5
449.559	592.5
449.779	625.5
450	523.5
450.221	458.5
450.442	427.5
450.662	391.5
450.883	418.5
451.104	428.5
451.324	417.5
451.545	394.5
451.766	387.5
451.986	391.5
452.207	371.5
452.428	361.5
452.648	365.5
452.869	377.5
453.089	363.5
453.31	375.5
453.53	376.5
453.751	375.5
453.971	382.5
454.192	388.5
454.412	393.5
454.633	366.5
454.853	365.5
455.073	375.5
455.294	381.5
455.514	432.5
455.734	432.5
455.955	378.5
456.175	355.5
456.395	347.5
456.616	345.5
456.836	365.5
457.056	359.5
457.276	353.5
457.497	349.5
457.717	360.5
457.937	358.5
458.157	348.5
458.377	360.5
458.598	401.5
458.818	429.5
459.038	478.5
459.258	491.5
459.478	439.5
459.698	400.5
459.918	382.5
460.138	382.5
460.358	381.5
460.578	395.5
460.798	386.5
461.018	395.5
461.238	374.5
461.458	383.5
461.678	380.5
461.898	409.5
462.118	391.5
462.338	392.5
462.558	397.5
462.777	387.5
462.997	413.5
463.217	411.5
463.437	411.5
463.657	402.5
463.876	406.5
464.096	389.5
464.316	401.5
464.536	419.5
464.755	443.5
464.975	428.5
465.195	459.5
465.414	528.5
465.634	471.5
465.854	424.5
466.073	414.5
466.293	387.5
466.512	385.5
466.732	372.5
466.951	373.5
467.171	387.5
467.391	369.5
467.61	370.5
467.829	374.5
468.049	402.5
468.268	381.5
468.488	374.5
468.707	360.5
468.927	377.5
469.146	377.5
469.365	367.5
469.585	379.5
469.804	372.5
470.023	397.5
470.243	370.5
470.462	384.5
470.681	419.5
470.901	406.5
471.12	376.5
471.339	377.5
471.558	396.5
471.777	403.5
471.997	379.5
472.216	392.5
472.435	406.5
472.654	422.5
472.873	394.5
473.092	373.5
473.311	389.5
473.53	375.5
473.749	403.5
473.968	420.5
474.187	511.5
474.406	519.5
474.625	421.5
474.844	394.5
475.063	374.5
475.282	379.5
475.501	398.5
475.72	394.5
475.939	380.5
476.158	380.5
476.377	406.5
476.596	402.5
476.814	396.5
477.033	401.5
477.252	405.5
477.471	408.5
477.69	415.5
477.908	413.5
478.127	410.5
478.346	412.5
478.564	433.5
478.783	430.5
479.002	423.5
479.22	429.5
479.439	446.5
479.658	454.5
479.876	481.5
480.095	463.5
480.313	470.5
480.532	448.5
480.751	462.5
480.969	459.5
481.188	530.5
481.406	555.5
481.624	503.5
481.843	456.5
482.061	465.5
482.28	460.5
482.498	460.5
482.717	455.5
482.935	442.5
483.153	453.5
483.372	459.5
483.59	448.5
483.808	428.5
484.027	452.5
484.245	438.5
484.463	468.5
484.681	429.5
484.9	454.5
485.118	469.5
485.336	464.5
485.554	453.5
485.772	455.5
485.99	456.5
486.209	503.5
486.427	484.5
486.645	483.5
486.863	488.5
487.081	522.5
487.299	505.5
487.517	491.5
487.735	456.5
487.953	473.5
488.171	480.5
488.389	464.5
488.607	468.5
488.825	478.5
489.043	474.5
489.261	491.5
489.479	485.5
489.696	484.5
489.914	485.5
490.132	470.5
490.35	497.5
490.568	511.5
490.786	512.5
491.003	518.5
491.221	519.5
491.439	552.5
491.657	551.5
491.874	526.5
492.092	534.5
492.31	552.5
492.527	559.5
492.745	545.5
492.963	555.5
493.18	556.5
493.398	545.5
493.615	571.5
493.833	569.5
494.05	567.5
494.268	534.5
494.485	550.5
494.703	574.5
494.92	560.5
495.138	560.5
495.355	566.5
495.573	552.5
495.79	563.5
496.008	577.5
496.225	563.5
496.442	559.5
496.66	573.5
496.877	580.5
497.094	560.5
497.312	586.5
497.529	572.5
497.746	575.5
497.963	575.5
498.181	608.5
498.398	612.5
498.615	614.5
498.832	646.5
499.049	627.5
499.267	607.5
499.484	645.5
499.701	665.5
499.918	700.5
500.135	700.5
500.352	741.5
500.569	749.5
500.786	724.5
501.003	711.5
501.22	709.5
501.437	684.5
501.654	692.5
501.871	702.5
502.088	688.5
502.305	661.5
502.522	620.5
502.739	616.5
502.956	598.5
503.172	575.5
503.389	590.5
503.606	579.5
503.823	595.5
504.04	589.5
504.256	558.5
504.473	587.5
504.69	546.5
504.907	554.5
505.123	557.5
505.34	547.5
505.557	527.5
505.773	559.5
505.99	565.5
506.207	544.5
506.423	554.5
506.64	559.5
506.856	544.5
507.073	538.5
507.289	541.5
507.506	526.5
507.722	537.5
507.939	562.5
508.155	547.5
508.372	548.5
508.588	553.5
508.805	533.5
509.021	528.5
509.238	532.5
509.454	537.5
509.67	531.5
509.887	518.5
510.103	508.5
510.319	537.5
510.536	640.5
510.752	1114.5
510.968	877.5
511.184	549.5
511.401	528.5
511.617	525.5
511.833	494.5
512.049	503.5
512.265	518.5
512.481	487.5
512.698	478.5
512.914	473.5
513.13	480.5
513.346	499.5
513.562	511.5
513.778	491.5
513.994	495.5
514.21	512.5
514.426	539.5
514.642	585.5
514.858	592.5
515.074	644.5
515.29	781.5
515.506	1201.5
515.721	963.5
515.937	650.5
516.153	558.5
516.369	539.5
516.585	523.5
516.801	518.5
517.016	500.5
517.232	522.5
517.448	499.5
517.664	529.5
517.879	512.5
518.095	515.5
518.311	515.5
518.527	493.5
518.742	496.5
518.958	504.5
519.173	500.5
519.389	495.5
519.605	507.5
519.82	523.5
520.036	533.5
