Data from 1965.PennyLincolnUp.Lamp.En5.5.200Scan.071719.P1._HRD10591_14-08-19-911.txt Node
Date: Thu Jul 18 14:08:19 EDT 2019
User: cochatt
Spectrometer: HR+D1059
Trigger mode: 1
Integration Time (sec): 1.000000E-1
Scans to average: 1
Electric dark correction enabled: true
Nonlinearity correction enabled: false
Boxcar width: 0
XAxis mode: Wavelengths
Number of Pixels in Spectrum: 2048
>>>>>Begin Spectral Data<<<<<
223.165	-26.62
223.4	-26.62
223.635	-26.62
223.869	-24.62
224.104	-14.62
224.338	-29.62
224.573	-25.62
224.808	3.38
225.042	0.38
225.277	-3.62
225.511	2.38
225.746	-0.62
225.98	4.38
226.215	6.38
226.449	21.38
226.683	19.38
226.918	44.38
227.152	23.38
227.387	26.38
227.621	33.38
227.856	47.38
228.09	26.38
228.324	44.38
228.559	39.38
228.793	60.38
229.027	98.38
229.262	88.38
229.496	106.38
229.73	109.38
229.964	147.38
230.199	98.38
230.433	104.38
230.667	111.38
230.901	80.38
231.136	103.38
231.37	96.38
231.604	103.38
231.838	95.38
232.072	100.38
232.306	94.38
232.541	92.38
232.775	121.38
233.009	128.38
233.243	109.38
233.477	106.38
233.711	105.38
233.945	113.38
234.179	114.38
234.413	101.38
234.647	115.38
234.881	86.38
235.115	108.38
235.349	98.38
235.583	104.38
235.817	109.38
236.051	106.38
236.285	116.38
236.519	103.38
236.753	121.38
236.987	132.38
237.221	141.38
237.455	186.38
237.689	148.38
237.922	122.38
238.156	125.38
238.39	124.38
238.624	116.38
238.858	105.38
239.091	106.38
239.325	97.38
239.559	109.38
239.793	117.38
240.027	127.38
240.26	108.38
240.494	134.38
240.728	123.38
240.961	135.38
241.195	119.38
241.429	117.38
241.662	118.38
241.896	114.38
242.13	121.38
242.363	131.38
242.597	119.38
242.83	118.38
243.064	119.38
243.298	138.38
243.531	132.38
243.765	110.38
243.998	122.38
244.232	120.38
244.465	137.38
244.699	145.38
244.932	124.38
245.166	122.38
245.399	132.38
245.633	127.38
245.866	134.38
246.099	123.38
246.333	128.38
246.566	128.38
246.8	138.38
247.033	141.38
247.266	132.38
247.5	144.38
247.733	149.38
247.966	148.38
248.2	151.38
248.433	146.38
248.666	157.38
248.899	170.38
249.133	160.38
249.366	165.38
249.599	161.38
249.832	160.38
250.066	166.38
250.299	154.38
250.532	161.38
250.765	153.38
250.998	181.38
251.231	190.38
251.465	178.38
251.698	169.38
251.931	174.38
252.164	168.38
252.397	182.38
252.63	180.38
252.863	182.38
253.096	172.38
253.329	180.38
253.562	201.38
253.795	188.38
254.028	198.38
254.261	180.38
254.494	213.38
254.727	196.38
254.96	224.38
255.193	237.38
255.426	218.38
255.659	181.38
255.892	213.38
256.124	207.38
256.357	191.38
256.59	182.38
256.823	189.38
257.056	184.38
257.289	177.38
257.521	166.38
257.754	190.38
257.987	184.38
258.22	167.38
258.452	160.38
258.685	177.38
258.918	173.38
259.151	197.38
259.383	190.38
259.616	203.38
259.849	199.38
260.081	198.38
260.314	201.38
260.547	197.38
260.779	211.38
261.012	195.38
261.244	194.38
261.477	198.38
261.71	195.38
261.942	189.38
262.175	187.38
262.407	202.38
262.64	194.38
262.872	189.38
263.105	180.38
263.337	188.38
263.57	192.38
263.802	179.38
264.035	172.38
264.267	183.38
264.499	184.38
264.732	195.38
264.964	182.38
265.197	185.38
265.429	179.38
265.661	178.38
265.894	171.38
266.126	185.38
266.358	188.38
266.591	184.38
266.823	198.38
267.055	198.38
267.287	187.38
267.52	191.38
267.752	195.38
267.984	200.38
268.216	188.38
268.448	190.38
268.681	201.38
268.913	202.38
269.145	218.38
269.377	242.38
269.609	227.38
269.841	212.38
270.073	223.38
270.306	248.38
270.538	263.38
270.77	259.38
271.002	234.38
271.234	251.38
271.466	251.38
271.698	257.38
271.93	266.38
272.162	255.38
272.394	252.38
272.626	229.38
272.858	225.38
273.09	222.38
273.322	233.38
273.553	212.38
273.785	212.38
274.017	222.38
274.249	224.38
274.481	222.38
274.713	218.38
274.945	219.38
275.176	218.38
275.408	233.38
275.64	215.38
275.872	209.38
276.104	227.38
276.335	228.38
276.567	227.38
276.799	231.38
277.031	260.38
277.262	270.38
277.494	274.38
277.726	248.38
277.957	264.38
278.189	242.38
278.421	228.38
278.652	221.38
278.884	213.38
279.115	209.38
279.347	225.38
279.579	231.38
279.81	213.38
280.042	224.38
280.273	218.38
280.505	230.38
280.736	214.38
280.968	241.38
281.199	230.38
281.431	226.38
281.662	228.38
281.894	236.38
282.125	223.38
282.356	242.38
282.588	249.38
282.819	259.38
283.051	240.38
283.282	233.38
283.513	237.38
283.745	235.38
283.976	221.38
284.207	221.38
284.439	224.38
284.67	244.38
284.901	248.38
285.132	236.38
285.364	225.38
285.595	237.38
285.826	234.38
286.057	237.38
286.288	260.38
286.52	240.38
286.751	240.38
286.982	242.38
287.213	210.38
287.444	233.38
287.675	226.38
287.906	220.38
288.138	235.38
288.369	235.38
288.6	244.38
288.831	230.38
289.062	230.38
289.293	226.38
289.524	245.38
289.755	237.38
289.986	240.38
290.217	220.38
290.448	234.38
290.679	219.38
290.91	241.38
291.141	242.38
291.371	253.38
291.602	222.38
291.833	222.38
292.064	232.38
292.295	232.38
292.526	237.38
292.757	254.38
292.987	238.38
293.218	223.38
293.449	233.38
293.68	248.38
293.91	248.38
294.141	244.38
294.372	232.38
294.603	249.38
294.833	250.38
295.064	253.38
295.295	247.38
295.525	246.38
295.756	240.38
295.987	246.38
296.217	274.38
296.448	270.38
296.679	242.38
296.909	244.38
297.14	248.38
297.37	247.38
297.601	267.38
297.831	243.38
298.062	248.38
298.292	240.38
298.523	269.38
298.753	253.38
298.984	246.38
299.214	266.38
299.445	261.38
299.675	244.38
299.905	251.38
300.136	258.38
300.366	251.38
300.597	272.38
300.827	264.38
301.057	250.38
301.288	267.38
301.518	278.38
301.748	258.38
301.979	273.38
302.209	261.38
302.439	251.38
302.669	261.38
302.9	268.38
303.13	254.38
303.36	272.38
303.59	256.38
303.82	267.38
304.051	264.38
304.281	286.38
304.511	263.38
304.741	264.38
304.971	281.38
305.201	276.38
305.431	271.38
305.661	265.38
305.891	259.38
306.121	271.38
306.352	283.38
306.582	280.38
306.812	278.38
307.042	269.38
307.272	276.38
307.502	300.38
307.731	284.38
307.961	281.38
308.191	279.38
308.421	290.38
308.651	275.38
308.881	279.38
309.111	299.38
309.341	277.38
309.571	290.38
309.8	317.38
310.03	306.38
310.26	299.38
310.49	306.38
310.72	323.38
310.949	331.38
311.179	346.38
311.409	322.38
311.639	309.38
311.868	318.38
312.098	332.38
312.328	332.38
312.557	336.38
312.787	354.38
313.017	336.38
313.246	313.38
313.476	315.38
313.706	313.38
313.935	310.38
314.165	331.38
314.394	328.38
314.624	334.38
314.853	337.38
315.083	308.38
315.312	313.38
315.542	311.38
315.771	319.38
316.001	315.38
316.23	308.38
316.46	296.38
316.689	306.38
316.919	285.38
317.148	313.38
317.377	326.38
317.607	317.38
317.836	314.38
318.065	312.38
318.295	308.38
318.524	296.38
318.753	313.38
318.983	323.38
319.212	305.38
319.441	310.38
319.67	330.38
319.9	324.38
320.129	328.38
320.358	324.38
320.587	343.38
320.816	342.38
321.046	330.38
321.275	344.38
321.504	331.38
321.733	331.38
321.962	331.38
322.191	345.38
322.42	381.38
322.649	354.38
322.878	378.38
323.108	384.38
323.337	398.38
323.566	423.38
323.795	448.38
324.024	486.38
324.253	608.38
324.482	891.38
324.71	1359.38
324.939	1816.38
325.168	1564.38
325.397	825.38
325.626	550.38
325.855	472.38
326.084	429.38
326.313	429.38
326.542	442.38
326.77	450.38
326.999	567.38
327.228	804.38
327.457	1156.38
327.686	1362.38
327.914	921.38
328.143	634.38
328.372	561.38
328.6	496.38
328.829	471.38
329.058	476.38
329.287	486.38
329.515	466.38
329.744	437.38
329.972	435.38
330.201	454.38
330.43	480.38
330.658	513.38
330.887	537.38
331.115	509.38
331.344	429.38
331.572	407.38
331.801	418.38
332.03	389.38
332.258	393.38
332.486	366.38
332.715	382.38
332.943	374.38
333.172	390.38
333.4	368.38
333.629	391.38
333.857	401.38
334.085	400.38
334.314	424.38
334.542	445.38
334.771	462.38
334.999	418.38
335.227	394.38
335.455	362.38
335.684	369.38
335.912	363.38
336.14	350.38
336.369	352.38
336.597	375.38
336.825	374.38
337.053	356.38
337.281	372.38
337.51	356.38
337.738	354.38
337.966	343.38
338.194	359.38
338.422	356.38
338.65	353.38
338.878	352.38
339.106	346.38
339.334	368.38
339.562	345.38
339.79	328.38
340.018	344.38
340.246	352.38
340.474	361.38
340.702	377.38
340.93	370.38
341.158	375.38
341.386	358.38
341.614	363.38
341.842	387.38
342.07	336.38
342.298	360.38
342.526	360.38
342.754	346.38
342.981	351.38
343.209	322.38
343.437	351.38
343.665	343.38
343.893	368.38
344.12	358.38
344.348	357.38
344.576	351.38
344.804	371.38
345.031	362.38
345.259	388.38
345.487	370.38
345.714	352.38
345.942	338.38
346.17	346.38
346.397	336.38
346.625	358.38
346.853	359.38
347.08	329.38
347.308	362.38
347.535	357.38
347.763	360.38
347.99	355.38
348.218	360.38
348.445	352.38
348.673	361.38
348.9	347.38
349.128	338.38
349.355	327.38
349.583	334.38
349.81	355.38
350.037	347.38
350.265	334.38
350.492	332.38
350.72	352.38
350.947	348.38
351.174	349.38
351.402	351.38
351.629	353.38
351.856	363.38
352.083	366.38
352.311	345.38
352.538	376.38
352.765	376.38
352.992	344.38
353.22	358.38
353.447	343.38
353.674	314.38
353.901	317.38
354.128	327.38
354.355	313.38
354.583	342.38
354.81	320.38
355.037	329.38
355.264	317.38
355.491	322.38
355.718	319.38
355.945	331.38
356.172	314.38
356.399	324.38
356.626	318.38
356.853	320.38
357.08	320.38
357.307	339.38
357.534	312.38
357.761	299.38
357.988	302.38
358.215	308.38
358.441	321.38
358.668	320.38
358.895	318.38
359.122	330.38
359.349	332.38
359.576	341.38
359.802	369.38
360.029	377.38
360.256	393.38
360.483	386.38
360.709	341.38
360.936	356.38
361.163	349.38
361.39	360.38
361.616	354.38
361.843	337.38
362.07	325.38
362.296	345.38
362.523	347.38
362.749	341.38
362.976	339.38
363.203	328.38
363.429	336.38
363.656	332.38
363.882	322.38
364.109	345.38
364.335	338.38
364.562	332.38
364.788	312.38
365.015	335.38
365.241	334.38
365.468	339.38
365.694	340.38
365.92	337.38
366.147	339.38
366.373	336.38
366.599	317.38
366.826	316.38
367.052	332.38
367.278	342.38
367.505	329.38
367.731	338.38
367.957	325.38
368.184	322.38
368.41	338.38
368.636	350.38
368.862	338.38
369.089	326.38
369.315	325.38
369.541	350.38
369.767	345.38
369.993	338.38
370.219	342.38
370.445	333.38
370.672	320.38
370.898	323.38
371.124	324.38
371.35	335.38
371.576	332.38
371.802	328.38
372.028	308.38
372.254	322.38
372.48	313.38
372.706	334.38
372.932	328.38
373.158	331.38
373.384	349.38
373.61	341.38
373.835	340.38
374.061	342.38
374.287	347.38
374.513	348.38
374.739	339.38
374.965	344.38
375.191	328.38
375.416	341.38
375.642	341.38
375.868	325.38
376.094	336.38
376.319	312.38
376.545	339.38
376.771	338.38
376.997	306.38
377.222	338.38
377.448	320.38
377.674	323.38
377.899	317.38
378.125	315.38
378.35	320.38
378.576	318.38
378.802	314.38
379.027	309.38
379.253	344.38
379.478	307.38
379.704	319.38
379.929	333.38
380.155	339.38
380.38	323.38
380.606	324.38
380.831	334.38
381.057	338.38
381.282	317.38
381.507	341.38
381.733	335.38
381.958	341.38
382.184	340.38
382.409	323.38
382.634	338.38
382.86	325.38
383.085	336.38
383.31	346.38
383.535	352.38
383.761	347.38
383.986	337.38
384.211	352.38
384.436	354.38
384.662	348.38
384.887	334.38
385.112	348.38
385.337	338.38
385.562	342.38
385.787	333.38
386.013	354.38
386.238	359.38
386.463	348.38
386.688	356.38
386.913	350.38
387.138	345.38
387.363	318.38
387.588	338.38
387.813	353.38
388.038	360.38
388.263	353.38
388.488	363.38
388.713	348.38
388.938	346.38
389.163	346.38
389.387	357.38
389.612	343.38
389.837	347.38
390.062	355.38
390.287	352.38
390.512	346.38
390.736	335.38
390.961	374.38
391.186	357.38
391.411	366.38
391.636	359.38
391.86	354.38
392.085	368.38
392.31	348.38
392.534	357.38
392.759	374.38
392.984	356.38
393.208	371.38
393.433	345.38
393.658	355.38
393.882	351.38
394.107	357.38
394.331	356.38
394.556	350.38
394.78	349.38
395.005	360.38
395.229	361.38
395.454	345.38
395.678	356.38
395.903	380.38
396.127	384.38
396.352	393.38
396.576	370.38
396.801	380.38
397.025	369.38
397.249	357.38
397.474	370.38
397.698	376.38
397.922	387.38
398.147	380.38
398.371	382.38
398.595	397.38
398.82	396.38
399.044	394.38
399.268	427.38
399.492	422.38
399.717	450.38
399.941	461.38
400.165	460.38
400.389	470.38
400.613	456.38
400.837	414.38
401.062	402.38
401.286	406.38
401.51	402.38
401.734	385.38
401.958	395.38
402.182	419.38
402.406	426.38
402.63	427.38
402.854	401.38
403.078	414.38
403.302	422.38
403.526	417.38
403.75	420.38
403.974	420.38
404.198	413.38
404.422	417.38
404.645	406.38
404.869	430.38
405.093	455.38
405.317	474.38
405.541	488.38
405.765	434.38
405.988	427.38
406.212	437.38
406.436	476.38
406.66	465.38
406.883	449.38
407.107	466.38
407.331	477.38
407.555	536.38
407.778	520.38
408.002	479.38
408.226	466.38
408.449	449.38
408.673	471.38
408.896	481.38
409.12	496.38
409.344	453.38
409.567	434.38
409.791	404.38
410.014	416.38
410.238	419.38
410.461	407.38
410.685	400.38
410.908	428.38
411.132	446.38
411.355	467.38
411.578	448.38
411.802	413.38
412.025	410.38
412.249	431.38
412.472	430.38
412.695	472.38
412.919	451.38
413.142	416.38
413.365	409.38
413.589	398.38
413.812	402.38
414.035	380.38
414.258	412.38
414.482	381.38
414.705	382.38
414.928	412.38
415.151	391.38
415.374	405.38
415.597	395.38
415.821	384.38
416.044	383.38
416.267	375.38
416.49	373.38
416.713	372.38
416.936	364.38
417.159	392.38
417.382	392.38
417.605	405.38
417.828	394.38
418.051	402.38
418.274	404.38
418.497	381.38
418.72	395.38
418.943	389.38
419.166	407.38
419.389	417.38
419.611	430.38
419.834	408.38
420.057	414.38
420.28	410.38
420.503	395.38
420.726	400.38
420.948	417.38
421.171	473.38
421.394	472.38
421.617	411.38
421.839	418.38
422.062	416.38
422.285	430.38
422.507	465.38
422.73	505.38
422.953	490.38
423.175	460.38
423.398	433.38
423.621	428.38
423.843	439.38
424.066	432.38
424.288	446.38
424.511	445.38
424.733	493.38
424.956	543.38
425.178	537.38
425.401	534.38
425.623	562.38
425.846	469.38
426.068	445.38
426.291	444.38
426.513	448.38
426.735	440.38
426.958	483.38
427.18	544.38
427.402	648.38
427.625	718.38
427.847	618.38
428.069	551.38
428.292	467.38
428.514	434.38
428.736	418.38
428.958	414.38
429.181	413.38
429.403	425.38
429.625	438.38
429.847	435.38
430.069	480.38
430.292	495.38
430.514	423.38
430.736	436.38
430.958	404.38
431.18	389.38
431.402	375.38
431.624	383.38
431.846	371.38
432.068	380.38
432.29	392.38
432.512	386.38
432.734	387.38
432.956	394.38
433.178	422.38
433.4	411.38
433.622	396.38
433.844	396.38
434.066	394.38
434.287	374.38
434.509	402.38
434.731	408.38
434.953	407.38
435.175	425.38
435.397	435.38
435.618	450.38
435.84	463.38
436.062	537.38
436.284	599.38
436.505	501.38
436.727	452.38
436.949	445.38
437.17	426.38
437.392	398.38
437.614	437.38
437.835	450.38
438.057	538.38
438.278	630.38
438.5	598.38
438.721	651.38
438.943	618.38
439.165	509.38
439.386	474.38
439.608	451.38
439.829	456.38
440.05	454.38
440.272	516.38
440.493	476.38
440.715	443.38
440.936	433.38
441.158	411.38
441.379	404.38
441.6	421.38
441.822	441.38
442.043	493.38
442.264	557.38
442.486	567.38
442.707	493.38
442.928	455.38
443.149	461.38
443.371	456.38
443.592	515.38
443.813	560.38
444.034	615.38
444.255	504.38
444.476	464.38
444.698	433.38
444.919	443.38
445.14	505.38
445.361	480.38
445.582	469.38
445.803	541.38
446.024	620.38
446.245	619.38
446.466	558.38
446.687	490.38
446.908	466.38
447.129	415.38
447.35	419.38
447.571	422.38
447.792	411.38
448.013	411.38
448.234	442.38
448.455	472.38
448.675	551.38
448.896	637.38
449.117	555.38
449.338	506.38
449.559	596.38
449.779	663.38
450	547.38
450.221	466.38
450.442	417.38
450.662	411.38
450.883	414.38
451.104	434.38
451.324	416.38
451.545	417.38
451.766	381.38
451.986	376.38
452.207	387.38
452.428	363.38
452.648	357.38
452.869	403.38
453.089	390.38
453.31	393.38
453.53	364.38
453.751	375.38
453.971	398.38
454.192	410.38
454.412	388.38
454.633	382.38
454.853	374.38
455.073	357.38
455.294	398.38
455.514	444.38
455.734	422.38
455.955	377.38
456.175	354.38
456.395	365.38
456.616	356.38
456.836	369.38
457.056	381.38
457.276	357.38
457.497	356.38
457.717	354.38
457.937	351.38
458.157	359.38
458.377	350.38
458.598	378.38
458.818	425.38
459.038	516.38
459.258	522.38
459.478	433.38
459.698	390.38
459.918	386.38
460.138	377.38
460.358	388.38
460.578	404.38
460.798	384.38
461.018	389.38
461.238	385.38
461.458	377.38
461.678	386.38
461.898	399.38
462.118	411.38
462.338	394.38
462.558	404.38
462.777	430.38
462.997	414.38
463.217	421.38
463.437	430.38
463.657	421.38
463.876	427.38
464.096	419.38
464.316	397.38
464.536	392.38
464.755	440.38
464.975	434.38
465.195	474.38
465.414	530.38
465.634	487.38
465.854	448.38
466.073	423.38
466.293	392.38
466.512	410.38
466.732	380.38
466.951	373.38
467.171	375.38
467.391	382.38
467.61	408.38
467.829	400.38
468.049	388.38
468.268	399.38
468.488	383.38
468.707	374.38
468.927	363.38
469.146	366.38
469.365	366.38
469.585	389.38
469.804	384.38
470.023	386.38
470.243	393.38
470.462	389.38
470.681	425.38
470.901	406.38
471.12	376.38
471.339	383.38
471.558	389.38
471.777	383.38
471.997	389.38
472.216	396.38
472.435	420.38
472.654	420.38
472.873	386.38
473.092	388.38
473.311	406.38
473.53	413.38
473.749	396.38
473.968	424.38
474.187	514.38
474.406	521.38
474.625	424.38
474.844	410.38
475.063	397.38
475.282	388.38
475.501	381.38
475.72	401.38
475.939	389.38
476.158	414.38
476.377	392.38
476.596	429.38
476.814	410.38
477.033	432.38
477.252	411.38
477.471	404.38
477.69	418.38
477.908	407.38
478.127	418.38
478.346	428.38
478.564	442.38
478.783	421.38
479.002	430.38
479.22	438.38
479.439	428.38
479.658	465.38
479.876	477.38
480.095	480.38
480.313	507.38
480.532	490.38
480.751	482.38
480.969	495.38
481.188	552.38
481.406	570.38
481.624	491.38
481.843	483.38
482.061	467.38
482.28	465.38
482.498	467.38
482.717	461.38
482.935	443.38
483.153	460.38
483.372	444.38
483.59	467.38
483.808	471.38
484.027	459.38
484.245	470.38
484.463	442.38
484.681	457.38
484.9	467.38
485.118	477.38
485.336	480.38
485.554	464.38
485.772	469.38
485.99	490.38
486.209	469.38
486.427	482.38
486.645	485.38
486.863	511.38
487.081	502.38
487.299	491.38
487.517	501.38
487.735	483.38
487.953	471.38
488.171	481.38
488.389	498.38
488.607	494.38
488.825	491.38
489.043	472.38
489.261	512.38
489.479	532.38
489.696	508.38
489.914	520.38
490.132	494.38
490.35	512.38
490.568	475.38
490.786	528.38
491.003	525.38
491.221	555.38
491.439	531.38
491.657	553.38
491.874	552.38
492.092	555.38
492.31	557.38
492.527	570.38
492.745	545.38
492.963	565.38
493.18	587.38
493.398	575.38
493.615	560.38
493.833	546.38
494.05	580.38
494.268	572.38
494.485	548.38
494.703	597.38
494.92	569.38
495.138	582.38
495.355	573.38
495.573	567.38
495.79	581.38
496.008	584.38
496.225	579.38
496.442	580.38
496.66	586.38
496.877	567.38
497.094	575.38
497.312	574.38
497.529	614.38
497.746	608.38
497.963	632.38
498.181	611.38
498.398	631.38
498.615	632.38
498.832	633.38
499.049	634.38
499.267	653.38
499.484	651.38
499.701	678.38
499.918	714.38
500.135	712.38
500.352	737.38
500.569	728.38
500.786	773.38
501.003	732.38
501.22	715.38
501.437	714.38
501.654	707.38
501.871	715.38
502.088	684.38
