Data from 1965.PennyLincolnUp.Lamp.En5.5.200Scan.071719.P1._HRD10591_14-10-32-912.txt Node
Date: Thu Jul 18 14:10:32 EDT 2019
User: cochatt
Spectrometer: HR+D1059
Trigger mode: 1
Integration Time (sec): 1.000000E-1
Scans to average: 1
Electric dark correction enabled: true
Nonlinearity correction enabled: false
Boxcar width: 0
XAxis mode: Wavelengths
Number of Pixels in Spectrum: 2048
>>>>>Begin Spectral Data<<<<<
223.165	-11.62
223.4	-11.62
223.635	-11.62
223.869	-28.62
224.104	-19.62
224.338	-12.62
224.573	-11.62
224.808	-5.62
225.042	0.38
225.277	-20.62
225.511	-0.62
225.746	11.38
225.98	4.38
226.215	7.38
226.449	18.38
226.683	13.38
226.918	25.38
227.152	30.38
227.387	27.38
227.621	26.38
227.856	32.38
228.09	50.38
228.324	48.38
228.559	46.38
228.793	57.38
229.027	89.38
229.262	100.38
229.496	117.38
229.73	130.38
229.964	145.38
230.199	134.38
230.433	110.38
230.667	106.38
230.901	96.38
231.136	120.38
231.37	108.38
231.604	113.38
231.838	98.38
232.072	114.38
232.306	110.38
232.541	102.38
232.775	91.38
233.009	103.38
233.243	116.38
233.477	111.38
233.711	110.38
233.945	109.38
234.179	109.38
234.413	122.38
234.647	104.38
234.881	98.38
235.115	111.38
235.349	97.38
235.583	116.38
235.817	120.38
236.051	118.38
236.285	105.38
236.519	126.38
236.753	124.38
236.987	147.38
237.221	186.38
237.455	220.38
237.689	174.38
237.922	136.38
238.156	127.38
238.39	116.38
238.624	125.38
238.858	121.38
239.091	127.38
239.325	117.38
239.559	114.38
239.793	132.38
240.027	130.38
240.26	130.38
240.494	135.38
240.728	150.38
240.961	150.38
241.195	128.38
241.429	126.38
241.662	119.38
241.896	134.38
242.13	134.38
242.363	131.38
242.597	128.38
242.83	130.38
243.064	128.38
243.298	134.38
243.531	152.38
243.765	125.38
243.998	132.38
244.232	132.38
244.465	133.38
244.699	137.38
244.932	123.38
245.166	125.38
245.399	147.38
245.633	120.38
245.866	132.38
246.099	140.38
246.333	129.38
246.566	148.38
246.8	139.38
247.033	146.38
247.266	150.38
247.5	141.38
247.733	164.38
247.966	154.38
248.2	173.38
248.433	156.38
248.666	178.38
248.899	176.38
249.133	182.38
249.366	198.38
249.599	190.38
249.832	169.38
250.066	174.38
250.299	162.38
250.532	182.38
250.765	176.38
250.998	196.38
251.231	227.38
251.465	226.38
251.698	198.38
251.931	181.38
252.164	175.38
252.397	188.38
252.63	178.38
252.863	180.38
253.096	198.38
253.329	217.38
253.562	206.38
253.795	199.38
254.028	208.38
254.261	223.38
254.494	224.38
254.727	216.38
254.96	266.38
255.193	217.38
255.426	248.38
255.659	203.38
255.892	213.38
256.124	217.38
256.357	218.38
256.59	225.38
256.823	191.38
257.056	211.38
257.289	207.38
257.521	203.38
257.754	195.38
257.987	194.38
258.22	185.38
258.452	203.38
258.685	205.38
258.918	185.38
259.151	211.38
259.383	202.38
259.616	208.38
259.849	208.38
260.081	211.38
260.314	240.38
260.547	236.38
260.779	238.38
261.012	219.38
261.244	224.38
261.477	218.38
261.71	204.38
261.942	218.38
262.175	223.38
262.407	206.38
262.64	216.38
262.872	216.38
263.105	195.38
263.337	197.38
263.57	198.38
263.802	199.38
264.035	188.38
264.267	204.38
264.499	176.38
264.732	212.38
264.964	193.38
265.197	187.38
265.429	194.38
265.661	186.38
265.894	199.38
266.126	212.38
266.358	183.38
266.591	188.38
266.823	217.38
267.055	207.38
267.287	213.38
267.52	206.38
267.752	202.38
267.984	197.38
268.216	219.38
268.448	191.38
268.681	208.38
268.913	222.38
269.145	260.38
269.377	258.38
269.609	268.38
269.841	248.38
270.073	244.38
270.306	268.38
270.538	288.38
270.77	299.38
271.002	270.38
271.234	275.38
271.466	277.38
271.698	285.38
271.93	301.38
272.162	291.38
272.394	273.38
272.626	276.38
272.858	264.38
273.09	271.38
273.322	249.38
273.553	256.38
273.785	238.38
274.017	266.38
274.249	243.38
274.481	250.38
274.713	243.38
274.945	263.38
275.176	246.38
275.408	243.38
275.64	258.38
275.872	230.38
276.104	244.38
276.335	239.38
276.567	238.38
276.799	258.38
277.031	287.38
277.262	298.38
277.494	293.38
277.726	272.38
277.957	261.38
278.189	247.38
278.421	251.38
278.652	249.38
278.884	261.38
279.115	240.38
279.347	235.38
279.579	244.38
279.81	240.38
280.042	234.38
280.273	236.38
280.505	245.38
280.736	244.38
280.968	238.38
281.199	235.38
281.431	254.38
281.662	239.38
281.894	250.38
282.125	253.38
282.356	268.38
282.588	282.38
282.819	274.38
283.051	235.38
283.282	237.38
283.513	238.38
283.745	235.38
283.976	252.38
284.207	243.38
284.439	263.38
284.67	237.38
284.901	242.38
285.132	254.38
285.364	226.38
285.595	269.38
285.826	233.38
286.057	251.38
286.288	243.38
286.52	242.38
286.751	245.38
286.982	247.38
287.213	238.38
287.444	251.38
287.675	264.38
287.906	273.38
288.138	272.38
288.369	265.38
288.6	278.38
288.831	278.38
289.062	266.38
289.293	259.38
289.524	288.38
289.755	285.38
289.986	250.38
290.217	280.38
290.448	265.38
290.679	260.38
290.91	276.38
291.141	268.38
291.371	235.38
291.602	256.38
291.833	255.38
292.064	267.38
292.295	250.38
292.526	273.38
292.757	265.38
292.987	263.38
293.218	260.38
293.449	268.38
293.68	264.38
293.91	262.38
294.141	250.38
294.372	275.38
294.603	265.38
294.833	252.38
295.064	267.38
295.295	264.38
295.525	265.38
295.756	260.38
295.987	278.38
296.217	286.38
296.448	315.38
296.679	279.38
296.909	254.38
297.14	271.38
297.37	276.38
297.601	268.38
297.831	274.38
298.062	278.38
298.292	280.38
298.523	264.38
298.753	271.38
298.984	295.38
299.214	293.38
299.445	263.38
299.675	294.38
299.905	299.38
300.136	254.38
300.366	287.38
300.597	288.38
300.827	282.38
301.057	274.38
301.288	301.38
301.518	294.38
301.748	287.38
301.979	280.38
302.209	295.38
302.439	300.38
302.669	284.38
302.9	280.38
303.13	288.38
303.36	308.38
303.59	283.38
303.82	319.38
304.051	302.38
304.281	303.38
304.511	279.38
304.741	290.38
304.971	300.38
305.201	307.38
305.431	296.38
305.661	308.38
305.891	288.38
306.121	292.38
306.352	294.38
306.582	303.38
306.812	295.38
307.042	310.38
307.272	299.38
307.502	326.38
307.731	307.38
307.961	290.38
308.191	297.38
308.421	307.38
308.651	298.38
308.881	298.38
309.111	298.38
309.341	317.38
309.571	317.38
309.8	321.38
310.03	330.38
310.26	330.38
310.49	337.38
310.72	346.38
310.949	361.38
311.179	360.38
311.409	347.38
311.639	341.38
311.868	354.38
312.098	354.38
312.328	359.38
312.557	386.38
312.787	386.38
313.017	364.38
313.246	366.38
313.476	326.38
313.706	345.38
313.935	350.38
314.165	354.38
314.394	372.38
314.624	374.38
314.853	356.38
315.083	349.38
315.312	333.38
315.542	343.38
315.771	349.38
316.001	340.38
316.23	346.38
316.46	329.38
316.689	349.38
316.919	372.38
317.148	349.38
317.377	358.38
317.607	332.38
317.836	354.38
318.065	329.38
318.295	338.38
318.524	342.38
318.753	341.38
318.983	362.38
319.212	349.38
319.441	374.38
319.67	363.38
319.9	339.38
320.129	347.38
320.358	363.38
320.587	359.38
320.816	359.38
321.046	365.38
321.275	375.38
321.504	376.38
321.733	379.38
321.962	380.38
322.191	374.38
322.42	394.38
322.649	423.38
322.878	425.38
323.108	429.38
323.337	488.38
323.566	493.38
323.795	528.38
324.024	590.38
324.253	716.38
324.482	1037.38
324.71	1644.38
324.939	2238.38
325.168	1868.38
325.397	971.38
325.626	648.38
325.855	544.38
326.084	515.38
326.313	496.38
326.542	522.38
326.77	564.38
326.999	677.38
327.228	954.38
327.457	1400.38
327.686	1627.38
327.914	1064.38
328.143	728.38
328.372	659.38
328.6	589.38
328.829	566.38
329.058	568.38
329.287	581.38
329.515	540.38
329.744	495.38
329.972	493.38
330.201	520.38
330.43	587.38
330.658	590.38
330.887	611.38
331.115	566.38
331.344	506.38
331.572	472.38
331.801	446.38
332.03	452.38
332.258	446.38
332.486	427.38
332.715	425.38
332.943	437.38
333.172	392.38
333.4	411.38
333.629	429.38
333.857	450.38
334.085	452.38
334.314	466.38
334.542	498.38
334.771	542.38
334.999	471.38
335.227	441.38
335.455	424.38
335.684	417.38
335.912	409.38
336.14	410.38
336.369	414.38
336.597	440.38
336.825	400.38
337.053	415.38
337.281	392.38
337.51	388.38
337.738	422.38
337.966	410.38
338.194	398.38
338.422	388.38
338.65	376.38
338.878	384.38
339.106	376.38
339.334	386.38
339.562	380.38
339.79	389.38
340.018	391.38
340.246	387.38
340.474	412.38
340.702	398.38
340.93	385.38
341.158	370.38
341.386	367.38
341.614	386.38
341.842	396.38
342.07	367.38
342.298	373.38
342.526	377.38
342.754	391.38
342.981	372.38
343.209	389.38
343.437	377.38
343.665	367.38
343.893	364.38
344.12	369.38
344.348	376.38
344.576	382.38
344.804	382.38
345.031	386.38
345.259	409.38
345.487	410.38
345.714	401.38
345.942	391.38
346.17	378.38
346.397	357.38
346.625	370.38
346.853	383.38
347.08	390.38
347.308	387.38
347.535	396.38
347.763	386.38
347.99	385.38
348.218	379.38
348.445	408.38
348.673	416.38
348.9	398.38
349.128	399.38
349.355	358.38
349.583	358.38
349.81	374.38
350.037	359.38
350.265	373.38
350.492	358.38
350.72	363.38
350.947	384.38
351.174	398.38
351.402	396.38
351.629	391.38
351.856	387.38
352.083	383.38
352.311	413.38
352.538	397.38
352.765	384.38
352.992	390.38
353.22	405.38
353.447	366.38
353.674	364.38
353.901	352.38
354.128	338.38
354.355	324.38
354.583	342.38
354.81	347.38
355.037	352.38
355.264	336.38
355.491	343.38
355.718	357.38
355.945	339.38
356.172	333.38
356.399	342.38
356.626	336.38
356.853	339.38
357.08	344.38
357.307	348.38
357.534	336.38
357.761	347.38
357.988	349.38
358.215	368.38
358.441	364.38
358.668	350.38
358.895	365.38
359.122	356.38
359.349	375.38
359.576	366.38
359.802	398.38
360.029	437.38
360.256	456.38
360.483	413.38
360.709	391.38
360.936	391.38
361.163	377.38
361.39	404.38
361.616	386.38
361.843	364.38
362.07	378.38
362.296	384.38
362.523	374.38
362.749	388.38
362.976	375.38
363.203	367.38
363.429	375.38
363.656	376.38
363.882	352.38
364.109	369.38
364.335	360.38
364.562	362.38
364.788	350.38
365.015	363.38
365.241	370.38
365.468	384.38
365.694	374.38
365.92	361.38
366.147	356.38
366.373	348.38
366.599	368.38
366.826	347.38
367.052	351.38
367.278	360.38
367.505	353.38
367.731	367.38
367.957	347.38
368.184	381.38
368.41	374.38
368.636	371.38
368.862	372.38
369.089	371.38
369.315	357.38
369.541	348.38
369.767	357.38
369.993	366.38
370.219	370.38
370.445	356.38
370.672	366.38
370.898	354.38
371.124	347.38
371.35	330.38
371.576	362.38
371.802	345.38
372.028	354.38
372.254	351.38
372.48	338.38
372.706	338.38
372.932	357.38
373.158	354.38
373.384	357.38
373.61	358.38
373.835	342.38
374.061	374.38
374.287	348.38
374.513	350.38
374.739	367.38
374.965	362.38
375.191	347.38
375.416	352.38
375.642	344.38
375.868	357.38
376.094	344.38
376.319	331.38
376.545	331.38
376.771	351.38
376.997	336.38
377.222	341.38
377.448	349.38
377.674	338.38
377.899	342.38
378.125	343.38
378.35	345.38
378.576	358.38
378.802	342.38
379.027	340.38
379.253	348.38
379.478	346.38
379.704	366.38
379.929	351.38
380.155	346.38
380.38	356.38
380.606	330.38
380.831	347.38
381.057	347.38
381.282	339.38
381.507	331.38
381.733	329.38
381.958	352.38
382.184	336.38
382.409	355.38
382.634	377.38
382.86	362.38
383.085	346.38
383.31	365.38
383.535	358.38
383.761	361.38
383.986	357.38
384.211	360.38
384.436	349.38
384.662	348.38
384.887	371.38
385.112	363.38
385.337	363.38
385.562	370.38
385.787	370.38
386.013	388.38
386.238	378.38
386.463	386.38
386.688	393.38
386.913	356.38
387.138	372.38
387.363	372.38
387.588	354.38
387.813	373.38
388.038	394.38
388.263	370.38
388.488	378.38
388.713	356.38
388.938	357.38
389.163	388.38
389.387	377.38
389.612	353.38
389.837	363.38
390.062	366.38
390.287	359.38
390.512	365.38
390.736	376.38
390.961	354.38
391.186	376.38
391.411	385.38
391.636	375.38
391.86	387.38
392.085	379.38
392.31	388.38
392.534	388.38
392.759	363.38
392.984	370.38
393.208	352.38
393.433	381.38
393.658	382.38
393.882	356.38
394.107	384.38
394.331	364.38
394.556	358.38
394.78	393.38
395.005	386.38
395.229	390.38
395.454	365.38
395.678	382.38
395.903	396.38
396.127	406.38
396.352	408.38
396.576	400.38
396.801	408.38
397.025	396.38
397.249	395.38
397.474	405.38
397.698	392.38
397.922	398.38
398.147	425.38
398.371	440.38
398.595	410.38
398.82	426.38
399.044	446.38
399.268	431.38
399.492	440.38
399.717	465.38
399.941	487.38
400.165	518.38
400.389	511.38
400.613	468.38
400.837	445.38
401.062	433.38
401.286	412.38
401.51	423.38
401.734	435.38
401.958	431.38
402.182	431.38
402.406	448.38
402.63	437.38
402.854	422.38
403.078	430.38
403.302	450.38
403.526	455.38
403.75	422.38
403.974	438.38
404.198	429.38
404.422	445.38
404.645	455.38
404.869	452.38
405.093	491.38
405.317	507.38
405.541	544.38
405.765	472.38
405.988	481.38
406.212	479.38
406.436	482.38
406.66	512.38
406.883	492.38
407.107	476.38
407.331	529.38
407.555	596.38
407.778	587.38
408.002	526.38
408.226	510.38
408.449	487.38
408.673	498.38
408.896	522.38
409.12	541.38
409.344	518.38
409.567	470.38
409.791	428.38
410.014	436.38
410.238	429.38
410.461	446.38
410.685	448.38
410.908	463.38
411.132	510.38
411.355	532.38
411.578	489.38
411.802	459.38
412.025	447.38
412.249	461.38
412.472	474.38
412.695	485.38
412.919	510.38
413.142	476.38
413.365	418.38
413.589	424.38
413.812	410.38
414.035	421.38
414.258	407.38
414.482	398.38
414.705	429.38
414.928	403.38
415.151	427.38
415.374	425.38
415.597	408.38
415.821	407.38
416.044	416.38
416.267	409.38
416.49	412.38
416.713	428.38
416.936	417.38
417.159	430.38
417.382	436.38
417.605	406.38
417.828	420.38
418.051	451.38
418.274	451.38
418.497	419.38
418.72	418.38
418.943	389.38
419.166	424.38
419.389	452.38
419.611	431.38
419.834	441.38
420.057	426.38
420.28	438.38
420.503	429.38
420.726	464.38
420.948	461.38
421.171	490.38
421.394	531.38
421.617	448.38
421.839	448.38
422.062	449.38
422.285	464.38
422.507	487.38
422.73	575.38
422.953	542.38
423.175	477.38
423.398	469.38
423.621	439.38
423.843	463.38
424.066	465.38
424.288	463.38
424.511	476.38
424.733	542.38
424.956	612.38
425.178	590.38
425.401	588.38
425.623	560.38
425.846	512.38
426.068	485.38
426.291	477.38
426.513	486.38
426.735	490.38
426.958	544.38
427.18	616.38
427.402	687.38
427.625	767.38
427.847	692.38
428.069	607.38
428.292	541.38
428.514	493.38
428.736	460.38
428.958	446.38
429.181	449.38
429.403	454.38
429.625	448.38
429.847	485.38
430.069	538.38
430.292	536.38
430.514	484.38
430.736	451.38
430.958	443.38
431.18	425.38
431.402	434.38
431.624	397.38
431.846	410.38
432.068	426.38
432.29	416.38
432.512	431.38
432.734	432.38
432.956	415.38
433.178	428.38
433.4	452.38
433.622	423.38
433.844	420.38
434.066	398.38
434.287	412.38
434.509	434.38
434.731	431.38
434.953	442.38
435.175	450.38
435.397	480.38
435.618	475.38
435.84	543.38
436.062	598.38
436.284	645.38
436.505	558.38
436.727	498.38
436.949	465.38
437.17	455.38
437.392	436.38
437.614	483.38
437.835	506.38
438.057	591.38
438.278	660.38
438.5	674.38
438.721	724.38
438.943	663.38
439.165	574.38
439.386	522.38
439.608	496.38
439.829	518.38
440.05	537.38
440.272	594.38
440.493	510.38
440.715	493.38
440.936	482.38
441.158	457.38
441.379	456.38
441.6	452.38
441.822	484.38
442.043	493.38
442.264	571.38
442.486	620.38
442.707	532.38
442.928	482.38
443.149	494.38
443.371	535.38
443.592	584.38
443.813	640.38
444.034	670.38
444.255	567.38
444.476	506.38
444.698	493.38
444.919	470.38
445.14	593.38
445.361	535.38
445.582	526.38
445.803	621.38
446.024	690.38
446.245	683.38
446.466	633.38
446.687	536.38
446.908	493.38
447.129	470.38
447.35	434.38
447.571	462.38
447.792	458.38
448.013	463.38
448.234	485.38
448.455	526.38
448.675	641.38
448.896	696.38
449.117	607.38
449.338	587.38
449.559	662.38
449.779	736.38
450	586.38
450.221	520.38
450.442	477.38
450.662	440.38
450.883	456.38
451.104	470.38
451.324	454.38
451.545	434.38
451.766	406.38
451.986	408.38
452.207	404.38
452.428	389.38
452.648	395.38
452.869	422.38
453.089	402.38
453.31	437.38
453.53	397.38
453.751	412.38
453.971	411.38
454.192	428.38
454.412	414.38
454.633	400.38
454.853	399.38
455.073	427.38
455.294	445.38
455.514	494.38
455.734	469.38
455.955	407.38
456.175	376.38
456.395	387.38
456.616	375.38
456.836	387.38
457.056	386.38
457.276	392.38
457.497	380.38
457.717	382.38
457.937	379.38
458.157	391.38
458.377	404.38
458.598	420.38
458.818	500.38
459.038	562.38
459.258	563.38
459.478	476.38
459.698	440.38
459.918	410.38
460.138	430.38
460.358	416.38
460.578	414.38
460.798	404.38
461.018	422.38
461.238	413.38
461.458	433.38
461.678	407.38
461.898	415.38
462.118	413.38
462.338	424.38
462.558	438.38
462.777	442.38
462.997	431.38
463.217	439.38
463.437	440.38
463.657	444.38
463.876	457.38
464.096	440.38
464.316	452.38
464.536	447.38
464.755	461.38
464.975	483.38
465.195	504.38
465.414	613.38
465.634	510.38
465.854	450.38
466.073	440.38
466.293	427.38
466.512	416.38
466.732	415.38
466.951	388.38
467.171	396.38
467.391	414.38
467.61	431.38
467.829	430.38
468.049	435.38
468.268	447.38
468.488	405.38
468.707	395.38
468.927	412.38
469.146	400.38
469.365	406.38
469.585	386.38
469.804	407.38
470.023	396.38
470.243	407.38
470.462	435.38
470.681	456.38
470.901	432.38
471.12	430.38
471.339	398.38
471.558	423.38
471.777	441.38
471.997	410.38
472.216	431.38
472.435	477.38
472.654	447.38
472.873	438.38
473.092	425.38
473.311	418.38
473.53	434.38
473.749	445.38
473.968	466.38
474.187	572.38
474.406	551.38
474.625	480.38
474.844	441.38
475.063	436.38
475.282	444.38
475.501	444.38
475.72	442.38
475.939	429.38
476.158	438.38
476.377	410.38
476.596	447.38
476.814	453.38
477.033	458.38
477.252	453.38
477.471	438.38
477.69	442.38
477.908	437.38
478.127	452.38
478.346	453.38
478.564	457.38
478.783	453.38
479.002	447.38
479.22	455.38
479.439	491.38
479.658	500.38
479.876	528.38
480.095	515.38
480.313	517.38
480.532	526.38
480.751	492.38
480.969	535.38
481.188	603.38
481.406	638.38
481.624	576.38
481.843	547.38
482.061	503.38
482.28	493.38
482.498	499.38
482.717	502.38
482.935	502.38
483.153	489.38
483.372	501.38
483.59	491.38
483.808	469.38
484.027	465.38
484.245	501.38
484.463	505.38
484.681	515.38
484.9	523.38
485.118	503.38
485.336	491.38
485.554	514.38
485.772	510.38
485.99	526.38
486.209	501.38
486.427	523.38
486.645	522.38
486.863	539.38
487.081	540.38
487.299	540.38
487.517	534.38
487.735	517.38
487.953	525.38
488.171	520.38
488.389	516.38
488.607	527.38
488.825	534.38
489.043	511.38
489.261	529.38
489.479	540.38
489.696	542.38
489.914	558.38
490.132	543.38
490.35	550.38
490.568	560.38
490.786	571.38
491.003	578.38
491.221	615.38
491.439	583.38
491.657	594.38
491.874	607.38
492.092	612.38
492.31	604.38
492.527	611.38
492.745	620.38
492.963	612.38
493.18	631.38
493.398	616.38
493.615	636.38
493.833	624.38
494.05	633.38
494.268	618.38
494.485	616.38
494.703	619.38
494.92	631.38
495.138	650.38
495.355	629.38
495.573	655.38
495.79	643.38
496.008	610.38
496.225	612.38
496.442	641.38
496.66	630.38
496.877	620.38
497.094	644.38
497.312	636.38
497.529	636.38
497.746	647.38
497.963	668.38
498.181	660.38
498.398	692.38
498.615	676.38
498.832	696.38
499.049	694.38
499.267	714.38
499.484	700.38
499.701	736.38
499.918	742.38
500.135	792.38
500.352	788.38
500.569	812.38
500.786	781.38
501.003	776.38
501.22	762.38
501.437	770.38
501.654	767.38
501.871	756.38
502.088	732.38
