Data from 1965.PennyLincolnUp.Lamp.En5.5.200Scan.071719.P1._HRD10591_14-09-06-911.txt Node
Date: Thu Jul 18 14:09:06 EDT 2019
User: cochatt
Spectrometer: HR+D1059
Trigger mode: 1
Integration Time (sec): 1.000000E-1
Scans to average: 1
Electric dark correction enabled: true
Nonlinearity correction enabled: false
Boxcar width: 0
XAxis mode: Wavelengths
Number of Pixels in Spectrum: 2048
>>>>>Begin Spectral Data<<<<<
223.165	-14.38
223.4	-14.38
223.635	-14.38
223.869	-12.38
224.104	-9.38
224.338	-11.38
224.573	-21.38
224.808	-18.38
225.042	-18.38
225.277	12.62
225.511	10.62
225.746	-8.38
225.98	18.62
226.215	-0.38
226.449	13.62
226.683	12.62
226.918	18.62
227.152	27.62
227.387	26.62
227.621	46.62
227.856	47.62
228.09	51.62
228.324	38.62
228.559	55.62
228.793	64.62
229.027	96.62
229.262	111.62
229.496	101.62
229.73	137.62
229.964	164.62
230.199	112.62
230.433	114.62
230.667	111.62
230.901	97.62
231.136	86.62
231.37	99.62
231.604	102.62
231.838	114.62
232.072	109.62
232.306	119.62
232.541	101.62
232.775	107.62
233.009	104.62
233.243	132.62
233.477	118.62
233.711	115.62
233.945	98.62
234.179	102.62
234.413	103.62
234.647	96.62
234.881	121.62
235.115	127.62
235.349	121.62
235.583	120.62
235.817	116.62
236.051	124.62
236.285	107.62
236.519	125.62
236.753	124.62
236.987	141.62
237.221	155.62
237.455	227.62
237.689	158.62
237.922	132.62
238.156	130.62
238.39	114.62
238.624	123.62
238.858	117.62
239.091	115.62
239.325	102.62
239.559	127.62
239.793	120.62
240.027	134.62
240.26	124.62
240.494	152.62
240.728	133.62
240.961	120.62
241.195	122.62
241.429	122.62
241.662	141.62
241.896	115.62
242.13	114.62
242.363	124.62
242.597	126.62
242.83	124.62
243.064	130.62
243.298	107.62
243.531	107.62
243.765	118.62
243.998	124.62
244.232	136.62
244.465	135.62
244.699	143.62
244.932	135.62
245.166	142.62
245.399	121.62
245.633	132.62
245.866	141.62
246.099	130.62
246.333	132.62
246.566	139.62
246.8	128.62
247.033	135.62
247.266	145.62
247.5	149.62
247.733	149.62
247.966	160.62
248.2	164.62
248.433	140.62
248.666	166.62
248.899	165.62
249.133	179.62
249.366	185.62
249.599	172.62
249.832	171.62
250.066	175.62
250.299	182.62
250.532	170.62
250.765	168.62
250.998	186.62
251.231	196.62
251.465	194.62
251.698	190.62
251.931	172.62
252.164	175.62
252.397	174.62
252.63	184.62
252.863	189.62
253.096	202.62
253.329	196.62
253.562	200.62
253.795	210.62
254.028	194.62
254.261	189.62
254.494	199.62
254.727	228.62
254.96	238.62
255.193	245.62
255.426	223.62
255.659	208.62
255.892	208.62
256.124	208.62
256.357	208.62
256.59	215.62
256.823	175.62
257.056	191.62
257.289	182.62
257.521	195.62
257.754	180.62
257.987	177.62
258.22	199.62
258.452	189.62
258.685	164.62
258.918	183.62
259.151	194.62
259.383	194.62
259.616	203.62
259.849	192.62
260.081	205.62
260.314	226.62
260.547	207.62
260.779	200.62
261.012	222.62
261.244	228.62
261.477	205.62
261.71	200.62
261.942	203.62
262.175	217.62
262.407	226.62
262.64	199.62
262.872	197.62
263.105	205.62
263.337	195.62
263.57	191.62
263.802	200.62
264.035	188.62
264.267	171.62
264.499	183.62
264.732	195.62
264.964	201.62
265.197	182.62
265.429	194.62
265.661	197.62
265.894	202.62
266.126	196.62
266.358	186.62
266.591	178.62
266.823	204.62
267.055	208.62
267.287	197.62
267.52	204.62
267.752	197.62
267.984	216.62
268.216	226.62
268.448	229.62
268.681	200.62
268.913	236.62
269.145	216.62
269.377	234.62
269.609	225.62
269.841	245.62
270.073	226.62
270.306	251.62
270.538	278.62
270.77	270.62
271.002	266.62
271.234	256.62
271.466	264.62
271.698	272.62
271.93	270.62
272.162	293.62
272.394	273.62
272.626	264.62
272.858	241.62
273.09	254.62
273.322	251.62
273.553	245.62
273.785	242.62
274.017	235.62
274.249	226.62
274.481	235.62
274.713	243.62
274.945	222.62
275.176	238.62
275.408	222.62
275.64	235.62
275.872	233.62
276.104	240.62
276.335	230.62
276.567	244.62
276.799	256.62
277.031	267.62
277.262	301.62
277.494	287.62
277.726	284.62
277.957	248.62
278.189	239.62
278.421	255.62
278.652	251.62
278.884	236.62
279.115	222.62
279.347	229.62
279.579	244.62
279.81	235.62
280.042	237.62
280.273	235.62
280.505	211.62
280.736	226.62
280.968	254.62
281.199	244.62
281.431	249.62
281.662	240.62
281.894	224.62
282.125	238.62
282.356	260.62
282.588	274.62
282.819	260.62
283.051	215.62
283.282	244.62
283.513	234.62
283.745	232.62
283.976	248.62
284.207	235.62
284.439	246.62
284.67	242.62
284.901	250.62
285.132	235.62
285.364	246.62
285.595	237.62
285.826	234.62
286.057	237.62
286.288	231.62
286.52	249.62
286.751	242.62
286.982	249.62
287.213	250.62
287.444	224.62
287.675	256.62
287.906	278.62
288.138	260.62
288.369	276.62
288.6	252.62
288.831	252.62
289.062	257.62
289.293	254.62
289.524	257.62
289.755	258.62
289.986	263.62
290.217	251.62
290.448	266.62
290.679	267.62
290.91	260.62
291.141	247.62
291.371	232.62
291.602	248.62
291.833	260.62
292.064	244.62
292.295	240.62
292.526	266.62
292.757	258.62
292.987	248.62
293.218	260.62
293.449	251.62
293.68	262.62
293.91	240.62
294.141	249.62
294.372	258.62
294.603	244.62
294.833	242.62
295.064	256.62
295.295	264.62
295.525	275.62
295.756	278.62
295.987	284.62
296.217	308.62
296.448	287.62
296.679	246.62
296.909	258.62
297.14	246.62
297.37	268.62
297.601	276.62
297.831	249.62
298.062	256.62
298.292	263.62
298.523	266.62
298.753	274.62
298.984	264.62
299.214	283.62
299.445	273.62
299.675	286.62
299.905	269.62
300.136	268.62
300.366	258.62
300.597	267.62
300.827	278.62
301.057	262.62
301.288	285.62
301.518	306.62
301.748	288.62
301.979	280.62
302.209	292.62
302.439	296.62
302.669	285.62
302.9	276.62
303.13	279.62
303.36	273.62
303.59	288.62
303.82	302.62
304.051	310.62
304.281	281.62
304.511	280.62
304.741	284.62
304.971	293.62
305.201	295.62
305.431	287.62
305.661	276.62
305.891	287.62
306.121	287.62
306.352	314.62
306.582	295.62
306.812	289.62
307.042	302.62
307.272	296.62
307.502	302.62
307.731	291.62
307.961	277.62
308.191	298.62
308.421	294.62
308.651	290.62
308.881	294.62
309.111	305.62
309.341	306.62
309.571	328.62
309.8	298.62
310.03	319.62
310.26	324.62
310.49	339.62
310.72	345.62
310.949	354.62
311.179	372.62
311.409	362.62
311.639	323.62
311.868	339.62
312.098	342.62
312.328	346.62
312.557	350.62
312.787	365.62
313.017	351.62
313.246	347.62
313.476	339.62
313.706	324.62
313.935	336.62
314.165	353.62
314.394	363.62
314.624	363.62
314.853	351.62
315.083	344.62
315.312	324.62
315.542	349.62
315.771	317.62
316.001	334.62
316.23	344.62
316.46	331.62
316.689	335.62
316.919	349.62
317.148	357.62
317.377	338.62
317.607	342.62
317.836	342.62
318.065	342.62
318.295	341.62
318.524	333.62
318.753	348.62
318.983	308.62
319.212	338.62
319.441	356.62
319.67	340.62
319.9	357.62
320.129	334.62
320.358	347.62
320.587	354.62
320.816	365.62
321.046	340.62
321.275	359.62
321.504	386.62
321.733	374.62
321.962	377.62
322.191	384.62
322.42	400.62
322.649	422.62
322.878	423.62
323.108	430.62
323.337	458.62
323.566	467.62
323.795	506.62
324.024	536.62
324.253	699.62
324.482	996.62
324.71	1495.62
324.939	2062.62
325.168	1730.62
325.397	913.62
325.626	602.62
325.855	505.62
326.084	488.62
326.313	460.62
326.542	478.62
326.77	528.62
326.999	622.62
327.228	890.62
327.457	1322.62
327.686	1556.62
327.914	1018.62
328.143	692.62
328.372	584.62
328.6	524.62
328.829	524.62
329.058	533.62
329.287	552.62
329.515	508.62
329.744	460.62
329.972	486.62
330.201	503.62
330.43	510.62
330.658	572.62
330.887	576.62
331.115	548.62
331.344	473.62
331.572	437.62
331.801	447.62
332.03	436.62
332.258	440.62
332.486	406.62
332.715	391.62
332.943	397.62
333.172	392.62
333.4	414.62
333.629	417.62
333.857	434.62
334.085	436.62
334.314	446.62
334.542	483.62
334.771	496.62
334.999	468.62
335.227	431.62
335.455	400.62
335.684	377.62
335.912	380.62
336.14	399.62
336.369	383.62
336.597	403.62
336.825	418.62
337.053	393.62
337.281	392.62
337.51	359.62
337.738	386.62
337.966	399.62
338.194	388.62
338.422	394.62
338.65	404.62
338.878	401.62
339.106	399.62
339.334	392.62
339.562	384.62
339.79	380.62
340.018	359.62
340.246	379.62
340.474	393.62
340.702	389.62
340.93	383.62
341.158	367.62
341.386	390.62
341.614	398.62
341.842	400.62
342.07	382.62
342.298	358.62
342.526	374.62
342.754	359.62
342.981	364.62
343.209	368.62
343.437	376.62
343.665	362.62
343.893	353.62
344.12	380.62
344.348	369.62
344.576	380.62
344.804	389.62
345.031	379.62
345.259	407.62
345.487	389.62
345.714	356.62
345.942	380.62
346.17	368.62
346.397	382.62
346.625	374.62
346.853	363.62
347.08	371.62
347.308	375.62
347.535	405.62
347.763	372.62
347.99	370.62
348.218	406.62
348.445	397.62
348.673	410.62
348.9	379.62
349.128	375.62
349.355	367.62
349.583	354.62
349.81	365.62
350.037	357.62
350.265	370.62
350.492	351.62
350.72	354.62
350.947	368.62
351.174	373.62
351.402	386.62
351.629	376.62
351.856	387.62
352.083	379.62
352.311	380.62
352.538	391.62
352.765	381.62
352.992	378.62
353.22	404.62
353.447	349.62
353.674	364.62
353.901	367.62
354.128	339.62
354.355	333.62
354.583	363.62
354.81	334.62
355.037	373.62
355.264	348.62
355.491	343.62
355.718	342.62
355.945	333.62
356.172	343.62
356.399	355.62
356.626	342.62
356.853	332.62
357.08	342.62
357.307	334.62
357.534	333.62
357.761	351.62
357.988	349.62
358.215	338.62
358.441	347.62
358.668	354.62
358.895	356.62
359.122	347.62
359.349	362.62
359.576	348.62
359.802	376.62
360.029	412.62
360.256	437.62
360.483	412.62
360.709	378.62
360.936	375.62
361.163	361.62
361.39	374.62
361.616	370.62
361.843	368.62
362.07	368.62
362.296	388.62
362.523	394.62
362.749	375.62
362.976	375.62
363.203	363.62
363.429	362.62
363.656	347.62
363.882	361.62
364.109	342.62
364.335	346.62
364.562	331.62
364.788	344.62
365.015	361.62
365.241	360.62
365.468	372.62
365.694	380.62
365.92	341.62
366.147	351.62
366.373	354.62
366.599	354.62
366.826	342.62
367.052	335.62
367.278	352.62
367.505	351.62
367.731	342.62
367.957	344.62
368.184	354.62
368.41	349.62
368.636	378.62
368.862	379.62
369.089	358.62
369.315	360.62
369.541	352.62
369.767	351.62
369.993	346.62
370.219	354.62
370.445	357.62
370.672	339.62
370.898	340.62
371.124	340.62
371.35	339.62
371.576	346.62
371.802	351.62
372.028	348.62
372.254	336.62
372.48	347.62
372.706	354.62
372.932	330.62
373.158	333.62
373.384	334.62
373.61	364.62
373.835	342.62
374.061	356.62
374.287	352.62
374.513	353.62
374.739	354.62
374.965	366.62
375.191	345.62
375.416	354.62
375.642	364.62
375.868	370.62
376.094	362.62
376.319	336.62
376.545	338.62
376.771	364.62
376.997	353.62
377.222	338.62
377.448	340.62
377.674	325.62
377.899	346.62
378.125	328.62
378.35	359.62
378.576	347.62
378.802	343.62
379.027	330.62
379.253	348.62
379.478	352.62
379.704	339.62
379.929	357.62
380.155	344.62
380.38	332.62
380.606	356.62
380.831	344.62
381.057	344.62
381.282	354.62
381.507	349.62
381.733	361.62
381.958	348.62
382.184	362.62
382.409	353.62
382.634	342.62
382.86	331.62
383.085	359.62
383.31	358.62
383.535	366.62
383.761	362.62
383.986	336.62
384.211	355.62
384.436	345.62
384.662	353.62
384.887	372.62
385.112	361.62
385.337	381.62
385.562	360.62
385.787	336.62
386.013	384.62
386.238	374.62
386.463	384.62
386.688	359.62
386.913	368.62
387.138	371.62
387.363	374.62
387.588	357.62
387.813	361.62
388.038	358.62
388.263	364.62
388.488	365.62
388.713	358.62
388.938	375.62
389.163	374.62
389.387	382.62
389.612	382.62
389.837	378.62
390.062	373.62
390.287	382.62
390.512	362.62
390.736	361.62
390.961	349.62
391.186	380.62
391.411	373.62
391.636	386.62
391.86	356.62
392.085	366.62
392.31	410.62
392.534	382.62
392.759	379.62
392.984	377.62
393.208	385.62
393.433	353.62
393.658	373.62
393.882	368.62
394.107	359.62
394.331	357.62
394.556	355.62
394.78	379.62
395.005	386.62
395.229	363.62
395.454	388.62
395.678	376.62
395.903	385.62
396.127	384.62
396.352	412.62
396.576	381.62
396.801	376.62
397.025	386.62
397.249	379.62
397.474	386.62
397.698	382.62
397.922	407.62
398.147	383.62
398.371	414.62
398.595	405.62
398.82	411.62
399.044	406.62
399.268	425.62
399.492	406.62
399.717	457.62
399.941	491.62
400.165	493.62
400.389	503.62
400.613	470.62
400.837	438.62
401.062	426.62
401.286	427.62
401.51	430.62
401.734	416.62
401.958	424.62
402.182	422.62
402.406	440.62
402.63	436.62
402.854	450.62
403.078	428.62
403.302	425.62
403.526	442.62
403.75	438.62
403.974	432.62
404.198	430.62
404.422	410.62
404.645	429.62
404.869	440.62
405.093	482.62
405.317	491.62
405.541	506.62
405.765	485.62
405.988	461.62
406.212	489.62
406.436	498.62
406.66	498.62
406.883	480.62
407.107	495.62
407.331	526.62
407.555	566.62
407.778	563.62
408.002	540.62
408.226	484.62
408.449	477.62
408.673	460.62
408.896	486.62
409.12	514.62
409.344	502.62
409.567	445.62
409.791	422.62
410.014	427.62
410.238	452.62
410.461	438.62
410.685	438.62
410.908	436.62
411.132	473.62
411.355	516.62
411.578	483.62
411.802	439.62
412.025	439.62
412.249	447.62
412.472	452.62
412.695	498.62
412.919	476.62
413.142	453.62
413.365	447.62
413.589	437.62
413.812	393.62
414.035	408.62
414.258	410.62
414.482	411.62
414.705	427.62
414.928	408.62
415.151	401.62
415.374	407.62
415.597	408.62
415.821	406.62
416.044	404.62
416.267	406.62
416.49	401.62
416.713	403.62
416.936	387.62
417.159	425.62
417.382	430.62
417.605	432.62
417.828	407.62
418.051	421.62
418.274	427.62
418.497	411.62
418.72	408.62
418.943	375.62
419.166	404.62
419.389	439.62
419.611	443.62
419.834	444.62
420.057	435.62
420.28	424.62
420.503	426.62
420.726	423.62
420.948	445.62
421.171	454.62
421.394	495.62
421.617	458.62
421.839	442.62
422.062	427.62
422.285	458.62
422.507	486.62
422.73	551.62
422.953	543.62
423.175	474.62
423.398	446.62
423.621	440.62
423.843	461.62
424.066	457.62
424.288	443.62
424.511	498.62
424.733	519.62
424.956	602.62
425.178	571.62
425.401	556.62
425.623	581.62
425.846	498.62
426.068	479.62
426.291	461.62
426.513	457.62
426.735	474.62
426.958	516.62
427.18	585.62
427.402	690.62
427.625	744.62
427.847	682.62
428.069	595.62
428.292	540.62
428.514	470.62
428.736	436.62
428.958	442.62
429.181	439.62
429.403	401.62
429.625	451.62
429.847	488.62
430.069	519.62
430.292	510.62
430.514	437.62
430.736	447.62
430.958	432.62
431.18	425.62
431.402	413.62
431.624	401.62
431.846	402.62
432.068	420.62
432.29	428.62
432.512	414.62
432.734	411.62
432.956	386.62
433.178	415.62
433.4	438.62
433.622	411.62
433.844	444.62
434.066	412.62
434.287	410.62
434.509	432.62
434.731	439.62
434.953	418.62
435.175	442.62
435.397	452.62
435.618	467.62
435.84	496.62
436.062	578.62
436.284	650.62
436.505	543.62
436.727	467.62
436.949	437.62
437.17	441.62
437.392	435.62
437.614	456.62
437.835	511.62
438.057	578.62
438.278	652.62
438.5	675.62
438.721	686.62
438.943	638.62
439.165	556.62
439.386	470.62
439.608	495.62
439.829	476.62
440.05	502.62
440.272	541.62
440.493	511.62
440.715	483.62
440.936	460.62
441.158	437.62
441.379	464.62
441.6	455.62
441.822	471.62
442.043	517.62
442.264	584.62
442.486	615.62
442.707	517.62
442.928	494.62
443.149	500.62
443.371	524.62
443.592	538.62
443.813	610.62
444.034	657.62
444.255	543.62
444.476	508.62
444.698	468.62
444.919	483.62
445.14	558.62
445.361	522.62
445.582	514.62
445.803	567.62
446.024	671.62
446.245	634.62
446.466	599.62
446.687	524.62
446.908	475.62
447.129	455.62
447.35	456.62
447.571	449.62
447.792	443.62
448.013	446.62
448.234	478.62
448.455	498.62
448.675	603.62
448.896	673.62
449.117	597.62
449.338	570.62
449.559	612.62
449.779	698.62
450	585.62
450.221	479.62
450.442	458.62
450.662	446.62
450.883	455.62
451.104	475.62
451.324	456.62
451.545	436.62
451.766	410.62
451.986	377.62
452.207	410.62
452.428	412.62
452.648	390.62
452.869	389.62
453.089	411.62
453.31	407.62
453.53	399.62
453.751	401.62
453.971	423.62
454.192	437.62
454.412	406.62
454.633	384.62
454.853	403.62
455.073	382.62
455.294	417.62
455.514	491.62
455.734	448.62
455.955	387.62
456.175	392.62
456.395	367.62
456.616	356.62
456.836	370.62
457.056	370.62
457.276	365.62
457.497	370.62
457.717	378.62
457.937	380.62
458.157	378.62
458.377	392.62
458.598	420.62
458.818	484.62
459.038	543.62
459.258	554.62
459.478	471.62
459.698	427.62
459.918	412.62
460.138	405.62
460.358	414.62
460.578	410.62
460.798	399.62
461.018	421.62
461.238	410.62
461.458	418.62
461.678	409.62
461.898	410.62
462.118	423.62
462.338	427.62
462.558	438.62
462.777	438.62
462.997	444.62
463.217	446.62
463.437	439.62
463.657	453.62
463.876	428.62
464.096	436.62
464.316	437.62
464.536	428.62
464.755	439.62
464.975	460.62
465.195	506.62
465.414	586.62
465.634	519.62
465.854	446.62
466.073	430.62
466.293	414.62
466.512	419.62
466.732	408.62
466.951	409.62
467.171	406.62
467.391	387.62
467.61	421.62
467.829	419.62
468.049	427.62
468.268	413.62
468.488	410.62
468.707	385.62
468.927	406.62
469.146	387.62
469.365	400.62
469.585	404.62
469.804	397.62
470.023	388.62
470.243	410.62
470.462	418.62
470.681	443.62
470.901	427.62
471.12	422.62
471.339	422.62
471.558	430.62
471.777	425.62
471.997	413.62
472.216	425.62
472.435	460.62
472.654	445.62
472.873	438.62
473.092	423.62
473.311	404.62
473.53	434.62
473.749	416.62
473.968	445.62
474.187	555.62
474.406	559.62
474.625	460.62
474.844	425.62
475.063	423.62
475.282	410.62
475.501	424.62
475.72	414.62
475.939	433.62
476.158	440.62
476.377	424.62
476.596	423.62
476.814	440.62
477.033	438.62
477.252	430.62
477.471	436.62
477.69	430.62
477.908	440.62
478.127	425.62
478.346	445.62
478.564	423.62
478.783	454.62
479.002	450.62
479.22	470.62
479.439	490.62
479.658	524.62
479.876	485.62
480.095	504.62
480.313	530.62
480.532	528.62
480.751	507.62
480.969	522.62
481.188	597.62
481.406	601.62
481.624	556.62
481.843	525.62
482.061	514.62
482.28	494.62
482.498	483.62
482.717	479.62
482.935	483.62
483.153	501.62
483.372	493.62
483.59	459.62
483.808	484.62
484.027	485.62
484.245	486.62
484.463	490.62
484.681	516.62
484.9	501.62
485.118	499.62
485.336	484.62
485.554	485.62
485.772	492.62
485.99	490.62
486.209	500.62
486.427	504.62
486.645	520.62
486.863	543.62
487.081	554.62
487.299	520.62
487.517	518.62
487.735	518.62
487.953	509.62
488.171	535.62
488.389	520.62
488.607	533.62
488.825	498.62
489.043	523.62
489.261	538.62
489.479	542.62
489.696	509.62
489.914	519.62
490.132	529.62
490.35	546.62
490.568	555.62
490.786	555.62
491.003	538.62
491.221	562.62
491.439	559.62
491.657	560.62
491.874	585.62
492.092	579.62
492.31	599.62
492.527	591.62
492.745	579.62
492.963	590.62
493.18	602.62
493.398	623.62
493.615	608.62
493.833	590.62
494.05	611.62
494.268	603.62
494.485	610.62
494.703	613.62
494.92	608.62
495.138	618.62
495.355	606.62
495.573	610.62
495.79	616.62
496.008	604.62
496.225	612.62
496.442	614.62
496.66	629.62
496.877	603.62
497.094	605.62
497.312	620.62
497.529	628.62
497.746	614.62
497.963	626.62
498.181	653.62
498.398	648.62
498.615	680.62
498.832	671.62
499.049	676.62
499.267	672.62
499.484	729.62
499.701	698.62
499.918	760.62
500.135	769.62
500.352	770.62
500.569	798.62
500.786	791.62
501.003	783.62
501.22	780.62
501.437	767.62
501.654	751.62
501.871	746.62
