Data from 1965.PennyLincolnUp.Lamp.En5.5.200Scan.071719.P1._HRD10591_14-08-53-911.txt Node
Date: Thu Jul 18 14:08:53 EDT 2019
User: cochatt
Spectrometer: HR+D1059
Trigger mode: 1
Integration Time (sec): 1.000000E-1
Scans to average: 1
Electric dark correction enabled: true
Nonlinearity correction enabled: false
Boxcar width: 0
XAxis mode: Wavelengths
Number of Pixels in Spectrum: 2048
>>>>>Begin Spectral Data<<<<<
223.165	-18.88
223.4	-18.88
223.635	-18.88
223.869	-10.88
224.104	-10.88
224.338	-19.88
224.573	-21.88
224.808	-6.88
225.042	-10.88
225.277	2.12
225.511	-6.88
225.746	3.12
225.98	3.12
226.215	7.12
226.449	11.12
226.683	22.12
226.918	31.12
227.152	27.12
227.387	31.12
227.621	41.12
227.856	34.12
228.09	53.12
228.324	63.12
228.559	56.12
228.793	71.12
229.027	104.12
229.262	99.12
229.496	112.12
229.73	113.12
229.964	124.12
230.199	121.12
230.433	119.12
230.667	101.12
230.901	109.12
231.136	116.12
231.37	111.12
231.604	112.12
231.838	92.12
232.072	111.12
232.306	119.12
232.541	113.12
232.775	93.12
233.009	95.12
233.243	115.12
233.477	117.12
233.711	127.12
233.945	104.12
234.179	110.12
234.413	109.12
234.647	121.12
234.881	116.12
235.115	119.12
235.349	112.12
235.583	115.12
235.817	105.12
236.051	110.12
236.285	124.12
236.519	103.12
236.753	121.12
236.987	135.12
237.221	163.12
237.455	222.12
237.689	158.12
237.922	132.12
238.156	139.12
238.39	127.12
238.624	128.12
238.858	108.12
239.091	107.12
239.325	112.12
239.559	113.12
239.793	121.12
240.027	135.12
240.26	135.12
240.494	130.12
240.728	132.12
240.961	139.12
241.195	123.12
241.429	120.12
241.662	115.12
241.896	108.12
242.13	112.12
242.363	117.12
242.597	121.12
242.83	108.12
243.064	125.12
243.298	124.12
243.531	123.12
243.765	129.12
243.998	123.12
244.232	123.12
244.465	140.12
244.699	126.12
244.932	131.12
245.166	126.12
245.399	134.12
245.633	126.12
245.866	120.12
246.099	129.12
246.333	145.12
246.566	130.12
246.8	136.12
247.033	131.12
247.266	137.12
247.5	128.12
247.733	151.12
247.966	153.12
248.2	151.12
248.433	160.12
248.666	160.12
248.899	169.12
249.133	179.12
249.366	173.12
249.599	177.12
249.832	165.12
250.066	170.12
250.299	157.12
250.532	167.12
250.765	167.12
250.998	183.12
251.231	184.12
251.465	191.12
251.698	161.12
251.931	177.12
252.164	179.12
252.397	172.12
252.63	172.12
252.863	164.12
253.096	184.12
253.329	200.12
253.562	194.12
253.795	191.12
254.028	187.12
254.261	184.12
254.494	217.12
254.727	219.12
254.96	239.12
255.193	227.12
255.426	209.12
255.659	199.12
255.892	202.12
256.124	205.12
256.357	204.12
256.59	182.12
256.823	201.12
257.056	193.12
257.289	177.12
257.521	183.12
257.754	191.12
257.987	191.12
258.22	180.12
258.452	175.12
258.685	176.12
258.918	187.12
259.151	183.12
259.383	193.12
259.616	187.12
259.849	198.12
260.081	186.12
260.314	217.12
260.547	212.12
260.779	211.12
261.012	203.12
261.244	191.12
261.477	192.12
261.71	195.12
261.942	203.12
262.175	190.12
262.407	199.12
262.64	199.12
262.872	197.12
263.105	186.12
263.337	200.12
263.57	180.12
263.802	198.12
264.035	187.12
264.267	189.12
264.499	180.12
264.732	185.12
264.964	166.12
265.197	181.12
265.429	184.12
265.661	188.12
265.894	178.12
266.126	203.12
266.358	193.12
266.591	191.12
266.823	182.12
267.055	196.12
267.287	179.12
267.52	206.12
267.752	191.12
267.984	209.12
268.216	196.12
268.448	206.12
268.681	211.12
268.913	223.12
269.145	232.12
269.377	235.12
269.609	220.12
269.841	221.12
270.073	237.12
270.306	267.12
270.538	270.12
270.77	272.12
271.002	271.12
271.234	252.12
271.466	261.12
271.698	267.12
271.93	267.12
272.162	264.12
272.394	281.12
272.626	264.12
272.858	253.12
273.09	244.12
273.322	230.12
273.553	224.12
273.785	214.12
274.017	222.12
274.249	227.12
274.481	224.12
274.713	230.12
274.945	247.12
275.176	224.12
275.408	228.12
275.64	233.12
275.872	216.12
276.104	236.12
276.335	227.12
276.567	230.12
276.799	231.12
277.031	267.12
277.262	272.12
277.494	263.12
277.726	267.12
277.957	243.12
278.189	233.12
278.421	233.12
278.652	244.12
278.884	225.12
279.115	235.12
279.347	209.12
279.579	243.12
279.81	226.12
280.042	237.12
280.273	243.12
280.505	223.12
280.736	224.12
280.968	210.12
281.199	232.12
281.431	230.12
281.662	223.12
281.894	222.12
282.125	228.12
282.356	259.12
282.588	257.12
282.819	256.12
283.051	230.12
283.282	243.12
283.513	225.12
283.745	248.12
283.976	240.12
284.207	249.12
284.439	234.12
284.67	239.12
284.901	230.12
285.132	249.12
285.364	239.12
285.595	229.12
285.826	232.12
286.057	215.12
286.288	241.12
286.52	237.12
286.751	245.12
286.982	220.12
287.213	215.12
287.444	233.12
287.675	247.12
287.906	252.12
288.138	261.12
288.369	249.12
288.6	262.12
288.831	248.12
289.062	267.12
289.293	235.12
289.524	234.12
289.755	241.12
289.986	235.12
290.217	240.12
290.448	253.12
290.679	228.12
290.91	245.12
291.141	238.12
291.371	227.12
291.602	244.12
291.833	247.12
292.064	245.12
292.295	247.12
292.526	235.12
292.757	269.12
292.987	232.12
293.218	254.12
293.449	256.12
293.68	235.12
293.91	255.12
294.141	235.12
294.372	248.12
294.603	247.12
294.833	247.12
295.064	243.12
295.295	241.12
295.525	251.12
295.756	240.12
295.987	261.12
296.217	297.12
296.448	268.12
296.679	255.12
296.909	251.12
297.14	256.12
297.37	276.12
297.601	266.12
297.831	254.12
298.062	248.12
298.292	236.12
298.523	263.12
298.753	257.12
298.984	276.12
299.214	245.12
299.445	257.12
299.675	270.12
299.905	262.12
300.136	281.12
300.366	270.12
300.597	267.12
300.827	262.12
301.057	266.12
301.288	285.12
301.518	276.12
301.748	269.12
301.979	280.12
302.209	279.12
302.439	286.12
302.669	284.12
302.9	272.12
303.13	269.12
303.36	273.12
303.59	286.12
303.82	298.12
304.051	291.12
304.281	284.12
304.511	278.12
304.741	265.12
304.971	279.12
305.201	279.12
305.431	291.12
305.661	268.12
305.891	267.12
306.121	270.12
306.352	298.12
306.582	282.12
306.812	281.12
307.042	271.12
307.272	282.12
307.502	283.12
307.731	287.12
307.961	297.12
308.191	278.12
308.421	284.12
308.651	287.12
308.881	284.12
309.111	307.12
309.341	291.12
309.571	304.12
309.8	319.12
310.03	328.12
310.26	325.12
310.49	317.12
310.72	317.12
310.949	329.12
311.179	340.12
311.409	337.12
311.639	335.12
311.868	350.12
312.098	321.12
312.328	322.12
312.557	343.12
312.787	371.12
313.017	342.12
313.246	341.12
313.476	318.12
313.706	324.12
313.935	320.12
314.165	344.12
314.394	332.12
314.624	348.12
314.853	344.12
315.083	333.12
315.312	333.12
315.542	314.12
315.771	316.12
316.001	323.12
316.23	325.12
316.46	308.12
316.689	313.12
316.919	326.12
317.148	318.12
317.377	344.12
317.607	329.12
317.836	329.12
318.065	334.12
318.295	318.12
318.524	321.12
318.753	326.12
318.983	317.12
319.212	326.12
319.441	347.12
319.67	356.12
319.9	325.12
320.129	338.12
320.358	331.12
320.587	325.12
320.816	326.12
321.046	334.12
321.275	339.12
321.504	331.12
321.733	350.12
321.962	341.12
322.191	345.12
322.42	374.12
322.649	389.12
322.878	404.12
323.108	398.12
323.337	425.12
323.566	435.12
323.795	481.12
324.024	519.12
324.253	635.12
324.482	917.12
324.71	1388.12
324.939	1888.12
325.168	1557.12
325.397	865.12
325.626	557.12
325.855	494.12
326.084	456.12
326.313	429.12
326.542	457.12
326.77	502.12
326.999	569.12
327.228	835.12
327.457	1178.12
327.686	1381.12
327.914	945.12
328.143	628.12
328.372	560.12
328.6	547.12
328.829	505.12
329.058	522.12
329.287	515.12
329.515	491.12
329.744	435.12
329.972	435.12
330.201	466.12
330.43	515.12
330.658	541.12
330.887	557.12
331.115	547.12
331.344	457.12
331.572	436.12
331.801	423.12
332.03	431.12
332.258	416.12
332.486	400.12
332.715	370.12
332.943	399.12
333.172	395.12
333.4	399.12
333.629	400.12
333.857	421.12
334.085	424.12
334.314	430.12
334.542	449.12
334.771	460.12
334.999	412.12
335.227	381.12
335.455	383.12
335.684	385.12
335.912	388.12
336.14	369.12
336.369	381.12
336.597	397.12
336.825	381.12
337.053	379.12
337.281	364.12
337.51	367.12
337.738	384.12
337.966	374.12
338.194	380.12
338.422	393.12
338.65	371.12
338.878	366.12
339.106	373.12
339.334	371.12
339.562	353.12
339.79	338.12
340.018	382.12
340.246	375.12
340.474	376.12
340.702	359.12
340.93	357.12
341.158	368.12
341.386	364.12
341.614	363.12
341.842	364.12
342.07	359.12
342.298	346.12
342.526	361.12
342.754	361.12
342.981	343.12
343.209	336.12
343.437	368.12
343.665	367.12
343.893	352.12
344.12	365.12
344.348	357.12
344.576	375.12
344.804	381.12
345.031	384.12
345.259	379.12
345.487	378.12
345.714	369.12
345.942	363.12
346.17	359.12
346.397	357.12
346.625	379.12
346.853	358.12
347.08	371.12
347.308	349.12
347.535	381.12
347.763	366.12
347.99	349.12
348.218	395.12
348.445	373.12
348.673	361.12
348.9	355.12
349.128	345.12
349.355	347.12
349.583	343.12
349.81	357.12
350.037	343.12
350.265	347.12
350.492	350.12
350.72	333.12
350.947	346.12
351.174	366.12
351.402	375.12
351.629	375.12
351.856	365.12
352.083	383.12
352.311	385.12
352.538	368.12
352.765	383.12
352.992	371.12
353.22	359.12
353.447	359.12
353.674	353.12
353.901	349.12
354.128	331.12
354.355	320.12
354.583	331.12
354.81	355.12
355.037	333.12
355.264	309.12
355.491	312.12
355.718	340.12
355.945	338.12
356.172	324.12
356.399	329.12
356.626	345.12
356.853	337.12
357.08	312.12
357.307	343.12
357.534	341.12
357.761	338.12
357.988	343.12
358.215	345.12
358.441	338.12
358.668	344.12
358.895	341.12
359.122	357.12
359.349	333.12
359.576	360.12
359.802	378.12
360.029	407.12
360.256	419.12
360.483	394.12
360.709	370.12
360.936	342.12
361.163	362.12
361.39	364.12
361.616	383.12
361.843	376.12
362.07	374.12
362.296	355.12
362.523	357.12
362.749	348.12
362.976	345.12
363.203	362.12
363.429	336.12
363.656	352.12
363.882	362.12
364.109	325.12
364.335	359.12
364.562	332.12
364.788	343.12
365.015	335.12
365.241	358.12
365.468	356.12
365.694	360.12
365.92	373.12
366.147	344.12
366.373	354.12
366.599	347.12
366.826	343.12
367.052	341.12
367.278	341.12
367.505	335.12
367.731	365.12
367.957	334.12
368.184	341.12
368.41	348.12
368.636	329.12
368.862	361.12
369.089	349.12
369.315	328.12
369.541	336.12
369.767	349.12
369.993	333.12
370.219	320.12
370.445	348.12
370.672	330.12
370.898	325.12
371.124	349.12
371.35	333.12
371.576	328.12
371.802	339.12
372.028	320.12
372.254	331.12
372.48	340.12
372.706	341.12
372.932	339.12
373.158	331.12
373.384	345.12
373.61	335.12
373.835	327.12
374.061	326.12
374.287	332.12
374.513	354.12
374.739	357.12
374.965	347.12
375.191	337.12
375.416	351.12
375.642	347.12
375.868	346.12
376.094	345.12
376.319	335.12
376.545	343.12
376.771	337.12
376.997	345.12
377.222	321.12
377.448	348.12
377.674	336.12
377.899	322.12
378.125	333.12
378.35	314.12
378.576	313.12
378.802	333.12
379.027	319.12
379.253	325.12
379.478	318.12
379.704	312.12
379.929	331.12
380.155	350.12
380.38	309.12
380.606	340.12
380.831	332.12
381.057	323.12
381.282	330.12
381.507	339.12
381.733	323.12
381.958	333.12
382.184	347.12
382.409	336.12
382.634	317.12
382.86	346.12
383.085	347.12
383.31	345.12
383.535	334.12
383.761	341.12
383.986	356.12
384.211	333.12
384.436	334.12
384.662	355.12
384.887	356.12
385.112	359.12
385.337	355.12
385.562	358.12
385.787	356.12
386.013	351.12
386.238	379.12
386.463	364.12
386.688	353.12
386.913	336.12
387.138	345.12
387.363	367.12
387.588	371.12
387.813	357.12
388.038	368.12
388.263	361.12
388.488	363.12
388.713	377.12
388.938	366.12
389.163	367.12
389.387	360.12
389.612	347.12
389.837	361.12
390.062	371.12
390.287	351.12
390.512	352.12
390.736	352.12
390.961	339.12
391.186	361.12
391.411	365.12
391.636	371.12
391.86	349.12
392.085	357.12
392.31	382.12
392.534	375.12
392.759	367.12
392.984	353.12
393.208	375.12
393.433	357.12
393.658	364.12
393.882	357.12
394.107	378.12
394.331	365.12
394.556	352.12
394.78	367.12
395.005	360.12
395.229	360.12
395.454	383.12
395.678	362.12
395.903	361.12
396.127	397.12
396.352	381.12
396.576	387.12
396.801	367.12
397.025	375.12
397.249	373.12
397.474	390.12
397.698	372.12
397.922	390.12
398.147	394.12
398.371	419.12
398.595	395.12
398.82	390.12
399.044	399.12
399.268	424.12
399.492	451.12
399.717	466.12
399.941	470.12
400.165	476.12
400.389	469.12
400.613	475.12
400.837	448.12
401.062	407.12
401.286	408.12
401.51	407.12
401.734	428.12
401.958	402.12
402.182	417.12
402.406	403.12
402.63	434.12
402.854	432.12
403.078	427.12
403.302	408.12
403.526	415.12
403.75	427.12
403.974	434.12
404.198	397.12
404.422	423.12
404.645	407.12
404.869	420.12
405.093	453.12
405.317	492.12
405.541	500.12
405.765	467.12
405.988	415.12
406.212	453.12
406.436	465.12
406.66	488.12
406.883	471.12
407.107	478.12
407.331	485.12
407.555	563.12
407.778	532.12
408.002	503.12
408.226	481.12
408.449	459.12
408.673	446.12
408.896	493.12
409.12	510.12
409.344	463.12
409.567	454.12
409.791	436.12
410.014	425.12
410.238	435.12
410.461	447.12
410.685	442.12
410.908	444.12
411.132	466.12
411.355	483.12
411.578	468.12
411.802	435.12
412.025	426.12
412.249	427.12
412.472	446.12
412.695	453.12
412.919	452.12
413.142	437.12
413.365	415.12
413.589	421.12
413.812	394.12
414.035	410.12
414.258	408.12
414.482	401.12
414.705	410.12
414.928	383.12
415.151	395.12
415.374	389.12
415.597	388.12
415.821	381.12
416.044	398.12
416.267	387.12
416.49	388.12
416.713	419.12
416.936	395.12
417.159	392.12
417.382	410.12
417.605	415.12
417.828	436.12
418.051	420.12
418.274	411.12
418.497	390.12
418.72	392.12
418.943	394.12
419.166	408.12
419.389	437.12
419.611	435.12
419.834	441.12
420.057	425.12
420.28	441.12
420.503	430.12
420.726	404.12
420.948	430.12
421.171	465.12
421.394	475.12
421.617	423.12
421.839	405.12
422.062	406.12
422.285	439.12
422.507	486.12
422.73	535.12
422.953	483.12
423.175	462.12
423.398	444.12
423.621	444.12
423.843	428.12
424.066	452.12
424.288	439.12
424.511	457.12
424.733	502.12
424.956	561.12
425.178	543.12
425.401	544.12
425.623	568.12
425.846	491.12
426.068	452.12
426.291	471.12
426.513	448.12
426.735	473.12
426.958	494.12
427.18	554.12
427.402	655.12
427.625	729.12
427.847	656.12
428.069	553.12
428.292	499.12
428.514	466.12
428.736	435.12
428.958	440.12
429.181	427.12
429.403	432.12
429.625	428.12
429.847	451.12
430.069	505.12
430.292	515.12
430.514	428.12
430.736	421.12
430.958	411.12
431.18	412.12
431.402	394.12
431.624	384.12
431.846	414.12
432.068	378.12
432.29	399.12
432.512	407.12
432.734	406.12
432.956	406.12
433.178	433.12
433.4	416.12
433.622	400.12
433.844	406.12
434.066	395.12
434.287	400.12
434.509	401.12
434.731	417.12
434.953	405.12
435.175	428.12
435.397	444.12
435.618	453.12
435.84	485.12
436.062	574.12
436.284	608.12
436.505	503.12
436.727	449.12
436.949	441.12
437.17	428.12
437.392	443.12
437.614	440.12
437.835	462.12
438.057	560.12
438.278	623.12
438.5	607.12
438.721	666.12
438.943	638.12
439.165	511.12
439.386	463.12
439.608	478.12
439.829	474.12
440.05	500.12
440.272	525.12
440.493	519.12
440.715	469.12
440.936	442.12
441.158	429.12
441.379	422.12
441.6	439.12
441.822	459.12
442.043	488.12
442.264	545.12
442.486	576.12
442.707	517.12
442.928	488.12
443.149	496.12
443.371	506.12
443.592	525.12
443.813	586.12
444.034	645.12
444.255	530.12
444.476	474.12
444.698	446.12
444.919	447.12
445.14	552.12
445.361	519.12
445.582	507.12
445.803	535.12
446.024	612.12
446.245	622.12
446.466	587.12
446.687	477.12
446.908	461.12
447.129	444.12
447.35	443.12
447.571	442.12
447.792	428.12
448.013	447.12
448.234	469.12
448.455	484.12
448.675	561.12
448.896	646.12
449.117	589.12
449.338	535.12
449.559	631.12
449.779	686.12
450	565.12
450.221	474.12
450.442	455.12
450.662	425.12
450.883	439.12
451.104	434.12
451.324	441.12
451.545	424.12
451.766	388.12
451.986	376.12
452.207	384.12
452.428	402.12
452.648	407.12
452.869	379.12
453.089	389.12
453.31	398.12
453.53	396.12
453.751	386.12
453.971	396.12
454.192	411.12
454.412	395.12
454.633	392.12
454.853	386.12
455.073	366.12
455.294	399.12
455.514	493.12
455.734	453.12
455.955	393.12
456.175	386.12
456.395	377.12
456.616	366.12
456.836	353.12
457.056	342.12
457.276	369.12
457.497	376.12
457.717	363.12
457.937	389.12
458.157	369.12
458.377	364.12
458.598	378.12
458.818	439.12
459.038	521.12
459.258	509.12
459.478	448.12
459.698	416.12
459.918	412.12
460.138	400.12
460.358	398.12
460.578	418.12
460.798	424.12
461.018	409.12
461.238	399.12
461.458	369.12
461.678	408.12
461.898	381.12
462.118	389.12
462.338	424.12
462.558	419.12
462.777	395.12
462.997	425.12
463.217	423.12
463.437	444.12
463.657	437.12
463.876	415.12
464.096	431.12
464.316	426.12
464.536	440.12
464.755	423.12
464.975	455.12
465.195	492.12
465.414	569.12
465.634	476.12
465.854	433.12
466.073	411.12
466.293	382.12
466.512	407.12
466.732	371.12
466.951	379.12
467.171	378.12
467.391	377.12
467.61	411.12
467.829	391.12
468.049	418.12
468.268	412.12
468.488	397.12
468.707	373.12
468.927	378.12
469.146	368.12
469.365	387.12
469.585	381.12
469.804	380.12
470.023	407.12
470.243	413.12
470.462	417.12
470.681	415.12
470.901	416.12
471.12	400.12
471.339	387.12
471.558	398.12
471.777	397.12
471.997	373.12
472.216	399.12
472.435	441.12
472.654	413.12
472.873	398.12
473.092	407.12
473.311	401.12
473.53	386.12
473.749	418.12
473.968	445.12
474.187	533.12
474.406	537.12
474.625	457.12
474.844	394.12
475.063	402.12
475.282	426.12
475.501	395.12
475.72	414.12
475.939	421.12
476.158	411.12
476.377	415.12
476.596	409.12
476.814	416.12
477.033	410.12
477.252	432.12
477.471	426.12
477.69	435.12
477.908	441.12
478.127	432.12
478.346	439.12
478.564	435.12
478.783	455.12
479.002	468.12
479.22	448.12
479.439	471.12
479.658	483.12
479.876	480.12
480.095	473.12
480.313	493.12
480.532	485.12
480.751	490.12
480.969	515.12
481.188	561.12
481.406	591.12
481.624	533.12
481.843	501.12
482.061	488.12
482.28	473.12
482.498	452.12
482.717	466.12
482.935	461.12
483.153	466.12
483.372	465.12
483.59	486.12
483.808	466.12
484.027	451.12
484.245	484.12
484.463	489.12
484.681	478.12
484.9	469.12
485.118	468.12
485.336	478.12
485.554	488.12
485.772	495.12
485.99	482.12
486.209	490.12
486.427	495.12
486.645	504.12
486.863	519.12
487.081	518.12
487.299	488.12
487.517	500.12
487.735	499.12
487.953	510.12
488.171	492.12
488.389	506.12
488.607	494.12
488.825	499.12
489.043	521.12
489.261	515.12
489.479	499.12
489.696	519.12
489.914	513.12
490.132	510.12
490.35	508.12
490.568	537.12
490.786	528.12
491.003	530.12
491.221	528.12
491.439	559.12
491.657	575.12
491.874	550.12
492.092	571.12
492.31	553.12
492.527	561.12
492.745	598.12
492.963	581.12
493.18	580.12
493.398	594.12
493.615	602.12
493.833	597.12
494.05	567.12
494.268	578.12
494.485	586.12
494.703	592.12
494.92	582.12
495.138	604.12
495.355	598.12
495.573	594.12
495.79	582.12
496.008	579.12
496.225	592.12
496.442	603.12
496.66	577.12
496.877	585.12
497.094	599.12
497.312	618.12
497.529	610.12
497.746	621.12
497.963	606.12
498.181	669.12
498.398	658.12
498.615	629.12
498.832	642.12
499.049	675.12
499.267	645.12
499.484	659.12
499.701	707.12
499.918	710.12
500.135	727.12
500.352	743.12
500.569	776.12
500.786	757.12
501.003	729.12
501.22	715.12
501.437	730.12
501.654	686.12
501.871	728.12
502.088	719.12
