Data from 1965.PennyLincolnUp.Lamp.En5.5.200Scan.071719.P1._HRD10591_14-10-45-913.txt Node
Date: Thu Jul 18 14:10:45 EDT 2019
User: cochatt
Spectrometer: HR+D1059
Trigger mode: 1
Integration Time (sec): 1.000000E-1
Scans to average: 1
Electric dark correction enabled: true
Nonlinearity correction enabled: false
Boxcar width: 0
XAxis mode: Wavelengths
Number of Pixels in Spectrum: 2048
>>>>>Begin Spectral Data<<<<<
223.165	-7.94
223.4	-7.94
223.635	-7.94
223.869	-6.94
224.104	-21.94
224.338	-29.94
224.573	-13.94
224.808	-19.94
225.042	-0.94
225.277	-9.94
225.511	7.06
225.746	7.06
225.98	-11.94
226.215	8.06
226.449	13.06
226.683	25.06
226.918	30.06
227.152	33.06
227.387	36.06
227.621	39.06
227.856	65.06
228.09	50.06
228.324	44.06
228.559	58.06
228.793	77.06
229.027	91.06
229.262	101.06
229.496	123.06
229.73	122.06
229.964	155.06
230.199	131.06
230.433	111.06
230.667	132.06
230.901	114.06
231.136	105.06
231.37	102.06
231.604	112.06
231.838	102.06
232.072	102.06
232.306	107.06
232.541	105.06
232.775	132.06
233.009	110.06
233.243	128.06
233.477	115.06
233.711	100.06
233.945	131.06
234.179	114.06
234.413	97.06
234.647	99.06
234.881	110.06
235.115	106.06
235.349	111.06
235.583	126.06
235.817	119.06
236.051	109.06
236.285	112.06
236.519	104.06
236.753	120.06
236.987	151.06
237.221	180.06
237.455	220.06
237.689	181.06
237.922	132.06
238.156	142.06
238.39	118.06
238.624	119.06
238.858	122.06
239.091	110.06
239.325	108.06
239.559	122.06
239.793	127.06
240.027	131.06
240.26	146.06
240.494	135.06
240.728	139.06
240.961	131.06
241.195	152.06
241.429	128.06
241.662	131.06
241.896	117.06
242.13	121.06
242.363	131.06
242.597	125.06
242.83	129.06
243.064	127.06
243.298	127.06
243.531	145.06
243.765	118.06
243.998	131.06
244.232	127.06
244.465	137.06
244.699	136.06
244.932	125.06
245.166	134.06
245.399	138.06
245.633	136.06
245.866	138.06
246.099	155.06
246.333	147.06
246.566	149.06
246.8	149.06
247.033	129.06
247.266	146.06
247.5	149.06
247.733	142.06
247.966	152.06
248.2	159.06
248.433	164.06
248.666	160.06
248.899	177.06
249.133	161.06
249.366	193.06
249.599	193.06
249.832	174.06
250.066	161.06
250.299	165.06
250.532	184.06
250.765	186.06
250.998	186.06
251.231	220.06
251.465	184.06
251.698	182.06
251.931	185.06
252.164	190.06
252.397	179.06
252.63	186.06
252.863	188.06
253.096	206.06
253.329	213.06
253.562	193.06
253.795	198.06
254.028	203.06
254.261	212.06
254.494	205.06
254.727	235.06
254.96	251.06
255.193	245.06
255.426	231.06
255.659	232.06
255.892	214.06
256.124	217.06
256.357	201.06
256.59	212.06
256.823	200.06
257.056	202.06
257.289	202.06
257.521	202.06
257.754	189.06
257.987	184.06
258.22	199.06
258.452	169.06
258.685	185.06
258.918	195.06
259.151	179.06
259.383	207.06
259.616	198.06
259.849	206.06
260.081	224.06
260.314	220.06
260.547	218.06
260.779	222.06
261.012	212.06
261.244	211.06
261.477	198.06
261.71	211.06
261.942	219.06
262.175	214.06
262.407	211.06
262.64	199.06
262.872	201.06
263.105	187.06
263.337	192.06
263.57	186.06
263.802	201.06
264.035	206.06
264.267	190.06
264.499	188.06
264.732	204.06
264.964	190.06
265.197	195.06
265.429	194.06
265.661	195.06
265.894	196.06
266.126	205.06
266.358	176.06
266.591	190.06
266.823	207.06
267.055	215.06
267.287	212.06
267.52	218.06
267.752	188.06
267.984	223.06
268.216	203.06
268.448	211.06
268.681	222.06
268.913	219.06
269.145	241.06
269.377	274.06
269.609	257.06
269.841	239.06
270.073	247.06
270.306	272.06
270.538	300.06
270.77	295.06
271.002	277.06
271.234	274.06
271.466	270.06
271.698	294.06
271.93	284.06
272.162	275.06
272.394	268.06
272.626	270.06
272.858	240.06
273.09	268.06
273.322	259.06
273.553	235.06
273.785	238.06
274.017	228.06
274.249	230.06
274.481	237.06
274.713	236.06
274.945	250.06
275.176	238.06
275.408	268.06
275.64	260.06
275.872	247.06
276.104	228.06
276.335	231.06
276.567	233.06
276.799	266.06
277.031	280.06
277.262	284.06
277.494	317.06
277.726	268.06
277.957	262.06
278.189	270.06
278.421	258.06
278.652	242.06
278.884	256.06
279.115	228.06
279.347	232.06
279.579	258.06
279.81	235.06
280.042	241.06
280.273	235.06
280.505	239.06
280.736	237.06
280.968	222.06
281.199	255.06
281.431	227.06
281.662	233.06
281.894	242.06
282.125	244.06
282.356	259.06
282.588	278.06
282.819	274.06
283.051	240.06
283.282	241.06
283.513	248.06
283.745	252.06
283.976	260.06
284.207	257.06
284.439	253.06
284.67	234.06
284.901	252.06
285.132	259.06
285.364	246.06
285.595	240.06
285.826	232.06
286.057	236.06
286.288	242.06
286.52	256.06
286.751	262.06
286.982	256.06
287.213	259.06
287.444	247.06
287.675	272.06
287.906	258.06
288.138	283.06
288.369	281.06
288.6	280.06
288.831	256.06
289.062	282.06
289.293	259.06
289.524	251.06
289.755	261.06
289.986	256.06
290.217	257.06
290.448	250.06
290.679	259.06
290.91	266.06
291.141	247.06
291.371	258.06
291.602	235.06
291.833	253.06
292.064	257.06
292.295	261.06
292.526	263.06
292.757	250.06
292.987	252.06
293.218	242.06
293.449	278.06
293.68	241.06
293.91	255.06
294.141	264.06
294.372	244.06
294.603	249.06
294.833	251.06
295.064	247.06
295.295	267.06
295.525	250.06
295.756	265.06
295.987	291.06
296.217	302.06
296.448	303.06
296.679	274.06
296.909	256.06
297.14	252.06
297.37	262.06
297.601	257.06
297.831	279.06
298.062	268.06
298.292	266.06
298.523	263.06
298.753	275.06
298.984	270.06
299.214	249.06
299.445	270.06
299.675	277.06
299.905	279.06
300.136	280.06
300.366	286.06
300.597	271.06
300.827	272.06
301.057	283.06
301.288	290.06
301.518	283.06
301.748	276.06
301.979	296.06
302.209	314.06
302.439	312.06
302.669	294.06
302.9	278.06
303.13	290.06
303.36	287.06
303.59	284.06
303.82	302.06
304.051	315.06
304.281	279.06
304.511	280.06
304.741	295.06
304.971	306.06
305.201	307.06
305.431	282.06
305.661	298.06
305.891	311.06
306.121	276.06
306.352	313.06
306.582	296.06
306.812	288.06
307.042	294.06
307.272	307.06
307.502	301.06
307.731	306.06
307.961	292.06
308.191	294.06
308.421	307.06
308.651	303.06
308.881	312.06
309.111	301.06
309.341	303.06
309.571	315.06
309.8	339.06
310.03	362.06
310.26	353.06
310.49	336.06
310.72	340.06
310.949	364.06
311.179	370.06
311.409	324.06
311.639	328.06
311.868	352.06
312.098	358.06
312.328	369.06
312.557	376.06
312.787	394.06
313.017	363.06
313.246	352.06
313.476	337.06
313.706	338.06
313.935	345.06
314.165	343.06
314.394	364.06
314.624	358.06
314.853	337.06
315.083	332.06
315.312	339.06
315.542	311.06
315.771	339.06
316.001	332.06
316.23	345.06
316.46	320.06
316.689	333.06
316.919	347.06
317.148	354.06
317.377	357.06
317.607	344.06
317.836	340.06
318.065	333.06
318.295	347.06
318.524	326.06
318.753	324.06
318.983	326.06
319.212	347.06
319.441	346.06
319.67	344.06
319.9	350.06
320.129	348.06
320.358	328.06
320.587	346.06
320.816	335.06
321.046	358.06
321.275	378.06
321.504	349.06
321.733	359.06
321.962	354.06
322.191	392.06
322.42	394.06
322.649	430.06
322.878	410.06
323.108	436.06
323.337	451.06
323.566	469.06
323.795	529.06
324.024	566.06
324.253	706.06
324.482	1057.06
324.71	1586.06
324.939	2186.06
325.168	1848.06
325.397	952.06
325.626	646.06
325.855	547.06
326.084	501.06
326.313	490.06
326.542	490.06
326.77	550.06
326.999	681.06
327.228	909.06
327.457	1392.06
327.686	1594.06
327.914	1096.06
328.143	706.06
328.372	650.06
328.6	584.06
328.829	578.06
329.058	562.06
329.287	570.06
329.515	534.06
329.744	497.06
329.972	495.06
330.201	532.06
330.43	555.06
330.658	579.06
330.887	609.06
331.115	590.06
331.344	497.06
331.572	463.06
331.801	468.06
332.03	443.06
332.258	454.06
332.486	404.06
332.715	414.06
332.943	402.06
333.172	388.06
333.4	421.06
333.629	422.06
333.857	449.06
334.085	450.06
334.314	473.06
334.542	504.06
334.771	530.06
334.999	442.06
335.227	423.06
335.455	404.06
335.684	410.06
335.912	396.06
336.14	392.06
336.369	403.06
336.597	410.06
336.825	386.06
337.053	409.06
337.281	400.06
337.51	396.06
337.738	388.06
337.966	384.06
338.194	402.06
338.422	391.06
338.65	412.06
338.878	378.06
339.106	364.06
339.334	390.06
339.562	372.06
339.79	374.06
340.018	389.06
340.246	397.06
340.474	374.06
340.702	394.06
340.93	380.06
341.158	380.06
341.386	375.06
341.614	419.06
341.842	398.06
342.07	403.06
342.298	393.06
342.526	386.06
342.754	389.06
342.981	366.06
343.209	370.06
343.437	376.06
343.665	380.06
343.893	379.06
344.12	405.06
344.348	382.06
344.576	384.06
344.804	412.06
345.031	394.06
345.259	381.06
345.487	399.06
345.714	382.06
345.942	390.06
346.17	388.06
346.397	385.06
346.625	401.06
346.853	381.06
347.08	382.06
347.308	391.06
347.535	398.06
347.763	390.06
347.99	386.06
348.218	383.06
348.445	393.06
348.673	390.06
348.9	378.06
349.128	367.06
349.355	348.06
349.583	351.06
349.81	353.06
350.037	358.06
350.265	383.06
350.492	354.06
350.72	376.06
350.947	367.06
351.174	376.06
351.402	386.06
351.629	364.06
351.856	366.06
352.083	389.06
352.311	404.06
352.538	386.06
352.765	383.06
352.992	386.06
353.22	386.06
353.447	389.06
353.674	369.06
353.901	363.06
354.128	343.06
354.355	339.06
354.583	351.06
354.81	339.06
355.037	341.06
355.264	340.06
355.491	349.06
355.718	327.06
355.945	329.06
356.172	370.06
356.399	363.06
356.626	334.06
356.853	359.06
357.08	330.06
357.307	347.06
357.534	350.06
357.761	347.06
357.988	350.06
358.215	356.06
358.441	333.06
358.668	326.06
358.895	335.06
359.122	325.06
359.349	345.06
359.576	369.06
359.802	404.06
360.029	448.06
360.256	449.06
360.483	418.06
360.709	398.06
360.936	392.06
361.163	391.06
361.39	399.06
361.616	383.06
361.843	382.06
362.07	382.06
362.296	391.06
362.523	378.06
362.749	369.06
362.976	377.06
363.203	364.06
363.429	352.06
363.656	340.06
363.882	362.06
364.109	369.06
364.335	370.06
364.562	366.06
364.788	349.06
365.015	362.06
365.241	370.06
365.468	372.06
365.694	373.06
365.92	374.06
366.147	364.06
366.373	362.06
366.599	353.06
366.826	359.06
367.052	337.06
367.278	347.06
367.505	354.06
367.731	344.06
367.957	351.06
368.184	354.06
368.41	359.06
368.636	362.06
368.862	386.06
369.089	357.06
369.315	339.06
369.541	352.06
369.767	369.06
369.993	361.06
370.219	349.06
370.445	358.06
370.672	361.06
370.898	349.06
371.124	341.06
371.35	355.06
371.576	357.06
371.802	352.06
372.028	337.06
372.254	346.06
372.48	329.06
372.706	339.06
372.932	328.06
373.158	333.06
373.384	345.06
373.61	345.06
373.835	346.06
374.061	350.06
374.287	349.06
374.513	336.06
374.739	350.06
374.965	339.06
375.191	345.06
375.416	340.06
375.642	344.06
375.868	348.06
376.094	346.06
376.319	331.06
376.545	373.06
376.771	368.06
376.997	330.06
377.222	347.06
377.448	350.06
377.674	347.06
377.899	330.06
378.125	346.06
378.35	338.06
378.576	334.06
378.802	342.06
379.027	337.06
379.253	332.06
379.478	335.06
379.704	359.06
379.929	351.06
380.155	353.06
380.38	344.06
380.606	339.06
380.831	350.06
381.057	344.06
381.282	350.06
381.507	334.06
381.733	363.06
381.958	360.06
382.184	358.06
382.409	340.06
382.634	351.06
382.86	356.06
383.085	338.06
383.31	355.06
383.535	368.06
383.761	344.06
383.986	362.06
384.211	368.06
384.436	356.06
384.662	366.06
384.887	351.06
385.112	362.06
385.337	363.06
385.562	342.06
385.787	356.06
386.013	369.06
386.238	370.06
386.463	393.06
386.688	383.06
386.913	383.06
387.138	381.06
387.363	383.06
387.588	375.06
387.813	367.06
388.038	386.06
388.263	388.06
388.488	375.06
388.713	382.06
388.938	355.06
389.163	395.06
389.387	371.06
389.612	371.06
389.837	375.06
390.062	373.06
390.287	378.06
390.512	367.06
390.736	356.06
390.961	375.06
391.186	366.06
391.411	372.06
391.636	357.06
391.86	375.06
392.085	376.06
392.31	354.06
392.534	369.06
392.759	380.06
392.984	378.06
393.208	369.06
393.433	363.06
393.658	371.06
393.882	366.06
394.107	358.06
394.331	371.06
394.556	383.06
394.78	385.06
395.005	370.06
395.229	374.06
395.454	383.06
395.678	384.06
395.903	389.06
396.127	402.06
396.352	404.06
396.576	390.06
396.801	394.06
397.025	383.06
397.249	371.06
397.474	398.06
397.698	376.06
397.922	388.06
398.147	408.06
398.371	409.06
398.595	411.06
398.82	417.06
399.044	420.06
399.268	424.06
399.492	444.06
399.717	465.06
399.941	479.06
400.165	494.06
400.389	523.06
400.613	452.06
400.837	434.06
401.062	435.06
401.286	426.06
401.51	403.06
401.734	408.06
401.958	420.06
402.182	414.06
402.406	442.06
402.63	419.06
402.854	438.06
403.078	439.06
403.302	398.06
403.526	431.06
403.75	426.06
403.974	419.06
404.198	450.06
404.422	434.06
404.645	426.06
404.869	454.06
405.093	480.06
405.317	500.06
405.541	515.06
405.765	487.06
405.988	474.06
406.212	469.06
406.436	488.06
406.66	491.06
406.883	450.06
407.107	483.06
407.331	532.06
407.555	566.06
407.778	563.06
408.002	524.06
408.226	481.06
408.449	465.06
408.673	467.06
408.896	483.06
409.12	518.06
409.344	502.06
409.567	440.06
409.791	439.06
410.014	438.06
410.238	434.06
410.461	428.06
410.685	449.06
410.908	446.06
411.132	473.06
411.355	522.06
411.578	491.06
411.802	440.06
412.025	443.06
412.249	447.06
412.472	469.06
412.695	506.06
412.919	474.06
413.142	433.06
413.365	429.06
413.589	432.06
413.812	422.06
414.035	403.06
414.258	410.06
414.482	399.06
414.705	394.06
414.928	394.06
415.151	400.06
415.374	412.06
415.597	417.06
415.821	394.06
416.044	402.06
416.267	388.06
416.49	403.06
416.713	394.06
416.936	395.06
417.159	411.06
417.382	442.06
417.605	428.06
417.828	443.06
418.051	434.06
418.274	410.06
418.497	398.06
418.72	427.06
418.943	396.06
419.166	432.06
419.389	434.06
419.611	428.06
419.834	437.06
420.057	433.06
420.28	451.06
420.503	423.06
420.726	433.06
420.948	420.06
421.171	460.06
421.394	500.06
421.617	431.06
421.839	443.06
422.062	433.06
422.285	466.06
422.507	506.06
422.73	568.06
422.953	506.06
423.175	472.06
423.398	454.06
423.621	435.06
423.843	451.06
424.066	473.06
424.288	478.06
424.511	494.06
424.733	525.06
424.956	585.06
425.178	583.06
425.401	574.06
425.623	596.06
425.846	514.06
426.068	481.06
426.291	461.06
426.513	472.06
426.735	496.06
426.958	522.06
427.18	595.06
427.402	694.06
427.625	743.06
427.847	696.06
428.069	580.06
428.292	540.06
428.514	488.06
428.736	461.06
428.958	445.06
429.181	449.06
429.403	432.06
429.625	440.06
429.847	497.06
430.069	520.06
430.292	524.06
430.514	454.06
430.736	437.06
430.958	420.06
431.18	413.06
431.402	433.06
431.624	402.06
431.846	414.06
432.068	419.06
432.29	407.06
432.512	387.06
432.734	435.06
432.956	422.06
433.178	431.06
433.4	428.06
433.622	432.06
433.844	424.06
434.066	410.06
434.287	408.06
434.509	393.06
434.731	411.06
434.953	420.06
435.175	430.06
435.397	458.06
435.618	486.06
435.84	498.06
436.062	572.06
436.284	632.06
436.505	532.06
436.727	484.06
436.949	446.06
437.17	448.06
437.392	468.06
437.614	448.06
437.835	497.06
438.057	583.06
438.278	650.06
438.5	678.06
438.721	701.06
438.943	673.06
439.165	531.06
439.386	510.06
439.608	493.06
439.829	480.06
440.05	532.06
440.272	572.06
440.493	524.06
440.715	481.06
440.936	455.06
441.158	448.06
441.379	457.06
441.6	459.06
441.822	475.06
442.043	535.06
442.264	600.06
442.486	586.06
442.707	515.06
442.928	478.06
443.149	482.06
443.371	525.06
443.592	570.06
443.813	640.06
444.034	656.06
444.255	563.06
444.476	494.06
444.698	472.06
444.919	466.06
445.14	564.06
445.361	518.06
445.582	522.06
445.803	575.06
446.024	666.06
446.245	650.06
446.466	591.06
446.687	522.06
446.908	470.06
447.129	451.06
447.35	447.06
447.571	439.06
447.792	428.06
448.013	456.06
448.234	484.06
448.455	487.06
448.675	628.06
448.896	675.06
449.117	608.06
449.338	562.06
449.559	666.06
449.779	692.06
450	572.06
450.221	496.06
450.442	474.06
450.662	451.06
450.883	452.06
451.104	453.06
451.324	456.06
451.545	418.06
451.766	398.06
451.986	408.06
452.207	393.06
452.428	395.06
452.648	393.06
452.869	391.06
453.089	420.06
453.31	440.06
453.53	406.06
453.751	408.06
453.971	418.06
454.192	434.06
454.412	444.06
454.633	408.06
454.853	399.06
455.073	408.06
455.294	433.06
455.514	483.06
455.734	467.06
455.955	412.06
456.175	390.06
456.395	376.06
456.616	386.06
456.836	360.06
457.056	374.06
457.276	380.06
457.497	390.06
457.717	380.06
457.937	377.06
458.157	395.06
458.377	385.06
458.598	413.06
458.818	482.06
459.038	562.06
459.258	562.06
459.478	463.06
459.698	432.06
459.918	408.06
460.138	433.06
460.358	401.06
460.578	394.06
460.798	394.06
461.018	397.06
461.238	402.06
461.458	416.06
461.678	409.06
461.898	405.06
462.118	404.06
462.338	419.06
462.558	420.06
462.777	425.06
462.997	446.06
463.217	435.06
463.437	440.06
463.657	429.06
463.876	420.06
464.096	432.06
464.316	424.06
464.536	440.06
464.755	443.06
464.975	458.06
465.195	496.06
465.414	568.06
465.634	530.06
465.854	456.06
466.073	458.06
466.293	442.06
466.512	406.06
466.732	400.06
466.951	390.06
467.171	410.06
467.391	420.06
467.61	428.06
467.829	429.06
468.049	408.06
468.268	420.06
468.488	412.06
468.707	413.06
468.927	404.06
469.146	379.06
469.365	396.06
469.585	400.06
469.804	407.06
470.023	416.06
470.243	411.06
470.462	442.06
470.681	457.06
470.901	436.06
471.12	415.06
471.339	416.06
471.558	400.06
471.777	434.06
471.997	415.06
472.216	434.06
472.435	465.06
472.654	427.06
472.873	408.06
473.092	401.06
473.311	398.06
473.53	408.06
473.749	420.06
473.968	465.06
474.187	559.06
474.406	568.06
474.625	460.06
474.844	442.06
475.063	432.06
475.282	412.06
475.501	401.06
475.72	435.06
475.939	428.06
476.158	422.06
476.377	425.06
476.596	418.06
476.814	429.06
477.033	432.06
477.252	463.06
477.471	452.06
477.69	450.06
477.908	454.06
478.127	453.06
478.346	422.06
478.564	428.06
478.783	428.06
479.002	462.06
479.22	476.06
479.439	490.06
479.658	483.06
479.876	489.06
480.095	503.06
480.313	532.06
480.532	508.06
480.751	506.06
480.969	525.06
481.188	612.06
481.406	656.06
481.624	557.06
481.843	549.06
482.061	502.06
482.28	496.06
482.498	494.06
482.717	487.06
482.935	504.06
483.153	482.06
483.372	467.06
483.59	504.06
483.808	489.06
484.027	486.06
484.245	480.06
484.463	507.06
484.681	486.06
484.9	491.06
485.118	504.06
485.336	482.06
485.554	518.06
485.772	502.06
485.99	508.06
486.209	502.06
486.427	493.06
486.645	496.06
486.863	524.06
487.081	532.06
487.299	545.06
487.517	527.06
487.735	526.06
487.953	531.06
488.171	525.06
488.389	502.06
488.607	507.06
488.825	512.06
489.043	525.06
489.261	522.06
489.479	531.06
489.696	528.06
489.914	531.06
490.132	540.06
490.35	538.06
490.568	535.06
490.786	542.06
491.003	567.06
491.221	574.06
491.439	563.06
491.657	554.06
491.874	585.06
492.092	589.06
492.31	614.06
492.527	587.06
492.745	605.06
492.963	610.06
493.18	594.06
493.398	622.06
493.615	630.06
493.833	618.06
494.05	622.06
494.268	628.06
494.485	613.06
494.703	604.06
494.92	619.06
495.138	593.06
495.355	599.06
495.573	595.06
495.79	627.06
496.008	614.06
496.225	630.06
496.442	620.06
496.66	595.06
496.877	615.06
497.094	611.06
497.312	632.06
497.529	624.06
497.746	630.06
497.963	654.06
498.181	652.06
498.398	668.06
498.615	680.06
498.832	678.06
499.049	665.06
499.267	670.06
499.484	681.06
499.701	720.06
499.918	730.06
500.135	752.06
500.352	763.06
500.569	760.06
500.786	767.06
501.003	713.06
501.22	786.06
501.437	740.06
501.654	718.06
501.871	758.06
502.088	709.06
