Data from 1965.PennyLincolnUp.Lamp.En5.5.200Scan.071719.P1._HRD10591_14-08-31-912.txt Node
Date: Thu Jul 18 14:08:31 EDT 2019
User: cochatt
Spectrometer: HR+D1059
Trigger mode: 1
Integration Time (sec): 1.000000E-1
Scans to average: 1
Electric dark correction enabled: true
Nonlinearity correction enabled: false
Boxcar width: 0
XAxis mode: Wavelengths
Number of Pixels in Spectrum: 2048
>>>>>Begin Spectral Data<<<<<
223.165	-10.69
223.4	-10.69
223.635	-10.69
223.869	-13.69
224.104	-21.69
224.338	0.31
224.573	-18.69
224.808	-8.69
225.042	-13.69
225.277	3.31
225.511	7.31
225.746	3.31
225.98	0.31
226.215	0.31
226.449	21.31
226.683	6.31
226.918	14.31
227.152	30.31
227.387	33.31
227.621	47.31
227.856	30.31
228.09	38.31
228.324	54.31
228.559	64.31
228.793	61.31
229.027	94.31
229.262	106.31
229.496	102.31
229.73	126.31
229.964	140.31
230.199	112.31
230.433	111.31
230.667	118.31
230.901	106.31
231.136	101.31
231.37	112.31
231.604	103.31
231.838	94.31
232.072	109.31
232.306	118.31
232.541	105.31
232.775	105.31
233.009	116.31
233.243	102.31
233.477	106.31
233.711	113.31
233.945	123.31
234.179	107.31
234.413	114.31
234.647	94.31
234.881	110.31
235.115	107.31
235.349	100.31
235.583	120.31
235.817	124.31
236.051	116.31
236.285	131.31
236.519	109.31
236.753	123.31
236.987	136.31
237.221	168.31
237.455	206.31
237.689	170.31
237.922	131.31
238.156	112.31
238.39	124.31
238.624	109.31
238.858	128.31
239.091	120.31
239.325	104.31
239.559	109.31
239.793	116.31
240.027	128.31
240.26	124.31
240.494	132.31
240.728	143.31
240.961	149.31
241.195	122.31
241.429	128.31
241.662	121.31
241.896	124.31
242.13	122.31
242.363	135.31
242.597	110.31
242.83	130.31
243.064	125.31
243.298	135.31
243.531	130.31
243.765	112.31
243.998	132.31
244.232	132.31
244.465	140.31
244.699	145.31
244.932	120.31
245.166	132.31
245.399	130.31
245.633	140.31
245.866	130.31
246.099	134.31
246.333	145.31
246.566	133.31
246.8	134.31
247.033	152.31
247.266	138.31
247.5	146.31
247.733	130.31
247.966	150.31
248.2	161.31
248.433	158.31
248.666	158.31
248.899	165.31
249.133	170.31
249.366	164.31
249.599	194.31
249.832	161.31
250.066	159.31
250.299	148.31
250.532	175.31
250.765	185.31
250.998	207.31
251.231	197.31
251.465	196.31
251.698	171.31
251.931	158.31
252.164	184.31
252.397	160.31
252.63	156.31
252.863	190.31
253.096	187.31
253.329	190.31
253.562	196.31
253.795	192.31
254.028	191.31
254.261	183.31
254.494	204.31
254.727	200.31
254.96	244.31
255.193	235.31
255.426	214.31
255.659	214.31
255.892	188.31
256.124	201.31
256.357	204.31
256.59	191.31
256.823	191.31
257.056	187.31
257.289	171.31
257.521	174.31
257.754	185.31
257.987	178.31
258.22	185.31
258.452	189.31
258.685	184.31
258.918	178.31
259.151	182.31
259.383	199.31
259.616	193.31
259.849	194.31
260.081	210.31
260.314	214.31
260.547	207.31
260.779	205.31
261.012	204.31
261.244	192.31
261.477	199.31
261.71	200.31
261.942	190.31
262.175	195.31
262.407	207.31
262.64	188.31
262.872	193.31
263.105	198.31
263.337	204.31
263.57	174.31
263.802	196.31
264.035	187.31
264.267	185.31
264.499	184.31
264.732	192.31
264.964	169.31
265.197	186.31
265.429	175.31
265.661	181.31
265.894	166.31
266.126	185.31
266.358	185.31
266.591	193.31
266.823	202.31
267.055	188.31
267.287	201.31
267.52	187.31
267.752	190.31
267.984	187.31
268.216	207.31
268.448	205.31
268.681	221.31
268.913	198.31
269.145	213.31
269.377	238.31
269.609	236.31
269.841	242.31
270.073	228.31
270.306	242.31
270.538	240.31
270.77	284.31
271.002	275.31
271.234	252.31
271.466	259.31
271.698	268.31
271.93	256.31
272.162	267.31
272.394	278.31
272.626	255.31
272.858	243.31
273.09	253.31
273.322	233.31
273.553	234.31
273.785	225.31
274.017	221.31
274.249	228.31
274.481	230.31
274.713	221.31
274.945	218.31
275.176	208.31
275.408	215.31
275.64	225.31
275.872	231.31
276.104	233.31
276.335	228.31
276.567	236.31
276.799	240.31
277.031	263.31
277.262	262.31
277.494	262.31
277.726	245.31
277.957	266.31
278.189	250.31
278.421	216.31
278.652	233.31
278.884	229.31
279.115	227.31
279.347	223.31
279.579	216.31
279.81	226.31
280.042	232.31
280.273	231.31
280.505	245.31
280.736	235.31
280.968	233.31
281.199	227.31
281.431	221.31
281.662	210.31
281.894	219.31
282.125	227.31
282.356	232.31
282.588	250.31
282.819	259.31
283.051	246.31
283.282	223.31
283.513	234.31
283.745	248.31
283.976	229.31
284.207	220.31
284.439	220.31
284.67	243.31
284.901	234.31
285.132	238.31
285.364	227.31
285.595	227.31
285.826	231.31
286.057	236.31
286.288	231.31
286.52	213.31
286.751	237.31
286.982	239.31
287.213	259.31
287.444	232.31
287.675	244.31
287.906	267.31
288.138	256.31
288.369	257.31
288.6	247.31
288.831	235.31
289.062	229.31
289.293	253.31
289.524	236.31
289.755	245.31
289.986	248.31
290.217	255.31
290.448	230.31
290.679	262.31
290.91	261.31
291.141	243.31
291.371	243.31
291.602	251.31
291.833	236.31
292.064	247.31
292.295	250.31
292.526	234.31
292.757	246.31
292.987	221.31
293.218	235.31
293.449	247.31
293.68	247.31
293.91	245.31
294.141	262.31
294.372	239.31
294.603	230.31
294.833	256.31
295.064	268.31
295.295	257.31
295.525	257.31
295.756	262.31
295.987	252.31
296.217	300.31
296.448	280.31
296.679	253.31
296.909	239.31
297.14	245.31
297.37	243.31
297.601	247.31
297.831	224.31
298.062	250.31
298.292	253.31
298.523	262.31
298.753	246.31
298.984	264.31
299.214	291.31
299.445	262.31
299.675	271.31
299.905	270.31
300.136	265.31
300.366	260.31
300.597	247.31
300.827	256.31
301.057	250.31
301.288	263.31
301.518	255.31
301.748	268.31
301.979	269.31
302.209	263.31
302.439	272.31
302.669	273.31
302.9	286.31
303.13	287.31
303.36	277.31
303.59	292.31
303.82	281.31
304.051	290.31
304.281	276.31
304.511	252.31
304.741	269.31
304.971	259.31
305.201	284.31
305.431	278.31
305.661	278.31
305.891	281.31
306.121	295.31
306.352	287.31
306.582	292.31
306.812	282.31
307.042	287.31
307.272	287.31
307.502	292.31
307.731	276.31
307.961	298.31
308.191	288.31
308.421	264.31
308.651	303.31
308.881	301.31
309.111	302.31
309.341	301.31
309.571	291.31
309.8	298.31
310.03	317.31
310.26	318.31
310.49	339.31
310.72	335.31
310.949	342.31
311.179	347.31
311.409	335.31
311.639	312.31
311.868	313.31
312.098	323.31
312.328	349.31
312.557	346.31
312.787	349.31
313.017	342.31
313.246	328.31
313.476	314.31
313.706	314.31
313.935	339.31
314.165	339.31
314.394	330.31
314.624	337.31
314.853	338.31
315.083	316.31
315.312	325.31
315.542	310.31
315.771	316.31
316.001	312.31
316.23	330.31
316.46	320.31
316.689	325.31
316.919	335.31
317.148	344.31
317.377	343.31
317.607	322.31
317.836	334.31
318.065	351.31
318.295	321.31
318.524	319.31
318.753	325.31
318.983	324.31
319.212	340.31
319.441	340.31
319.67	338.31
319.9	332.31
320.129	321.31
320.358	306.31
320.587	356.31
320.816	359.31
321.046	342.31
321.275	363.31
321.504	339.31
321.733	346.31
321.962	350.31
322.191	354.31
322.42	352.31
322.649	388.31
322.878	390.31
323.108	405.31
323.337	432.31
323.566	440.31
323.795	477.31
324.024	514.31
324.253	653.31
324.482	900.31
324.71	1400.31
324.939	1885.31
325.168	1611.31
325.397	887.31
325.626	575.31
325.855	487.31
326.084	458.31
326.313	439.31
326.542	453.31
326.77	489.31
326.999	594.31
327.228	834.31
327.457	1212.31
327.686	1407.31
327.914	954.31
328.143	647.31
328.372	571.31
328.6	506.31
328.829	494.31
329.058	527.31
329.287	526.31
329.515	495.31
329.744	422.31
329.972	443.31
330.201	458.31
330.43	481.31
330.658	513.31
330.887	538.31
331.115	529.31
331.344	440.31
331.572	425.31
331.801	420.31
332.03	412.31
332.258	407.31
332.486	372.31
332.715	388.31
332.943	383.31
333.172	400.31
333.4	386.31
333.629	409.31
333.857	419.31
334.085	427.31
334.314	448.31
334.542	461.31
334.771	459.31
334.999	421.31
335.227	397.31
335.455	383.31
335.684	369.31
335.912	391.31
336.14	376.31
336.369	388.31
336.597	379.31
336.825	381.31
337.053	382.31
337.281	367.31
337.51	363.31
337.738	387.31
337.966	372.31
338.194	380.31
338.422	396.31
338.65	362.31
338.878	361.31
339.106	358.31
339.334	365.31
339.562	346.31
339.79	343.31
340.018	351.31
340.246	353.31
340.474	380.31
340.702	359.31
340.93	362.31
341.158	357.31
341.386	349.31
341.614	362.31
341.842	370.31
342.07	351.31
342.298	357.31
342.526	362.31
342.754	360.31
342.981	353.31
343.209	335.31
343.437	358.31
343.665	357.31
343.893	373.31
344.12	351.31
344.348	358.31
344.576	359.31
344.804	374.31
345.031	378.31
345.259	374.31
345.487	371.31
345.714	376.31
345.942	378.31
346.17	357.31
346.397	345.31
346.625	342.31
346.853	340.31
347.08	336.31
347.308	361.31
347.535	357.31
347.763	362.31
347.99	356.31
348.218	358.31
348.445	361.31
348.673	379.31
348.9	363.31
349.128	360.31
349.355	336.31
349.583	325.31
349.81	332.31
350.037	351.31
350.265	333.31
350.492	327.31
350.72	323.31
350.947	355.31
351.174	351.31
351.402	367.31
351.629	358.31
351.856	356.31
352.083	366.31
352.311	378.31
352.538	373.31
352.765	370.31
352.992	365.31
353.22	362.31
353.447	360.31
353.674	345.31
353.901	341.31
354.128	340.31
354.355	343.31
354.583	330.31
354.81	322.31
355.037	330.31
355.264	323.31
355.491	315.31
355.718	316.31
355.945	330.31
356.172	319.31
356.399	306.31
356.626	322.31
356.853	330.31
357.08	333.31
357.307	316.31
357.534	324.31
357.761	319.31
357.988	321.31
358.215	316.31
358.441	324.31
358.668	327.31
358.895	327.31
359.122	346.31
359.349	336.31
359.576	361.31
359.802	383.31
360.029	408.31
360.256	418.31
360.483	396.31
360.709	362.31
360.936	362.31
361.163	352.31
361.39	354.31
361.616	361.31
361.843	362.31
362.07	354.31
362.296	351.31
362.523	368.31
362.749	349.31
362.976	344.31
363.203	344.31
363.429	343.31
363.656	348.31
363.882	351.31
364.109	350.31
364.335	354.31
364.562	331.31
364.788	334.31
365.015	331.31
365.241	339.31
365.468	346.31
365.694	356.31
365.92	354.31
366.147	342.31
366.373	343.31
366.599	322.31
366.826	326.31
367.052	333.31
367.278	336.31
367.505	334.31
367.731	338.31
367.957	337.31
368.184	324.31
368.41	338.31
368.636	358.31
368.862	365.31
369.089	335.31
369.315	316.31
369.541	333.31
369.767	343.31
369.993	341.31
370.219	348.31
370.445	325.31
370.672	324.31
370.898	326.31
371.124	324.31
371.35	348.31
371.576	336.31
371.802	345.31
372.028	328.31
372.254	336.31
372.48	344.31
372.706	340.31
372.932	338.31
373.158	316.31
373.384	338.31
373.61	338.31
373.835	345.31
374.061	344.31
374.287	334.31
374.513	346.31
374.739	339.31
374.965	332.31
375.191	347.31
375.416	343.31
375.642	325.31
375.868	348.31
376.094	322.31
376.319	339.31
376.545	321.31
376.771	311.31
376.997	323.31
377.222	319.31
377.448	341.31
377.674	324.31
377.899	358.31
378.125	334.31
378.35	326.31
378.576	333.31
378.802	337.31
379.027	345.31
379.253	330.31
379.478	332.31
379.704	338.31
379.929	325.31
380.155	349.31
380.38	350.31
380.606	321.31
380.831	319.31
381.057	334.31
381.282	326.31
381.507	336.31
381.733	340.31
381.958	343.31
382.184	335.31
382.409	342.31
382.634	341.31
382.86	347.31
383.085	330.31
383.31	341.31
383.535	341.31
383.761	351.31
383.986	356.31
384.211	342.31
384.436	327.31
384.662	360.31
384.887	346.31
385.112	352.31
385.337	354.31
385.562	338.31
385.787	368.31
386.013	371.31
386.238	367.31
386.463	361.31
386.688	359.31
386.913	365.31
387.138	344.31
387.363	334.31
387.588	370.31
387.813	355.31
388.038	366.31
388.263	362.31
388.488	363.31
388.713	349.31
388.938	360.31
389.163	355.31
389.387	368.31
389.612	367.31
389.837	350.31
390.062	342.31
390.287	342.31
390.512	335.31
390.736	346.31
390.961	354.31
391.186	343.31
391.411	363.31
391.636	381.31
391.86	370.31
392.085	371.31
392.31	371.31
392.534	357.31
392.759	361.31
392.984	352.31
393.208	349.31
393.433	370.31
393.658	362.31
393.882	360.31
394.107	339.31
394.331	366.31
394.556	370.31
394.78	364.31
395.005	356.31
395.229	365.31
395.454	375.31
395.678	358.31
395.903	371.31
396.127	394.31
396.352	390.31
396.576	391.31
396.801	380.31
397.025	370.31
397.249	378.31
397.474	376.31
397.698	379.31
397.922	380.31
398.147	400.31
398.371	399.31
398.595	411.31
398.82	383.31
399.044	414.31
399.268	383.31
399.492	422.31
399.717	434.31
399.941	464.31
400.165	483.31
400.389	512.31
400.613	466.31
400.837	412.31
401.062	407.31
401.286	414.31
401.51	411.31
401.734	402.31
401.958	405.31
402.182	400.31
402.406	433.31
402.63	421.31
402.854	400.31
403.078	429.31
403.302	414.31
403.526	407.31
403.75	413.31
403.974	420.31
404.198	410.31
404.422	416.31
404.645	423.31
404.869	427.31
405.093	457.31
405.317	480.31
405.541	482.31
405.765	455.31
405.988	410.31
406.212	442.31
406.436	485.31
406.66	458.31
406.883	474.31
407.107	468.31
407.331	486.31
407.555	543.31
407.778	536.31
408.002	504.31
408.226	472.31
408.449	468.31
408.673	455.31
408.896	489.31
409.12	479.31
409.344	497.31
409.567	472.31
409.791	423.31
410.014	446.31
410.238	415.31
410.461	414.31
410.685	418.31
410.908	442.31
411.132	487.31
411.355	505.31
411.578	458.31
411.802	441.31
412.025	410.31
412.249	426.31
412.472	449.31
412.695	452.31
412.919	457.31
413.142	432.31
413.365	412.31
413.589	413.31
413.812	411.31
414.035	405.31
414.258	406.31
414.482	392.31
414.705	410.31
414.928	390.31
415.151	401.31
415.374	410.31
415.597	382.31
415.821	375.31
416.044	393.31
416.267	410.31
416.49	390.31
416.713	385.31
416.936	379.31
417.159	399.31
417.382	408.31
417.605	406.31
417.828	406.31
418.051	412.31
418.274	394.31
418.497	415.31
418.72	415.31
418.943	406.31
419.166	390.31
419.389	415.31
419.611	440.31
419.834	421.31
420.057	415.31
420.28	424.31
420.503	427.31
420.726	412.31
420.948	415.31
421.171	468.31
421.394	478.31
421.617	421.31
421.839	427.31
422.062	409.31
422.285	428.31
422.507	472.31
422.73	539.31
422.953	504.31
423.175	453.31
423.398	448.31
423.621	435.31
423.843	428.31
424.066	457.31
424.288	458.31
424.511	460.31
424.733	504.31
424.956	580.31
425.178	545.31
425.401	534.31
425.623	562.31
425.846	488.31
426.068	448.31
426.291	450.31
426.513	454.31
426.735	455.31
426.958	478.31
427.18	533.31
427.402	668.31
427.625	718.31
427.847	644.31
428.069	531.31
428.292	518.31
428.514	445.31
428.736	447.31
428.958	444.31
429.181	424.31
429.403	426.31
429.625	423.31
429.847	451.31
430.069	516.31
430.292	517.31
430.514	431.31
430.736	415.31
430.958	410.31
431.18	399.31
431.402	396.31
431.624	393.31
431.846	391.31
432.068	386.31
432.29	393.31
432.512	409.31
432.734	398.31
432.956	395.31
433.178	414.31
433.4	404.31
433.622	381.31
433.844	399.31
434.066	396.31
434.287	383.31
434.509	403.31
434.731	391.31
434.953	420.31
435.175	442.31
435.397	462.31
435.618	459.31
435.84	491.31
436.062	567.31
436.284	602.31
436.505	525.31
436.727	491.31
436.949	419.31
437.17	442.31
437.392	412.31
437.614	462.31
437.835	489.31
438.057	574.31
438.278	628.31
438.5	623.31
438.721	657.31
438.943	635.31
439.165	524.31
439.386	491.31
439.608	472.31
439.829	462.31
440.05	477.31
440.272	528.31
440.493	494.31
440.715	450.31
440.936	440.31
441.158	435.31
441.379	422.31
441.6	427.31
441.822	462.31
442.043	495.31
442.264	568.31
442.486	569.31
442.707	510.31
442.928	470.31
443.149	473.31
443.371	496.31
443.592	540.31
443.813	618.31
444.034	643.31
444.255	518.31
444.476	474.31
444.698	447.31
444.919	434.31
445.14	542.31
445.361	514.31
445.582	499.31
445.803	539.31
446.024	644.31
446.245	619.31
446.466	581.31
446.687	482.31
446.908	454.31
447.129	441.31
447.35	428.31
447.571	416.31
447.792	426.31
448.013	428.31
448.234	450.31
448.455	476.31
448.675	593.31
448.896	661.31
449.117	556.31
449.338	551.31
449.559	601.31
449.779	666.31
450	562.31
450.221	481.31
450.442	440.31
450.662	418.31
450.883	410.31
451.104	450.31
451.324	431.31
451.545	416.31
451.766	402.31
451.986	387.31
452.207	370.31
452.428	391.31
452.648	379.31
452.869	410.31
453.089	408.31
453.31	411.31
453.53	384.31
453.751	390.31
453.971	381.31
454.192	398.31
454.412	405.31
454.633	404.31
454.853	378.31
455.073	345.31
455.294	407.31
455.514	456.31
455.734	446.31
455.955	374.31
456.175	360.31
456.395	346.31
456.616	374.31
456.836	342.31
457.056	346.31
457.276	356.31
457.497	348.31
457.717	354.31
457.937	377.31
458.157	376.31
458.377	367.31
458.598	364.31
458.818	453.31
459.038	530.31
459.258	540.31
459.478	429.31
459.698	409.31
459.918	406.31
460.138	384.31
460.358	391.31
460.578	398.31
460.798	387.31
461.018	408.31
461.238	414.31
461.458	422.31
461.678	415.31
461.898	392.31
462.118	390.31
462.338	395.31
462.558	419.31
462.777	393.31
462.997	396.31
463.217	406.31
463.437	420.31
463.657	411.31
463.876	433.31
464.096	437.31
464.316	419.31
464.536	424.31
464.755	419.31
464.975	438.31
465.195	473.31
465.414	542.31
465.634	484.31
465.854	453.31
466.073	435.31
466.293	404.31
466.512	391.31
466.732	412.31
466.951	386.31
467.171	366.31
467.391	394.31
467.61	394.31
467.829	422.31
468.049	407.31
468.268	394.31
468.488	398.31
468.707	377.31
468.927	381.31
469.146	367.31
469.365	387.31
469.585	378.31
469.804	382.31
470.023	404.31
470.243	398.31
470.462	386.31
470.681	443.31
470.901	410.31
471.12	399.31
471.339	376.31
471.558	402.31
471.777	408.31
471.997	388.31
472.216	420.31
472.435	450.31
472.654	443.31
472.873	408.31
473.092	404.31
473.311	400.31
473.53	409.31
473.749	404.31
473.968	429.31
474.187	510.31
474.406	541.31
474.625	441.31
474.844	406.31
475.063	408.31
475.282	404.31
475.501	406.31
475.72	422.31
475.939	406.31
476.158	419.31
476.377	414.31
476.596	396.31
476.814	402.31
477.033	441.31
477.252	447.31
477.471	419.31
477.69	416.31
477.908	427.31
478.127	406.31
478.346	441.31
478.564	450.31
478.783	447.31
479.002	478.31
479.22	440.31
479.439	475.31
479.658	482.31
479.876	466.31
480.095	490.31
480.313	500.31
480.532	484.31
480.751	481.31
480.969	493.31
481.188	568.31
481.406	591.31
481.624	506.31
481.843	485.31
482.061	482.31
482.28	487.31
482.498	473.31
482.717	477.31
482.935	495.31
483.153	477.31
483.372	460.31
483.59	460.31
483.808	478.31
484.027	451.31
484.245	456.31
484.463	463.31
484.681	461.31
484.9	473.31
485.118	474.31
485.336	476.31
485.554	486.31
485.772	480.31
485.99	505.31
486.209	491.31
486.427	478.31
486.645	493.31
486.863	525.31
487.081	514.31
487.299	514.31
487.517	511.31
487.735	504.31
487.953	488.31
488.171	491.31
488.389	495.31
488.607	494.31
488.825	512.31
489.043	490.31
489.261	510.31
489.479	502.31
489.696	504.31
489.914	508.31
490.132	520.31
490.35	514.31
490.568	525.31
490.786	519.31
491.003	548.31
491.221	544.31
491.439	557.31
491.657	558.31
491.874	602.31
492.092	539.31
492.31	560.31
492.527	579.31
492.745	578.31
492.963	572.31
493.18	579.31
493.398	579.31
493.615	586.31
493.833	592.31
494.05	563.31
494.268	596.31
494.485	588.31
494.703	579.31
494.92	573.31
495.138	559.31
495.355	568.31
495.573	581.31
495.79	578.31
496.008	594.31
496.225	604.31
496.442	571.31
496.66	613.31
496.877	589.31
497.094	596.31
497.312	584.31
497.529	596.31
497.746	598.31
497.963	607.31
498.181	631.31
498.398	643.31
498.615	648.31
498.832	660.31
499.049	656.31
499.267	661.31
499.484	672.31
499.701	728.31
499.918	722.31
500.135	740.31
500.352	749.31
500.569	776.31
500.786	771.31
501.003	773.31
501.22	728.31
501.437	718.31
501.654	716.31
501.871	723.31
502.088	720.31
