Data from 1965.PennyLincolnUp.Lamp.En5.5.200Scan.071719.P1._HRD10591_14-10-59-912.txt Node
Date: Thu Jul 18 14:10:59 EDT 2019
User: cochatt
Spectrometer: HR+D1059
Trigger mode: 1
Integration Time (sec): 1.000000E-1
Scans to average: 1
Electric dark correction enabled: true
Nonlinearity correction enabled: false
Boxcar width: 0
XAxis mode: Wavelengths
Number of Pixels in Spectrum: 2048
>>>>>Begin Spectral Data<<<<<
223.165	-11.5
223.4	-11.5
223.635	-11.5
223.869	-24.5
224.104	-24.5
224.338	-7.5
224.573	-24.5
224.808	-15.5
225.042	-11.5
225.277	-3.5
225.511	0.5
225.746	2.5
225.98	-0.5
226.215	21.5
226.449	18.5
226.683	18.5
226.918	26.5
227.152	35.5
227.387	41.5
227.621	28.5
227.856	55.5
228.09	43.5
228.324	44.5
228.559	47.5
228.793	66.5
229.027	110.5
229.262	98.5
229.496	128.5
229.73	132.5
229.964	159.5
230.199	119.5
230.433	120.5
230.667	113.5
230.901	117.5
231.136	108.5
231.37	105.5
231.604	114.5
231.838	107.5
232.072	106.5
232.306	111.5
232.541	96.5
232.775	116.5
233.009	125.5
233.243	122.5
233.477	119.5
233.711	111.5
233.945	101.5
234.179	129.5
234.413	128.5
234.647	104.5
234.881	110.5
235.115	95.5
235.349	111.5
235.583	109.5
235.817	117.5
236.051	127.5
236.285	133.5
236.519	128.5
236.753	132.5
236.987	142.5
237.221	177.5
237.455	222.5
237.689	172.5
237.922	135.5
238.156	127.5
238.39	118.5
238.624	124.5
238.858	123.5
239.091	121.5
239.325	107.5
239.559	128.5
239.793	118.5
240.027	150.5
240.26	146.5
240.494	158.5
240.728	150.5
240.961	145.5
241.195	132.5
241.429	130.5
241.662	138.5
241.896	145.5
242.13	128.5
242.363	133.5
242.597	132.5
242.83	132.5
243.064	129.5
243.298	127.5
243.531	122.5
243.765	138.5
243.998	127.5
244.232	132.5
244.465	110.5
244.699	148.5
244.932	138.5
245.166	141.5
245.399	127.5
245.633	131.5
245.866	126.5
246.099	157.5
246.333	142.5
246.566	137.5
246.8	146.5
247.033	153.5
247.266	138.5
247.5	137.5
247.733	156.5
247.966	152.5
248.2	157.5
248.433	158.5
248.666	161.5
248.899	166.5
249.133	192.5
249.366	201.5
249.599	181.5
249.832	181.5
250.066	167.5
250.299	165.5
250.532	184.5
250.765	201.5
250.998	223.5
251.231	216.5
251.465	205.5
251.698	193.5
251.931	184.5
252.164	184.5
252.397	177.5
252.63	194.5
252.863	204.5
253.096	201.5
253.329	209.5
253.562	226.5
253.795	200.5
254.028	200.5
254.261	229.5
254.494	217.5
254.727	229.5
254.96	256.5
255.193	258.5
255.426	230.5
255.659	239.5
255.892	233.5
256.124	224.5
256.357	229.5
256.59	228.5
256.823	209.5
257.056	202.5
257.289	208.5
257.521	199.5
257.754	196.5
257.987	201.5
258.22	198.5
258.452	208.5
258.685	190.5
258.918	183.5
259.151	187.5
259.383	218.5
259.616	207.5
259.849	209.5
260.081	209.5
260.314	229.5
260.547	239.5
260.779	239.5
261.012	233.5
261.244	208.5
261.477	222.5
261.71	200.5
261.942	230.5
262.175	225.5
262.407	209.5
262.64	204.5
262.872	208.5
263.105	202.5
263.337	203.5
263.57	202.5
263.802	191.5
264.035	216.5
264.267	200.5
264.499	200.5
264.732	223.5
264.964	188.5
265.197	186.5
265.429	201.5
265.661	202.5
265.894	197.5
266.126	189.5
266.358	196.5
266.591	209.5
266.823	218.5
267.055	217.5
267.287	223.5
267.52	226.5
267.752	218.5
267.984	218.5
268.216	215.5
268.448	214.5
268.681	226.5
268.913	219.5
269.145	254.5
269.377	262.5
269.609	261.5
269.841	250.5
270.073	266.5
270.306	272.5
270.538	286.5
270.77	301.5
271.002	289.5
271.234	281.5
271.466	273.5
271.698	301.5
271.93	287.5
272.162	312.5
272.394	302.5
272.626	290.5
272.858	284.5
273.09	267.5
273.322	259.5
273.553	255.5
273.785	244.5
274.017	263.5
274.249	240.5
274.481	228.5
274.713	242.5
274.945	244.5
275.176	250.5
275.408	245.5
275.64	261.5
275.872	258.5
276.104	264.5
276.335	246.5
276.567	231.5
276.799	274.5
277.031	301.5
277.262	289.5
277.494	304.5
277.726	283.5
277.957	269.5
278.189	258.5
278.421	237.5
278.652	252.5
278.884	264.5
279.115	245.5
279.347	254.5
279.579	233.5
279.81	257.5
280.042	239.5
280.273	253.5
280.505	227.5
280.736	241.5
280.968	252.5
281.199	249.5
281.431	246.5
281.662	260.5
281.894	239.5
282.125	246.5
282.356	275.5
282.588	301.5
282.819	295.5
283.051	244.5
283.282	252.5
283.513	249.5
283.745	268.5
283.976	268.5
284.207	257.5
284.439	256.5
284.67	253.5
284.901	238.5
285.132	257.5
285.364	250.5
285.595	259.5
285.826	264.5
286.057	259.5
286.288	241.5
286.52	261.5
286.751	264.5
286.982	242.5
287.213	254.5
287.444	264.5
287.675	252.5
287.906	286.5
288.138	279.5
288.369	293.5
288.6	249.5
288.831	248.5
289.062	268.5
289.293	276.5
289.524	260.5
289.755	267.5
289.986	262.5
290.217	258.5
290.448	249.5
290.679	261.5
290.91	258.5
291.141	260.5
291.371	263.5
291.602	269.5
291.833	267.5
292.064	242.5
292.295	262.5
292.526	271.5
292.757	268.5
292.987	258.5
293.218	258.5
293.449	256.5
293.68	263.5
293.91	266.5
294.141	246.5
294.372	272.5
294.603	247.5
294.833	265.5
295.064	280.5
295.295	275.5
295.525	269.5
295.756	268.5
295.987	271.5
296.217	302.5
296.448	322.5
296.679	285.5
296.909	270.5
297.14	272.5
297.37	269.5
297.601	268.5
297.831	271.5
298.062	286.5
298.292	300.5
298.523	279.5
298.753	277.5
298.984	264.5
299.214	277.5
299.445	273.5
299.675	275.5
299.905	298.5
300.136	292.5
300.366	285.5
300.597	267.5
300.827	285.5
301.057	295.5
301.288	308.5
301.518	293.5
301.748	299.5
301.979	291.5
302.209	308.5
302.439	309.5
302.669	295.5
302.9	285.5
303.13	297.5
303.36	303.5
303.59	296.5
303.82	298.5
304.051	289.5
304.281	294.5
304.511	305.5
304.741	298.5
304.971	289.5
305.201	314.5
305.431	302.5
305.661	292.5
305.891	303.5
306.121	286.5
306.352	308.5
306.582	304.5
306.812	312.5
307.042	298.5
307.272	312.5
307.502	299.5
307.731	330.5
307.961	313.5
308.191	297.5
308.421	312.5
308.651	310.5
308.881	308.5
309.111	316.5
309.341	336.5
309.571	334.5
309.8	321.5
310.03	344.5
310.26	360.5
310.49	361.5
310.72	342.5
310.949	363.5
311.179	370.5
311.409	363.5
311.639	358.5
311.868	354.5
312.098	351.5
312.328	360.5
312.557	403.5
312.787	390.5
313.017	390.5
313.246	350.5
313.476	347.5
313.706	340.5
313.935	356.5
314.165	356.5
314.394	373.5
314.624	380.5
314.853	368.5
315.083	365.5
315.312	353.5
315.542	365.5
315.771	344.5
316.001	354.5
316.23	357.5
316.46	350.5
316.689	339.5
316.919	364.5
317.148	388.5
317.377	372.5
317.607	366.5
317.836	351.5
318.065	348.5
318.295	358.5
318.524	343.5
318.753	347.5
318.983	349.5
319.212	352.5
319.441	365.5
319.67	380.5
319.9	362.5
320.129	356.5
320.358	349.5
320.587	361.5
320.816	380.5
321.046	390.5
321.275	378.5
321.504	363.5
321.733	373.5
321.962	390.5
322.191	409.5
322.42	408.5
322.649	434.5
322.878	453.5
323.108	454.5
323.337	470.5
323.566	502.5
323.795	540.5
324.024	590.5
324.253	728.5
324.482	1054.5
324.71	1663.5
324.939	2308.5
325.168	1882.5
325.397	988.5
325.626	701.5
325.855	547.5
326.084	531.5
326.313	486.5
326.542	497.5
326.77	564.5
326.999	686.5
327.228	928.5
327.457	1439.5
327.686	1668.5
327.914	1134.5
328.143	748.5
328.372	664.5
328.6	605.5
328.829	573.5
329.058	595.5
329.287	578.5
329.515	538.5
329.744	505.5
329.972	518.5
330.201	533.5
330.43	584.5
330.658	599.5
330.887	621.5
331.115	599.5
331.344	532.5
331.572	465.5
331.801	466.5
332.03	481.5
332.258	464.5
332.486	446.5
332.715	424.5
332.943	417.5
333.172	431.5
333.4	426.5
333.629	430.5
333.857	441.5
334.085	464.5
334.314	482.5
334.542	511.5
334.771	534.5
334.999	484.5
335.227	445.5
335.455	420.5
335.684	422.5
335.912	394.5
336.14	414.5
336.369	407.5
336.597	449.5
336.825	410.5
337.053	424.5
337.281	406.5
337.51	407.5
337.738	420.5
337.966	413.5
338.194	408.5
338.422	403.5
338.65	425.5
338.878	429.5
339.106	391.5
339.334	410.5
339.562	408.5
339.79	410.5
340.018	393.5
340.246	400.5
340.474	412.5
340.702	400.5
340.93	413.5
341.158	390.5
341.386	401.5
341.614	382.5
341.842	398.5
342.07	396.5
342.298	401.5
342.526	397.5
342.754	378.5
342.981	375.5
343.209	374.5
343.437	385.5
343.665	382.5
343.893	386.5
344.12	397.5
344.348	394.5
344.576	397.5
344.804	423.5
345.031	418.5
345.259	428.5
345.487	415.5
345.714	377.5
345.942	412.5
346.17	381.5
346.397	372.5
346.625	397.5
346.853	380.5
347.08	390.5
347.308	388.5
347.535	383.5
347.763	403.5
347.99	388.5
348.218	400.5
348.445	389.5
348.673	394.5
348.9	392.5
349.128	392.5
349.355	382.5
349.583	375.5
349.81	374.5
350.037	369.5
350.265	377.5
350.492	360.5
350.72	367.5
350.947	378.5
351.174	404.5
351.402	390.5
351.629	386.5
351.856	394.5
352.083	397.5
352.311	404.5
352.538	405.5
352.765	414.5
352.992	402.5
353.22	380.5
353.447	392.5
353.674	383.5
353.901	367.5
354.128	362.5
354.355	350.5
354.583	339.5
354.81	368.5
355.037	349.5
355.264	352.5
355.491	365.5
355.718	338.5
355.945	342.5
356.172	354.5
356.399	346.5
356.626	338.5
356.853	342.5
357.08	346.5
357.307	361.5
357.534	343.5
357.761	339.5
357.988	346.5
358.215	350.5
358.441	357.5
358.668	345.5
358.895	356.5
359.122	363.5
359.349	390.5
359.576	372.5
359.802	413.5
360.029	453.5
360.256	463.5
360.483	448.5
360.709	400.5
360.936	402.5
361.163	398.5
361.39	401.5
361.616	413.5
361.843	410.5
362.07	372.5
362.296	395.5
362.523	380.5
362.749	396.5
362.976	401.5
363.203	358.5
363.429	380.5
363.656	390.5
363.882	354.5
364.109	378.5
364.335	378.5
364.562	373.5
364.788	374.5
365.015	353.5
365.241	346.5
365.468	338.5
365.694	392.5
365.92	380.5
366.147	367.5
366.373	376.5
366.599	348.5
366.826	356.5
367.052	355.5
367.278	360.5
367.505	350.5
367.731	366.5
367.957	372.5
368.184	357.5
368.41	374.5
368.636	388.5
368.862	396.5
369.089	382.5
369.315	358.5
369.541	363.5
369.767	357.5
369.993	372.5
370.219	360.5
370.445	361.5
370.672	382.5
370.898	357.5
371.124	350.5
371.35	349.5
371.576	350.5
371.802	369.5
372.028	349.5
372.254	358.5
372.48	353.5
372.706	350.5
372.932	368.5
373.158	365.5
373.384	350.5
373.61	350.5
373.835	353.5
374.061	369.5
374.287	357.5
374.513	356.5
374.739	363.5
374.965	366.5
375.191	345.5
375.416	357.5
375.642	374.5
375.868	364.5
376.094	358.5
376.319	345.5
376.545	364.5
376.771	353.5
376.997	359.5
377.222	358.5
377.448	357.5
377.674	342.5
377.899	354.5
378.125	348.5
378.35	366.5
378.576	372.5
378.802	343.5
379.027	344.5
379.253	356.5
379.478	353.5
379.704	357.5
379.929	361.5
380.155	360.5
380.38	349.5
380.606	344.5
380.831	350.5
381.057	341.5
381.282	352.5
381.507	366.5
381.733	366.5
381.958	366.5
382.184	359.5
382.409	370.5
382.634	366.5
382.86	378.5
383.085	363.5
383.31	366.5
383.535	358.5
383.761	362.5
383.986	356.5
384.211	341.5
384.436	368.5
384.662	383.5
384.887	378.5
385.112	368.5
385.337	365.5
385.562	388.5
385.787	374.5
386.013	392.5
386.238	384.5
386.463	376.5
386.688	381.5
386.913	381.5
387.138	391.5
387.363	377.5
387.588	370.5
387.813	390.5
388.038	391.5
388.263	382.5
388.488	384.5
388.713	392.5
388.938	398.5
389.163	365.5
389.387	378.5
389.612	370.5
389.837	380.5
390.062	384.5
390.287	412.5
390.512	392.5
390.736	396.5
390.961	377.5
391.186	378.5
391.411	374.5
391.636	370.5
391.86	392.5
392.085	394.5
392.31	404.5
392.534	406.5
392.759	382.5
392.984	385.5
393.208	386.5
393.433	382.5
393.658	399.5
393.882	375.5
394.107	381.5
394.331	383.5
394.556	392.5
394.78	390.5
395.005	397.5
395.229	394.5
395.454	390.5
395.678	400.5
395.903	396.5
396.127	424.5
396.352	403.5
396.576	390.5
396.801	384.5
397.025	392.5
397.249	395.5
397.474	399.5
397.698	407.5
397.922	419.5
398.147	444.5
398.371	416.5
398.595	424.5
398.82	426.5
399.044	442.5
399.268	438.5
399.492	471.5
399.717	466.5
399.941	506.5
400.165	522.5
400.389	522.5
400.613	492.5
400.837	453.5
401.062	430.5
401.286	422.5
401.51	434.5
401.734	432.5
401.958	441.5
402.182	427.5
402.406	456.5
402.63	465.5
402.854	449.5
403.078	445.5
403.302	447.5
403.526	441.5
403.75	460.5
403.974	462.5
404.198	453.5
404.422	456.5
404.645	460.5
404.869	466.5
405.093	484.5
405.317	509.5
405.541	554.5
405.765	497.5
405.988	482.5
406.212	472.5
406.436	503.5
406.66	509.5
406.883	525.5
407.107	512.5
407.331	542.5
407.555	595.5
407.778	586.5
408.002	540.5
408.226	528.5
408.449	510.5
408.673	490.5
408.896	538.5
409.12	535.5
409.344	522.5
409.567	469.5
409.791	471.5
410.014	458.5
410.238	461.5
410.461	466.5
410.685	469.5
410.908	480.5
411.132	502.5
411.355	515.5
411.578	500.5
411.802	462.5
412.025	457.5
412.249	469.5
412.472	483.5
412.695	520.5
412.919	491.5
413.142	453.5
413.365	475.5
413.589	451.5
413.812	428.5
414.035	446.5
414.258	414.5
414.482	429.5
414.705	424.5
414.928	424.5
415.151	425.5
415.374	395.5
415.597	412.5
415.821	409.5
416.044	422.5
416.267	423.5
416.49	406.5
416.713	420.5
416.936	410.5
417.159	426.5
417.382	423.5
417.605	433.5
417.828	448.5
418.051	470.5
418.274	444.5
418.497	446.5
418.72	425.5
418.943	415.5
419.166	438.5
419.389	458.5
419.611	441.5
419.834	439.5
420.057	449.5
420.28	441.5
420.503	428.5
420.726	471.5
420.948	482.5
421.171	482.5
421.394	513.5
421.617	463.5
421.839	457.5
422.062	466.5
422.285	452.5
422.507	519.5
422.73	554.5
422.953	528.5
423.175	497.5
423.398	478.5
423.621	448.5
423.843	482.5
424.066	480.5
424.288	476.5
424.511	484.5
424.733	550.5
424.956	630.5
425.178	609.5
425.401	604.5
425.623	592.5
425.846	524.5
426.068	490.5
426.291	487.5
426.513	505.5
426.735	509.5
426.958	535.5
427.18	620.5
427.402	744.5
427.625	808.5
427.847	736.5
428.069	632.5
428.292	542.5
428.514	476.5
428.736	459.5
428.958	482.5
429.181	468.5
429.403	492.5
429.625	452.5
429.847	515.5
430.069	564.5
430.292	538.5
430.514	453.5
430.736	452.5
430.958	440.5
431.18	423.5
431.402	426.5
431.624	416.5
431.846	432.5
432.068	418.5
432.29	420.5
432.512	420.5
432.734	431.5
432.956	426.5
433.178	429.5
433.4	444.5
433.622	433.5
433.844	434.5
434.066	424.5
434.287	454.5
434.509	443.5
434.731	443.5
434.953	435.5
435.175	445.5
435.397	484.5
435.618	495.5
435.84	524.5
436.062	608.5
436.284	682.5
436.505	569.5
436.727	509.5
436.949	473.5
437.17	473.5
437.392	455.5
437.614	465.5
437.835	522.5
438.057	597.5
438.278	712.5
438.5	666.5
438.721	728.5
438.943	697.5
439.165	583.5
439.386	528.5
439.608	510.5
439.829	506.5
440.05	526.5
440.272	584.5
440.493	554.5
440.715	495.5
440.936	493.5
441.158	479.5
441.379	464.5
441.6	472.5
441.822	521.5
442.043	531.5
442.264	610.5
442.486	645.5
442.707	551.5
442.928	497.5
443.149	518.5
443.371	543.5
443.592	574.5
443.813	647.5
444.034	699.5
444.255	582.5
444.476	534.5
444.698	478.5
444.919	470.5
445.14	559.5
445.361	544.5
445.582	549.5
445.803	591.5
446.024	684.5
446.245	694.5
446.466	620.5
446.687	544.5
446.908	496.5
447.129	487.5
447.35	463.5
447.571	472.5
447.792	448.5
448.013	463.5
448.234	487.5
448.455	519.5
448.675	643.5
448.896	704.5
449.117	616.5
449.338	570.5
449.559	686.5
449.779	740.5
450	621.5
450.221	514.5
450.442	478.5
450.662	474.5
450.883	467.5
451.104	474.5
451.324	481.5
451.545	429.5
451.766	439.5
451.986	408.5
452.207	408.5
452.428	415.5
452.648	411.5
452.869	414.5
453.089	417.5
453.31	412.5
453.53	410.5
453.751	422.5
453.971	438.5
454.192	451.5
454.412	425.5
454.633	431.5
454.853	392.5
455.073	402.5
455.294	458.5
455.514	502.5
455.734	477.5
455.955	401.5
456.175	402.5
456.395	379.5
456.616	385.5
456.836	387.5
457.056	386.5
457.276	392.5
457.497	375.5
457.717	389.5
457.937	391.5
458.157	396.5
458.377	417.5
458.598	462.5
458.818	514.5
459.038	587.5
459.258	577.5
459.478	479.5
459.698	425.5
459.918	432.5
460.138	425.5
460.358	432.5
460.578	431.5
460.798	438.5
461.018	442.5
461.238	424.5
461.458	454.5
461.678	430.5
461.898	424.5
462.118	421.5
462.338	414.5
462.558	433.5
462.777	442.5
462.997	460.5
463.217	458.5
463.437	454.5
463.657	460.5
463.876	449.5
464.096	452.5
464.316	440.5
464.536	450.5
464.755	474.5
464.975	463.5
465.195	544.5
465.414	608.5
465.634	533.5
465.854	463.5
466.073	444.5
466.293	438.5
466.512	423.5
466.732	426.5
466.951	427.5
467.171	419.5
467.391	435.5
467.61	429.5
467.829	468.5
468.049	440.5
468.268	421.5
468.488	417.5
468.707	421.5
468.927	406.5
469.146	400.5
469.365	397.5
469.585	410.5
469.804	430.5
470.023	430.5
470.243	428.5
470.462	442.5
470.681	472.5
470.901	430.5
471.12	425.5
471.339	438.5
471.558	424.5
471.777	436.5
471.997	428.5
472.216	462.5
472.435	477.5
472.654	465.5
472.873	454.5
473.092	428.5
473.311	418.5
473.53	432.5
473.749	457.5
473.968	493.5
474.187	586.5
474.406	584.5
474.625	492.5
474.844	406.5
475.063	415.5
475.282	422.5
475.501	438.5
475.72	430.5
475.939	436.5
476.158	417.5
476.377	452.5
476.596	445.5
476.814	452.5
477.033	469.5
477.252	441.5
477.471	462.5
477.69	461.5
477.908	446.5
478.127	462.5
478.346	461.5
478.564	458.5
478.783	454.5
479.002	466.5
479.22	481.5
479.439	496.5
479.658	510.5
479.876	529.5
480.095	502.5
480.313	548.5
480.532	545.5
480.751	520.5
480.969	552.5
481.188	602.5
481.406	645.5
481.624	587.5
481.843	545.5
482.061	542.5
482.28	520.5
482.498	512.5
482.717	503.5
482.935	528.5
483.153	524.5
483.372	517.5
483.59	521.5
483.808	507.5
484.027	510.5
484.245	490.5
484.463	500.5
484.681	509.5
484.9	533.5
485.118	509.5
485.336	532.5
485.554	504.5
485.772	542.5
485.99	508.5
486.209	517.5
486.427	503.5
486.645	549.5
486.863	552.5
487.081	564.5
487.299	540.5
487.517	529.5
487.735	529.5
487.953	553.5
488.171	537.5
488.389	523.5
488.607	537.5
488.825	536.5
489.043	529.5
489.261	550.5
489.479	533.5
489.696	559.5
489.914	546.5
490.132	541.5
490.35	552.5
490.568	555.5
490.786	582.5
491.003	593.5
491.221	586.5
491.439	617.5
491.657	604.5
491.874	632.5
492.092	644.5
492.31	615.5
492.527	624.5
492.745	618.5
492.963	632.5
493.18	633.5
493.398	619.5
493.615	654.5
493.833	666.5
494.05	650.5
494.268	647.5
494.485	625.5
494.703	635.5
494.92	646.5
495.138	645.5
495.355	625.5
495.573	637.5
495.79	654.5
496.008	663.5
496.225	644.5
496.442	630.5
496.66	651.5
496.877	641.5
497.094	640.5
497.312	654.5
497.529	672.5
497.746	670.5
497.963	650.5
498.181	688.5
498.398	678.5
498.615	704.5
498.832	704.5
499.049	709.5
499.267	701.5
499.484	731.5
499.701	736.5
499.918	741.5
500.135	788.5
500.352	805.5
500.569	838.5
500.786	809.5
501.003	803.5
501.22	786.5
501.437	776.5
501.654	765.5
501.871	778.5
502.088	743.5
502.305	721.5
502.522	707.5
502.739	696.5
502.956	687.5
503.172	668.5
503.389	668.5
503.606	685.5
503.823	668.5
504.04	650.5
504.256	665.5
504.473	637.5
504.69	632.5
504.907	637.5
505.123	617.5
505.34	650.5
505.557	606.5
505.773	626.5
505.99	624.5
506.207	635.5
506.423	652.5
506.64	632.5
506.856	618.5
507.073	607.5
507.289	612.5
507.506	604.5
507.722	620.5
507.939	641.5
508.155	620.5
508.372	608.5
508.588	589.5
508.805	569.5
509.021	600.5
509.238	601.5
509.454	596.5
509.67	599.5
509.887	604.5
510.103	588.5
510.319	637.5
510.536	743.5
510.752	1314.5
510.968	992.5
511.184	656.5
511.401	588.5
511.617	593.5
511.833	590.5
512.049	586.5
512.265	575.5
512.481	563.5
512.698	572.5
512.914	564.5
513.13	561.5
513.346	558.5
513.562	578.5
513.778	588.5
513.994	593.5
514.21	613.5
514.426	622.5
514.642	644.5
514.858	694.5
515.074	732.5
515.29	939.5
515.506	1396.5
515.721	1102.5
515.937	718.5
516.153	654.5
516.369	623.5
516.585	593.5
516.801	598.5
517.016	582.5
517.232	601.5
517.448	587.5
517.664	572.5
517.879	575.5
518.095	560.5
518.311	570.5
518.527	549.5
518.742	565.5
518.958	575.5
519.173	577.5
519.389	545.5
519.605	544.5
519.82	564.5
