Data from 1965.PennyLincolnUp.Lamp.En5.5.200Scan.071719.P1._HRD10591_14-10-48-912.txt Node
Date: Thu Jul 18 14:10:48 EDT 2019
User: cochatt
Spectrometer: HR+D1059
Trigger mode: 1
Integration Time (sec): 1.000000E-1
Scans to average: 1
Electric dark correction enabled: true
Nonlinearity correction enabled: false
Boxcar width: 0
XAxis mode: Wavelengths
Number of Pixels in Spectrum: 2048
>>>>>Begin Spectral Data<<<<<
223.165	-20.38
223.4	-20.38
223.635	-20.38
223.869	-20.38
224.104	-9.38
224.338	-17.38
224.573	-13.38
224.808	-26.38
225.042	-5.38
225.277	-5.38
225.511	7.62
225.746	13.62
225.98	-2.38
226.215	6.62
226.449	16.62
226.683	13.62
226.918	32.62
227.152	29.62
227.387	20.62
227.621	33.62
227.856	38.62
228.09	40.62
228.324	44.62
228.559	55.62
228.793	66.62
229.027	97.62
229.262	105.62
229.496	115.62
229.73	136.62
229.964	148.62
230.199	132.62
230.433	106.62
230.667	90.62
230.901	110.62
231.136	103.62
231.37	99.62
231.604	106.62
231.838	106.62
232.072	102.62
232.306	98.62
232.541	102.62
232.775	102.62
233.009	106.62
233.243	108.62
233.477	117.62
233.711	102.62
233.945	119.62
234.179	94.62
234.413	104.62
234.647	112.62
234.881	106.62
235.115	106.62
235.349	119.62
235.583	96.62
235.817	113.62
236.051	98.62
236.285	123.62
236.519	120.62
236.753	132.62
236.987	138.62
237.221	184.62
237.455	201.62
237.689	182.62
237.922	134.62
238.156	119.62
238.39	127.62
238.624	114.62
238.858	121.62
239.091	110.62
239.325	127.62
239.559	118.62
239.793	118.62
240.027	139.62
240.26	139.62
240.494	167.62
240.728	148.62
240.961	137.62
241.195	144.62
241.429	130.62
241.662	117.62
241.896	137.62
242.13	124.62
242.363	124.62
242.597	134.62
242.83	138.62
243.064	123.62
243.298	127.62
243.531	129.62
243.765	134.62
243.998	124.62
244.232	122.62
244.465	133.62
244.699	124.62
244.932	126.62
245.166	145.62
245.399	151.62
245.633	143.62
245.866	136.62
246.099	134.62
246.333	128.62
246.566	125.62
246.8	140.62
247.033	140.62
247.266	153.62
247.5	155.62
247.733	157.62
247.966	146.62
248.2	144.62
248.433	162.62
248.666	170.62
248.899	169.62
249.133	190.62
249.366	182.62
249.599	194.62
249.832	178.62
250.066	177.62
250.299	174.62
250.532	180.62
250.765	192.62
250.998	200.62
251.231	211.62
251.465	188.62
251.698	191.62
251.931	168.62
252.164	179.62
252.397	178.62
252.63	188.62
252.863	183.62
253.096	179.62
253.329	218.62
253.562	196.62
253.795	213.62
254.028	197.62
254.261	189.62
254.494	200.62
254.727	222.62
254.96	246.62
255.193	258.62
255.426	228.62
255.659	230.62
255.892	226.62
256.124	214.62
256.357	200.62
256.59	209.62
256.823	209.62
257.056	184.62
257.289	200.62
257.521	205.62
257.754	189.62
257.987	195.62
258.22	188.62
258.452	180.62
258.685	199.62
258.918	184.62
259.151	187.62
259.383	196.62
259.616	197.62
259.849	201.62
260.081	211.62
260.314	234.62
260.547	219.62
260.779	220.62
261.012	206.62
261.244	208.62
261.477	210.62
261.71	211.62
261.942	210.62
262.175	205.62
262.407	205.62
262.64	199.62
262.872	208.62
263.105	184.62
263.337	198.62
263.57	192.62
263.802	197.62
264.035	178.62
264.267	194.62
264.499	180.62
264.732	180.62
264.964	180.62
265.197	200.62
265.429	199.62
265.661	183.62
265.894	177.62
266.126	190.62
266.358	189.62
266.591	195.62
266.823	196.62
267.055	203.62
267.287	206.62
267.52	216.62
267.752	194.62
267.984	201.62
268.216	218.62
268.448	213.62
268.681	220.62
268.913	216.62
269.145	223.62
269.377	244.62
269.609	258.62
269.841	224.62
270.073	258.62
270.306	247.62
270.538	287.62
270.77	280.62
271.002	262.62
271.234	270.62
271.466	273.62
271.698	283.62
271.93	315.62
272.162	281.62
272.394	277.62
272.626	267.62
272.858	280.62
273.09	256.62
273.322	235.62
273.553	222.62
273.785	206.62
274.017	252.62
274.249	215.62
274.481	237.62
274.713	236.62
274.945	239.62
275.176	232.62
275.408	236.62
275.64	224.62
275.872	236.62
276.104	240.62
276.335	238.62
276.567	250.62
276.799	277.62
277.031	284.62
277.262	269.62
277.494	277.62
277.726	258.62
277.957	243.62
278.189	247.62
278.421	233.62
278.652	234.62
278.884	240.62
279.115	227.62
279.347	229.62
279.579	234.62
279.81	245.62
280.042	225.62
280.273	238.62
280.505	245.62
280.736	238.62
280.968	221.62
281.199	224.62
281.431	227.62
281.662	225.62
281.894	241.62
282.125	232.62
282.356	254.62
282.588	274.62
282.819	260.62
283.051	238.62
283.282	247.62
283.513	225.62
283.745	258.62
283.976	247.62
284.207	236.62
284.439	240.62
284.67	246.62
284.901	258.62
285.132	217.62
285.364	260.62
285.595	242.62
285.826	246.62
286.057	236.62
286.288	228.62
286.52	246.62
286.751	253.62
286.982	241.62
287.213	249.62
287.444	252.62
287.675	237.62
287.906	263.62
288.138	251.62
288.369	256.62
288.6	269.62
288.831	242.62
289.062	244.62
289.293	245.62
289.524	260.62
289.755	237.62
289.986	236.62
290.217	256.62
290.448	247.62
290.679	230.62
290.91	254.62
291.141	261.62
291.371	248.62
291.602	240.62
291.833	235.62
292.064	247.62
292.295	253.62
292.526	246.62
292.757	243.62
292.987	258.62
293.218	237.62
293.449	264.62
293.68	239.62
293.91	264.62
294.141	260.62
294.372	232.62
294.603	246.62
294.833	256.62
295.064	259.62
295.295	264.62
295.525	257.62
295.756	273.62
295.987	263.62
296.217	269.62
296.448	303.62
296.679	266.62
296.909	256.62
297.14	264.62
297.37	249.62
297.601	248.62
297.831	277.62
298.062	260.62
298.292	270.62
298.523	269.62
298.753	270.62
298.984	262.62
299.214	267.62
299.445	281.62
299.675	276.62
299.905	281.62
300.136	264.62
300.366	278.62
300.597	279.62
300.827	278.62
301.057	282.62
301.288	278.62
301.518	288.62
301.748	287.62
301.979	269.62
302.209	281.62
302.439	287.62
302.669	290.62
302.9	264.62
303.13	273.62
303.36	277.62
303.59	276.62
303.82	300.62
304.051	318.62
304.281	299.62
304.511	274.62
304.741	283.62
304.971	264.62
305.201	285.62
305.431	292.62
305.661	291.62
305.891	293.62
306.121	277.62
306.352	293.62
306.582	318.62
306.812	295.62
307.042	293.62
307.272	304.62
307.502	284.62
307.731	273.62
307.961	291.62
308.191	286.62
308.421	289.62
308.651	291.62
308.881	282.62
309.111	300.62
309.341	298.62
309.571	324.62
309.8	310.62
310.03	335.62
310.26	326.62
310.49	324.62
310.72	365.62
310.949	363.62
311.179	363.62
311.409	353.62
311.639	321.62
311.868	327.62
312.098	331.62
312.328	356.62
312.557	357.62
312.787	375.62
313.017	375.62
313.246	354.62
313.476	338.62
313.706	346.62
313.935	330.62
314.165	349.62
314.394	370.62
314.624	349.62
314.853	347.62
315.083	337.62
315.312	333.62
315.542	337.62
315.771	337.62
316.001	315.62
316.23	333.62
316.46	325.62
316.689	331.62
316.919	338.62
317.148	346.62
317.377	353.62
317.607	339.62
317.836	348.62
318.065	341.62
318.295	336.62
318.524	316.62
318.753	318.62
318.983	358.62
319.212	324.62
319.441	338.62
319.67	349.62
319.9	345.62
320.129	327.62
320.358	333.62
320.587	340.62
320.816	344.62
321.046	350.62
321.275	352.62
321.504	356.62
321.733	362.62
321.962	369.62
322.191	384.62
322.42	388.62
322.649	419.62
322.878	432.62
323.108	440.62
323.337	425.62
323.566	454.62
323.795	500.62
324.024	562.62
324.253	705.62
324.482	1026.62
324.71	1594.62
324.939	2186.62
325.168	1848.62
325.397	959.62
325.626	644.62
325.855	535.62
326.084	498.62
326.313	477.62
326.542	501.62
326.77	560.62
326.999	655.62
327.228	925.62
327.457	1372.62
327.686	1589.62
327.914	1058.62
328.143	704.62
328.372	603.62
328.6	566.62
328.829	532.62
329.058	571.62
329.287	576.62
329.515	520.62
329.744	497.62
329.972	503.62
330.201	504.62
330.43	547.62
330.658	572.62
330.887	613.62
331.115	562.62
331.344	489.62
331.572	443.62
331.801	442.62
332.03	446.62
332.258	407.62
332.486	410.62
332.715	410.62
332.943	416.62
333.172	410.62
333.4	408.62
333.629	418.62
333.857	438.62
334.085	434.62
334.314	456.62
334.542	493.62
334.771	501.62
334.999	453.62
335.227	439.62
335.455	417.62
335.684	404.62
335.912	387.62
336.14	404.62
336.369	389.62
336.597	395.62
336.825	403.62
337.053	400.62
337.281	386.62
337.51	381.62
337.738	354.62
337.966	390.62
338.194	391.62
338.422	404.62
338.65	381.62
338.878	387.62
339.106	352.62
339.334	376.62
339.562	354.62
339.79	379.62
340.018	376.62
340.246	380.62
340.474	387.62
340.702	383.62
340.93	382.62
341.158	373.62
341.386	374.62
341.614	382.62
341.842	371.62
342.07	384.62
342.298	366.62
342.526	366.62
342.754	361.62
342.981	368.62
343.209	346.62
343.437	361.62
343.665	377.62
343.893	390.62
344.12	374.62
344.348	355.62
344.576	375.62
344.804	381.62
345.031	389.62
345.259	411.62
345.487	380.62
345.714	399.62
345.942	377.62
346.17	356.62
346.397	378.62
346.625	363.62
346.853	383.62
347.08	350.62
347.308	374.62
347.535	370.62
347.763	371.62
347.99	371.62
348.218	373.62
348.445	384.62
348.673	391.62
348.9	390.62
349.128	377.62
349.355	367.62
349.583	358.62
349.81	356.62
350.037	349.62
350.265	349.62
350.492	353.62
350.72	354.62
350.947	359.62
351.174	366.62
351.402	404.62
351.629	386.62
351.856	378.62
352.083	371.62
352.311	384.62
352.538	403.62
352.765	384.62
352.992	386.62
353.22	359.62
353.447	355.62
353.674	339.62
353.901	352.62
354.128	356.62
354.355	360.62
354.583	346.62
354.81	348.62
355.037	362.62
355.264	331.62
355.491	333.62
355.718	331.62
355.945	344.62
356.172	352.62
356.399	338.62
356.626	329.62
356.853	326.62
357.08	342.62
357.307	333.62
357.534	342.62
357.761	341.62
357.988	331.62
358.215	326.62
358.441	344.62
358.668	336.62
358.895	339.62
359.122	343.62
359.349	347.62
359.576	354.62
359.802	386.62
360.029	416.62
360.256	440.62
360.483	407.62
360.709	396.62
360.936	382.62
361.163	390.62
361.39	389.62
361.616	380.62
361.843	374.62
362.07	364.62
362.296	384.62
362.523	356.62
362.749	374.62
362.976	384.62
363.203	344.62
363.429	331.62
363.656	358.62
363.882	360.62
364.109	356.62
364.335	343.62
364.562	345.62
364.788	342.62
365.015	353.62
365.241	363.62
365.468	341.62
365.694	369.62
365.92	357.62
366.147	339.62
366.373	340.62
366.599	333.62
366.826	339.62
367.052	361.62
367.278	332.62
367.505	337.62
367.731	344.62
367.957	352.62
368.184	337.62
368.41	360.62
368.636	367.62
368.862	360.62
369.089	368.62
369.315	332.62
369.541	332.62
369.767	350.62
369.993	349.62
370.219	361.62
370.445	339.62
370.672	332.62
370.898	334.62
371.124	342.62
371.35	328.62
371.576	351.62
371.802	320.62
372.028	334.62
372.254	341.62
372.48	344.62
372.706	323.62
372.932	355.62
373.158	334.62
373.384	345.62
373.61	340.62
373.835	330.62
374.061	344.62
374.287	352.62
374.513	361.62
374.739	331.62
374.965	331.62
375.191	356.62
375.416	324.62
375.642	350.62
375.868	337.62
376.094	359.62
376.319	324.62
376.545	333.62
376.771	323.62
376.997	340.62
377.222	330.62
377.448	334.62
377.674	338.62
377.899	330.62
378.125	321.62
378.35	336.62
378.576	345.62
378.802	323.62
379.027	338.62
379.253	353.62
379.478	337.62
379.704	306.62
379.929	337.62
380.155	339.62
380.38	342.62
380.606	337.62
380.831	327.62
381.057	340.62
381.282	327.62
381.507	333.62
381.733	340.62
381.958	326.62
382.184	343.62
382.409	372.62
382.634	338.62
382.86	345.62
383.085	347.62
383.31	327.62
383.535	348.62
383.761	354.62
383.986	359.62
384.211	336.62
384.436	360.62
384.662	360.62
384.887	349.62
385.112	346.62
385.337	358.62
385.562	370.62
385.787	348.62
386.013	368.62
386.238	374.62
386.463	370.62
386.688	355.62
386.913	352.62
387.138	377.62
387.363	384.62
387.588	370.62
387.813	368.62
388.038	346.62
388.263	361.62
388.488	352.62
388.713	352.62
388.938	363.62
389.163	365.62
389.387	374.62
389.612	349.62
389.837	362.62
390.062	360.62
390.287	377.62
390.512	346.62
390.736	361.62
390.961	353.62
391.186	342.62
391.411	375.62
391.636	364.62
391.86	378.62
392.085	356.62
392.31	366.62
392.534	378.62
392.759	377.62
392.984	356.62
393.208	356.62
393.433	357.62
393.658	380.62
393.882	367.62
394.107	364.62
394.331	357.62
394.556	362.62
394.78	357.62
395.005	357.62
395.229	364.62
395.454	376.62
395.678	388.62
395.903	381.62
396.127	405.62
396.352	399.62
396.576	396.62
396.801	381.62
397.025	380.62
397.249	386.62
397.474	372.62
397.698	359.62
397.922	365.62
398.147	417.62
398.371	415.62
398.595	435.62
398.82	388.62
399.044	395.62
399.268	404.62
399.492	432.62
399.717	445.62
399.941	454.62
400.165	469.62
400.389	485.62
400.613	459.62
400.837	428.62
401.062	420.62
401.286	404.62
401.51	393.62
401.734	404.62
401.958	414.62
402.182	426.62
402.406	414.62
402.63	424.62
402.854	431.62
403.078	412.62
403.302	425.62
403.526	415.62
403.75	409.62
403.974	430.62
404.198	419.62
404.422	423.62
404.645	439.62
404.869	437.62
405.093	468.62
405.317	503.62
405.541	528.62
405.765	450.62
405.988	453.62
406.212	487.62
406.436	473.62
406.66	528.62
406.883	478.62
407.107	490.62
407.331	530.62
407.555	552.62
407.778	566.62
408.002	518.62
408.226	466.62
408.449	477.62
408.673	477.62
408.896	500.62
409.12	512.62
409.344	480.62
409.567	440.62
409.791	429.62
410.014	418.62
410.238	413.62
410.461	450.62
410.685	427.62
410.908	456.62
411.132	491.62
411.355	490.62
411.578	498.62
411.802	457.62
412.025	427.62
412.249	420.62
412.472	460.62
412.695	490.62
412.919	468.62
413.142	449.62
413.365	417.62
413.589	424.62
413.812	410.62
414.035	417.62
414.258	406.62
414.482	388.62
414.705	407.62
414.928	390.62
415.151	400.62
415.374	398.62
415.597	394.62
415.821	404.62
416.044	417.62
416.267	418.62
416.49	402.62
416.713	412.62
416.936	406.62
417.159	393.62
417.382	419.62
417.605	421.62
417.828	421.62
418.051	449.62
418.274	429.62
418.497	388.62
418.72	393.62
418.943	414.62
419.166	413.62
419.389	435.62
419.611	443.62
419.834	428.62
420.057	429.62
420.28	413.62
420.503	413.62
420.726	436.62
420.948	433.62
421.171	470.62
421.394	478.62
421.617	422.62
421.839	426.62
422.062	408.62
422.285	436.62
422.507	479.62
422.73	530.62
422.953	532.62
423.175	473.62
423.398	435.62
423.621	430.62
423.843	478.62
424.066	457.62
424.288	454.62
424.511	471.62
424.733	525.62
424.956	566.62
425.178	570.62
425.401	573.62
425.623	584.62
425.846	502.62
426.068	473.62
426.291	478.62
426.513	460.62
426.735	474.62
426.958	512.62
427.18	592.62
427.402	686.62
427.625	768.62
427.847	696.62
428.069	584.62
428.292	532.62
428.514	463.62
428.736	454.62
428.958	446.62
429.181	426.62
429.403	428.62
429.625	446.62
429.847	460.62
430.069	546.62
430.292	523.62
430.514	443.62
430.736	430.62
430.958	434.62
431.18	409.62
431.402	429.62
431.624	398.62
431.846	394.62
432.068	426.62
432.29	406.62
432.512	400.62
432.734	410.62
432.956	410.62
433.178	424.62
433.4	414.62
433.622	404.62
433.844	398.62
434.066	412.62
434.287	413.62
434.509	399.62
434.731	416.62
434.953	422.62
435.175	436.62
435.397	462.62
435.618	469.62
435.84	510.62
436.062	595.62
436.284	636.62
436.505	559.62
436.727	476.62
436.949	442.62
437.17	444.62
437.392	443.62
437.614	458.62
437.835	492.62
438.057	575.62
438.278	667.62
438.5	638.62
438.721	694.62
438.943	664.62
439.165	538.62
439.386	497.62
439.608	494.62
439.829	489.62
440.05	504.62
440.272	547.62
440.493	529.62
440.715	479.62
440.936	456.62
441.158	444.62
441.379	436.62
441.6	446.62
441.822	462.62
442.043	488.62
442.264	588.62
442.486	608.62
442.707	523.62
442.928	507.62
443.149	493.62
443.371	493.62
443.592	538.62
443.813	619.62
444.034	630.62
444.255	539.62
444.476	483.62
444.698	471.62
444.919	477.62
445.14	559.62
445.361	518.62
445.582	511.62
445.803	581.62
446.024	651.62
446.245	678.62
446.466	610.62
446.687	514.62
446.908	477.62
447.129	446.62
447.35	441.62
447.571	437.62
447.792	437.62
448.013	456.62
448.234	466.62
448.455	508.62
448.675	630.62
448.896	694.62
449.117	586.62
449.338	565.62
449.559	664.62
449.779	700.62
450	585.62
450.221	510.62
450.442	452.62
450.662	424.62
450.883	455.62
451.104	456.62
451.324	471.62
451.545	420.62
451.766	416.62
451.986	409.62
452.207	398.62
452.428	385.62
452.648	402.62
452.869	397.62
453.089	412.62
453.31	420.62
453.53	418.62
453.751	403.62
453.971	400.62
454.192	429.62
454.412	402.62
454.633	418.62
454.853	390.62
455.073	385.62
455.294	419.62
455.514	486.62
455.734	459.62
455.955	387.62
456.175	369.62
456.395	360.62
456.616	363.62
456.836	363.62
457.056	375.62
457.276	361.62
457.497	368.62
457.717	376.62
457.937	371.62
458.157	388.62
458.377	385.62
458.598	422.62
458.818	477.62
459.038	553.62
459.258	563.62
459.478	462.62
459.698	416.62
459.918	413.62
460.138	415.62
460.358	425.62
460.578	401.62
460.798	414.62
461.018	384.62
461.238	402.62
461.458	405.62
461.678	405.62
461.898	425.62
462.118	388.62
462.338	402.62
462.558	424.62
462.777	402.62
462.997	425.62
463.217	426.62
463.437	453.62
463.657	408.62
463.876	407.62
464.096	413.62
464.316	426.62
464.536	434.62
464.755	456.62
464.975	444.62
465.195	493.62
465.414	575.62
465.634	487.62
465.854	462.62
466.073	427.62
466.293	410.62
466.512	399.62
466.732	394.62
466.951	382.62
467.171	390.62
467.391	411.62
467.61	415.62
467.829	429.62
468.049	421.62
468.268	405.62
468.488	409.62
468.707	374.62
468.927	401.62
469.146	395.62
469.365	374.62
469.585	365.62
469.804	370.62
470.023	394.62
470.243	397.62
470.462	418.62
470.681	419.62
470.901	425.62
471.12	408.62
471.339	401.62
471.558	402.62
471.777	398.62
471.997	409.62
472.216	413.62
472.435	464.62
472.654	453.62
472.873	415.62
473.092	406.62
473.311	398.62
473.53	389.62
473.749	417.62
473.968	437.62
474.187	549.62
474.406	552.62
474.625	462.62
474.844	430.62
475.063	397.62
475.282	401.62
475.501	408.62
475.72	404.62
475.939	406.62
476.158	418.62
476.377	414.62
476.596	412.62
476.814	433.62
477.033	448.62
477.252	429.62
477.471	442.62
477.69	439.62
477.908	431.62
478.127	430.62
478.346	418.62
478.564	419.62
478.783	432.62
479.002	450.62
479.22	468.62
479.439	470.62
479.658	485.62
479.876	498.62
480.095	492.62
480.313	512.62
480.532	476.62
480.751	483.62
480.969	482.62
481.188	598.62
481.406	658.62
481.624	548.62
481.843	499.62
482.061	497.62
482.28	486.62
482.498	481.62
482.717	481.62
482.935	492.62
483.153	466.62
483.372	466.62
483.59	465.62
483.808	457.62
484.027	478.62
484.245	489.62
484.463	476.62
484.681	482.62
484.9	486.62
485.118	485.62
485.336	489.62
485.554	484.62
485.772	483.62
485.99	503.62
486.209	488.62
486.427	501.62
486.645	509.62
486.863	552.62
487.081	526.62
487.299	514.62
487.517	506.62
487.735	507.62
487.953	505.62
488.171	514.62
488.389	513.62
488.607	517.62
488.825	516.62
489.043	526.62
489.261	532.62
489.479	530.62
489.696	506.62
489.914	513.62
490.132	550.62
490.35	534.62
490.568	527.62
490.786	543.62
491.003	557.62
491.221	577.62
491.439	566.62
491.657	573.62
491.874	585.62
492.092	588.62
492.31	604.62
492.527	605.62
492.745	597.62
492.963	606.62
493.18	605.62
493.398	589.62
493.615	603.62
493.833	587.62
494.05	618.62
494.268	606.62
494.485	587.62
494.703	611.62
494.92	584.62
495.138	620.62
495.355	624.62
495.573	634.62
495.79	608.62
496.008	610.62
496.225	622.62
496.442	588.62
496.66	624.62
496.877	614.62
497.094	617.62
497.312	620.62
497.529	607.62
497.746	603.62
497.963	649.62
498.181	628.62
498.398	634.62
498.615	660.62
498.832	672.62
499.049	689.62
499.267	682.62
499.484	697.62
499.701	712.62
499.918	726.62
500.135	728.62
500.352	752.62
500.569	765.62
500.786	764.62
501.003	752.62
501.22	756.62
501.437	732.62
501.654	711.62
501.871	728.62
502.088	737.62
