Data from 1965.PennyLincolnUp.Lamp.En5.5.200Scan.071719.P1._HRD10591_14-08-26-911.txt Node
Date: Thu Jul 18 14:08:26 EDT 2019
User: cochatt
Spectrometer: HR+D1059
Trigger mode: 1
Integration Time (sec): 1.000000E-1
Scans to average: 1
Electric dark correction enabled: true
Nonlinearity correction enabled: false
Boxcar width: 0
XAxis mode: Wavelengths
Number of Pixels in Spectrum: 2048
>>>>>Begin Spectral Data<<<<<
223.165	-25.81
223.4	-25.81
223.635	-25.81
223.869	-17.81
224.104	-18.81
224.338	-24.81
224.573	-17.81
224.808	-9.81
225.042	6.19
225.277	-0.81
225.511	4.19
225.746	2.19
225.98	-2.81
226.215	12.19
226.449	6.19
226.683	21.19
226.918	28.19
227.152	38.19
227.387	32.19
227.621	36.19
227.856	37.19
228.09	45.19
228.324	48.19
228.559	53.19
228.793	50.19
229.027	75.19
229.262	88.19
229.496	110.19
229.73	109.19
229.964	151.19
230.199	130.19
230.433	82.19
230.667	95.19
230.901	100.19
231.136	93.19
231.37	88.19
231.604	97.19
231.838	98.19
232.072	116.19
232.306	95.19
232.541	105.19
232.775	102.19
233.009	101.19
233.243	101.19
233.477	114.19
233.711	108.19
233.945	95.19
234.179	103.19
234.413	118.19
234.647	113.19
234.881	114.19
235.115	99.19
235.349	118.19
235.583	99.19
235.817	130.19
236.051	120.19
236.285	112.19
236.519	129.19
236.753	116.19
236.987	136.19
237.221	167.19
237.455	195.19
237.689	161.19
237.922	136.19
238.156	110.19
238.39	108.19
238.624	108.19
238.858	110.19
239.091	119.19
239.325	128.19
239.559	123.19
239.793	118.19
240.027	125.19
240.26	136.19
240.494	124.19
240.728	125.19
240.961	132.19
241.195	137.19
241.429	118.19
241.662	120.19
241.896	108.19
242.13	109.19
242.363	116.19
242.597	124.19
242.83	131.19
243.064	122.19
243.298	123.19
243.531	128.19
243.765	129.19
243.998	123.19
244.232	126.19
244.465	129.19
244.699	114.19
244.932	122.19
245.166	130.19
245.399	132.19
245.633	124.19
245.866	122.19
246.099	124.19
246.333	137.19
246.566	134.19
246.8	130.19
247.033	144.19
247.266	142.19
247.5	147.19
247.733	154.19
247.966	124.19
248.2	143.19
248.433	151.19
248.666	159.19
248.899	164.19
249.133	178.19
249.366	173.19
249.599	159.19
249.832	151.19
250.066	156.19
250.299	161.19
250.532	183.19
250.765	181.19
250.998	178.19
251.231	173.19
251.465	182.19
251.698	172.19
251.931	179.19
252.164	165.19
252.397	160.19
252.63	151.19
252.863	175.19
253.096	193.19
253.329	186.19
253.562	192.19
253.795	173.19
254.028	188.19
254.261	186.19
254.494	196.19
254.727	210.19
254.96	241.19
255.193	211.19
255.426	222.19
255.659	206.19
255.892	196.19
256.124	208.19
256.357	194.19
256.59	184.19
256.823	174.19
257.056	182.19
257.289	180.19
257.521	185.19
257.754	183.19
257.987	185.19
258.22	180.19
258.452	173.19
258.685	195.19
258.918	182.19
259.151	168.19
259.383	182.19
259.616	175.19
259.849	190.19
260.081	196.19
260.314	210.19
260.547	215.19
260.779	194.19
261.012	199.19
261.244	194.19
261.477	196.19
261.71	191.19
261.942	188.19
262.175	207.19
262.407	188.19
262.64	186.19
262.872	188.19
263.105	182.19
263.337	180.19
263.57	181.19
263.802	168.19
264.035	173.19
264.267	181.19
264.499	166.19
264.732	173.19
264.964	184.19
265.197	164.19
265.429	188.19
265.661	178.19
265.894	186.19
266.126	196.19
266.358	185.19
266.591	189.19
266.823	199.19
267.055	196.19
267.287	203.19
267.52	199.19
267.752	185.19
267.984	190.19
268.216	194.19
268.448	195.19
268.681	181.19
268.913	216.19
269.145	212.19
269.377	220.19
269.609	218.19
269.841	209.19
270.073	242.19
270.306	236.19
270.538	259.19
270.77	261.19
271.002	247.19
271.234	215.19
271.466	243.19
271.698	255.19
271.93	251.19
272.162	254.19
272.394	251.19
272.626	250.19
272.858	234.19
273.09	232.19
273.322	231.19
273.553	205.19
273.785	215.19
274.017	222.19
274.249	213.19
274.481	220.19
274.713	202.19
274.945	211.19
275.176	213.19
275.408	208.19
275.64	216.19
275.872	226.19
276.104	212.19
276.335	226.19
276.567	220.19
276.799	238.19
277.031	259.19
277.262	260.19
277.494	260.19
277.726	249.19
277.957	226.19
278.189	233.19
278.421	233.19
278.652	220.19
278.884	210.19
279.115	223.19
279.347	218.19
279.579	237.19
279.81	227.19
280.042	214.19
280.273	246.19
280.505	224.19
280.736	219.19
280.968	215.19
281.199	210.19
281.431	216.19
281.662	234.19
281.894	210.19
282.125	223.19
282.356	245.19
282.588	246.19
282.819	259.19
283.051	218.19
283.282	218.19
283.513	236.19
283.745	234.19
283.976	221.19
284.207	212.19
284.439	231.19
284.67	221.19
284.901	213.19
285.132	210.19
285.364	213.19
285.595	211.19
285.826	245.19
286.057	215.19
286.288	228.19
286.52	234.19
286.751	230.19
286.982	235.19
287.213	237.19
287.444	239.19
287.675	244.19
287.906	220.19
288.138	249.19
288.369	253.19
288.6	252.19
288.831	254.19
289.062	246.19
289.293	233.19
289.524	248.19
289.755	226.19
289.986	223.19
290.217	232.19
290.448	227.19
290.679	224.19
290.91	236.19
291.141	227.19
291.371	234.19
291.602	220.19
291.833	230.19
292.064	218.19
292.295	231.19
292.526	227.19
292.757	231.19
292.987	237.19
293.218	226.19
293.449	233.19
293.68	248.19
293.91	242.19
294.141	235.19
294.372	234.19
294.603	234.19
294.833	234.19
295.064	237.19
295.295	233.19
295.525	240.19
295.756	245.19
295.987	248.19
296.217	271.19
296.448	276.19
296.679	254.19
296.909	231.19
297.14	244.19
297.37	238.19
297.601	235.19
297.831	246.19
298.062	243.19
298.292	250.19
298.523	248.19
298.753	229.19
298.984	234.19
299.214	242.19
299.445	239.19
299.675	250.19
299.905	254.19
300.136	252.19
300.366	255.19
300.597	271.19
300.827	271.19
301.057	262.19
301.288	268.19
301.518	274.19
301.748	247.19
301.979	254.19
302.209	267.19
302.439	270.19
302.669	260.19
302.9	269.19
303.13	269.19
303.36	267.19
303.59	270.19
303.82	279.19
304.051	283.19
304.281	268.19
304.511	262.19
304.741	269.19
304.971	258.19
305.201	264.19
305.431	262.19
305.661	261.19
305.891	258.19
306.121	269.19
306.352	271.19
306.582	288.19
306.812	270.19
307.042	268.19
307.272	272.19
307.502	270.19
307.731	270.19
307.961	261.19
308.191	275.19
308.421	235.19
308.651	278.19
308.881	277.19
309.111	297.19
309.341	263.19
309.571	292.19
309.8	294.19
310.03	280.19
310.26	306.19
310.49	294.19
310.72	315.19
310.949	306.19
311.179	311.19
311.409	308.19
311.639	316.19
311.868	316.19
312.098	314.19
312.328	331.19
312.557	331.19
312.787	342.19
313.017	329.19
313.246	331.19
313.476	308.19
313.706	312.19
313.935	326.19
314.165	324.19
314.394	324.19
314.624	325.19
314.853	318.19
315.083	323.19
315.312	318.19
315.542	313.19
315.771	303.19
316.001	300.19
316.23	304.19
316.46	309.19
316.689	325.19
316.919	310.19
317.148	288.19
317.377	309.19
317.607	315.19
317.836	320.19
318.065	306.19
318.295	301.19
318.524	310.19
318.753	310.19
318.983	329.19
319.212	325.19
319.441	314.19
319.67	316.19
319.9	316.19
320.129	315.19
320.358	329.19
320.587	319.19
320.816	330.19
321.046	337.19
321.275	322.19
321.504	333.19
321.733	333.19
321.962	346.19
322.191	349.19
322.42	374.19
322.649	378.19
322.878	378.19
323.108	383.19
323.337	422.19
323.566	429.19
323.795	467.19
324.024	498.19
324.253	616.19
324.482	924.19
324.71	1336.19
324.939	1825.19
325.168	1568.19
325.397	828.19
325.626	554.19
325.855	472.19
326.084	456.19
326.313	402.19
326.542	426.19
326.77	460.19
326.999	545.19
327.228	782.19
327.457	1169.19
327.686	1378.19
327.914	928.19
328.143	640.19
328.372	549.19
328.6	515.19
328.829	484.19
329.058	512.19
329.287	490.19
329.515	470.19
329.744	418.19
329.972	425.19
330.201	459.19
330.43	464.19
330.658	492.19
330.887	522.19
331.115	514.19
331.344	442.19
331.572	411.19
331.801	408.19
332.03	400.19
332.258	385.19
332.486	382.19
332.715	366.19
332.943	364.19
333.172	345.19
333.4	353.19
333.629	368.19
333.857	413.19
334.085	404.19
334.314	400.19
334.542	428.19
334.771	441.19
334.999	427.19
335.227	378.19
335.455	359.19
335.684	354.19
335.912	370.19
336.14	356.19
336.369	352.19
336.597	365.19
336.825	359.19
337.053	349.19
337.281	372.19
337.51	344.19
337.738	361.19
337.966	344.19
338.194	367.19
338.422	376.19
338.65	351.19
338.878	370.19
339.106	349.19
339.334	351.19
339.562	340.19
339.79	339.19
340.018	348.19
340.246	344.19
340.474	352.19
340.702	358.19
340.93	347.19
341.158	326.19
341.386	338.19
341.614	348.19
341.842	373.19
342.07	348.19
342.298	358.19
342.526	345.19
342.754	341.19
342.981	339.19
343.209	346.19
343.437	330.19
343.665	332.19
343.893	353.19
344.12	350.19
344.348	358.19
344.576	344.19
344.804	350.19
345.031	375.19
345.259	363.19
345.487	372.19
345.714	362.19
345.942	346.19
346.17	347.19
346.397	326.19
346.625	342.19
346.853	321.19
347.08	322.19
347.308	356.19
347.535	351.19
347.763	348.19
347.99	344.19
348.218	334.19
348.445	348.19
348.673	349.19
348.9	360.19
349.128	329.19
349.355	312.19
349.583	326.19
349.81	339.19
350.037	342.19
350.265	317.19
350.492	307.19
350.72	331.19
350.947	341.19
351.174	336.19
351.402	349.19
351.629	359.19
351.856	341.19
352.083	345.19
352.311	376.19
352.538	346.19
352.765	354.19
352.992	336.19
353.22	341.19
353.447	341.19
353.674	343.19
353.901	313.19
354.128	334.19
354.355	306.19
354.583	322.19
354.81	326.19
355.037	312.19
355.264	311.19
355.491	295.19
355.718	298.19
355.945	330.19
356.172	285.19
356.399	306.19
356.626	317.19
356.853	305.19
357.08	306.19
357.307	343.19
357.534	305.19
357.761	335.19
357.988	331.19
358.215	323.19
358.441	351.19
358.668	322.19
358.895	315.19
359.122	341.19
359.349	325.19
359.576	349.19
359.802	378.19
360.029	391.19
360.256	385.19
360.483	386.19
360.709	349.19
360.936	352.19
361.163	344.19
361.39	344.19
361.616	336.19
361.843	321.19
362.07	322.19
362.296	343.19
362.523	340.19
362.749	323.19
362.976	355.19
363.203	344.19
363.429	317.19
363.656	319.19
363.882	327.19
364.109	319.19
364.335	303.19
364.562	313.19
364.788	314.19
365.015	316.19
365.241	327.19
365.468	354.19
365.694	335.19
365.92	341.19
366.147	347.19
366.373	338.19
366.599	310.19
366.826	316.19
367.052	324.19
367.278	327.19
367.505	327.19
367.731	347.19
367.957	329.19
368.184	318.19
368.41	326.19
368.636	341.19
368.862	349.19
369.089	333.19
369.315	312.19
369.541	327.19
369.767	313.19
369.993	318.19
370.219	328.19
370.445	326.19
370.672	341.19
370.898	325.19
371.124	324.19
371.35	329.19
371.576	319.19
371.802	295.19
372.028	313.19
372.254	319.19
372.48	316.19
372.706	310.19
372.932	322.19
373.158	321.19
373.384	336.19
373.61	339.19
373.835	318.19
374.061	326.19
374.287	326.19
374.513	312.19
374.739	310.19
374.965	321.19
375.191	314.19
375.416	335.19
375.642	347.19
375.868	318.19
376.094	330.19
376.319	322.19
376.545	319.19
376.771	330.19
376.997	336.19
377.222	340.19
377.448	326.19
377.674	306.19
377.899	325.19
378.125	312.19
378.35	318.19
378.576	327.19
378.802	314.19
379.027	315.19
379.253	313.19
379.478	331.19
379.704	316.19
379.929	329.19
380.155	318.19
380.38	327.19
380.606	324.19
380.831	314.19
381.057	310.19
381.282	309.19
381.507	315.19
381.733	327.19
381.958	321.19
382.184	319.19
382.409	336.19
382.634	326.19
382.86	326.19
383.085	323.19
383.31	350.19
383.535	342.19
383.761	328.19
383.986	332.19
384.211	335.19
384.436	349.19
384.662	352.19
384.887	339.19
385.112	324.19
385.337	334.19
385.562	351.19
385.787	338.19
386.013	354.19
386.238	349.19
386.463	350.19
386.688	359.19
386.913	351.19
387.138	357.19
387.363	342.19
387.588	341.19
387.813	342.19
388.038	349.19
388.263	323.19
388.488	336.19
388.713	335.19
388.938	340.19
389.163	348.19
389.387	354.19
389.612	341.19
389.837	313.19
390.062	337.19
390.287	346.19
390.512	333.19
390.736	331.19
390.961	333.19
391.186	325.19
391.411	344.19
391.636	350.19
391.86	355.19
392.085	345.19
392.31	344.19
392.534	331.19
392.759	363.19
392.984	339.19
393.208	356.19
393.433	360.19
393.658	349.19
393.882	357.19
394.107	341.19
394.331	347.19
394.556	337.19
394.78	344.19
395.005	340.19
395.229	356.19
395.454	351.19
395.678	356.19
395.903	373.19
396.127	372.19
396.352	379.19
396.576	352.19
396.801	344.19
397.025	374.19
397.249	363.19
397.474	347.19
397.698	366.19
397.922	360.19
398.147	387.19
398.371	414.19
398.595	379.19
398.82	372.19
399.044	390.19
399.268	385.19
399.492	415.19
399.717	451.19
399.941	446.19
400.165	458.19
400.389	479.19
400.613	434.19
400.837	401.19
401.062	387.19
401.286	413.19
401.51	376.19
401.734	404.19
401.958	376.19
402.182	381.19
402.406	396.19
402.63	391.19
402.854	382.19
403.078	401.19
403.302	390.19
403.526	409.19
403.75	402.19
403.974	416.19
404.198	386.19
404.422	399.19
404.645	418.19
404.869	406.19
405.093	435.19
405.317	461.19
405.541	470.19
405.765	458.19
405.988	423.19
406.212	430.19
406.436	459.19
406.66	472.19
406.883	446.19
407.107	467.19
407.331	470.19
407.555	514.19
407.778	540.19
408.002	493.19
408.226	430.19
408.449	448.19
408.673	439.19
408.896	458.19
409.12	496.19
409.344	455.19
409.567	423.19
409.791	406.19
410.014	411.19
410.238	391.19
410.461	406.19
410.685	394.19
410.908	410.19
411.132	430.19
411.355	442.19
411.578	427.19
411.802	415.19
412.025	407.19
412.249	419.19
412.472	416.19
412.695	444.19
412.919	430.19
413.142	418.19
413.365	400.19
413.589	393.19
413.812	398.19
414.035	377.19
414.258	399.19
414.482	389.19
414.705	387.19
414.928	371.19
415.151	380.19
415.374	381.19
415.597	373.19
415.821	390.19
416.044	370.19
416.267	379.19
416.49	386.19
416.713	376.19
416.936	380.19
417.159	380.19
417.382	401.19
417.605	392.19
417.828	386.19
418.051	394.19
418.274	385.19
418.497	391.19
418.72	387.19
418.943	383.19
419.166	393.19
419.389	408.19
419.611	414.19
419.834	408.19
420.057	399.19
420.28	411.19
420.503	377.19
420.726	387.19
420.948	406.19
421.171	436.19
421.394	448.19
421.617	415.19
421.839	402.19
422.062	400.19
422.285	410.19
422.507	456.19
422.73	511.19
422.953	503.19
423.175	443.19
423.398	427.19
423.621	428.19
423.843	427.19
424.066	447.19
424.288	432.19
424.511	452.19
424.733	494.19
424.956	538.19
425.178	516.19
425.401	520.19
425.623	528.19
425.846	446.19
426.068	460.19
426.291	451.19
426.513	428.19
426.735	440.19
426.958	470.19
427.18	546.19
427.402	651.19
427.625	698.19
427.847	627.19
428.069	532.19
428.292	470.19
428.514	443.19
428.736	440.19
428.958	422.19
429.181	411.19
429.403	406.19
429.625	404.19
429.847	447.19
430.069	482.19
430.292	493.19
430.514	409.19
430.736	421.19
430.958	402.19
431.18	384.19
431.402	380.19
431.624	368.19
431.846	370.19
432.068	359.19
432.29	382.19
432.512	374.19
432.734	377.19
432.956	384.19
433.178	400.19
433.4	399.19
433.622	387.19
433.844	392.19
434.066	389.19
434.287	372.19
434.509	375.19
434.731	393.19
434.953	401.19
435.175	411.19
435.397	427.19
435.618	424.19
435.84	458.19
436.062	527.19
436.284	611.19
436.505	477.19
436.727	440.19
436.949	408.19
437.17	424.19
437.392	398.19
437.614	420.19
437.835	431.19
438.057	532.19
438.278	602.19
438.5	592.19
438.721	651.19
438.943	616.19
439.165	484.19
439.386	453.19
439.608	436.19
439.829	457.19
440.05	468.19
440.272	506.19
440.493	458.19
440.715	428.19
440.936	415.19
441.158	417.19
441.379	414.19
441.6	446.19
441.822	448.19
442.043	455.19
442.264	528.19
442.486	558.19
442.707	460.19
442.928	458.19
443.149	456.19
443.371	480.19
443.592	508.19
443.813	554.19
444.034	624.19
444.255	510.19
444.476	458.19
444.698	446.19
444.919	418.19
445.14	517.19
445.361	482.19
445.582	474.19
445.803	499.19
446.024	603.19
446.245	615.19
446.466	568.19
446.687	492.19
446.908	428.19
447.129	418.19
447.35	411.19
447.571	416.19
447.792	404.19
448.013	397.19
448.234	417.19
448.455	472.19
448.675	550.19
448.896	643.19
449.117	528.19
449.338	500.19
449.559	594.19
449.779	645.19
450	540.19
450.221	452.19
450.442	410.19
450.662	392.19
450.883	401.19
451.104	413.19
451.324	408.19
451.545	396.19
451.766	394.19
451.986	376.19
452.207	381.19
452.428	384.19
452.648	359.19
452.869	386.19
453.089	366.19
453.31	383.19
453.53	384.19
453.751	376.19
453.971	394.19
454.192	406.19
454.412	367.19
454.633	348.19
454.853	371.19
455.073	372.19
455.294	390.19
455.514	441.19
455.734	423.19
455.955	379.19
456.175	363.19
456.395	343.19
456.616	343.19
456.836	346.19
457.056	347.19
457.276	349.19
457.497	357.19
457.717	346.19
457.937	370.19
458.157	351.19
458.377	370.19
458.598	372.19
458.818	422.19
459.038	516.19
459.258	503.19
459.478	411.19
459.698	386.19
459.918	388.19
460.138	383.19
460.358	365.19
460.578	381.19
460.798	386.19
461.018	388.19
461.238	396.19
461.458	370.19
461.678	380.19
461.898	393.19
462.118	383.19
462.338	394.19
462.558	387.19
462.777	399.19
462.997	403.19
463.217	401.19
463.437	418.19
463.657	405.19
463.876	404.19
464.096	407.19
464.316	404.19
464.536	411.19
464.755	427.19
464.975	392.19
465.195	456.19
465.414	517.19
465.634	475.19
465.854	419.19
466.073	412.19
466.293	399.19
466.512	381.19
466.732	374.19
466.951	359.19
467.171	380.19
467.391	380.19
467.61	406.19
467.829	377.19
468.049	394.19
468.268	383.19
468.488	359.19
468.707	364.19
468.927	362.19
469.146	350.19
469.365	371.19
469.585	372.19
469.804	354.19
470.023	395.19
470.243	370.19
470.462	404.19
470.681	417.19
470.901	379.19
471.12	388.19
471.339	378.19
471.558	386.19
471.777	396.19
471.997	380.19
472.216	383.19
472.435	418.19
472.654	406.19
472.873	379.19
473.092	363.19
473.311	367.19
473.53	387.19
473.749	394.19
473.968	419.19
474.187	502.19
474.406	530.19
474.625	436.19
474.844	407.19
475.063	402.19
475.282	392.19
475.501	386.19
475.72	382.19
475.939	399.19
476.158	409.19
476.377	386.19
476.596	371.19
476.814	406.19
477.033	382.19
477.252	401.19
477.471	400.19
477.69	398.19
477.908	393.19
478.127	418.19
478.346	400.19
478.564	434.19
478.783	430.19
479.002	428.19
479.22	415.19
479.439	439.19
479.658	444.19
479.876	469.19
480.095	462.19
480.313	471.19
480.532	486.19
480.751	469.19
480.969	480.19
481.188	536.19
481.406	588.19
481.624	494.19
481.843	470.19
482.061	460.19
482.28	456.19
482.498	441.19
482.717	447.19
482.935	444.19
483.153	437.19
483.372	445.19
483.59	445.19
483.808	437.19
484.027	446.19
484.245	446.19
484.463	462.19
484.681	454.19
484.9	461.19
485.118	463.19
485.336	459.19
485.554	453.19
485.772	458.19
485.99	448.19
486.209	453.19
486.427	463.19
486.645	483.19
486.863	487.19
487.081	495.19
487.299	485.19
487.517	495.19
487.735	482.19
487.953	483.19
488.171	468.19
488.389	485.19
488.607	498.19
488.825	493.19
489.043	473.19
489.261	493.19
489.479	483.19
489.696	489.19
489.914	467.19
490.132	491.19
490.35	495.19
490.568	498.19
490.786	495.19
491.003	512.19
491.221	493.19
491.439	540.19
491.657	514.19
491.874	540.19
492.092	546.19
492.31	540.19
492.527	534.19
492.745	520.19
492.963	570.19
493.18	582.19
493.398	573.19
493.615	553.19
493.833	562.19
494.05	560.19
494.268	579.19
494.485	564.19
494.703	547.19
494.92	582.19
495.138	551.19
495.355	582.19
495.573	566.19
495.79	595.19
496.008	555.19
496.225	553.19
496.442	560.19
496.66	578.19
496.877	558.19
497.094	572.19
497.312	589.19
497.529	577.19
497.746	590.19
497.963	591.19
498.181	619.19
498.398	610.19
498.615	596.19
498.832	628.19
499.049	621.19
499.267	631.19
499.484	640.19
499.701	651.19
499.918	678.19
500.135	702.19
500.352	709.19
500.569	719.19
500.786	720.19
501.003	723.19
501.22	722.19
501.437	695.19
501.654	696.19
501.871	691.19
502.088	651.19
