Data from 1965.PennyLincolnUp.Lamp.En5.5.200Scan.071719.P1._HRD10591_14-09-13-911.txt Node
Date: Thu Jul 18 14:09:13 EDT 2019
User: cochatt
Spectrometer: HR+D1059
Trigger mode: 1
Integration Time (sec): 1.000000E-1
Scans to average: 1
Electric dark correction enabled: true
Nonlinearity correction enabled: false
Boxcar width: 0
XAxis mode: Wavelengths
Number of Pixels in Spectrum: 2048
>>>>>Begin Spectral Data<<<<<
223.165	-9.5
223.4	-9.5
223.635	-9.5
223.869	-16.5
224.104	-28.5
224.338	-19.5
224.573	-14.5
224.808	-13.5
225.042	-0.5
225.277	-18.5
225.511	-4.5
225.746	1.5
225.98	-0.5
226.215	20.5
226.449	10.5
226.683	27.5
226.918	28.5
227.152	37.5
227.387	22.5
227.621	42.5
227.856	33.5
228.09	49.5
228.324	47.5
228.559	55.5
228.793	67.5
229.027	106.5
229.262	100.5
229.496	95.5
229.73	107.5
229.964	135.5
230.199	119.5
230.433	95.5
230.667	112.5
230.901	122.5
231.136	100.5
231.37	92.5
231.604	112.5
231.838	118.5
232.072	104.5
232.306	103.5
232.541	107.5
232.775	98.5
233.009	107.5
233.243	113.5
233.477	91.5
233.711	104.5
233.945	112.5
234.179	112.5
234.413	107.5
234.647	110.5
234.881	116.5
235.115	115.5
235.349	107.5
235.583	114.5
235.817	112.5
236.051	98.5
236.285	105.5
236.519	112.5
236.753	118.5
236.987	135.5
237.221	156.5
237.455	207.5
237.689	179.5
237.922	136.5
238.156	137.5
238.39	122.5
238.624	106.5
238.858	123.5
239.091	126.5
239.325	122.5
239.559	120.5
239.793	127.5
240.027	120.5
240.26	136.5
240.494	135.5
240.728	136.5
240.961	125.5
241.195	116.5
241.429	114.5
241.662	131.5
241.896	120.5
242.13	111.5
242.363	103.5
242.597	117.5
242.83	130.5
243.064	120.5
243.298	112.5
243.531	130.5
243.765	126.5
243.998	124.5
244.232	119.5
244.465	122.5
244.699	132.5
244.932	124.5
245.166	141.5
245.399	133.5
245.633	138.5
245.866	133.5
246.099	139.5
246.333	144.5
246.566	139.5
246.8	148.5
247.033	134.5
247.266	142.5
247.5	136.5
247.733	152.5
247.966	162.5
248.2	155.5
248.433	153.5
248.666	154.5
248.899	170.5
249.133	179.5
249.366	187.5
249.599	171.5
249.832	163.5
250.066	165.5
250.299	158.5
250.532	162.5
250.765	180.5
250.998	190.5
251.231	198.5
251.465	186.5
251.698	183.5
251.931	165.5
252.164	175.5
252.397	201.5
252.63	186.5
252.863	176.5
253.096	194.5
253.329	196.5
253.562	194.5
253.795	193.5
254.028	203.5
254.261	184.5
254.494	204.5
254.727	216.5
254.96	243.5
255.193	227.5
255.426	225.5
255.659	196.5
255.892	219.5
256.124	191.5
256.357	197.5
256.59	211.5
256.823	201.5
257.056	192.5
257.289	182.5
257.521	184.5
257.754	171.5
257.987	183.5
258.22	184.5
258.452	190.5
258.685	192.5
258.918	185.5
259.151	186.5
259.383	186.5
259.616	175.5
259.849	183.5
260.081	201.5
260.314	212.5
260.547	216.5
260.779	227.5
261.012	212.5
261.244	191.5
261.477	192.5
261.71	195.5
261.942	220.5
262.175	206.5
262.407	189.5
262.64	207.5
262.872	201.5
263.105	195.5
263.337	199.5
263.57	196.5
263.802	200.5
264.035	186.5
264.267	205.5
264.499	184.5
264.732	186.5
264.964	184.5
265.197	192.5
265.429	196.5
265.661	189.5
265.894	182.5
266.126	186.5
266.358	192.5
266.591	191.5
266.823	201.5
267.055	185.5
267.287	191.5
267.52	193.5
267.752	192.5
267.984	204.5
268.216	195.5
268.448	201.5
268.681	201.5
268.913	217.5
269.145	233.5
269.377	232.5
269.609	230.5
269.841	236.5
270.073	246.5
270.306	261.5
270.538	263.5
270.77	271.5
271.002	266.5
271.234	251.5
271.466	266.5
271.698	265.5
271.93	262.5
272.162	287.5
272.394	266.5
272.626	276.5
272.858	259.5
273.09	258.5
273.322	257.5
273.553	229.5
273.785	236.5
274.017	216.5
274.249	225.5
274.481	241.5
274.713	220.5
274.945	230.5
275.176	224.5
275.408	239.5
275.64	228.5
275.872	223.5
276.104	235.5
276.335	223.5
276.567	231.5
276.799	256.5
277.031	271.5
277.262	263.5
277.494	258.5
277.726	267.5
277.957	244.5
278.189	239.5
278.421	237.5
278.652	229.5
278.884	235.5
279.115	219.5
279.347	216.5
279.579	221.5
279.81	225.5
280.042	213.5
280.273	237.5
280.505	213.5
280.736	212.5
280.968	212.5
281.199	239.5
281.431	218.5
281.662	222.5
281.894	234.5
282.125	246.5
282.356	260.5
282.588	275.5
282.819	266.5
283.051	243.5
283.282	233.5
283.513	231.5
283.745	235.5
283.976	238.5
284.207	237.5
284.439	236.5
284.67	242.5
284.901	242.5
285.132	238.5
285.364	231.5
285.595	226.5
285.826	231.5
286.057	236.5
286.288	224.5
286.52	230.5
286.751	225.5
286.982	231.5
287.213	241.5
287.444	246.5
287.675	242.5
287.906	256.5
288.138	272.5
288.369	251.5
288.6	246.5
288.831	257.5
289.062	259.5
289.293	256.5
289.524	243.5
289.755	239.5
289.986	242.5
290.217	246.5
290.448	256.5
290.679	252.5
290.91	253.5
291.141	266.5
291.371	249.5
291.602	250.5
291.833	252.5
292.064	220.5
292.295	238.5
292.526	249.5
292.757	237.5
292.987	248.5
293.218	261.5
293.449	244.5
293.68	270.5
293.91	258.5
294.141	248.5
294.372	231.5
294.603	262.5
294.833	251.5
295.064	254.5
295.295	247.5
295.525	235.5
295.756	257.5
295.987	276.5
296.217	277.5
296.448	300.5
296.679	254.5
296.909	270.5
297.14	262.5
297.37	263.5
297.601	262.5
297.831	268.5
298.062	260.5
298.292	254.5
298.523	247.5
298.753	250.5
298.984	261.5
299.214	271.5
299.445	258.5
299.675	258.5
299.905	265.5
300.136	261.5
300.366	270.5
300.597	267.5
300.827	259.5
301.057	288.5
301.288	283.5
301.518	276.5
301.748	291.5
301.979	281.5
302.209	278.5
302.439	278.5
302.669	280.5
302.9	302.5
303.13	268.5
303.36	257.5
303.59	259.5
303.82	297.5
304.051	282.5
304.281	306.5
304.511	291.5
304.741	269.5
304.971	289.5
305.201	289.5
305.431	283.5
305.661	279.5
305.891	288.5
306.121	297.5
306.352	294.5
306.582	297.5
306.812	286.5
307.042	290.5
307.272	289.5
307.502	276.5
307.731	286.5
307.961	286.5
308.191	261.5
308.421	288.5
308.651	296.5
308.881	294.5
309.111	303.5
309.341	279.5
309.571	293.5
309.8	312.5
310.03	319.5
310.26	324.5
310.49	359.5
310.72	320.5
310.949	362.5
311.179	363.5
311.409	330.5
311.639	339.5
311.868	320.5
312.098	324.5
312.328	346.5
312.557	354.5
312.787	379.5
313.017	345.5
313.246	328.5
313.476	333.5
313.706	331.5
313.935	342.5
314.165	342.5
314.394	337.5
314.624	344.5
314.853	325.5
315.083	347.5
315.312	337.5
315.542	332.5
315.771	321.5
316.001	322.5
316.23	326.5
316.46	305.5
316.689	329.5
316.919	335.5
317.148	343.5
317.377	339.5
317.607	334.5
317.836	337.5
318.065	345.5
318.295	343.5
318.524	331.5
318.753	325.5
318.983	326.5
319.212	323.5
319.441	334.5
319.67	351.5
319.9	343.5
320.129	337.5
320.358	343.5
320.587	332.5
320.816	337.5
321.046	373.5
321.275	350.5
321.504	355.5
321.733	350.5
321.962	376.5
322.191	382.5
322.42	388.5
322.649	393.5
322.878	406.5
323.108	409.5
323.337	432.5
323.566	463.5
323.795	478.5
324.024	543.5
324.253	661.5
324.482	955.5
324.71	1488.5
324.939	2025.5
325.168	1697.5
325.397	886.5
325.626	608.5
325.855	510.5
326.084	441.5
326.313	462.5
326.542	467.5
326.77	519.5
326.999	617.5
327.228	885.5
327.457	1294.5
327.686	1496.5
327.914	1002.5
328.143	684.5
328.372	590.5
328.6	569.5
328.829	529.5
329.058	532.5
329.287	534.5
329.515	510.5
329.744	462.5
329.972	471.5
330.201	507.5
330.43	534.5
330.658	525.5
330.887	574.5
331.115	570.5
331.344	481.5
331.572	427.5
331.801	439.5
332.03	439.5
332.258	415.5
332.486	387.5
332.715	375.5
332.943	399.5
333.172	396.5
333.4	405.5
333.629	390.5
333.857	422.5
334.085	431.5
334.314	435.5
334.542	475.5
334.771	498.5
334.999	425.5
335.227	430.5
335.455	399.5
335.684	388.5
335.912	397.5
336.14	396.5
336.369	371.5
336.597	397.5
336.825	387.5
337.053	369.5
337.281	383.5
337.51	374.5
337.738	378.5
337.966	390.5
338.194	381.5
338.422	382.5
338.65	388.5
338.878	380.5
339.106	371.5
339.334	360.5
339.562	359.5
339.79	358.5
340.018	383.5
340.246	366.5
340.474	363.5
340.702	390.5
340.93	376.5
341.158	387.5
341.386	356.5
341.614	388.5
341.842	386.5
342.07	375.5
342.298	358.5
342.526	370.5
342.754	361.5
342.981	347.5
343.209	356.5
343.437	352.5
343.665	348.5
343.893	361.5
344.12	367.5
344.348	374.5
344.576	374.5
344.804	381.5
345.031	378.5
345.259	380.5
345.487	392.5
345.714	376.5
345.942	358.5
346.17	354.5
346.397	387.5
346.625	373.5
346.853	351.5
347.08	375.5
347.308	372.5
347.535	380.5
347.763	385.5
347.99	368.5
348.218	378.5
348.445	369.5
348.673	353.5
348.9	394.5
349.128	339.5
349.355	352.5
349.583	336.5
349.81	362.5
350.037	338.5
350.265	355.5
350.492	359.5
350.72	355.5
350.947	371.5
351.174	352.5
351.402	362.5
351.629	366.5
351.856	370.5
352.083	387.5
352.311	381.5
352.538	382.5
352.765	394.5
352.992	391.5
353.22	369.5
353.447	369.5
353.674	360.5
353.901	350.5
354.128	341.5
354.355	327.5
354.583	352.5
354.81	320.5
355.037	332.5
355.264	323.5
355.491	328.5
355.718	329.5
355.945	345.5
356.172	322.5
356.399	340.5
356.626	327.5
356.853	330.5
357.08	305.5
357.307	343.5
357.534	335.5
357.761	315.5
357.988	344.5
358.215	331.5
358.441	324.5
358.668	329.5
358.895	344.5
359.122	351.5
359.349	349.5
359.576	368.5
359.802	388.5
360.029	413.5
360.256	421.5
360.483	392.5
360.709	374.5
360.936	362.5
361.163	378.5
361.39	370.5
361.616	361.5
361.843	371.5
362.07	367.5
362.296	374.5
362.523	368.5
362.749	365.5
362.976	352.5
363.203	356.5
363.429	357.5
363.656	352.5
363.882	332.5
364.109	344.5
364.335	342.5
364.562	348.5
364.788	321.5
365.015	354.5
365.241	345.5
365.468	339.5
365.694	351.5
365.92	358.5
366.147	345.5
366.373	340.5
366.599	322.5
366.826	333.5
367.052	324.5
367.278	365.5
367.505	332.5
367.731	324.5
367.957	352.5
368.184	340.5
368.41	332.5
368.636	343.5
368.862	352.5
369.089	346.5
369.315	347.5
369.541	331.5
369.767	328.5
369.993	333.5
370.219	358.5
370.445	344.5
370.672	322.5
370.898	328.5
371.124	330.5
371.35	331.5
371.576	325.5
371.802	358.5
372.028	343.5
372.254	331.5
372.48	331.5
372.706	331.5
372.932	326.5
373.158	339.5
373.384	324.5
373.61	335.5
373.835	338.5
374.061	323.5
374.287	326.5
374.513	328.5
374.739	354.5
374.965	342.5
375.191	357.5
375.416	351.5
375.642	314.5
375.868	330.5
376.094	328.5
376.319	345.5
376.545	350.5
376.771	329.5
376.997	334.5
377.222	327.5
377.448	322.5
377.674	336.5
377.899	332.5
378.125	334.5
378.35	330.5
378.576	319.5
378.802	334.5
379.027	336.5
379.253	348.5
379.478	347.5
379.704	336.5
379.929	310.5
380.155	349.5
380.38	340.5
380.606	339.5
380.831	348.5
381.057	338.5
381.282	324.5
381.507	352.5
381.733	346.5
381.958	326.5
382.184	334.5
382.409	335.5
382.634	347.5
382.86	339.5
383.085	352.5
383.31	344.5
383.535	341.5
383.761	341.5
383.986	354.5
384.211	332.5
384.436	347.5
384.662	342.5
384.887	377.5
385.112	342.5
385.337	349.5
385.562	348.5
385.787	370.5
386.013	370.5
386.238	360.5
386.463	376.5
386.688	368.5
386.913	358.5
387.138	331.5
387.363	368.5
387.588	372.5
387.813	361.5
388.038	358.5
388.263	337.5
388.488	377.5
388.713	350.5
388.938	366.5
389.163	366.5
389.387	367.5
389.612	355.5
389.837	366.5
390.062	348.5
390.287	357.5
390.512	338.5
390.736	339.5
390.961	366.5
391.186	361.5
391.411	370.5
391.636	360.5
391.86	361.5
392.085	383.5
392.31	354.5
392.534	361.5
392.759	360.5
392.984	376.5
393.208	344.5
393.433	366.5
393.658	359.5
393.882	355.5
394.107	358.5
394.331	359.5
394.556	352.5
394.78	364.5
395.005	356.5
395.229	363.5
395.454	371.5
395.678	368.5
395.903	369.5
396.127	393.5
396.352	399.5
396.576	383.5
396.801	370.5
397.025	374.5
397.249	383.5
397.474	395.5
397.698	367.5
397.922	378.5
398.147	382.5
398.371	414.5
398.595	401.5
398.82	401.5
399.044	425.5
399.268	408.5
399.492	447.5
399.717	450.5
399.941	454.5
400.165	487.5
400.389	500.5
400.613	466.5
400.837	456.5
401.062	421.5
401.286	405.5
401.51	415.5
401.734	404.5
401.958	400.5
402.182	400.5
402.406	439.5
402.63	426.5
402.854	406.5
403.078	430.5
403.302	427.5
403.526	424.5
403.75	408.5
403.974	428.5
404.198	419.5
404.422	433.5
404.645	426.5
404.869	443.5
405.093	462.5
405.317	492.5
405.541	524.5
405.765	464.5
405.988	434.5
406.212	459.5
406.436	467.5
406.66	460.5
406.883	449.5
407.107	485.5
407.331	522.5
407.555	576.5
407.778	548.5
408.002	518.5
408.226	486.5
408.449	487.5
408.673	470.5
408.896	508.5
409.12	494.5
409.344	471.5
409.567	434.5
409.791	440.5
410.014	434.5
410.238	434.5
410.461	429.5
410.685	424.5
410.908	448.5
411.132	462.5
411.355	505.5
411.578	472.5
411.802	441.5
412.025	428.5
412.249	447.5
412.472	454.5
412.695	480.5
412.919	472.5
413.142	435.5
413.365	425.5
413.589	424.5
413.812	425.5
414.035	403.5
414.258	411.5
414.482	409.5
414.705	410.5
414.928	389.5
415.151	382.5
415.374	403.5
415.597	399.5
415.821	400.5
416.044	397.5
416.267	416.5
416.49	410.5
416.713	397.5
416.936	405.5
417.159	398.5
417.382	376.5
417.605	408.5
417.828	415.5
418.051	416.5
418.274	420.5
418.497	403.5
418.72	397.5
418.943	382.5
419.166	423.5
419.389	446.5
419.611	420.5
419.834	414.5
420.057	432.5
420.28	452.5
420.503	421.5
420.726	438.5
420.948	455.5
421.171	456.5
421.394	494.5
421.617	421.5
421.839	432.5
422.062	444.5
422.285	435.5
422.507	459.5
422.73	535.5
422.953	508.5
423.175	468.5
423.398	458.5
423.621	424.5
423.843	455.5
424.066	429.5
424.288	458.5
424.511	473.5
424.733	519.5
424.956	563.5
425.178	552.5
425.401	550.5
425.623	579.5
425.846	504.5
426.068	454.5
426.291	444.5
426.513	465.5
426.735	475.5
426.958	498.5
427.18	581.5
427.402	666.5
427.625	742.5
427.847	685.5
428.069	588.5
428.292	530.5
428.514	457.5
428.736	440.5
428.958	448.5
429.181	445.5
429.403	420.5
429.625	427.5
429.847	481.5
430.069	537.5
430.292	524.5
430.514	435.5
430.736	430.5
430.958	416.5
431.18	407.5
431.402	412.5
431.624	410.5
431.846	404.5
432.068	403.5
432.29	379.5
432.512	413.5
432.734	422.5
432.956	410.5
433.178	425.5
433.4	406.5
433.622	399.5
433.844	401.5
434.066	389.5
434.287	394.5
434.509	421.5
434.731	412.5
434.953	411.5
435.175	424.5
435.397	441.5
435.618	458.5
435.84	504.5
436.062	585.5
436.284	608.5
436.505	521.5
436.727	471.5
436.949	434.5
437.17	422.5
437.392	455.5
437.614	465.5
437.835	489.5
438.057	574.5
438.278	622.5
438.5	628.5
438.721	681.5
438.943	637.5
439.165	532.5
439.386	495.5
439.608	485.5
439.829	472.5
440.05	526.5
440.272	532.5
440.493	503.5
440.715	472.5
440.936	444.5
441.158	433.5
441.379	449.5
441.6	438.5
441.822	469.5
442.043	513.5
442.264	552.5
442.486	600.5
442.707	501.5
442.928	473.5
443.149	494.5
443.371	518.5
443.592	538.5
443.813	577.5
444.034	648.5
444.255	546.5
444.476	487.5
444.698	467.5
444.919	450.5
445.14	566.5
445.361	512.5
445.582	516.5
445.803	542.5
446.024	634.5
446.245	671.5
446.466	598.5
446.687	506.5
446.908	468.5
447.129	441.5
447.35	444.5
447.571	440.5
447.792	436.5
448.013	444.5
448.234	452.5
448.455	508.5
448.675	587.5
448.896	644.5
449.117	594.5
449.338	557.5
449.559	640.5
449.779	698.5
450	576.5
450.221	476.5
450.442	442.5
450.662	421.5
450.883	425.5
451.104	433.5
451.324	453.5
451.545	422.5
451.766	408.5
451.986	404.5
452.207	407.5
452.428	395.5
452.648	387.5
452.869	378.5
453.089	408.5
453.31	411.5
453.53	419.5
453.751	406.5
453.971	399.5
454.192	427.5
454.412	413.5
454.633	401.5
454.853	371.5
455.073	405.5
455.294	425.5
455.514	467.5
455.734	449.5
455.955	380.5
456.175	372.5
456.395	383.5
456.616	363.5
456.836	356.5
457.056	366.5
457.276	359.5
457.497	373.5
457.717	366.5
457.937	373.5
458.157	367.5
458.377	365.5
458.598	427.5
458.818	455.5
459.038	539.5
459.258	537.5
459.478	454.5
459.698	402.5
459.918	405.5
460.138	414.5
460.358	396.5
460.578	407.5
460.798	405.5
461.018	390.5
461.238	409.5
461.458	412.5
461.678	409.5
461.898	403.5
462.118	397.5
462.338	420.5
462.558	395.5
462.777	422.5
462.997	419.5
463.217	416.5
463.437	428.5
463.657	433.5
463.876	409.5
464.096	421.5
464.316	424.5
464.536	430.5
464.755	438.5
464.975	449.5
465.195	467.5
465.414	563.5
465.634	507.5
465.854	444.5
466.073	417.5
466.293	415.5
466.512	406.5
466.732	409.5
466.951	391.5
467.171	410.5
467.391	398.5
467.61	424.5
467.829	401.5
468.049	400.5
468.268	411.5
468.488	400.5
468.707	392.5
468.927	408.5
469.146	390.5
469.365	376.5
469.585	394.5
469.804	429.5
470.023	416.5
470.243	395.5
470.462	407.5
470.681	433.5
470.901	431.5
471.12	399.5
471.339	400.5
471.558	405.5
471.777	408.5
471.997	387.5
472.216	420.5
472.435	449.5
472.654	420.5
472.873	408.5
473.092	408.5
473.311	403.5
473.53	401.5
473.749	435.5
473.968	443.5
474.187	541.5
474.406	547.5
474.625	462.5
474.844	420.5
475.063	426.5
475.282	427.5
475.501	393.5
475.72	405.5
475.939	435.5
476.158	417.5
476.377	428.5
476.596	414.5
476.814	437.5
477.033	436.5
477.252	419.5
477.471	445.5
477.69	433.5
477.908	427.5
478.127	432.5
478.346	421.5
478.564	448.5
478.783	446.5
479.002	453.5
479.22	452.5
479.439	462.5
479.658	508.5
479.876	481.5
480.095	494.5
480.313	500.5
480.532	510.5
480.751	490.5
480.969	508.5
481.188	558.5
481.406	606.5
481.624	534.5
481.843	492.5
482.061	496.5
482.28	479.5
482.498	467.5
482.717	463.5
482.935	469.5
483.153	485.5
483.372	480.5
483.59	466.5
483.808	476.5
484.027	468.5
484.245	484.5
484.463	469.5
484.681	482.5
484.9	483.5
485.118	476.5
485.336	489.5
485.554	494.5
485.772	478.5
485.99	487.5
486.209	527.5
486.427	483.5
486.645	514.5
486.863	534.5
487.081	526.5
487.299	503.5
487.517	510.5
487.735	471.5
487.953	506.5
488.171	508.5
488.389	499.5
488.607	502.5
488.825	517.5
489.043	524.5
489.261	519.5
489.479	515.5
489.696	497.5
489.914	510.5
490.132	542.5
490.35	543.5
490.568	512.5
490.786	543.5
491.003	563.5
491.221	547.5
491.439	563.5
491.657	560.5
491.874	572.5
492.092	585.5
492.31	570.5
492.527	599.5
492.745	605.5
492.963	597.5
493.18	575.5
493.398	600.5
493.615	626.5
493.833	601.5
494.05	581.5
494.268	599.5
494.485	595.5
494.703	611.5
494.92	598.5
495.138	597.5
495.355	602.5
495.573	606.5
495.79	610.5
496.008	596.5
496.225	587.5
496.442	606.5
496.66	600.5
496.877	604.5
497.094	612.5
497.312	599.5
497.529	618.5
497.746	615.5
497.963	613.5
498.181	630.5
498.398	639.5
498.615	672.5
498.832	663.5
499.049	663.5
499.267	664.5
499.484	695.5
499.701	699.5
499.918	725.5
500.135	735.5
500.352	762.5
500.569	767.5
500.786	770.5
501.003	787.5
501.22	736.5
501.437	732.5
501.654	739.5
501.871	723.5
502.088	709.5
502.305	688.5
502.522	662.5
502.739	663.5
502.956	667.5
503.172	630.5
503.389	622.5
503.606	629.5
503.823	656.5
504.04	615.5
504.256	606.5
504.473	585.5
504.69	586.5
504.907	596.5
505.123	572.5
505.34	604.5
505.557	545.5
505.773	595.5
505.99	562.5
506.207	583.5
506.423	577.5
506.64	574.5
506.856	581.5
507.073	547.5
507.289	536.5
507.506	574.5
507.722	588.5
507.939	598.5
508.155	566.5
508.372	565.5
508.588	543.5
508.805	550.5
509.021	561.5
509.238	569.5
509.454	576.5
509.67	568.5
509.887	574.5
510.103	564.5
510.319	556.5
510.536	674.5
510.752	1179.5
510.968	940.5
511.184	586.5
511.401	550.5
511.617	558.5
511.833	535.5
512.049	545.5
512.265	536.5
512.481	535.5
512.698	547.5
512.914	532.5
513.13	545.5
513.346	527.5
513.562	521.5
513.778	528.5
513.994	536.5
514.21	554.5
514.426	579.5
514.642	617.5
514.858	658.5
515.074	709.5
515.29	866.5
515.506	1279.5
515.721	1046.5
515.937	675.5
516.153	623.5
516.369	592.5
516.585	565.5
516.801	572.5
517.016	540.5
517.232	547.5
517.448	549.5
517.664	557.5
517.879	550.5
518.095	549.5
518.311	545.5
518.527	549.5
518.742	528.5
518.958	524.5
519.173	555.5
519.389	519.5
519.605	536.5
519.82	524.5
