Data from 1965.PennyLincolnUp.Lamp.En5.5.200Scan.071719.P1._HRD10591_14-10-18-912.txt Node
Date: Thu Jul 18 14:10:18 EDT 2019
User: cochatt
Spectrometer: HR+D1059
Trigger mode: 1
Integration Time (sec): 1.000000E-1
Scans to average: 1
Electric dark correction enabled: true
Nonlinearity correction enabled: false
Boxcar width: 0
XAxis mode: Wavelengths
Number of Pixels in Spectrum: 2048
>>>>>Begin Spectral Data<<<<<
223.165	-27.25
223.4	-27.25
223.635	-27.25
223.869	-20.25
224.104	-25.25
224.338	-4.25
224.573	-20.25
224.808	-9.25
225.042	-17.25
225.277	-2.25
225.511	-0.25
225.746	5.75
225.98	10.75
226.215	9.75
226.449	25.75
226.683	15.75
226.918	27.75
227.152	30.75
227.387	30.75
227.621	35.75
227.856	49.75
228.09	54.75
228.324	49.75
228.559	68.75
228.793	58.75
229.027	96.75
229.262	97.75
229.496	100.75
229.73	139.75
229.964	153.75
230.199	118.75
230.433	109.75
230.667	106.75
230.901	111.75
231.136	116.75
231.37	107.75
231.604	98.75
231.838	100.75
232.072	107.75
232.306	127.75
232.541	124.75
232.775	101.75
233.009	102.75
233.243	99.75
233.477	94.75
233.711	116.75
233.945	122.75
234.179	108.75
234.413	114.75
234.647	118.75
234.881	100.75
235.115	110.75
235.349	118.75
235.583	109.75
235.817	124.75
236.051	110.75
236.285	122.75
236.519	125.75
236.753	133.75
236.987	141.75
237.221	172.75
237.455	218.75
237.689	177.75
237.922	128.75
238.156	145.75
238.39	129.75
238.624	118.75
238.858	119.75
239.091	115.75
239.325	123.75
239.559	104.75
239.793	130.75
240.027	123.75
240.26	139.75
240.494	143.75
240.728	127.75
240.961	141.75
241.195	137.75
241.429	143.75
241.662	122.75
241.896	123.75
242.13	130.75
242.363	124.75
242.597	137.75
242.83	136.75
243.064	113.75
243.298	128.75
243.531	125.75
243.765	110.75
243.998	119.75
244.232	126.75
244.465	122.75
244.699	134.75
244.932	125.75
245.166	125.75
245.399	131.75
245.633	134.75
245.866	128.75
246.099	142.75
246.333	139.75
246.566	131.75
246.8	156.75
247.033	131.75
247.266	141.75
247.5	152.75
247.733	152.75
247.966	164.75
248.2	137.75
248.433	166.75
248.666	162.75
248.899	167.75
249.133	175.75
249.366	189.75
249.599	190.75
249.832	173.75
250.066	176.75
250.299	169.75
250.532	171.75
250.765	190.75
250.998	202.75
251.231	181.75
251.465	193.75
251.698	203.75
251.931	175.75
252.164	172.75
252.397	171.75
252.63	172.75
252.863	184.75
253.096	203.75
253.329	199.75
253.562	191.75
253.795	197.75
254.028	206.75
254.261	184.75
254.494	212.75
254.727	222.75
254.96	246.75
255.193	259.75
255.426	223.75
255.659	220.75
255.892	205.75
256.124	211.75
256.357	220.75
256.59	212.75
256.823	211.75
257.056	196.75
257.289	196.75
257.521	183.75
257.754	199.75
257.987	196.75
258.22	183.75
258.452	175.75
258.685	177.75
258.918	188.75
259.151	204.75
259.383	204.75
259.616	205.75
259.849	198.75
260.081	212.75
260.314	231.75
260.547	251.75
260.779	222.75
261.012	204.75
261.244	192.75
261.477	204.75
261.71	215.75
261.942	211.75
262.175	238.75
262.407	219.75
262.64	218.75
262.872	207.75
263.105	193.75
263.337	190.75
263.57	175.75
263.802	203.75
264.035	197.75
264.267	191.75
264.499	189.75
264.732	188.75
264.964	212.75
265.197	195.75
265.429	184.75
265.661	184.75
265.894	182.75
266.126	196.75
266.358	199.75
266.591	216.75
266.823	213.75
267.055	200.75
267.287	209.75
267.52	201.75
267.752	191.75
267.984	217.75
268.216	206.75
268.448	216.75
268.681	217.75
268.913	221.75
269.145	239.75
269.377	245.75
269.609	258.75
269.841	262.75
270.073	245.75
270.306	251.75
270.538	283.75
270.77	295.75
271.002	280.75
271.234	255.75
271.466	271.75
271.698	277.75
271.93	297.75
272.162	294.75
272.394	290.75
272.626	283.75
272.858	268.75
273.09	267.75
273.322	239.75
273.553	247.75
273.785	253.75
274.017	250.75
274.249	262.75
274.481	234.75
274.713	244.75
274.945	239.75
275.176	236.75
275.408	227.75
275.64	248.75
275.872	246.75
276.104	252.75
276.335	237.75
276.567	245.75
276.799	249.75
277.031	287.75
277.262	292.75
277.494	281.75
277.726	288.75
277.957	253.75
278.189	269.75
278.421	245.75
278.652	241.75
278.884	238.75
279.115	241.75
279.347	253.75
279.579	233.75
279.81	234.75
280.042	242.75
280.273	241.75
280.505	239.75
280.736	243.75
280.968	224.75
281.199	232.75
281.431	245.75
281.662	241.75
281.894	231.75
282.125	235.75
282.356	246.75
282.588	281.75
282.819	285.75
283.051	259.75
283.282	250.75
283.513	260.75
283.745	245.75
283.976	236.75
284.207	250.75
284.439	273.75
284.67	268.75
284.901	230.75
285.132	245.75
285.364	253.75
285.595	248.75
285.826	270.75
286.057	251.75
286.288	231.75
286.52	249.75
286.751	231.75
286.982	257.75
287.213	258.75
287.444	269.75
287.675	259.75
287.906	254.75
288.138	265.75
288.369	266.75
288.6	282.75
288.831	252.75
289.062	261.75
289.293	282.75
289.524	245.75
289.755	259.75
289.986	249.75
290.217	247.75
290.448	257.75
290.679	245.75
290.91	258.75
291.141	266.75
291.371	250.75
291.602	266.75
291.833	277.75
292.064	246.75
292.295	257.75
292.526	257.75
292.757	238.75
292.987	263.75
293.218	261.75
293.449	256.75
293.68	250.75
293.91	254.75
294.141	248.75
294.372	264.75
294.603	262.75
294.833	262.75
295.064	255.75
295.295	250.75
295.525	261.75
295.756	265.75
295.987	263.75
296.217	301.75
296.448	285.75
296.679	281.75
296.909	270.75
297.14	255.75
297.37	268.75
297.601	268.75
297.831	265.75
298.062	271.75
298.292	280.75
298.523	265.75
298.753	273.75
298.984	282.75
299.214	281.75
299.445	253.75
299.675	277.75
299.905	286.75
300.136	290.75
300.366	287.75
300.597	289.75
300.827	273.75
301.057	290.75
301.288	285.75
301.518	285.75
301.748	294.75
301.979	292.75
302.209	283.75
302.439	281.75
302.669	283.75
302.9	275.75
303.13	284.75
303.36	271.75
303.59	272.75
303.82	290.75
304.051	308.75
304.281	303.75
304.511	290.75
304.741	278.75
304.971	289.75
305.201	312.75
305.431	277.75
305.661	277.75
305.891	287.75
306.121	286.75
306.352	313.75
306.582	287.75
306.812	288.75
307.042	290.75
307.272	287.75
307.502	284.75
307.731	295.75
307.961	291.75
308.191	291.75
308.421	311.75
308.651	317.75
308.881	300.75
309.111	301.75
309.341	301.75
309.571	307.75
309.8	315.75
310.03	346.75
310.26	334.75
310.49	342.75
310.72	362.75
310.949	363.75
311.179	375.75
311.409	350.75
311.639	337.75
311.868	354.75
312.098	347.75
312.328	348.75
312.557	359.75
312.787	379.75
313.017	379.75
313.246	380.75
313.476	357.75
313.706	343.75
313.935	340.75
314.165	363.75
314.394	365.75
314.624	389.75
314.853	362.75
315.083	356.75
315.312	350.75
315.542	338.75
315.771	335.75
316.001	343.75
316.23	327.75
316.46	327.75
316.689	329.75
316.919	348.75
317.148	359.75
317.377	356.75
317.607	365.75
317.836	345.75
318.065	329.75
318.295	321.75
318.524	339.75
318.753	344.75
318.983	338.75
319.212	333.75
319.441	344.75
319.67	358.75
319.9	343.75
320.129	354.75
320.358	346.75
320.587	353.75
320.816	364.75
321.046	371.75
321.275	377.75
321.504	366.75
321.733	363.75
321.962	386.75
322.191	384.75
322.42	391.75
322.649	419.75
322.878	420.75
323.108	433.75
323.337	467.75
323.566	470.75
323.795	509.75
324.024	585.75
324.253	719.75
324.482	1055.75
324.71	1615.75
324.939	2216.75
325.168	1841.75
325.397	971.75
325.626	639.75
325.855	553.75
326.084	497.75
326.313	490.75
326.542	491.75
326.77	548.75
326.999	643.75
327.228	918.75
327.457	1421.75
327.686	1621.75
327.914	1087.75
328.143	718.75
328.372	657.75
328.6	579.75
328.829	551.75
329.058	553.75
329.287	566.75
329.515	541.75
329.744	508.75
329.972	498.75
330.201	522.75
330.43	563.75
330.658	585.75
330.887	607.75
331.115	607.75
331.344	496.75
331.572	488.75
331.801	463.75
332.03	471.75
332.258	460.75
332.486	429.75
332.715	416.75
332.943	430.75
333.172	407.75
333.4	411.75
333.629	419.75
333.857	453.75
334.085	453.75
334.314	466.75
334.542	508.75
334.771	527.75
334.999	451.75
335.227	411.75
335.455	407.75
335.684	382.75
335.912	396.75
336.14	408.75
336.369	395.75
336.597	416.75
336.825	414.75
337.053	408.75
337.281	409.75
337.51	398.75
337.738	381.75
337.966	394.75
338.194	415.75
338.422	406.75
338.65	418.75
338.878	389.75
339.106	381.75
339.334	385.75
339.562	386.75
339.79	367.75
340.018	385.75
340.246	379.75
340.474	387.75
340.702	400.75
340.93	389.75
341.158	382.75
341.386	389.75
341.614	390.75
341.842	397.75
342.07	393.75
342.298	374.75
342.526	377.75
342.754	378.75
342.981	370.75
343.209	362.75
343.437	375.75
343.665	367.75
343.893	388.75
344.12	399.75
344.348	398.75
344.576	394.75
344.804	415.75
345.031	428.75
345.259	420.75
345.487	378.75
345.714	395.75
345.942	380.75
346.17	366.75
346.397	377.75
346.625	363.75
346.853	351.75
347.08	377.75
347.308	371.75
347.535	380.75
347.763	383.75
347.99	395.75
348.218	385.75
348.445	383.75
348.673	392.75
348.9	385.75
349.128	385.75
349.355	374.75
349.583	359.75
349.81	364.75
350.037	353.75
350.265	375.75
350.492	369.75
350.72	375.75
350.947	381.75
351.174	375.75
351.402	382.75
351.629	394.75
351.856	387.75
352.083	395.75
352.311	397.75
352.538	407.75
352.765	398.75
352.992	396.75
353.22	378.75
353.447	358.75
353.674	355.75
353.901	373.75
354.128	319.75
354.355	334.75
354.583	372.75
354.81	359.75
355.037	327.75
355.264	334.75
355.491	336.75
355.718	347.75
355.945	344.75
356.172	341.75
356.399	325.75
356.626	349.75
356.853	341.75
357.08	353.75
357.307	337.75
357.534	347.75
357.761	354.75
357.988	345.75
358.215	341.75
358.441	358.75
358.668	349.75
358.895	331.75
359.122	358.75
359.349	374.75
359.576	388.75
359.802	386.75
360.029	428.75
360.256	437.75
360.483	420.75
360.709	407.75
360.936	383.75
361.163	366.75
361.39	382.75
361.616	415.75
361.843	372.75
362.07	367.75
362.296	383.75
362.523	393.75
362.749	380.75
362.976	365.75
363.203	359.75
363.429	365.75
363.656	364.75
363.882	378.75
364.109	362.75
364.335	352.75
364.562	354.75
364.788	340.75
365.015	345.75
365.241	351.75
365.468	352.75
365.694	364.75
365.92	346.75
366.147	369.75
366.373	362.75
366.599	368.75
366.826	355.75
367.052	367.75
367.278	353.75
367.505	365.75
367.731	345.75
367.957	343.75
368.184	350.75
368.41	370.75
368.636	362.75
368.862	360.75
369.089	356.75
369.315	342.75
369.541	332.75
369.767	364.75
369.993	356.75
370.219	352.75
370.445	345.75
370.672	347.75
370.898	332.75
371.124	337.75
371.35	353.75
371.576	346.75
371.802	343.75
372.028	335.75
372.254	363.75
372.48	339.75
372.706	362.75
372.932	329.75
373.158	348.75
373.384	358.75
373.61	367.75
373.835	357.75
374.061	352.75
374.287	355.75
374.513	360.75
374.739	358.75
374.965	365.75
375.191	365.75
375.416	328.75
375.642	347.75
375.868	348.75
376.094	351.75
376.319	332.75
376.545	349.75
376.771	359.75
376.997	341.75
377.222	335.75
377.448	357.75
377.674	330.75
377.899	353.75
378.125	347.75
378.35	334.75
378.576	336.75
378.802	351.75
379.027	339.75
379.253	337.75
379.478	343.75
379.704	351.75
379.929	347.75
380.155	349.75
380.38	357.75
380.606	362.75
380.831	343.75
381.057	364.75
381.282	349.75
381.507	354.75
381.733	340.75
381.958	353.75
382.184	343.75
382.409	356.75
382.634	360.75
382.86	366.75
383.085	369.75
383.31	360.75
383.535	362.75
383.761	349.75
383.986	361.75
384.211	358.75
384.436	361.75
384.662	375.75
384.887	364.75
385.112	353.75
385.337	369.75
385.562	356.75
385.787	361.75
386.013	385.75
386.238	383.75
386.463	375.75
386.688	385.75
386.913	376.75
387.138	381.75
387.363	373.75
387.588	372.75
387.813	361.75
388.038	378.75
388.263	386.75
388.488	373.75
388.713	366.75
388.938	360.75
389.163	375.75
389.387	380.75
389.612	373.75
389.837	368.75
390.062	377.75
390.287	372.75
390.512	374.75
390.736	379.75
390.961	369.75
391.186	377.75
391.411	383.75
391.636	376.75
391.86	380.75
392.085	366.75
392.31	363.75
392.534	383.75
392.759	367.75
392.984	390.75
393.208	361.75
393.433	362.75
393.658	357.75
393.882	381.75
394.107	361.75
394.331	372.75
394.556	373.75
394.78	359.75
395.005	373.75
395.229	393.75
395.454	390.75
395.678	366.75
395.903	411.75
396.127	374.75
396.352	393.75
396.576	398.75
396.801	380.75
397.025	379.75
397.249	381.75
397.474	389.75
397.698	419.75
397.922	405.75
398.147	413.75
398.371	414.75
398.595	422.75
398.82	411.75
399.044	422.75
399.268	426.75
399.492	443.75
399.717	457.75
399.941	497.75
400.165	487.75
400.389	490.75
400.613	486.75
400.837	435.75
401.062	437.75
401.286	397.75
401.51	425.75
401.734	414.75
401.958	417.75
402.182	427.75
402.406	460.75
402.63	435.75
402.854	440.75
403.078	449.75
403.302	444.75
403.526	427.75
403.75	441.75
403.974	437.75
404.198	442.75
404.422	450.75
404.645	441.75
404.869	433.75
405.093	472.75
405.317	539.75
405.541	538.75
405.765	485.75
405.988	458.75
406.212	474.75
406.436	484.75
406.66	496.75
406.883	482.75
407.107	513.75
407.331	529.75
407.555	585.75
407.778	579.75
408.002	537.75
408.226	519.75
408.449	482.75
408.673	481.75
408.896	508.75
409.12	552.75
409.344	502.75
409.567	458.75
409.791	453.75
410.014	420.75
410.238	433.75
410.461	437.75
410.685	449.75
410.908	458.75
411.132	491.75
411.355	517.75
411.578	486.75
411.802	468.75
412.025	441.75
412.249	445.75
412.472	467.75
412.695	517.75
412.919	480.75
413.142	469.75
413.365	440.75
413.589	443.75
413.812	436.75
414.035	422.75
414.258	404.75
414.482	405.75
414.705	406.75
414.928	434.75
415.151	409.75
415.374	417.75
415.597	399.75
415.821	430.75
416.044	413.75
416.267	436.75
416.49	402.75
416.713	410.75
416.936	420.75
417.159	405.75
417.382	415.75
417.605	434.75
417.828	414.75
418.051	426.75
418.274	437.75
418.497	416.75
418.72	414.75
418.943	416.75
419.166	414.75
419.389	457.75
419.611	437.75
419.834	448.75
420.057	453.75
420.28	431.75
420.503	438.75
420.726	427.75
420.948	462.75
421.171	503.75
421.394	518.75
421.617	453.75
421.839	425.75
422.062	453.75
422.285	463.75
422.507	522.75
422.73	575.75
422.953	552.75
423.175	474.75
423.398	463.75
423.621	447.75
423.843	471.75
424.066	489.75
424.288	470.75
424.511	512.75
424.733	531.75
424.956	609.75
425.178	593.75
425.401	563.75
425.623	583.75
425.846	518.75
426.068	476.75
426.291	477.75
426.513	490.75
426.735	498.75
426.958	500.75
427.18	607.75
427.402	691.75
427.625	769.75
427.847	694.75
428.069	599.75
428.292	537.75
428.514	485.75
428.736	449.75
428.958	462.75
429.181	459.75
429.403	446.75
429.625	452.75
429.847	482.75
430.069	548.75
430.292	534.75
430.514	461.75
430.736	437.75
430.958	425.75
431.18	415.75
431.402	422.75
431.624	414.75
431.846	428.75
432.068	399.75
432.29	445.75
432.512	422.75
432.734	442.75
432.956	409.75
433.178	423.75
433.4	427.75
433.622	438.75
433.844	424.75
434.066	413.75
434.287	394.75
434.509	421.75
434.731	415.75
434.953	429.75
435.175	434.75
435.397	469.75
435.618	469.75
435.84	518.75
436.062	591.75
436.284	653.75
436.505	563.75
436.727	489.75
436.949	451.75
437.17	457.75
437.392	442.75
437.614	471.75
437.835	515.75
438.057	605.75
438.278	678.75
438.5	671.75
438.721	714.75
438.943	661.75
439.165	544.75
439.386	534.75
439.608	504.75
439.829	503.75
440.05	525.75
440.272	574.75
440.493	519.75
440.715	483.75
440.936	467.75
441.158	462.75
441.379	452.75
441.6	476.75
441.822	477.75
442.043	531.75
442.264	609.75
442.486	615.75
442.707	530.75
442.928	506.75
443.149	510.75
443.371	531.75
443.592	567.75
443.813	654.75
444.034	659.75
444.255	558.75
444.476	503.75
444.698	497.75
444.919	481.75
445.14	577.75
445.361	528.75
445.582	549.75
445.803	580.75
446.024	710.75
446.245	690.75
446.466	640.75
446.687	535.75
446.908	492.75
447.129	449.75
447.35	463.75
447.571	441.75
447.792	433.75
448.013	475.75
448.234	481.75
448.455	529.75
448.675	627.75
448.896	703.75
449.117	604.75
449.338	590.75
449.559	685.75
449.779	750.75
450	611.75
450.221	500.75
450.442	485.75
450.662	458.75
450.883	451.75
451.104	456.75
451.324	452.75
451.545	435.75
451.766	419.75
451.986	386.75
452.207	420.75
452.428	402.75
452.648	415.75
452.869	391.75
453.089	428.75
453.31	432.75
453.53	424.75
453.751	410.75
453.971	402.75
454.192	442.75
454.412	436.75
454.633	403.75
454.853	395.75
455.073	391.75
455.294	443.75
455.514	504.75
455.734	478.75
455.955	409.75
456.175	384.75
456.395	387.75
456.616	383.75
456.836	404.75
457.056	373.75
457.276	379.75
457.497	382.75
457.717	373.75
457.937	384.75
458.157	395.75
458.377	383.75
458.598	425.75
458.818	478.75
459.038	573.75
459.258	572.75
459.478	473.75
459.698	440.75
459.918	406.75
460.138	425.75
460.358	417.75
460.578	396.75
460.798	427.75
461.018	438.75
461.238	417.75
461.458	411.75
461.678	421.75
461.898	445.75
462.118	437.75
462.338	428.75
462.558	428.75
462.777	433.75
462.997	438.75
463.217	435.75
463.437	443.75
463.657	426.75
463.876	435.75
464.096	443.75
464.316	456.75
464.536	457.75
464.755	449.75
464.975	465.75
465.195	520.75
465.414	605.75
465.634	517.75
465.854	479.75
466.073	461.75
466.293	443.75
466.512	411.75
466.732	410.75
466.951	409.75
467.171	396.75
467.391	398.75
467.61	433.75
467.829	447.75
468.049	410.75
468.268	425.75
468.488	432.75
468.707	412.75
468.927	397.75
469.146	401.75
469.365	415.75
469.585	409.75
469.804	425.75
470.023	430.75
470.243	433.75
470.462	437.75
470.681	456.75
470.901	433.75
471.12	405.75
471.339	411.75
471.558	422.75
471.777	420.75
471.997	425.75
472.216	441.75
472.435	464.75
472.654	433.75
472.873	396.75
473.092	429.75
473.311	413.75
473.53	410.75
473.749	405.75
473.968	494.75
474.187	573.75
474.406	585.75
474.625	478.75
474.844	433.75
475.063	427.75
475.282	452.75
475.501	423.75
475.72	423.75
475.939	441.75
476.158	431.75
476.377	433.75
476.596	429.75
476.814	415.75
477.033	450.75
477.252	432.75
477.471	425.75
477.69	453.75
477.908	419.75
478.127	426.75
478.346	453.75
478.564	464.75
478.783	457.75
479.002	460.75
479.22	470.75
479.439	497.75
479.658	497.75
479.876	504.75
480.095	501.75
480.313	535.75
480.532	515.75
480.751	527.75
480.969	523.75
481.188	596.75
481.406	655.75
481.624	547.75
481.843	515.75
482.061	515.75
482.28	517.75
482.498	487.75
482.717	484.75
482.935	487.75
483.153	483.75
483.372	469.75
483.59	493.75
483.808	498.75
484.027	479.75
484.245	489.75
484.463	497.75
484.681	503.75
484.9	486.75
485.118	513.75
485.336	494.75
485.554	505.75
485.772	521.75
485.99	502.75
486.209	484.75
486.427	519.75
486.645	512.75
486.863	546.75
487.081	562.75
487.299	531.75
487.517	541.75
487.735	541.75
487.953	541.75
488.171	515.75
488.389	518.75
488.607	546.75
488.825	518.75
489.043	516.75
489.261	522.75
489.479	533.75
489.696	542.75
489.914	541.75
490.132	542.75
490.35	559.75
490.568	571.75
490.786	593.75
491.003	562.75
491.221	593.75
491.439	585.75
491.657	619.75
491.874	637.75
492.092	599.75
492.31	606.75
492.527	617.75
492.745	591.75
492.963	614.75
493.18	606.75
493.398	630.75
493.615	630.75
493.833	615.75
494.05	623.75
494.268	630.75
494.485	629.75
494.703	620.75
494.92	623.75
495.138	630.75
495.355	627.75
495.573	645.75
495.79	633.75
496.008	626.75
496.225	632.75
496.442	613.75
496.66	630.75
496.877	612.75
497.094	636.75
497.312	635.75
497.529	606.75
497.746	663.75
497.963	641.75
498.181	671.75
498.398	690.75
498.615	675.75
498.832	679.75
499.049	669.75
499.267	683.75
499.484	709.75
499.701	727.75
499.918	757.75
500.135	777.75
500.352	793.75
500.569	808.75
500.786	789.75
501.003	807.75
501.22	771.75
501.437	753.75
501.654	754.75
501.871	758.75
