Data from 1965.PennyLincolnUp.Lamp.En5.5.200Scan.071719.P1._HRD10591_14-10-25-912.txt Node
Date: Thu Jul 18 14:10:25 EDT 2019
User: cochatt
Spectrometer: HR+D1059
Trigger mode: 1
Integration Time (sec): 1.000000E-1
Scans to average: 1
Electric dark correction enabled: true
Nonlinearity correction enabled: false
Boxcar width: 0
XAxis mode: Wavelengths
Number of Pixels in Spectrum: 2048
>>>>>Begin Spectral Data<<<<<
223.165	-14.56
223.4	-14.56
223.635	-14.56
223.869	-24.56
224.104	-10.56
224.338	-5.56
224.573	-17.56
224.808	-8.56
225.042	-8.56
225.277	-15.56
225.511	-4.56
225.746	-4.56
225.98	-2.56
226.215	15.44
226.449	21.44
226.683	19.44
226.918	35.44
227.152	25.44
227.387	57.44
227.621	43.44
227.856	33.44
228.09	55.44
228.324	41.44
228.559	45.44
228.793	70.44
229.027	77.44
229.262	106.44
229.496	107.44
229.73	126.44
229.964	151.44
230.199	126.44
230.433	109.44
230.667	121.44
230.901	113.44
231.136	114.44
231.37	111.44
231.604	120.44
231.838	87.44
232.072	118.44
232.306	117.44
232.541	113.44
232.775	105.44
233.009	111.44
233.243	97.44
233.477	109.44
233.711	116.44
233.945	122.44
234.179	120.44
234.413	129.44
234.647	124.44
234.881	104.44
235.115	115.44
235.349	117.44
235.583	118.44
235.817	119.44
236.051	121.44
236.285	126.44
236.519	122.44
236.753	133.44
236.987	140.44
237.221	176.44
237.455	229.44
237.689	171.44
237.922	143.44
238.156	131.44
238.39	128.44
238.624	123.44
238.858	120.44
239.091	115.44
239.325	126.44
239.559	128.44
239.793	111.44
240.027	126.44
240.26	142.44
240.494	157.44
240.728	152.44
240.961	152.44
241.195	136.44
241.429	132.44
241.662	133.44
241.896	135.44
242.13	135.44
242.363	120.44
242.597	129.44
242.83	139.44
243.064	129.44
243.298	143.44
243.531	145.44
243.765	121.44
243.998	134.44
244.232	138.44
244.465	145.44
244.699	141.44
244.932	138.44
245.166	149.44
245.399	135.44
245.633	134.44
245.866	140.44
246.099	137.44
246.333	146.44
246.566	142.44
246.8	133.44
247.033	131.44
247.266	141.44
247.5	155.44
247.733	171.44
247.966	164.44
248.2	163.44
248.433	161.44
248.666	161.44
248.899	199.44
249.133	194.44
249.366	197.44
249.599	192.44
249.832	169.44
250.066	176.44
250.299	172.44
250.532	190.44
250.765	182.44
250.998	206.44
251.231	202.44
251.465	194.44
251.698	199.44
251.931	189.44
252.164	182.44
252.397	177.44
252.63	202.44
252.863	191.44
253.096	215.44
253.329	237.44
253.562	224.44
253.795	203.44
254.028	197.44
254.261	209.44
254.494	214.44
254.727	243.44
254.96	254.44
255.193	243.44
255.426	238.44
255.659	221.44
255.892	225.44
256.124	245.44
256.357	246.44
256.59	202.44
256.823	202.44
257.056	216.44
257.289	197.44
257.521	191.44
257.754	194.44
257.987	189.44
258.22	177.44
258.452	182.44
258.685	200.44
258.918	203.44
259.151	211.44
259.383	198.44
259.616	221.44
259.849	203.44
260.081	216.44
260.314	234.44
260.547	235.44
260.779	236.44
261.012	220.44
261.244	199.44
261.477	214.44
261.71	210.44
261.942	222.44
262.175	221.44
262.407	213.44
262.64	212.44
262.872	191.44
263.105	206.44
263.337	221.44
263.57	189.44
263.802	204.44
264.035	188.44
264.267	204.44
264.499	193.44
264.732	201.44
264.964	195.44
265.197	201.44
265.429	189.44
265.661	179.44
265.894	194.44
266.126	204.44
266.358	195.44
266.591	209.44
266.823	206.44
267.055	224.44
267.287	218.44
267.52	208.44
267.752	211.44
267.984	214.44
268.216	218.44
268.448	220.44
268.681	226.44
268.913	224.44
269.145	237.44
269.377	264.44
269.609	266.44
269.841	243.44
270.073	266.44
270.306	289.44
270.538	282.44
270.77	289.44
271.002	279.44
271.234	292.44
271.466	282.44
271.698	306.44
271.93	268.44
272.162	299.44
272.394	285.44
272.626	282.44
272.858	271.44
273.09	261.44
273.322	257.44
273.553	241.44
273.785	248.44
274.017	238.44
274.249	239.44
274.481	250.44
274.713	254.44
274.945	264.44
275.176	244.44
275.408	248.44
275.64	258.44
275.872	233.44
276.104	255.44
276.335	246.44
276.567	248.44
276.799	269.44
277.031	289.44
277.262	289.44
277.494	285.44
277.726	299.44
277.957	267.44
278.189	254.44
278.421	254.44
278.652	240.44
278.884	235.44
279.115	252.44
279.347	250.44
279.579	257.44
279.81	237.44
280.042	242.44
280.273	249.44
280.505	247.44
280.736	250.44
280.968	232.44
281.199	253.44
281.431	255.44
281.662	234.44
281.894	240.44
282.125	265.44
282.356	283.44
282.588	256.44
282.819	287.44
283.051	251.44
283.282	262.44
283.513	255.44
283.745	258.44
283.976	257.44
284.207	259.44
284.439	233.44
284.67	256.44
284.901	266.44
285.132	273.44
285.364	255.44
285.595	245.44
285.826	242.44
286.057	250.44
286.288	285.44
286.52	234.44
286.751	267.44
286.982	247.44
287.213	251.44
287.444	264.44
287.675	264.44
287.906	280.44
288.138	269.44
288.369	284.44
288.6	283.44
288.831	272.44
289.062	250.44
289.293	251.44
289.524	255.44
289.755	261.44
289.986	265.44
290.217	265.44
290.448	255.44
290.679	260.44
290.91	259.44
291.141	246.44
291.371	245.44
291.602	242.44
291.833	249.44
292.064	266.44
292.295	249.44
292.526	252.44
292.757	261.44
292.987	266.44
293.218	267.44
293.449	264.44
293.68	255.44
293.91	274.44
294.141	265.44
294.372	257.44
294.603	265.44
294.833	264.44
295.064	258.44
295.295	260.44
295.525	269.44
295.756	268.44
295.987	305.44
296.217	292.44
296.448	301.44
296.679	285.44
296.909	263.44
297.14	271.44
297.37	280.44
297.601	275.44
297.831	273.44
298.062	270.44
298.292	269.44
298.523	277.44
298.753	271.44
298.984	259.44
299.214	279.44
299.445	291.44
299.675	289.44
299.905	296.44
300.136	293.44
300.366	292.44
300.597	281.44
300.827	298.44
301.057	301.44
301.288	305.44
301.518	305.44
301.748	295.44
301.979	291.44
302.209	289.44
302.439	305.44
302.669	298.44
302.9	306.44
303.13	294.44
303.36	293.44
303.59	332.44
303.82	315.44
304.051	321.44
304.281	295.44
304.511	305.44
304.741	312.44
304.971	284.44
305.201	315.44
305.431	295.44
305.661	291.44
305.891	295.44
306.121	287.44
306.352	307.44
306.582	299.44
306.812	307.44
307.042	326.44
307.272	303.44
307.502	300.44
307.731	302.44
307.961	294.44
308.191	298.44
308.421	314.44
308.651	319.44
308.881	315.44
309.111	315.44
309.341	327.44
309.571	338.44
309.8	334.44
310.03	341.44
310.26	346.44
310.49	355.44
310.72	384.44
310.949	374.44
311.179	391.44
311.409	361.44
311.639	351.44
311.868	359.44
312.098	364.44
312.328	351.44
312.557	366.44
312.787	386.44
313.017	382.44
313.246	358.44
313.476	347.44
313.706	356.44
313.935	362.44
314.165	377.44
314.394	354.44
314.624	355.44
314.853	352.44
315.083	358.44
315.312	338.44
315.542	346.44
315.771	353.44
316.001	349.44
316.23	335.44
316.46	334.44
316.689	343.44
316.919	347.44
317.148	376.44
317.377	370.44
317.607	349.44
317.836	368.44
318.065	351.44
318.295	345.44
318.524	352.44
318.753	343.44
318.983	354.44
319.212	351.44
319.441	361.44
319.67	375.44
319.9	361.44
320.129	367.44
320.358	374.44
320.587	376.44
320.816	363.44
321.046	383.44
321.275	378.44
321.504	400.44
321.733	370.44
321.962	383.44
322.191	407.44
322.42	388.44
322.649	431.44
322.878	453.44
323.108	461.44
323.337	470.44
323.566	485.44
323.795	536.44
324.024	590.44
324.253	732.44
324.482	1058.44
324.71	1627.44
324.939	2233.44
325.168	1805.44
325.397	956.44
325.626	657.44
325.855	553.44
326.084	519.44
326.313	506.44
326.542	497.44
326.77	555.44
326.999	643.44
327.228	918.44
327.457	1428.44
327.686	1635.44
327.914	1095.44
328.143	721.44
328.372	652.44
328.6	598.44
328.829	578.44
329.058	557.44
329.287	599.44
329.515	530.44
329.744	518.44
329.972	497.44
330.201	537.44
330.43	568.44
330.658	586.44
330.887	624.44
331.115	567.44
331.344	493.44
331.572	482.44
331.801	453.44
332.03	480.44
332.258	444.44
332.486	417.44
332.715	397.44
332.943	424.44
333.172	411.44
333.4	434.44
333.629	443.44
333.857	429.44
334.085	437.44
334.314	489.44
334.542	521.44
334.771	506.44
334.999	497.44
335.227	441.44
335.455	419.44
335.684	398.44
335.912	411.44
336.14	408.44
336.369	409.44
336.597	430.44
336.825	417.44
337.053	397.44
337.281	400.44
337.51	421.44
337.738	412.44
337.966	416.44
338.194	419.44
338.422	404.44
338.65	402.44
338.878	413.44
339.106	398.44
339.334	407.44
339.562	388.44
339.79	411.44
340.018	411.44
340.246	382.44
340.474	423.44
340.702	398.44
340.93	378.44
341.158	386.44
341.386	387.44
341.614	397.44
341.842	396.44
342.07	394.44
342.298	378.44
342.526	378.44
342.754	390.44
342.981	396.44
343.209	371.44
343.437	375.44
343.665	387.44
343.893	395.44
344.12	379.44
344.348	393.44
344.576	396.44
344.804	401.44
345.031	407.44
345.259	409.44
345.487	424.44
345.714	409.44
345.942	409.44
346.17	382.44
346.397	379.44
346.625	386.44
346.853	382.44
347.08	396.44
347.308	385.44
347.535	386.44
347.763	394.44
347.99	397.44
348.218	405.44
348.445	391.44
348.673	396.44
348.9	382.44
349.128	381.44
349.355	373.44
349.583	356.44
349.81	359.44
350.037	364.44
350.265	389.44
350.492	358.44
350.72	366.44
350.947	374.44
351.174	401.44
351.402	397.44
351.629	417.44
351.856	382.44
352.083	401.44
352.311	419.44
352.538	408.44
352.765	429.44
352.992	397.44
353.22	393.44
353.447	387.44
353.674	390.44
353.901	366.44
354.128	357.44
354.355	370.44
354.583	359.44
354.81	353.44
355.037	346.44
355.264	363.44
355.491	332.44
355.718	350.44
355.945	361.44
356.172	349.44
356.399	342.44
356.626	355.44
356.853	338.44
357.08	375.44
357.307	347.44
357.534	360.44
357.761	349.44
357.988	346.44
358.215	347.44
358.441	372.44
358.668	368.44
358.895	354.44
359.122	374.44
359.349	379.44
359.576	372.44
359.802	417.44
360.029	417.44
360.256	454.44
360.483	429.44
360.709	408.44
360.936	395.44
361.163	401.44
361.39	392.44
361.616	378.44
361.843	384.44
362.07	368.44
362.296	387.44
362.523	382.44
362.749	380.44
362.976	387.44
363.203	380.44
363.429	386.44
363.656	396.44
363.882	374.44
364.109	367.44
364.335	365.44
364.562	348.44
364.788	368.44
365.015	370.44
365.241	377.44
365.468	384.44
365.694	393.44
365.92	382.44
366.147	373.44
366.373	370.44
366.599	351.44
366.826	364.44
367.052	338.44
367.278	358.44
367.505	376.44
367.731	379.44
367.957	358.44
368.184	365.44
368.41	364.44
368.636	390.44
368.862	373.44
369.089	381.44
369.315	352.44
369.541	349.44
369.767	384.44
369.993	360.44
370.219	362.44
370.445	360.44
370.672	373.44
370.898	357.44
371.124	364.44
371.35	352.44
371.576	342.44
371.802	341.44
372.028	343.44
372.254	335.44
372.48	380.44
372.706	366.44
372.932	357.44
373.158	347.44
373.384	354.44
373.61	348.44
373.835	344.44
374.061	352.44
374.287	357.44
374.513	357.44
374.739	363.44
374.965	365.44
375.191	365.44
375.416	377.44
375.642	352.44
375.868	370.44
376.094	353.44
376.319	368.44
376.545	369.44
376.771	359.44
376.997	362.44
377.222	354.44
377.448	356.44
377.674	344.44
377.899	359.44
378.125	346.44
378.35	362.44
378.576	351.44
378.802	350.44
379.027	339.44
379.253	346.44
379.478	346.44
379.704	357.44
379.929	367.44
380.155	353.44
380.38	354.44
380.606	366.44
380.831	360.44
381.057	361.44
381.282	352.44
381.507	350.44
381.733	358.44
381.958	339.44
382.184	347.44
382.409	354.44
382.634	370.44
382.86	358.44
383.085	368.44
383.31	363.44
383.535	380.44
383.761	359.44
383.986	373.44
384.211	370.44
384.436	370.44
384.662	355.44
384.887	381.44
385.112	373.44
385.337	382.44
385.562	373.44
385.787	386.44
386.013	381.44
386.238	397.44
386.463	390.44
386.688	389.44
386.913	378.44
387.138	401.44
387.363	362.44
387.588	383.44
387.813	399.44
388.038	390.44
388.263	410.44
388.488	385.44
388.713	379.44
388.938	375.44
389.163	374.44
389.387	391.44
389.612	387.44
389.837	381.44
390.062	367.44
390.287	375.44
390.512	360.44
390.736	387.44
390.961	382.44
391.186	367.44
391.411	404.44
391.636	365.44
391.86	389.44
392.085	387.44
392.31	389.44
392.534	383.44
392.759	402.44
392.984	386.44
393.208	384.44
393.433	389.44
393.658	383.44
393.882	391.44
394.107	389.44
394.331	408.44
394.556	395.44
394.78	393.44
395.005	358.44
395.229	389.44
395.454	405.44
395.678	409.44
395.903	396.44
396.127	398.44
396.352	420.44
396.576	408.44
396.801	414.44
397.025	403.44
397.249	400.44
397.474	399.44
397.698	391.44
397.922	408.44
398.147	418.44
398.371	436.44
398.595	428.44
398.82	408.44
399.044	439.44
399.268	459.44
399.492	467.44
399.717	478.44
399.941	498.44
400.165	519.44
400.389	545.44
400.613	497.44
400.837	479.44
401.062	462.44
401.286	441.44
401.51	445.44
401.734	416.44
401.958	412.44
402.182	441.44
402.406	444.44
402.63	472.44
402.854	447.44
403.078	433.44
403.302	465.44
403.526	490.44
403.75	459.44
403.974	461.44
404.198	449.44
404.422	468.44
404.645	451.44
404.869	454.44
405.093	472.44
405.317	518.44
405.541	550.44
405.765	511.44
405.988	466.44
406.212	506.44
406.436	509.44
406.66	519.44
406.883	508.44
407.107	514.44
407.331	540.44
407.555	575.44
407.778	592.44
408.002	538.44
408.226	504.44
408.449	471.44
408.673	482.44
408.896	515.44
409.12	553.44
409.344	534.44
409.567	466.44
409.791	468.44
410.014	444.44
410.238	459.44
410.461	443.44
410.685	464.44
410.908	467.44
411.132	509.44
411.355	537.44
411.578	514.44
411.802	457.44
412.025	456.44
412.249	465.44
412.472	476.44
412.695	493.44
412.919	494.44
413.142	450.44
413.365	447.44
413.589	448.44
413.812	457.44
414.035	421.44
414.258	418.44
414.482	410.44
414.705	438.44
414.928	446.44
415.151	423.44
415.374	418.44
415.597	425.44
415.821	423.44
416.044	420.44
416.267	421.44
416.49	428.44
416.713	404.44
416.936	401.44
417.159	415.44
417.382	419.44
417.605	438.44
417.828	465.44
418.051	450.44
418.274	445.44
418.497	441.44
418.72	433.44
418.943	423.44
419.166	442.44
419.389	431.44
419.611	450.44
419.834	446.44
420.057	452.44
420.28	449.44
420.503	447.44
420.726	451.44
420.948	454.44
421.171	497.44
421.394	532.44
421.617	453.44
421.839	455.44
422.062	441.44
422.285	471.44
422.507	495.44
422.73	565.44
422.953	562.44
423.175	502.44
423.398	486.44
423.621	466.44
423.843	498.44
424.066	495.44
424.288	496.44
424.511	515.44
424.733	557.44
424.956	614.44
425.178	586.44
425.401	608.44
425.623	600.44
425.846	510.44
426.068	515.44
426.291	487.44
426.513	481.44
426.735	492.44
426.958	557.44
427.18	605.44
427.402	721.44
427.625	765.44
427.847	715.44
428.069	635.44
428.292	551.44
428.514	506.44
428.736	493.44
428.958	475.44
429.181	466.44
429.403	457.44
429.625	450.44
429.847	496.44
430.069	545.44
430.292	547.44
430.514	478.44
430.736	447.44
430.958	450.44
431.18	441.44
431.402	441.44
431.624	446.44
431.846	421.44
432.068	430.44
432.29	441.44
432.512	424.44
432.734	431.44
432.956	448.44
433.178	449.44
433.4	446.44
433.622	427.44
433.844	430.44
434.066	409.44
434.287	419.44
434.509	429.44
434.731	437.44
434.953	472.44
435.175	458.44
435.397	487.44
435.618	489.44
435.84	527.44
436.062	605.44
436.284	650.44
436.505	555.44
436.727	516.44
436.949	496.44
437.17	467.44
437.392	446.44
437.614	497.44
437.835	494.44
438.057	616.44
438.278	662.44
438.5	693.44
438.721	729.44
438.943	697.44
439.165	571.44
439.386	526.44
439.608	525.44
439.829	518.44
440.05	525.44
440.272	592.44
440.493	541.44
440.715	493.44
440.936	454.44
441.158	445.44
441.379	465.44
441.6	435.44
441.822	479.44
442.043	547.44
442.264	603.44
442.486	632.44
442.707	525.44
442.928	517.44
443.149	507.44
443.371	562.44
443.592	573.44
443.813	639.44
444.034	695.44
444.255	557.44
444.476	519.44
444.698	503.44
444.919	523.44
445.14	589.44
445.361	546.44
445.582	530.44
445.803	602.44
446.024	700.44
446.245	695.44
446.466	634.44
446.687	531.44
446.908	506.44
447.129	489.44
447.35	459.44
447.571	452.44
447.792	430.44
448.013	461.44
448.234	486.44
448.455	561.44
448.675	624.44
448.896	727.44
449.117	601.44
449.338	594.44
449.559	693.44
449.779	773.44
450	602.44
450.221	509.44
450.442	487.44
450.662	460.44
450.883	476.44
451.104	482.44
451.324	463.44
451.545	427.44
451.766	419.44
451.986	419.44
452.207	421.44
452.428	408.44
452.648	429.44
452.869	399.44
453.089	427.44
453.31	443.44
453.53	425.44
453.751	416.44
453.971	416.44
454.192	439.44
454.412	432.44
454.633	403.44
454.853	421.44
455.073	406.44
455.294	455.44
455.514	501.44
455.734	496.44
455.955	412.44
456.175	404.44
456.395	398.44
456.616	378.44
456.836	381.44
457.056	381.44
457.276	380.44
457.497	415.44
457.717	401.44
457.937	395.44
458.157	413.44
458.377	412.44
458.598	409.44
458.818	488.44
459.038	571.44
459.258	561.44
459.478	485.44
459.698	443.44
459.918	434.44
460.138	426.44
460.358	431.44
460.578	444.44
460.798	437.44
461.018	444.44
461.238	423.44
461.458	449.44
461.678	418.44
461.898	434.44
462.118	413.44
462.338	418.44
462.558	446.44
462.777	431.44
462.997	436.44
463.217	457.44
463.437	466.44
463.657	463.44
463.876	422.44
464.096	439.44
464.316	445.44
464.536	467.44
464.755	445.44
464.975	461.44
465.195	514.44
465.414	626.44
465.634	517.44
465.854	498.44
466.073	455.44
466.293	445.44
466.512	421.44
466.732	413.44
466.951	425.44
467.171	445.44
467.391	422.44
467.61	428.44
467.829	445.44
468.049	452.44
468.268	427.44
468.488	437.44
468.707	407.44
468.927	416.44
469.146	401.44
469.365	400.44
469.585	414.44
469.804	430.44
470.023	428.44
470.243	418.44
470.462	431.44
470.681	441.44
470.901	426.44
471.12	430.44
471.339	423.44
471.558	430.44
471.777	430.44
471.997	437.44
472.216	434.44
472.435	482.44
472.654	457.44
472.873	441.44
473.092	439.44
473.311	436.44
473.53	418.44
473.749	449.44
473.968	481.44
474.187	566.44
474.406	597.44
474.625	479.44
474.844	443.44
475.063	433.44
475.282	433.44
475.501	428.44
475.72	441.44
475.939	437.44
476.158	441.44
476.377	437.44
476.596	443.44
476.814	440.44
477.033	458.44
477.252	469.44
477.471	473.44
477.69	476.44
477.908	473.44
478.127	469.44
478.346	454.44
478.564	461.44
478.783	473.44
479.002	490.44
479.22	487.44
479.439	484.44
479.658	530.44
479.876	517.44
480.095	525.44
480.313	560.44
480.532	535.44
480.751	508.44
480.969	545.44
481.188	618.44
481.406	635.44
481.624	558.44
481.843	519.44
482.061	517.44
482.28	515.44
482.498	508.44
482.717	518.44
482.935	504.44
483.153	504.44
483.372	509.44
483.59	514.44
483.808	507.44
484.027	519.44
484.245	483.44
484.463	502.44
484.681	541.44
484.9	527.44
485.118	525.44
485.336	530.44
485.554	511.44
485.772	518.44
485.99	521.44
486.209	535.44
486.427	531.44
486.645	532.44
486.863	541.44
487.081	555.44
487.299	551.44
487.517	546.44
487.735	527.44
487.953	526.44
488.171	535.44
488.389	565.44
488.607	546.44
488.825	551.44
489.043	567.44
489.261	549.44
489.479	571.44
489.696	565.44
489.914	554.44
490.132	566.44
490.35	584.44
490.568	559.44
490.786	572.44
491.003	593.44
491.221	602.44
491.439	634.44
491.657	616.44
491.874	600.44
492.092	612.44
492.31	622.44
492.527	624.44
492.745	621.44
492.963	631.44
493.18	639.44
493.398	641.44
493.615	610.44
493.833	626.44
494.05	639.44
494.268	647.44
494.485	643.44
494.703	627.44
494.92	638.44
495.138	623.44
495.355	653.44
495.573	633.44
495.79	645.44
496.008	670.44
496.225	650.44
496.442	629.44
496.66	642.44
496.877	639.44
497.094	638.44
497.312	638.44
497.529	637.44
497.746	647.44
497.963	655.44
498.181	678.44
498.398	677.44
498.615	689.44
498.832	696.44
499.049	723.44
499.267	726.44
499.484	732.44
499.701	752.44
499.918	759.44
500.135	760.44
500.352	814.44
500.569	800.44
500.786	810.44
501.003	800.44
501.22	778.44
501.437	785.44
501.654	776.44
501.871	794.44
