Data from 1965.PennyLincolnUp.Lamp.En5.5.200Scan.071719.P1._HRD10591_14-10-41-914.txt Node
Date: Thu Jul 18 14:10:41 EDT 2019
User: cochatt
Spectrometer: HR+D1059
Trigger mode: 1
Integration Time (sec): 1.000000E-1
Scans to average: 1
Electric dark correction enabled: true
Nonlinearity correction enabled: false
Boxcar width: 0
XAxis mode: Wavelengths
Number of Pixels in Spectrum: 2048
>>>>>Begin Spectral Data<<<<<
223.165	-16.44
223.4	-16.44
223.635	-16.44
223.869	-10.44
224.104	-28.44
224.338	-18.44
224.573	-28.44
224.808	-9.44
225.042	-4.44
225.277	-2.44
225.511	-18.44
225.746	5.56
225.98	12.56
226.215	18.56
226.449	12.56
226.683	27.56
226.918	23.56
227.152	36.56
227.387	52.56
227.621	49.56
227.856	47.56
228.09	49.56
228.324	41.56
228.559	53.56
228.793	59.56
229.027	99.56
229.262	102.56
229.496	117.56
229.73	129.56
229.964	147.56
230.199	128.56
230.433	102.56
230.667	121.56
230.901	113.56
231.136	99.56
231.37	106.56
231.604	118.56
231.838	115.56
232.072	126.56
232.306	109.56
232.541	122.56
232.775	104.56
233.009	110.56
233.243	94.56
233.477	115.56
233.711	109.56
233.945	107.56
234.179	98.56
234.413	98.56
234.647	101.56
234.881	116.56
235.115	112.56
235.349	120.56
235.583	109.56
235.817	125.56
236.051	123.56
236.285	119.56
236.519	121.56
236.753	123.56
236.987	130.56
237.221	171.56
237.455	213.56
237.689	170.56
237.922	135.56
238.156	107.56
238.39	116.56
238.624	110.56
238.858	115.56
239.091	118.56
239.325	115.56
239.559	116.56
239.793	111.56
240.027	120.56
240.26	132.56
240.494	130.56
240.728	137.56
240.961	131.56
241.195	140.56
241.429	116.56
241.662	121.56
241.896	136.56
242.13	124.56
242.363	144.56
242.597	125.56
242.83	116.56
243.064	129.56
243.298	144.56
243.531	126.56
243.765	123.56
243.998	132.56
244.232	121.56
244.465	119.56
244.699	135.56
244.932	148.56
245.166	133.56
245.399	148.56
245.633	142.56
245.866	138.56
246.099	150.56
246.333	132.56
246.566	116.56
246.8	145.56
247.033	131.56
247.266	135.56
247.5	147.56
247.733	152.56
247.966	161.56
248.2	162.56
248.433	152.56
248.666	162.56
248.899	179.56
249.133	178.56
249.366	198.56
249.599	183.56
249.832	165.56
250.066	148.56
250.299	173.56
250.532	174.56
250.765	180.56
250.998	185.56
251.231	205.56
251.465	203.56
251.698	179.56
251.931	173.56
252.164	168.56
252.397	189.56
252.63	173.56
252.863	188.56
253.096	208.56
253.329	205.56
253.562	205.56
253.795	201.56
254.028	201.56
254.261	200.56
254.494	210.56
254.727	230.56
254.96	258.56
255.193	245.56
255.426	237.56
255.659	215.56
255.892	199.56
256.124	217.56
256.357	216.56
256.59	191.56
256.823	203.56
257.056	206.56
257.289	187.56
257.521	206.56
257.754	193.56
257.987	197.56
258.22	197.56
258.452	189.56
258.685	185.56
258.918	194.56
259.151	195.56
259.383	197.56
259.616	202.56
259.849	207.56
260.081	224.56
260.314	250.56
260.547	213.56
260.779	225.56
261.012	215.56
261.244	212.56
261.477	200.56
261.71	207.56
261.942	220.56
262.175	224.56
262.407	198.56
262.64	193.56
262.872	194.56
263.105	192.56
263.337	200.56
263.57	202.56
263.802	188.56
264.035	193.56
264.267	195.56
264.499	179.56
264.732	194.56
264.964	204.56
265.197	185.56
265.429	192.56
265.661	190.56
265.894	196.56
266.126	203.56
266.358	220.56
266.591	211.56
266.823	193.56
267.055	196.56
267.287	193.56
267.52	207.56
267.752	202.56
267.984	200.56
268.216	197.56
268.448	204.56
268.681	212.56
268.913	215.56
269.145	256.56
269.377	241.56
269.609	226.56
269.841	238.56
270.073	246.56
270.306	270.56
270.538	293.56
270.77	295.56
271.002	271.56
271.234	269.56
271.466	278.56
271.698	265.56
271.93	300.56
272.162	300.56
272.394	275.56
272.626	271.56
272.858	249.56
273.09	247.56
273.322	231.56
273.553	242.56
273.785	248.56
274.017	235.56
274.249	237.56
274.481	246.56
274.713	231.56
274.945	232.56
275.176	231.56
275.408	246.56
275.64	234.56
275.872	237.56
276.104	237.56
276.335	223.56
276.567	238.56
276.799	265.56
277.031	273.56
277.262	289.56
277.494	317.56
277.726	277.56
277.957	253.56
278.189	236.56
278.421	254.56
278.652	243.56
278.884	241.56
279.115	254.56
279.347	226.56
279.579	249.56
279.81	225.56
280.042	244.56
280.273	227.56
280.505	254.56
280.736	243.56
280.968	229.56
281.199	222.56
281.431	216.56
281.662	215.56
281.894	247.56
282.125	260.56
282.356	246.56
282.588	271.56
282.819	275.56
283.051	237.56
283.282	245.56
283.513	254.56
283.745	251.56
283.976	255.56
284.207	261.56
284.439	249.56
284.67	246.56
284.901	228.56
285.132	246.56
285.364	261.56
285.595	247.56
285.826	250.56
286.057	258.56
286.288	244.56
286.52	234.56
286.751	242.56
286.982	229.56
287.213	234.56
287.444	263.56
287.675	263.56
287.906	248.56
288.138	277.56
288.369	266.56
288.6	267.56
288.831	274.56
289.062	262.56
289.293	257.56
289.524	265.56
289.755	255.56
289.986	230.56
290.217	275.56
290.448	248.56
290.679	250.56
290.91	252.56
291.141	237.56
291.371	257.56
291.602	263.56
291.833	251.56
292.064	255.56
292.295	246.56
292.526	258.56
292.757	262.56
292.987	276.56
293.218	249.56
293.449	265.56
293.68	252.56
293.91	272.56
294.141	250.56
294.372	267.56
294.603	250.56
294.833	271.56
295.064	243.56
295.295	266.56
295.525	250.56
295.756	263.56
295.987	277.56
296.217	291.56
296.448	295.56
296.679	275.56
296.909	261.56
297.14	263.56
297.37	268.56
297.601	269.56
297.831	274.56
298.062	251.56
298.292	271.56
298.523	268.56
298.753	282.56
298.984	284.56
299.214	272.56
299.445	277.56
299.675	268.56
299.905	257.56
300.136	262.56
300.366	267.56
300.597	266.56
300.827	273.56
301.057	278.56
301.288	305.56
301.518	281.56
301.748	293.56
301.979	295.56
302.209	283.56
302.439	282.56
302.669	292.56
302.9	298.56
303.13	285.56
303.36	294.56
303.59	302.56
303.82	299.56
304.051	300.56
304.281	276.56
304.511	287.56
304.741	286.56
304.971	298.56
305.201	277.56
305.431	270.56
305.661	277.56
305.891	289.56
306.121	283.56
306.352	290.56
306.582	290.56
306.812	299.56
307.042	307.56
307.272	310.56
307.502	290.56
307.731	301.56
307.961	296.56
308.191	301.56
308.421	293.56
308.651	293.56
308.881	301.56
309.111	318.56
309.341	305.56
309.571	325.56
309.8	322.56
310.03	339.56
310.26	325.56
310.49	329.56
310.72	361.56
310.949	339.56
311.179	358.56
311.409	357.56
311.639	341.56
311.868	343.56
312.098	359.56
312.328	335.56
312.557	362.56
312.787	364.56
313.017	377.56
313.246	359.56
313.476	331.56
313.706	347.56
313.935	345.56
314.165	341.56
314.394	361.56
314.624	369.56
314.853	353.56
315.083	357.56
315.312	343.56
315.542	333.56
315.771	335.56
316.001	348.56
316.23	324.56
316.46	329.56
316.689	341.56
316.919	350.56
317.148	365.56
317.377	370.56
317.607	346.56
317.836	349.56
318.065	339.56
318.295	320.56
318.524	338.56
318.753	332.56
318.983	328.56
319.212	338.56
319.441	345.56
319.67	349.56
319.9	358.56
320.129	343.56
320.358	330.56
320.587	345.56
320.816	353.56
321.046	357.56
321.275	363.56
321.504	365.56
321.733	366.56
321.962	364.56
322.191	390.56
322.42	389.56
322.649	418.56
322.878	433.56
323.108	407.56
323.337	447.56
323.566	472.56
323.795	521.56
324.024	541.56
324.253	721.56
324.482	1012.56
324.71	1571.56
324.939	2181.56
325.168	1796.56
325.397	964.56
325.626	625.56
325.855	534.56
326.084	508.56
326.313	486.56
326.542	473.56
326.77	527.56
326.999	659.56
327.228	927.56
327.457	1379.56
327.686	1615.56
327.914	1057.56
328.143	696.56
328.372	628.56
328.6	589.56
328.829	543.56
329.058	544.56
329.287	584.56
329.515	515.56
329.744	477.56
329.972	500.56
330.201	507.56
330.43	558.56
330.658	581.56
330.887	597.56
331.115	557.56
331.344	467.56
331.572	453.56
331.801	457.56
332.03	442.56
332.258	438.56
332.486	401.56
332.715	393.56
332.943	393.56
333.172	412.56
333.4	389.56
333.629	422.56
333.857	433.56
334.085	455.56
334.314	488.56
334.542	524.56
334.771	504.56
334.999	451.56
335.227	434.56
335.455	409.56
335.684	379.56
335.912	384.56
336.14	388.56
336.369	389.56
336.597	385.56
336.825	394.56
337.053	400.56
337.281	377.56
337.51	366.56
337.738	395.56
337.966	393.56
338.194	379.56
338.422	393.56
338.65	395.56
338.878	395.56
339.106	372.56
339.334	375.56
339.562	365.56
339.79	375.56
340.018	394.56
340.246	377.56
340.474	366.56
340.702	375.56
340.93	383.56
341.158	383.56
341.386	375.56
341.614	360.56
341.842	398.56
342.07	378.56
342.298	370.56
342.526	341.56
342.754	356.56
342.981	343.56
343.209	345.56
343.437	371.56
343.665	355.56
343.893	371.56
344.12	389.56
344.348	401.56
344.576	379.56
344.804	380.56
345.031	412.56
345.259	411.56
345.487	386.56
345.714	395.56
345.942	383.56
346.17	394.56
346.397	371.56
346.625	368.56
346.853	359.56
347.08	365.56
347.308	387.56
347.535	373.56
347.763	389.56
347.99	383.56
348.218	374.56
348.445	373.56
348.673	381.56
348.9	386.56
349.128	355.56
349.355	355.56
349.583	342.56
349.81	347.56
350.037	351.56
350.265	361.56
350.492	350.56
350.72	364.56
350.947	356.56
351.174	371.56
351.402	398.56
351.629	381.56
351.856	372.56
352.083	390.56
352.311	389.56
352.538	380.56
352.765	387.56
352.992	375.56
353.22	373.56
353.447	367.56
353.674	365.56
353.901	361.56
354.128	348.56
354.355	325.56
354.583	341.56
354.81	349.56
355.037	345.56
355.264	334.56
355.491	349.56
355.718	326.56
355.945	354.56
356.172	331.56
356.399	352.56
356.626	346.56
356.853	323.56
357.08	339.56
357.307	337.56
357.534	353.56
357.761	351.56
357.988	354.56
358.215	328.56
358.441	338.56
358.668	335.56
358.895	336.56
359.122	379.56
359.349	365.56
359.576	377.56
359.802	376.56
360.029	426.56
360.256	430.56
360.483	412.56
360.709	377.56
360.936	379.56
361.163	384.56
361.39	387.56
361.616	383.56
361.843	387.56
362.07	363.56
362.296	379.56
362.523	375.56
362.749	372.56
362.976	360.56
363.203	343.56
363.429	344.56
363.656	351.56
363.882	372.56
364.109	364.56
364.335	345.56
364.562	346.56
364.788	339.56
365.015	342.56
365.241	363.56
365.468	369.56
365.694	363.56
365.92	361.56
366.147	355.56
366.373	360.56
366.599	353.56
366.826	361.56
367.052	322.56
367.278	349.56
367.505	345.56
367.731	355.56
367.957	366.56
368.184	349.56
368.41	352.56
368.636	355.56
368.862	362.56
369.089	364.56
369.315	352.56
369.541	341.56
369.767	349.56
369.993	358.56
370.219	357.56
370.445	355.56
370.672	339.56
370.898	348.56
371.124	339.56
371.35	357.56
371.576	345.56
371.802	355.56
372.028	341.56
372.254	335.56
372.48	334.56
372.706	345.56
372.932	354.56
373.158	333.56
373.384	340.56
373.61	344.56
373.835	354.56
374.061	327.56
374.287	343.56
374.513	345.56
374.739	356.56
374.965	349.56
375.191	339.56
375.416	332.56
375.642	321.56
375.868	341.56
376.094	324.56
376.319	338.56
376.545	345.56
376.771	335.56
376.997	332.56
377.222	338.56
377.448	338.56
377.674	350.56
377.899	344.56
378.125	337.56
378.35	333.56
378.576	355.56
378.802	320.56
379.027	350.56
379.253	332.56
379.478	330.56
379.704	340.56
379.929	329.56
380.155	343.56
380.38	334.56
380.606	341.56
380.831	337.56
381.057	341.56
381.282	357.56
381.507	338.56
381.733	341.56
381.958	342.56
382.184	354.56
382.409	346.56
382.634	350.56
382.86	358.56
383.085	330.56
383.31	343.56
383.535	352.56
383.761	365.56
383.986	353.56
384.211	350.56
384.436	361.56
384.662	358.56
384.887	332.56
385.112	354.56
385.337	336.56
385.562	375.56
385.787	361.56
386.013	361.56
386.238	372.56
386.463	366.56
386.688	367.56
386.913	377.56
387.138	364.56
387.363	362.56
387.588	364.56
387.813	362.56
388.038	377.56
388.263	369.56
388.488	367.56
388.713	377.56
388.938	387.56
389.163	350.56
389.387	351.56
389.612	360.56
389.837	350.56
390.062	365.56
390.287	341.56
390.512	355.56
390.736	361.56
390.961	371.56
391.186	382.56
391.411	355.56
391.636	373.56
391.86	361.56
392.085	379.56
392.31	361.56
392.534	379.56
392.759	379.56
392.984	375.56
393.208	372.56
393.433	367.56
393.658	354.56
393.882	371.56
394.107	365.56
394.331	349.56
394.556	361.56
394.78	372.56
395.005	365.56
395.229	352.56
395.454	378.56
395.678	379.56
395.903	389.56
396.127	396.56
396.352	418.56
396.576	385.56
396.801	380.56
397.025	399.56
397.249	393.56
397.474	373.56
397.698	379.56
397.922	383.56
398.147	414.56
398.371	412.56
398.595	390.56
398.82	417.56
399.044	410.56
399.268	408.56
399.492	462.56
399.717	451.56
399.941	459.56
400.165	485.56
400.389	511.56
400.613	449.56
400.837	425.56
401.062	435.56
401.286	414.56
401.51	423.56
401.734	410.56
401.958	427.56
402.182	414.56
402.406	440.56
402.63	428.56
402.854	419.56
403.078	420.56
403.302	425.56
403.526	425.56
403.75	436.56
403.974	433.56
404.198	436.56
404.422	437.56
404.645	418.56
404.869	433.56
405.093	473.56
405.317	519.56
405.541	526.56
405.765	460.56
405.988	456.56
406.212	483.56
406.436	499.56
406.66	499.56
406.883	487.56
407.107	495.56
407.331	540.56
407.555	570.56
407.778	567.56
408.002	525.56
408.226	483.56
408.449	498.56
408.673	479.56
408.896	456.56
409.12	540.56
409.344	500.56
409.567	463.56
409.791	451.56
410.014	428.56
410.238	405.56
410.461	435.56
410.685	442.56
410.908	446.56
411.132	466.56
411.355	497.56
411.578	470.56
411.802	441.56
412.025	439.56
412.249	466.56
412.472	478.56
412.695	494.56
412.919	480.56
413.142	415.56
413.365	423.56
413.589	424.56
413.812	412.56
414.035	405.56
414.258	406.56
414.482	395.56
414.705	415.56
414.928	398.56
415.151	382.56
415.374	400.56
415.597	405.56
415.821	405.56
416.044	402.56
416.267	403.56
416.49	387.56
416.713	410.56
416.936	407.56
417.159	398.56
417.382	408.56
417.605	396.56
417.828	439.56
418.051	424.56
418.274	425.56
418.497	420.56
418.72	412.56
418.943	412.56
419.166	428.56
419.389	423.56
419.611	407.56
419.834	429.56
420.057	443.56
420.28	442.56
420.503	430.56
420.726	425.56
420.948	438.56
421.171	459.56
421.394	485.56
421.617	430.56
421.839	439.56
422.062	433.56
422.285	454.56
422.507	490.56
422.73	561.56
422.953	533.56
423.175	479.56
423.398	434.56
423.621	470.56
423.843	458.56
424.066	464.56
424.288	488.56
424.511	478.56
424.733	531.56
424.956	590.56
425.178	563.56
425.401	532.56
425.623	567.56
425.846	515.56
426.068	472.56
426.291	471.56
426.513	469.56
426.735	471.56
426.958	518.56
427.18	580.56
427.402	675.56
427.625	760.56
427.847	705.56
428.069	606.56
428.292	522.56
428.514	480.56
428.736	456.56
428.958	459.56
429.181	433.56
429.403	439.56
429.625	430.56
429.847	473.56
430.069	521.56
430.292	527.56
430.514	447.56
430.736	440.56
430.958	406.56
431.18	414.56
431.402	410.56
431.624	411.56
431.846	426.56
432.068	395.56
432.29	404.56
432.512	420.56
432.734	422.56
432.956	406.56
433.178	411.56
433.4	439.56
433.622	426.56
433.844	407.56
434.066	422.56
434.287	414.56
434.509	402.56
434.731	426.56
434.953	438.56
435.175	445.56
435.397	476.56
435.618	468.56
435.84	498.56
436.062	590.56
436.284	644.56
436.505	537.56
436.727	481.56
436.949	455.56
437.17	446.56
437.392	459.56
437.614	477.56
437.835	482.56
438.057	575.56
438.278	667.56
438.5	635.56
438.721	683.56
438.943	666.56
439.165	554.56
439.386	481.56
439.608	478.56
439.829	500.56
440.05	527.56
440.272	565.56
440.493	521.56
440.715	487.56
440.936	453.56
441.158	422.56
441.379	446.56
441.6	445.56
441.822	493.56
442.043	508.56
442.264	589.56
442.486	595.56
442.707	527.56
442.928	481.56
443.149	476.56
443.371	522.56
443.592	545.56
443.813	625.56
444.034	645.56
444.255	580.56
444.476	494.56
444.698	451.56
444.919	474.56
445.14	544.56
445.361	511.56
445.582	499.56
445.803	569.56
446.024	658.56
446.245	661.56
446.466	604.56
446.687	509.56
446.908	465.56
447.129	446.56
447.35	439.56
447.571	449.56
447.792	435.56
448.013	430.56
448.234	457.56
448.455	488.56
448.675	604.56
448.896	682.56
449.117	603.56
449.338	582.56
449.559	687.56
449.779	705.56
450	573.56
450.221	478.56
450.442	462.56
450.662	458.56
450.883	475.56
451.104	467.56
451.324	432.56
451.545	425.56
451.766	417.56
451.986	398.56
452.207	398.56
452.428	416.56
452.648	404.56
452.869	381.56
453.089	414.56
453.31	424.56
453.53	406.56
453.751	383.56
453.971	407.56
454.192	429.56
454.412	412.56
454.633	393.56
454.853	404.56
455.073	411.56
455.294	440.56
455.514	474.56
455.734	460.56
455.955	379.56
456.175	397.56
456.395	370.56
456.616	385.56
456.836	375.56
457.056	376.56
457.276	370.56
457.497	376.56
457.717	357.56
457.937	406.56
458.157	385.56
458.377	398.56
458.598	423.56
458.818	481.56
459.038	558.56
459.258	542.56
459.478	476.56
459.698	403.56
459.918	392.56
460.138	421.56
460.358	398.56
460.578	406.56
460.798	425.56
461.018	408.56
461.238	407.56
461.458	414.56
461.678	406.56
461.898	402.56
462.118	397.56
462.338	393.56
462.558	410.56
462.777	436.56
462.997	416.56
463.217	414.56
463.437	441.56
463.657	440.56
463.876	427.56
464.096	451.56
464.316	455.56
464.536	441.56
464.755	444.56
464.975	433.56
465.195	509.56
465.414	582.56
465.634	501.56
465.854	450.56
466.073	453.56
466.293	420.56
466.512	422.56
466.732	409.56
466.951	419.56
467.171	415.56
467.391	409.56
467.61	434.56
467.829	443.56
468.049	401.56
468.268	415.56
468.488	420.56
468.707	403.56
468.927	405.56
469.146	385.56
469.365	398.56
469.585	386.56
469.804	412.56
470.023	431.56
470.243	388.56
470.462	396.56
470.681	413.56
470.901	446.56
471.12	414.56
471.339	400.56
471.558	404.56
471.777	414.56
471.997	402.56
472.216	425.56
472.435	456.56
472.654	434.56
472.873	422.56
473.092	439.56
473.311	428.56
473.53	438.56
473.749	425.56
473.968	454.56
474.187	549.56
474.406	554.56
474.625	477.56
474.844	443.56
475.063	415.56
475.282	420.56
475.501	418.56
475.72	420.56
475.939	428.56
476.158	434.56
476.377	437.56
476.596	414.56
476.814	439.56
477.033	432.56
477.252	450.56
477.471	437.56
477.69	425.56
477.908	426.56
478.127	436.56
478.346	455.56
478.564	464.56
478.783	447.56
479.002	482.56
479.22	459.56
479.439	485.56
479.658	474.56
479.876	483.56
480.095	509.56
480.313	525.56
480.532	516.56
480.751	507.56
480.969	508.56
481.188	601.56
481.406	634.56
481.624	536.56
481.843	483.56
482.061	498.56
482.28	497.56
482.498	485.56
482.717	455.56
482.935	497.56
483.153	488.56
483.372	463.56
483.59	481.56
483.808	470.56
484.027	497.56
484.245	477.56
484.463	467.56
484.681	499.56
484.9	502.56
485.118	469.56
485.336	497.56
485.554	508.56
485.772	498.56
485.99	490.56
486.209	516.56
486.427	506.56
486.645	503.56
486.863	533.56
487.081	531.56
487.299	522.56
487.517	529.56
487.735	522.56
487.953	509.56
488.171	514.56
488.389	499.56
488.607	528.56
488.825	525.56
489.043	501.56
489.261	513.56
489.479	520.56
489.696	535.56
489.914	512.56
490.132	555.56
490.35	559.56
490.568	550.56
490.786	567.56
491.003	547.56
491.221	588.56
491.439	606.56
491.657	582.56
491.874	602.56
492.092	593.56
492.31	593.56
492.527	595.56
492.745	604.56
492.963	602.56
493.18	629.56
493.398	613.56
493.615	590.56
493.833	605.56
494.05	627.56
494.268	635.56
494.485	619.56
494.703	616.56
494.92	596.56
495.138	608.56
495.355	623.56
495.573	633.56
495.79	629.56
496.008	634.56
496.225	630.56
496.442	607.56
496.66	614.56
496.877	626.56
497.094	637.56
497.312	636.56
497.529	644.56
497.746	637.56
497.963	617.56
498.181	629.56
498.398	647.56
498.615	658.56
498.832	661.56
499.049	661.56
499.267	690.56
499.484	689.56
499.701	700.56
499.918	721.56
500.135	750.56
500.352	760.56
500.569	781.56
500.786	782.56
501.003	777.56
501.22	773.56
501.437	746.56
501.654	757.56
501.871	725.56
