Data from 1965.PennyLincolnUp.Lamp.En5.5.200Scan.071719.P1._HRD10591_14-10-54-912.txt Node
Date: Thu Jul 18 14:10:54 EDT 2019
User: cochatt
Spectrometer: HR+D1059
Trigger mode: 1
Integration Time (sec): 1.000000E-1
Scans to average: 1
Electric dark correction enabled: true
Nonlinearity correction enabled: false
Boxcar width: 0
XAxis mode: Wavelengths
Number of Pixels in Spectrum: 2048
>>>>>Begin Spectral Data<<<<<
223.165	-20.19
223.4	-20.19
223.635	-20.19
223.869	-25.19
224.104	-23.19
224.338	-12.19
224.573	-13.19
224.808	-14.19
225.042	-5.19
225.277	-0.19
225.511	-2.19
225.746	8.81
225.98	9.81
226.215	2.81
226.449	24.81
226.683	25.81
226.918	22.81
227.152	20.81
227.387	31.81
227.621	35.81
227.856	41.81
228.09	37.81
228.324	36.81
228.559	58.81
228.793	66.81
229.027	84.81
229.262	111.81
229.496	122.81
229.73	129.81
229.964	138.81
230.199	125.81
230.433	111.81
230.667	102.81
230.901	105.81
231.136	105.81
231.37	97.81
231.604	96.81
231.838	111.81
232.072	96.81
232.306	98.81
232.541	112.81
232.775	115.81
233.009	99.81
233.243	120.81
233.477	104.81
233.711	112.81
233.945	111.81
234.179	115.81
234.413	119.81
234.647	111.81
234.881	96.81
235.115	118.81
235.349	105.81
235.583	109.81
235.817	121.81
236.051	108.81
236.285	129.81
236.519	124.81
236.753	131.81
236.987	139.81
237.221	196.81
237.455	208.81
237.689	177.81
237.922	121.81
238.156	132.81
238.39	133.81
238.624	124.81
238.858	118.81
239.091	124.81
239.325	112.81
239.559	118.81
239.793	113.81
240.027	120.81
240.26	144.81
240.494	138.81
240.728	144.81
240.961	155.81
241.195	131.81
241.429	148.81
241.662	127.81
241.896	123.81
242.13	122.81
242.363	106.81
242.597	124.81
242.83	127.81
243.064	133.81
243.298	130.81
243.531	121.81
243.765	115.81
243.998	131.81
244.232	127.81
244.465	122.81
244.699	129.81
244.932	131.81
245.166	130.81
245.399	138.81
245.633	132.81
245.866	145.81
246.099	147.81
246.333	131.81
246.566	135.81
246.8	147.81
247.033	153.81
247.266	145.81
247.5	169.81
247.733	157.81
247.966	140.81
248.2	168.81
248.433	163.81
248.666	167.81
248.899	161.81
249.133	163.81
249.366	208.81
249.599	201.81
249.832	179.81
250.066	170.81
250.299	163.81
250.532	181.81
250.765	175.81
250.998	198.81
251.231	200.81
251.465	206.81
251.698	180.81
251.931	193.81
252.164	180.81
252.397	183.81
252.63	189.81
252.863	194.81
253.096	192.81
253.329	211.81
253.562	198.81
253.795	194.81
254.028	196.81
254.261	180.81
254.494	210.81
254.727	225.81
254.96	261.81
255.193	244.81
255.426	241.81
255.659	215.81
255.892	192.81
256.124	227.81
256.357	223.81
256.59	224.81
256.823	200.81
257.056	196.81
257.289	210.81
257.521	197.81
257.754	189.81
257.987	181.81
258.22	185.81
258.452	196.81
258.685	188.81
258.918	199.81
259.151	193.81
259.383	208.81
259.616	215.81
259.849	209.81
260.081	223.81
260.314	233.81
260.547	218.81
260.779	232.81
261.012	211.81
261.244	200.81
261.477	211.81
261.71	213.81
261.942	201.81
262.175	213.81
262.407	220.81
262.64	214.81
262.872	193.81
263.105	201.81
263.337	196.81
263.57	197.81
263.802	204.81
264.035	193.81
264.267	194.81
264.499	179.81
264.732	200.81
264.964	185.81
265.197	206.81
265.429	199.81
265.661	200.81
265.894	179.81
266.126	201.81
266.358	181.81
266.591	191.81
266.823	202.81
267.055	214.81
267.287	207.81
267.52	208.81
267.752	200.81
267.984	194.81
268.216	200.81
268.448	212.81
268.681	185.81
268.913	224.81
269.145	245.81
269.377	249.81
269.609	240.81
269.841	234.81
270.073	255.81
270.306	267.81
270.538	290.81
270.77	285.81
271.002	277.81
271.234	277.81
271.466	282.81
271.698	294.81
271.93	299.81
272.162	309.81
272.394	295.81
272.626	285.81
272.858	286.81
273.09	273.81
273.322	256.81
273.553	244.81
273.785	241.81
274.017	244.81
274.249	246.81
274.481	236.81
274.713	244.81
274.945	242.81
275.176	233.81
275.408	250.81
275.64	248.81
275.872	237.81
276.104	233.81
276.335	255.81
276.567	251.81
276.799	262.81
277.031	267.81
277.262	306.81
277.494	284.81
277.726	299.81
277.957	275.81
278.189	253.81
278.421	268.81
278.652	244.81
278.884	243.81
279.115	233.81
279.347	249.81
279.579	245.81
279.81	237.81
280.042	244.81
280.273	257.81
280.505	241.81
280.736	242.81
280.968	236.81
281.199	235.81
281.431	234.81
281.662	245.81
281.894	223.81
282.125	237.81
282.356	253.81
282.588	282.81
282.819	280.81
283.051	239.81
283.282	251.81
283.513	252.81
283.745	241.81
283.976	261.81
284.207	260.81
284.439	243.81
284.67	253.81
284.901	256.81
285.132	251.81
285.364	247.81
285.595	238.81
285.826	241.81
286.057	256.81
286.288	235.81
286.52	247.81
286.751	261.81
286.982	251.81
287.213	233.81
287.444	265.81
287.675	245.81
287.906	264.81
288.138	279.81
288.369	267.81
288.6	258.81
288.831	247.81
289.062	265.81
289.293	252.81
289.524	262.81
289.755	242.81
289.986	247.81
290.217	278.81
290.448	266.81
290.679	258.81
290.91	265.81
291.141	252.81
291.371	268.81
291.602	251.81
291.833	256.81
292.064	250.81
292.295	265.81
292.526	247.81
292.757	255.81
292.987	256.81
293.218	258.81
293.449	258.81
293.68	269.81
293.91	259.81
294.141	263.81
294.372	241.81
294.603	261.81
294.833	265.81
295.064	252.81
295.295	261.81
295.525	258.81
295.756	266.81
295.987	270.81
296.217	282.81
296.448	280.81
296.679	284.81
296.909	257.81
297.14	277.81
297.37	267.81
297.601	251.81
297.831	267.81
298.062	264.81
298.292	263.81
298.523	274.81
298.753	295.81
298.984	279.81
299.214	275.81
299.445	290.81
299.675	273.81
299.905	293.81
300.136	273.81
300.366	280.81
300.597	281.81
300.827	290.81
301.057	303.81
301.288	294.81
301.518	309.81
301.748	289.81
301.979	295.81
302.209	274.81
302.439	269.81
302.669	292.81
302.9	298.81
303.13	295.81
303.36	295.81
303.59	308.81
303.82	320.81
304.051	292.81
304.281	295.81
304.511	283.81
304.741	267.81
304.971	300.81
305.201	296.81
305.431	300.81
305.661	303.81
305.891	301.81
306.121	300.81
306.352	310.81
306.582	316.81
306.812	307.81
307.042	286.81
307.272	307.81
307.502	305.81
307.731	311.81
307.961	321.81
308.191	285.81
308.421	309.81
308.651	299.81
308.881	292.81
309.111	319.81
309.341	323.81
309.571	339.81
309.8	332.81
310.03	325.81
310.26	368.81
310.49	348.81
310.72	363.81
310.949	351.81
311.179	377.81
311.409	348.81
311.639	352.81
311.868	362.81
312.098	363.81
312.328	363.81
312.557	372.81
312.787	391.81
313.017	369.81
313.246	356.81
313.476	346.81
313.706	338.81
313.935	374.81
314.165	369.81
314.394	371.81
314.624	352.81
314.853	346.81
315.083	346.81
315.312	339.81
315.542	365.81
315.771	348.81
316.001	334.81
316.23	325.81
316.46	353.81
316.689	340.81
316.919	346.81
317.148	378.81
317.377	357.81
317.607	352.81
317.836	372.81
318.065	334.81
318.295	340.81
318.524	357.81
318.753	344.81
318.983	341.81
319.212	353.81
319.441	352.81
319.67	360.81
319.9	356.81
320.129	351.81
320.358	350.81
320.587	360.81
320.816	353.81
321.046	362.81
321.275	378.81
321.504	369.81
321.733	385.81
321.962	379.81
322.191	384.81
322.42	385.81
322.649	428.81
322.878	433.81
323.108	451.81
323.337	440.81
323.566	496.81
323.795	536.81
324.024	580.81
324.253	714.81
324.482	1036.81
324.71	1617.81
324.939	2252.81
325.168	1842.81
325.397	945.81
325.626	635.81
325.855	559.81
326.084	529.81
326.313	492.81
326.542	487.81
326.77	552.81
326.999	664.81
327.228	909.81
327.457	1421.81
327.686	1639.81
327.914	1083.81
328.143	723.81
328.372	617.81
328.6	579.81
328.829	571.81
329.058	572.81
329.287	583.81
329.515	534.81
329.744	497.81
329.972	487.81
330.201	498.81
330.43	571.81
330.658	591.81
330.887	599.81
331.115	595.81
331.344	503.81
331.572	472.81
331.801	475.81
332.03	461.81
332.258	452.81
332.486	421.81
332.715	425.81
332.943	414.81
333.172	426.81
333.4	415.81
333.629	419.81
333.857	449.81
334.085	465.81
334.314	492.81
334.542	523.81
334.771	537.81
334.999	482.81
335.227	462.81
335.455	452.81
335.684	431.81
335.912	385.81
336.14	398.81
336.369	415.81
336.597	411.81
336.825	407.81
337.053	396.81
337.281	422.81
337.51	419.81
337.738	411.81
337.966	412.81
338.194	423.81
338.422	416.81
338.65	379.81
338.878	369.81
339.106	394.81
339.334	387.81
339.562	391.81
339.79	360.81
340.018	379.81
340.246	390.81
340.474	391.81
340.702	385.81
340.93	414.81
341.158	387.81
341.386	400.81
341.614	403.81
341.842	370.81
342.07	389.81
342.298	377.81
342.526	394.81
342.754	371.81
342.981	353.81
343.209	372.81
343.437	382.81
343.665	380.81
343.893	377.81
344.12	382.81
344.348	380.81
344.576	371.81
344.804	402.81
345.031	385.81
345.259	415.81
345.487	389.81
345.714	382.81
345.942	403.81
346.17	371.81
346.397	392.81
346.625	377.81
346.853	386.81
347.08	374.81
347.308	386.81
347.535	389.81
347.763	368.81
347.99	403.81
348.218	391.81
348.445	424.81
348.673	402.81
348.9	379.81
349.128	376.81
349.355	357.81
349.583	356.81
349.81	354.81
350.037	369.81
350.265	371.81
350.492	371.81
350.72	380.81
350.947	394.81
351.174	393.81
351.402	389.81
351.629	395.81
351.856	402.81
352.083	410.81
352.311	390.81
352.538	401.81
352.765	402.81
352.992	377.81
353.22	376.81
353.447	379.81
353.674	370.81
353.901	365.81
354.128	362.81
354.355	364.81
354.583	351.81
354.81	361.81
355.037	360.81
355.264	350.81
355.491	352.81
355.718	343.81
355.945	348.81
356.172	340.81
356.399	337.81
356.626	353.81
356.853	343.81
357.08	359.81
357.307	355.81
357.534	351.81
357.761	357.81
357.988	340.81
358.215	356.81
358.441	361.81
358.668	352.81
358.895	360.81
359.122	372.81
359.349	362.81
359.576	392.81
359.802	425.81
360.029	426.81
360.256	439.81
360.483	421.81
360.709	369.81
360.936	375.81
361.163	368.81
361.39	386.81
361.616	369.81
361.843	378.81
362.07	375.81
362.296	389.81
362.523	373.81
362.749	381.81
362.976	371.81
363.203	368.81
363.429	354.81
363.656	367.81
363.882	378.81
364.109	354.81
364.335	352.81
364.562	360.81
364.788	356.81
365.015	364.81
365.241	362.81
365.468	353.81
365.694	356.81
365.92	364.81
366.147	379.81
366.373	340.81
366.599	368.81
366.826	366.81
367.052	345.81
367.278	348.81
367.505	362.81
367.731	356.81
367.957	364.81
368.184	361.81
368.41	363.81
368.636	383.81
368.862	367.81
369.089	363.81
369.315	345.81
369.541	367.81
369.767	345.81
369.993	361.81
370.219	358.81
370.445	348.81
370.672	362.81
370.898	362.81
371.124	368.81
371.35	356.81
371.576	359.81
371.802	348.81
372.028	353.81
372.254	344.81
372.48	355.81
372.706	355.81
372.932	363.81
373.158	338.81
373.384	347.81
373.61	354.81
373.835	372.81
374.061	364.81
374.287	354.81
374.513	361.81
374.739	360.81
374.965	369.81
375.191	351.81
375.416	367.81
375.642	370.81
375.868	354.81
376.094	353.81
376.319	340.81
376.545	354.81
376.771	354.81
376.997	361.81
377.222	359.81
377.448	350.81
377.674	348.81
377.899	359.81
378.125	336.81
378.35	353.81
378.576	356.81
378.802	343.81
379.027	322.81
379.253	343.81
379.478	326.81
379.704	337.81
379.929	337.81
380.155	345.81
380.38	361.81
380.606	358.81
380.831	357.81
381.057	376.81
381.282	349.81
381.507	359.81
381.733	357.81
381.958	363.81
382.184	367.81
382.409	345.81
382.634	333.81
382.86	365.81
383.085	343.81
383.31	355.81
383.535	364.81
383.761	361.81
383.986	364.81
384.211	367.81
384.436	369.81
384.662	363.81
384.887	362.81
385.112	361.81
385.337	357.81
385.562	376.81
385.787	379.81
386.013	383.81
386.238	385.81
386.463	396.81
386.688	385.81
386.913	367.81
387.138	375.81
387.363	369.81
387.588	376.81
387.813	374.81
388.038	380.81
388.263	373.81
388.488	379.81
388.713	379.81
388.938	364.81
389.163	381.81
389.387	381.81
389.612	367.81
389.837	379.81
390.062	372.81
390.287	386.81
390.512	383.81
390.736	387.81
390.961	375.81
391.186	364.81
391.411	369.81
391.636	374.81
391.86	376.81
392.085	394.81
392.31	376.81
392.534	365.81
392.759	401.81
392.984	385.81
393.208	383.81
393.433	368.81
393.658	364.81
393.882	377.81
394.107	385.81
394.331	376.81
394.556	394.81
394.78	387.81
395.005	370.81
395.229	374.81
395.454	386.81
395.678	376.81
395.903	399.81
396.127	411.81
396.352	424.81
396.576	421.81
396.801	383.81
397.025	394.81
397.249	397.81
397.474	419.81
397.698	404.81
397.922	407.81
398.147	423.81
398.371	436.81
398.595	424.81
398.82	421.81
399.044	427.81
399.268	449.81
399.492	454.81
399.717	462.81
399.941	466.81
400.165	512.81
400.389	511.81
400.613	466.81
400.837	456.81
401.062	447.81
401.286	451.81
401.51	444.81
401.734	435.81
401.958	435.81
402.182	432.81
402.406	428.81
402.63	445.81
402.854	433.81
403.078	438.81
403.302	443.81
403.526	440.81
403.75	439.81
403.974	421.81
404.198	422.81
404.422	452.81
404.645	458.81
404.869	435.81
405.093	475.81
405.317	518.81
405.541	548.81
405.765	495.81
405.988	488.81
406.212	479.81
406.436	497.81
406.66	501.81
406.883	484.81
407.107	503.81
407.331	567.81
407.555	598.81
407.778	587.81
408.002	548.81
408.226	509.81
408.449	484.81
408.673	476.81
408.896	510.81
409.12	555.81
409.344	527.81
409.567	464.81
409.791	437.81
410.014	440.81
410.238	422.81
410.461	441.81
410.685	460.81
410.908	467.81
411.132	490.81
411.355	536.81
411.578	490.81
411.802	466.81
412.025	439.81
412.249	466.81
412.472	487.81
412.695	519.81
412.919	498.81
413.142	468.81
413.365	440.81
413.589	431.81
413.812	424.81
414.035	435.81
414.258	445.81
414.482	416.81
414.705	427.81
414.928	427.81
415.151	431.81
415.374	415.81
415.597	418.81
415.821	407.81
416.044	414.81
416.267	416.81
416.49	403.81
416.713	412.81
416.936	409.81
417.159	429.81
417.382	423.81
417.605	434.81
417.828	435.81
418.051	456.81
418.274	437.81
418.497	421.81
418.72	420.81
418.943	408.81
419.166	433.81
419.389	442.81
419.611	451.81
419.834	442.81
420.057	447.81
420.28	443.81
420.503	424.81
420.726	443.81
420.948	454.81
421.171	495.81
421.394	492.81
421.617	463.81
421.839	436.81
422.062	447.81
422.285	452.81
422.507	504.81
422.73	562.81
422.953	548.81
423.175	462.81
423.398	456.81
423.621	457.81
423.843	471.81
424.066	489.81
424.288	456.81
424.511	503.81
424.733	557.81
424.956	609.81
425.178	582.81
425.401	581.81
425.623	606.81
425.846	528.81
426.068	491.81
426.291	480.81
426.513	504.81
426.735	500.81
426.958	523.81
427.18	582.81
427.402	731.81
427.625	774.81
427.847	696.81
428.069	588.81
428.292	544.81
428.514	491.81
428.736	481.81
428.958	461.81
429.181	458.81
429.403	478.81
429.625	467.81
429.847	467.81
430.069	544.81
430.292	533.81
430.514	464.81
430.736	435.81
430.958	431.81
431.18	429.81
431.402	409.81
431.624	431.81
431.846	403.81
432.068	398.81
432.29	422.81
432.512	417.81
432.734	436.81
432.956	427.81
433.178	446.81
433.4	444.81
433.622	429.81
433.844	423.81
434.066	420.81
434.287	415.81
434.509	419.81
434.731	397.81
434.953	411.81
435.175	456.81
435.397	463.81
435.618	482.81
435.84	530.81
436.062	581.81
436.284	621.81
436.505	545.81
436.727	518.81
436.949	448.81
437.17	465.81
437.392	448.81
437.614	485.81
437.835	512.81
438.057	606.81
438.278	669.81
438.5	651.81
438.721	715.81
438.943	692.81
439.165	526.81
439.386	510.81
439.608	488.81
439.829	506.81
440.05	534.81
440.272	561.81
440.493	517.81
440.715	502.81
440.936	470.81
441.158	447.81
441.379	457.81
441.6	468.81
441.822	491.81
442.043	523.81
442.264	615.81
442.486	628.81
442.707	545.81
442.928	502.81
443.149	497.81
443.371	538.81
443.592	556.81
443.813	648.81
444.034	696.81
444.255	571.81
444.476	496.81
444.698	478.81
444.919	479.81
445.14	553.81
445.361	543.81
445.582	516.81
445.803	562.81
446.024	673.81
446.245	658.81
446.466	623.81
446.687	530.81
446.908	488.81
447.129	470.81
447.35	455.81
447.571	480.81
447.792	444.81
448.013	445.81
448.234	465.81
448.455	522.81
448.675	648.81
448.896	673.81
449.117	604.81
449.338	573.81
449.559	652.81
449.779	763.81
450	618.81
450.221	515.81
450.442	459.81
450.662	453.81
450.883	460.81
451.104	456.81
451.324	478.81
451.545	437.81
451.766	436.81
451.986	417.81
452.207	401.81
452.428	417.81
452.648	411.81
452.869	420.81
453.089	417.81
453.31	435.81
453.53	416.81
453.751	415.81
453.971	433.81
454.192	428.81
454.412	442.81
454.633	421.81
454.853	433.81
455.073	400.81
455.294	426.81
455.514	494.81
455.734	495.81
455.955	397.81
456.175	408.81
456.395	377.81
456.616	362.81
456.836	367.81
457.056	370.81
457.276	371.81
457.497	382.81
457.717	359.81
457.937	373.81
458.157	383.81
458.377	396.81
458.598	439.81
458.818	479.81
459.038	562.81
459.258	559.81
459.478	446.81
459.698	428.81
459.918	402.81
460.138	413.81
460.358	441.81
460.578	408.81
460.798	415.81
461.018	425.81
461.238	408.81
461.458	408.81
461.678	407.81
461.898	415.81
462.118	427.81
462.338	410.81
462.558	426.81
462.777	434.81
462.997	432.81
463.217	452.81
463.437	460.81
463.657	447.81
463.876	444.81
464.096	431.81
464.316	446.81
464.536	455.81
464.755	457.81
464.975	464.81
465.195	524.81
465.414	579.81
465.634	528.81
465.854	463.81
466.073	439.81
466.293	414.81
466.512	427.81
466.732	398.81
466.951	408.81
467.171	402.81
467.391	425.81
467.61	425.81
467.829	441.81
468.049	445.81
468.268	429.81
468.488	417.81
468.707	409.81
468.927	413.81
469.146	394.81
469.365	396.81
469.585	417.81
469.804	418.81
470.023	419.81
470.243	409.81
470.462	427.81
470.681	443.81
470.901	440.81
471.12	432.81
471.339	404.81
471.558	440.81
471.777	420.81
471.997	433.81
472.216	445.81
472.435	473.81
472.654	467.81
472.873	425.81
473.092	413.81
473.311	389.81
473.53	431.81
473.749	438.81
473.968	475.81
474.187	588.81
474.406	598.81
474.625	477.81
474.844	428.81
475.063	434.81
475.282	423.81
475.501	422.81
475.72	439.81
475.939	442.81
476.158	458.81
476.377	423.81
476.596	425.81
476.814	426.81
477.033	455.81
477.252	454.81
477.471	457.81
477.69	449.81
477.908	459.81
478.127	461.81
478.346	467.81
478.564	449.81
478.783	467.81
479.002	463.81
479.22	469.81
479.439	500.81
479.658	514.81
479.876	515.81
480.095	503.81
480.313	529.81
480.532	509.81
480.751	515.81
480.969	521.81
481.188	592.81
481.406	665.81
481.624	576.81
481.843	523.81
482.061	515.81
482.28	504.81
482.498	492.81
482.717	489.81
482.935	502.81
483.153	479.81
483.372	480.81
483.59	527.81
483.808	493.81
484.027	492.81
484.245	478.81
484.463	486.81
484.681	504.81
484.9	483.81
485.118	491.81
485.336	513.81
485.554	504.81
485.772	505.81
485.99	514.81
486.209	545.81
486.427	513.81
486.645	537.81
486.863	548.81
487.081	549.81
487.299	547.81
487.517	546.81
487.735	525.81
487.953	524.81
488.171	521.81
488.389	527.81
488.607	514.81
488.825	547.81
489.043	538.81
489.261	571.81
489.479	538.81
489.696	532.81
489.914	546.81
490.132	551.81
490.35	587.81
490.568	579.81
490.786	552.81
491.003	592.81
491.221	601.81
491.439	595.81
491.657	616.81
491.874	605.81
492.092	584.81
492.31	596.81
492.527	620.81
492.745	630.81
492.963	609.81
493.18	635.81
493.398	616.81
493.615	630.81
493.833	623.81
494.05	631.81
494.268	639.81
494.485	608.81
494.703	595.81
494.92	623.81
495.138	631.81
495.355	625.81
495.573	641.81
495.79	618.81
496.008	625.81
496.225	633.81
496.442	637.81
496.66	632.81
496.877	620.81
497.094	614.81
497.312	642.81
497.529	645.81
497.746	652.81
497.963	649.81
498.181	681.81
498.398	689.81
498.615	690.81
498.832	661.81
499.049	700.81
499.267	699.81
499.484	740.81
499.701	731.81
499.918	755.81
500.135	787.81
500.352	776.81
500.569	790.81
500.786	769.81
501.003	803.81
501.22	775.81
501.437	771.81
501.654	770.81
501.871	764.81
502.088	760.81
