Data from 1965.PennyLincolnUp.Lamp.En5.5.200Scan.071719.P1._HRD10591_14-09-37-912.txt Node
Date: Thu Jul 18 14:09:37 EDT 2019
User: cochatt
Spectrometer: HR+D1059
Trigger mode: 1
Integration Time (sec): 1.000000E-1
Scans to average: 1
Electric dark correction enabled: true
Nonlinearity correction enabled: false
Boxcar width: 0
XAxis mode: Wavelengths
Number of Pixels in Spectrum: 2048
>>>>>Begin Spectral Data<<<<<
223.165	-16.25
223.4	-16.25
223.635	-16.25
223.869	-24.25
224.104	-14.25
224.338	0.75
224.573	-10.25
224.808	-4.25
225.042	-9.25
225.277	-21.25
225.511	-6.25
225.746	-7.25
225.98	16.75
226.215	5.75
226.449	16.75
226.683	19.75
226.918	24.75
227.152	28.75
227.387	24.75
227.621	39.75
227.856	50.75
228.09	43.75
228.324	51.75
228.559	63.75
228.793	53.75
229.027	100.75
229.262	92.75
229.496	109.75
229.73	115.75
229.964	154.75
230.199	123.75
230.433	115.75
230.667	106.75
230.901	112.75
231.136	81.75
231.37	105.75
231.604	115.75
231.838	108.75
232.072	103.75
232.306	121.75
232.541	110.75
232.775	115.75
233.009	121.75
233.243	100.75
233.477	103.75
233.711	103.75
233.945	115.75
234.179	103.75
234.413	115.75
234.647	120.75
234.881	101.75
235.115	100.75
235.349	118.75
235.583	110.75
235.817	135.75
236.051	123.75
236.285	122.75
236.519	109.75
236.753	124.75
236.987	148.75
237.221	188.75
237.455	211.75
237.689	182.75
237.922	137.75
238.156	113.75
238.39	122.75
238.624	115.75
238.858	121.75
239.091	124.75
239.325	123.75
239.559	118.75
239.793	133.75
240.027	129.75
240.26	137.75
240.494	145.75
240.728	128.75
240.961	159.75
241.195	128.75
241.429	135.75
241.662	133.75
241.896	122.75
242.13	127.75
242.363	121.75
242.597	120.75
242.83	123.75
243.064	137.75
243.298	125.75
243.531	137.75
243.765	126.75
243.998	125.75
244.232	120.75
244.465	137.75
244.699	138.75
244.932	127.75
245.166	128.75
245.399	139.75
245.633	144.75
245.866	131.75
246.099	131.75
246.333	142.75
246.566	139.75
246.8	127.75
247.033	141.75
247.266	143.75
247.5	152.75
247.733	140.75
247.966	138.75
248.2	152.75
248.433	154.75
248.666	159.75
248.899	177.75
249.133	184.75
249.366	185.75
249.599	188.75
249.832	175.75
250.066	180.75
250.299	169.75
250.532	176.75
250.765	199.75
250.998	187.75
251.231	208.75
251.465	200.75
251.698	195.75
251.931	193.75
252.164	190.75
252.397	180.75
252.63	191.75
252.863	181.75
253.096	193.75
253.329	218.75
253.562	219.75
253.795	190.75
254.028	198.75
254.261	211.75
254.494	206.75
254.727	220.75
254.96	247.75
255.193	238.75
255.426	242.75
255.659	206.75
255.892	199.75
256.124	196.75
256.357	212.75
256.59	202.75
256.823	200.75
257.056	216.75
257.289	185.75
257.521	204.75
257.754	204.75
257.987	183.75
258.22	186.75
258.452	202.75
258.685	191.75
258.918	190.75
259.151	189.75
259.383	197.75
259.616	210.75
259.849	199.75
260.081	230.75
260.314	247.75
260.547	221.75
260.779	239.75
261.012	223.75
261.244	204.75
261.477	216.75
261.71	212.75
261.942	209.75
262.175	213.75
262.407	202.75
262.64	188.75
262.872	210.75
263.105	202.75
263.337	190.75
263.57	195.75
263.802	201.75
264.035	202.75
264.267	192.75
264.499	188.75
264.732	196.75
264.964	183.75
265.197	190.75
265.429	189.75
265.661	201.75
265.894	192.75
266.126	192.75
266.358	199.75
266.591	195.75
266.823	184.75
267.055	203.75
267.287	191.75
267.52	199.75
267.752	216.75
267.984	205.75
268.216	208.75
268.448	212.75
268.681	217.75
268.913	224.75
269.145	236.75
269.377	246.75
269.609	228.75
269.841	265.75
270.073	255.75
270.306	284.75
270.538	273.75
270.77	283.75
271.002	280.75
271.234	274.75
271.466	265.75
271.698	265.75
271.93	295.75
272.162	294.75
272.394	283.75
272.626	273.75
272.858	261.75
273.09	253.75
273.322	240.75
273.553	241.75
273.785	229.75
274.017	245.75
274.249	238.75
274.481	225.75
274.713	238.75
274.945	221.75
275.176	229.75
275.408	252.75
275.64	245.75
275.872	219.75
276.104	233.75
276.335	238.75
276.567	254.75
276.799	277.75
277.031	282.75
277.262	280.75
277.494	297.75
277.726	269.75
277.957	247.75
278.189	255.75
278.421	258.75
278.652	239.75
278.884	249.75
279.115	245.75
279.347	239.75
279.579	223.75
279.81	232.75
280.042	245.75
280.273	231.75
280.505	233.75
280.736	236.75
280.968	251.75
281.199	240.75
281.431	233.75
281.662	255.75
281.894	244.75
282.125	248.75
282.356	267.75
282.588	283.75
282.819	287.75
283.051	241.75
283.282	253.75
283.513	266.75
283.745	216.75
283.976	259.75
284.207	267.75
284.439	243.75
284.67	243.75
284.901	251.75
285.132	231.75
285.364	243.75
285.595	267.75
285.826	243.75
286.057	227.75
286.288	230.75
286.52	243.75
286.751	244.75
286.982	259.75
287.213	267.75
287.444	225.75
287.675	273.75
287.906	261.75
288.138	277.75
288.369	254.75
288.6	274.75
288.831	263.75
289.062	251.75
289.293	239.75
289.524	247.75
289.755	257.75
289.986	251.75
290.217	247.75
290.448	234.75
290.679	252.75
290.91	254.75
291.141	244.75
291.371	271.75
291.602	244.75
291.833	232.75
292.064	240.75
292.295	239.75
292.526	245.75
292.757	264.75
292.987	272.75
293.218	247.75
293.449	263.75
293.68	276.75
293.91	263.75
294.141	280.75
294.372	259.75
294.603	255.75
294.833	266.75
295.064	247.75
295.295	276.75
295.525	256.75
295.756	267.75
295.987	279.75
296.217	280.75
296.448	314.75
296.679	258.75
296.909	286.75
297.14	266.75
297.37	273.75
297.601	253.75
297.831	252.75
298.062	257.75
298.292	281.75
298.523	279.75
298.753	283.75
298.984	256.75
299.214	279.75
299.445	262.75
299.675	277.75
299.905	275.75
300.136	260.75
300.366	261.75
300.597	271.75
300.827	291.75
301.057	275.75
301.288	289.75
301.518	295.75
301.748	278.75
301.979	281.75
302.209	277.75
302.439	294.75
302.669	289.75
302.9	301.75
303.13	277.75
303.36	293.75
303.59	297.75
303.82	292.75
304.051	299.75
304.281	288.75
304.511	289.75
304.741	288.75
304.971	275.75
305.201	288.75
305.431	284.75
305.661	288.75
305.891	289.75
306.121	294.75
306.352	270.75
306.582	304.75
306.812	295.75
307.042	276.75
307.272	283.75
307.502	279.75
307.731	306.75
307.961	298.75
308.191	283.75
308.421	292.75
308.651	300.75
308.881	283.75
309.111	309.75
309.341	323.75
309.571	324.75
309.8	318.75
310.03	320.75
310.26	333.75
310.49	341.75
310.72	335.75
310.949	350.75
311.179	373.75
311.409	363.75
311.639	325.75
311.868	335.75
312.098	344.75
312.328	367.75
312.557	371.75
312.787	387.75
313.017	375.75
313.246	345.75
313.476	351.75
313.706	330.75
313.935	364.75
314.165	370.75
314.394	359.75
314.624	341.75
314.853	339.75
315.083	346.75
315.312	331.75
315.542	329.75
315.771	336.75
316.001	335.75
316.23	336.75
316.46	336.75
316.689	337.75
316.919	336.75
317.148	348.75
317.377	358.75
317.607	374.75
317.836	341.75
318.065	339.75
318.295	341.75
318.524	348.75
318.753	339.75
318.983	348.75
319.212	337.75
319.441	339.75
319.67	364.75
319.9	349.75
320.129	356.75
320.358	360.75
320.587	379.75
320.816	338.75
321.046	349.75
321.275	371.75
321.504	375.75
321.733	363.75
321.962	383.75
322.191	389.75
322.42	402.75
322.649	424.75
322.878	400.75
323.108	439.75
323.337	469.75
323.566	475.75
323.795	496.75
324.024	555.75
324.253	686.75
324.482	1023.75
324.71	1550.75
324.939	2113.75
325.168	1781.75
325.397	919.75
325.626	635.75
325.855	533.75
326.084	503.75
326.313	449.75
326.542	501.75
326.77	525.75
326.999	632.75
327.228	880.75
327.457	1359.75
327.686	1599.75
327.914	1068.75
328.143	697.75
328.372	630.75
328.6	597.75
328.829	543.75
329.058	577.75
329.287	571.75
329.515	543.75
329.744	469.75
329.972	480.75
330.201	500.75
330.43	557.75
330.658	559.75
330.887	600.75
331.115	558.75
331.344	507.75
331.572	457.75
331.801	458.75
332.03	471.75
332.258	454.75
332.486	403.75
332.715	390.75
332.943	411.75
333.172	420.75
333.4	434.75
333.629	416.75
333.857	414.75
334.085	430.75
334.314	447.75
334.542	488.75
334.771	490.75
334.999	470.75
335.227	409.75
335.455	402.75
335.684	420.75
335.912	399.75
336.14	397.75
336.369	397.75
336.597	400.75
336.825	403.75
337.053	415.75
337.281	387.75
337.51	377.75
337.738	397.75
337.966	387.75
338.194	380.75
338.422	389.75
338.65	379.75
338.878	387.75
339.106	376.75
339.334	362.75
339.562	370.75
339.79	378.75
340.018	357.75
340.246	385.75
340.474	375.75
340.702	383.75
340.93	381.75
341.158	380.75
341.386	393.75
341.614	364.75
341.842	373.75
342.07	375.75
342.298	364.75
342.526	366.75
342.754	376.75
342.981	349.75
343.209	357.75
343.437	366.75
343.665	377.75
343.893	365.75
344.12	377.75
344.348	379.75
344.576	396.75
344.804	387.75
345.031	389.75
345.259	407.75
345.487	398.75
345.714	394.75
345.942	376.75
346.17	375.75
346.397	368.75
346.625	362.75
346.853	398.75
347.08	373.75
347.308	391.75
347.535	378.75
347.763	398.75
347.99	371.75
348.218	387.75
348.445	381.75
348.673	393.75
348.9	370.75
349.128	365.75
349.355	372.75
349.583	352.75
349.81	363.75
350.037	359.75
350.265	357.75
350.492	368.75
350.72	364.75
350.947	350.75
351.174	373.75
351.402	376.75
351.629	395.75
351.856	409.75
352.083	408.75
352.311	382.75
352.538	403.75
352.765	411.75
352.992	377.75
353.22	387.75
353.447	369.75
353.674	362.75
353.901	362.75
354.128	352.75
354.355	346.75
354.583	364.75
354.81	344.75
355.037	332.75
355.264	349.75
355.491	341.75
355.718	334.75
355.945	340.75
356.172	358.75
356.399	351.75
356.626	349.75
356.853	356.75
357.08	335.75
357.307	344.75
357.534	329.75
357.761	351.75
357.988	325.75
358.215	351.75
358.441	342.75
358.668	353.75
358.895	350.75
359.122	357.75
359.349	372.75
359.576	373.75
359.802	392.75
360.029	434.75
360.256	441.75
360.483	406.75
360.709	395.75
360.936	387.75
361.163	381.75
361.39	383.75
361.616	389.75
361.843	359.75
362.07	355.75
362.296	376.75
362.523	377.75
362.749	374.75
362.976	375.75
363.203	369.75
363.429	331.75
363.656	356.75
363.882	348.75
364.109	343.75
364.335	365.75
364.562	366.75
364.788	342.75
365.015	366.75
365.241	348.75
365.468	356.75
365.694	373.75
365.92	387.75
366.147	359.75
366.373	365.75
366.599	358.75
366.826	349.75
367.052	343.75
367.278	332.75
367.505	359.75
367.731	365.75
367.957	357.75
368.184	360.75
368.41	366.75
368.636	374.75
368.862	363.75
369.089	361.75
369.315	351.75
369.541	355.75
369.767	371.75
369.993	358.75
370.219	357.75
370.445	350.75
370.672	343.75
370.898	352.75
371.124	331.75
371.35	335.75
371.576	337.75
371.802	348.75
372.028	331.75
372.254	345.75
372.48	358.75
372.706	340.75
372.932	336.75
373.158	335.75
373.384	355.75
373.61	327.75
373.835	338.75
374.061	347.75
374.287	336.75
374.513	351.75
374.739	342.75
374.965	343.75
375.191	364.75
375.416	343.75
375.642	343.75
375.868	354.75
376.094	335.75
376.319	330.75
376.545	332.75
376.771	340.75
376.997	367.75
377.222	334.75
377.448	345.75
377.674	343.75
377.899	337.75
378.125	347.75
378.35	316.75
378.576	339.75
378.802	335.75
379.027	356.75
379.253	339.75
379.478	329.75
379.704	334.75
379.929	339.75
380.155	351.75
380.38	336.75
380.606	341.75
380.831	353.75
381.057	357.75
381.282	337.75
381.507	348.75
381.733	340.75
381.958	358.75
382.184	331.75
382.409	336.75
382.634	347.75
382.86	353.75
383.085	331.75
383.31	365.75
383.535	345.75
383.761	361.75
383.986	366.75
384.211	338.75
384.436	359.75
384.662	363.75
384.887	366.75
385.112	344.75
385.337	353.75
385.562	355.75
385.787	356.75
386.013	374.75
386.238	365.75
386.463	369.75
386.688	363.75
386.913	377.75
387.138	370.75
387.363	360.75
387.588	372.75
387.813	366.75
388.038	377.75
388.263	358.75
388.488	364.75
388.713	361.75
388.938	376.75
389.163	357.75
389.387	378.75
389.612	357.75
389.837	366.75
390.062	381.75
390.287	362.75
390.512	354.75
390.736	389.75
390.961	367.75
391.186	343.75
391.411	362.75
391.636	375.75
391.86	376.75
392.085	377.75
392.31	380.75
392.534	378.75
392.759	364.75
392.984	371.75
393.208	368.75
393.433	373.75
393.658	361.75
393.882	374.75
394.107	357.75
394.331	385.75
394.556	380.75
394.78	367.75
395.005	359.75
395.229	358.75
395.454	367.75
395.678	368.75
395.903	379.75
396.127	431.75
396.352	398.75
396.576	379.75
396.801	375.75
397.025	376.75
397.249	393.75
397.474	391.75
397.698	387.75
397.922	401.75
398.147	397.75
398.371	408.75
398.595	416.75
398.82	399.75
399.044	418.75
399.268	420.75
399.492	457.75
399.717	448.75
399.941	481.75
400.165	510.75
400.389	518.75
400.613	466.75
400.837	445.75
401.062	431.75
401.286	427.75
401.51	415.75
401.734	402.75
401.958	421.75
402.182	427.75
402.406	425.75
402.63	435.75
402.854	425.75
403.078	454.75
403.302	453.75
403.526	438.75
403.75	419.75
403.974	424.75
404.198	440.75
404.422	431.75
404.645	428.75
404.869	449.75
405.093	475.75
405.317	517.75
405.541	496.75
405.765	473.75
405.988	459.75
406.212	447.75
406.436	479.75
406.66	495.75
406.883	465.75
407.107	480.75
407.331	507.75
407.555	574.75
407.778	580.75
408.002	518.75
408.226	465.75
408.449	477.75
408.673	488.75
408.896	495.75
409.12	513.75
409.344	499.75
409.567	448.75
409.791	432.75
410.014	444.75
410.238	432.75
410.461	449.75
410.685	433.75
410.908	446.75
411.132	508.75
411.355	534.75
411.578	485.75
411.802	430.75
412.025	441.75
412.249	441.75
412.472	488.75
412.695	475.75
412.919	481.75
413.142	454.75
413.365	429.75
413.589	437.75
413.812	443.75
414.035	416.75
414.258	407.75
414.482	399.75
414.705	413.75
414.928	418.75
415.151	428.75
415.374	406.75
415.597	404.75
415.821	401.75
416.044	422.75
416.267	413.75
416.49	403.75
416.713	405.75
416.936	407.75
417.159	406.75
417.382	397.75
417.605	409.75
417.828	415.75
418.051	454.75
418.274	435.75
418.497	404.75
418.72	407.75
418.943	383.75
419.166	430.75
419.389	423.75
419.611	436.75
419.834	429.75
420.057	439.75
420.28	432.75
420.503	417.75
420.726	444.75
420.948	446.75
421.171	470.75
421.394	522.75
421.617	444.75
421.839	412.75
422.062	435.75
422.285	442.75
422.507	484.75
422.73	571.75
422.953	540.75
423.175	475.75
423.398	451.75
423.621	470.75
423.843	463.75
424.066	459.75
424.288	443.75
424.511	475.75
424.733	538.75
424.956	583.75
425.178	581.75
425.401	584.75
425.623	565.75
425.846	484.75
426.068	486.75
426.291	469.75
426.513	477.75
426.735	485.75
426.958	512.75
427.18	579.75
427.402	709.75
427.625	746.75
427.847	694.75
428.069	589.75
428.292	531.75
428.514	501.75
428.736	446.75
428.958	455.75
429.181	441.75
429.403	442.75
429.625	467.75
429.847	475.75
430.069	526.75
430.292	524.75
430.514	471.75
430.736	421.75
430.958	447.75
431.18	397.75
431.402	431.75
431.624	408.75
431.846	424.75
432.068	417.75
432.29	408.75
432.512	438.75
432.734	417.75
432.956	417.75
433.178	428.75
433.4	444.75
433.622	421.75
433.844	408.75
434.066	411.75
434.287	412.75
434.509	418.75
434.731	424.75
434.953	423.75
435.175	437.75
435.397	470.75
435.618	461.75
435.84	519.75
436.062	595.75
436.284	646.75
436.505	523.75
436.727	495.75
436.949	445.75
437.17	452.75
437.392	429.75
437.614	448.75
437.835	477.75
438.057	572.75
438.278	656.75
438.5	659.75
438.721	712.75
438.943	649.75
439.165	546.75
439.386	501.75
439.608	493.75
439.829	500.75
440.05	536.75
440.272	588.75
440.493	512.75
440.715	483.75
440.936	471.75
441.158	459.75
441.379	471.75
441.6	461.75
441.822	493.75
442.043	519.75
442.264	588.75
442.486	635.75
442.707	553.75
442.928	497.75
443.149	489.75
443.371	524.75
443.592	563.75
443.813	637.75
444.034	672.75
444.255	579.75
444.476	480.75
444.698	494.75
444.919	470.75
445.14	587.75
445.361	539.75
445.582	533.75
445.803	583.75
446.024	672.75
446.245	671.75
446.466	615.75
446.687	503.75
446.908	485.75
447.129	485.75
447.35	466.75
447.571	439.75
447.792	418.75
448.013	460.75
448.234	488.75
448.455	501.75
448.675	593.75
448.896	678.75
449.117	599.75
449.338	569.75
449.559	658.75
449.779	726.75
450	566.75
450.221	495.75
450.442	479.75
450.662	456.75
450.883	456.75
451.104	481.75
451.324	453.75
451.545	439.75
451.766	430.75
451.986	409.75
452.207	395.75
452.428	396.75
452.648	383.75
452.869	403.75
453.089	420.75
453.31	431.75
453.53	388.75
453.751	387.75
453.971	419.75
454.192	446.75
454.412	435.75
454.633	407.75
454.853	383.75
455.073	385.75
455.294	426.75
455.514	488.75
455.734	460.75
455.955	422.75
456.175	382.75
456.395	386.75
456.616	378.75
456.836	379.75
457.056	365.75
457.276	381.75
457.497	387.75
457.717	401.75
457.937	391.75
458.157	391.75
458.377	398.75
458.598	420.75
458.818	479.75
459.038	585.75
459.258	564.75
459.478	476.75
459.698	450.75
459.918	417.75
460.138	403.75
460.358	431.75
460.578	410.75
460.798	437.75
461.018	415.75
461.238	410.75
461.458	394.75
461.678	416.75
461.898	413.75
462.118	416.75
462.338	437.75
462.558	411.75
462.777	407.75
462.997	431.75
463.217	432.75
463.437	444.75
463.657	429.75
463.876	444.75
464.096	445.75
464.316	431.75
464.536	454.75
464.755	454.75
464.975	449.75
465.195	477.75
465.414	590.75
465.634	496.75
465.854	469.75
466.073	432.75
466.293	419.75
466.512	405.75
466.732	405.75
466.951	425.75
467.171	398.75
467.391	427.75
467.61	435.75
467.829	431.75
468.049	429.75
468.268	437.75
468.488	425.75
468.707	417.75
468.927	401.75
469.146	392.75
469.365	391.75
469.585	402.75
469.804	395.75
470.023	430.75
470.243	402.75
470.462	414.75
470.681	430.75
470.901	439.75
471.12	386.75
471.339	439.75
471.558	411.75
471.777	435.75
471.997	413.75
472.216	431.75
472.435	457.75
472.654	454.75
472.873	425.75
473.092	409.75
473.311	417.75
473.53	412.75
473.749	457.75
473.968	460.75
474.187	551.75
474.406	573.75
474.625	499.75
474.844	415.75
475.063	429.75
475.282	388.75
475.501	411.75
475.72	428.75
475.939	417.75
476.158	431.75
476.377	441.75
476.596	429.75
476.814	418.75
477.033	441.75
477.252	455.75
477.471	428.75
477.69	443.75
477.908	435.75
478.127	433.75
478.346	439.75
478.564	466.75
478.783	472.75
479.002	447.75
479.22	460.75
479.439	470.75
479.658	485.75
479.876	513.75
480.095	524.75
480.313	536.75
480.532	505.75
480.751	501.75
480.969	505.75
481.188	603.75
481.406	617.75
481.624	543.75
481.843	516.75
482.061	505.75
482.28	480.75
482.498	511.75
482.717	487.75
482.935	482.75
483.153	477.75
483.372	491.75
483.59	499.75
483.808	509.75
484.027	471.75
484.245	476.75
484.463	488.75
484.681	517.75
484.9	490.75
485.118	479.75
485.336	510.75
485.554	512.75
485.772	502.75
485.99	496.75
486.209	514.75
486.427	519.75
486.645	528.75
486.863	529.75
487.081	548.75
487.299	528.75
487.517	500.75
487.735	515.75
487.953	513.75
488.171	536.75
488.389	525.75
488.607	512.75
488.825	539.75
489.043	545.75
489.261	519.75
489.479	525.75
489.696	531.75
489.914	525.75
490.132	529.75
490.35	531.75
490.568	531.75
490.786	568.75
491.003	569.75
491.221	585.75
491.439	578.75
491.657	585.75
491.874	599.75
492.092	585.75
492.31	616.75
492.527	618.75
492.745	593.75
492.963	603.75
493.18	614.75
493.398	615.75
493.615	611.75
493.833	628.75
494.05	604.75
494.268	618.75
494.485	608.75
494.703	627.75
494.92	637.75
495.138	583.75
495.355	611.75
495.573	616.75
495.79	608.75
496.008	600.75
496.225	629.75
496.442	616.75
496.66	606.75
496.877	619.75
497.094	620.75
497.312	621.75
497.529	664.75
497.746	620.75
497.963	663.75
498.181	666.75
498.398	651.75
498.615	670.75
498.832	663.75
499.049	663.75
499.267	696.75
499.484	721.75
499.701	736.75
499.918	717.75
500.135	760.75
500.352	754.75
500.569	771.75
500.786	792.75
501.003	789.75
501.22	767.75
501.437	755.75
501.654	746.75
501.871	746.75
