Data from 1965.PennyLincolnUp.Lamp.En5.5.200Scan.071719.P1._HRD10591_14-09-32-911.txt Node
Date: Thu Jul 18 14:09:32 EDT 2019
User: cochatt
Spectrometer: HR+D1059
Trigger mode: 1
Integration Time (sec): 1.000000E-1
Scans to average: 1
Electric dark correction enabled: true
Nonlinearity correction enabled: false
Boxcar width: 0
XAxis mode: Wavelengths
Number of Pixels in Spectrum: 2048
>>>>>Begin Spectral Data<<<<<
223.165	-16.62
223.4	-16.62
223.635	-16.62
223.869	-22.62
224.104	-19.62
224.338	-23.62
224.573	-19.62
224.808	-0.62
225.042	-16.62
225.277	-2.62
225.511	-10.62
225.746	18.38
225.98	15.38
226.215	7.38
226.449	7.38
226.683	24.38
226.918	24.38
227.152	35.38
227.387	35.38
227.621	19.38
227.856	29.38
228.09	39.38
228.324	51.38
228.559	48.38
228.793	64.38
229.027	84.38
229.262	110.38
229.496	95.38
229.73	136.38
229.964	152.38
230.199	126.38
230.433	109.38
230.667	112.38
230.901	105.38
231.136	106.38
231.37	114.38
231.604	103.38
231.838	108.38
232.072	100.38
232.306	109.38
232.541	114.38
232.775	102.38
233.009	115.38
233.243	123.38
233.477	120.38
233.711	101.38
233.945	110.38
234.179	95.38
234.413	98.38
234.647	99.38
234.881	105.38
235.115	103.38
235.349	115.38
235.583	120.38
235.817	120.38
236.051	133.38
236.285	117.38
236.519	122.38
236.753	126.38
236.987	150.38
237.221	164.38
237.455	212.38
237.689	181.38
237.922	132.38
238.156	121.38
238.39	118.38
238.624	108.38
238.858	120.38
239.091	107.38
239.325	117.38
239.559	112.38
239.793	124.38
240.027	123.38
240.26	129.38
240.494	169.38
240.728	149.38
240.961	122.38
241.195	135.38
241.429	137.38
241.662	126.38
241.896	128.38
242.13	139.38
242.363	111.38
242.597	111.38
242.83	129.38
243.064	133.38
243.298	132.38
243.531	125.38
243.765	139.38
243.998	124.38
244.232	117.38
244.465	139.38
244.699	136.38
244.932	130.38
245.166	118.38
245.399	136.38
245.633	146.38
245.866	128.38
246.099	129.38
246.333	127.38
246.566	122.38
246.8	127.38
247.033	139.38
247.266	134.38
247.5	135.38
247.733	149.38
247.966	173.38
248.2	149.38
248.433	139.38
248.666	161.38
248.899	173.38
249.133	181.38
249.366	199.38
249.599	178.38
249.832	170.38
250.066	142.38
250.299	157.38
250.532	163.38
250.765	181.38
250.998	185.38
251.231	191.38
251.465	194.38
251.698	183.38
251.931	171.38
252.164	177.38
252.397	175.38
252.63	187.38
252.863	167.38
253.096	180.38
253.329	208.38
253.562	183.38
253.795	197.38
254.028	203.38
254.261	196.38
254.494	207.38
254.727	238.38
254.96	235.38
255.193	236.38
255.426	228.38
255.659	228.38
255.892	201.38
256.124	208.38
256.357	195.38
256.59	195.38
256.823	196.38
257.056	187.38
257.289	195.38
257.521	175.38
257.754	177.38
257.987	188.38
258.22	173.38
258.452	186.38
258.685	187.38
258.918	185.38
259.151	199.38
259.383	208.38
259.616	215.38
259.849	193.38
260.081	207.38
260.314	223.38
260.547	243.38
260.779	215.38
261.012	205.38
261.244	198.38
261.477	195.38
261.71	208.38
261.942	195.38
262.175	203.38
262.407	197.38
262.64	194.38
262.872	198.38
263.105	193.38
263.337	200.38
263.57	189.38
263.802	190.38
264.035	191.38
264.267	184.38
264.499	187.38
264.732	200.38
264.964	188.38
265.197	200.38
265.429	195.38
265.661	187.38
265.894	179.38
266.126	177.38
266.358	190.38
266.591	202.38
266.823	203.38
267.055	206.38
267.287	199.38
267.52	205.38
267.752	185.38
267.984	204.38
268.216	208.38
268.448	204.38
268.681	209.38
268.913	214.38
269.145	235.38
269.377	235.38
269.609	232.38
269.841	240.38
270.073	254.38
270.306	272.38
270.538	272.38
270.77	299.38
271.002	271.38
271.234	251.38
271.466	266.38
271.698	267.38
271.93	284.38
272.162	283.38
272.394	279.38
272.626	263.38
272.858	268.38
273.09	249.38
273.322	265.38
273.553	230.38
273.785	223.38
274.017	230.38
274.249	222.38
274.481	218.38
274.713	236.38
274.945	247.38
275.176	222.38
275.408	227.38
275.64	223.38
275.872	235.38
276.104	235.38
276.335	236.38
276.567	244.38
276.799	249.38
277.031	249.38
277.262	286.38
277.494	273.38
277.726	271.38
277.957	261.38
278.189	248.38
278.421	238.38
278.652	250.38
278.884	233.38
279.115	239.38
279.347	231.38
279.579	249.38
279.81	246.38
280.042	245.38
280.273	240.38
280.505	228.38
280.736	225.38
280.968	244.38
281.199	234.38
281.431	234.38
281.662	234.38
281.894	237.38
282.125	237.38
282.356	257.38
282.588	288.38
282.819	296.38
283.051	252.38
283.282	234.38
283.513	219.38
283.745	231.38
283.976	248.38
284.207	251.38
284.439	238.38
284.67	231.38
284.901	231.38
285.132	236.38
285.364	222.38
285.595	234.38
285.826	246.38
286.057	248.38
286.288	258.38
286.52	243.38
286.751	231.38
286.982	255.38
287.213	241.38
287.444	263.38
287.675	255.38
287.906	250.38
288.138	255.38
288.369	273.38
288.6	249.38
288.831	261.38
289.062	241.38
289.293	249.38
289.524	271.38
289.755	247.38
289.986	244.38
290.217	238.38
290.448	249.38
290.679	243.38
290.91	251.38
291.141	252.38
291.371	254.38
291.602	230.38
291.833	244.38
292.064	255.38
292.295	247.38
292.526	257.38
292.757	251.38
292.987	240.38
293.218	259.38
293.449	263.38
293.68	265.38
293.91	255.38
294.141	247.38
294.372	226.38
294.603	236.38
294.833	243.38
295.064	265.38
295.295	246.38
295.525	237.38
295.756	262.38
295.987	259.38
296.217	284.38
296.448	316.38
296.679	262.38
296.909	255.38
297.14	260.38
297.37	269.38
297.601	263.38
297.831	267.38
298.062	263.38
298.292	252.38
298.523	284.38
298.753	256.38
298.984	257.38
299.214	253.38
299.445	262.38
299.675	259.38
299.905	269.38
300.136	261.38
300.366	271.38
300.597	272.38
300.827	279.38
301.057	285.38
301.288	272.38
301.518	298.38
301.748	255.38
301.979	283.38
302.209	294.38
302.439	271.38
302.669	279.38
302.9	266.38
303.13	274.38
303.36	292.38
303.59	286.38
303.82	288.38
304.051	290.38
304.281	286.38
304.511	287.38
304.741	273.38
304.971	275.38
305.201	280.38
305.431	295.38
305.661	304.38
305.891	274.38
306.121	305.38
306.352	296.38
306.582	284.38
306.812	299.38
307.042	287.38
307.272	282.38
307.502	294.38
307.731	289.38
307.961	291.38
308.191	304.38
308.421	295.38
308.651	285.38
308.881	291.38
309.111	326.38
309.341	301.38
309.571	311.38
309.8	317.38
310.03	339.38
310.26	331.38
310.49	322.38
310.72	338.38
310.949	363.38
311.179	372.38
311.409	318.38
311.639	325.38
311.868	343.38
312.098	332.38
312.328	355.38
312.557	365.38
312.787	346.38
313.017	368.38
313.246	344.38
313.476	342.38
313.706	335.38
313.935	357.38
314.165	353.38
314.394	360.38
314.624	368.38
314.853	346.38
315.083	339.38
315.312	326.38
315.542	335.38
315.771	317.38
316.001	339.38
316.23	331.38
316.46	332.38
316.689	327.38
316.919	338.38
317.148	356.38
317.377	336.38
317.607	331.38
317.836	329.38
318.065	332.38
318.295	332.38
318.524	337.38
318.753	335.38
318.983	342.38
319.212	335.38
319.441	333.38
319.67	335.38
319.9	336.38
320.129	344.38
320.358	339.38
320.587	337.38
320.816	343.38
321.046	341.38
321.275	352.38
321.504	368.38
321.733	352.38
321.962	377.38
322.191	371.38
322.42	388.38
322.649	407.38
322.878	406.38
323.108	427.38
323.337	451.38
323.566	468.38
323.795	489.38
324.024	547.38
324.253	683.38
324.482	1006.38
324.71	1539.38
324.939	2099.38
325.168	1769.38
325.397	910.38
325.626	620.38
325.855	528.38
326.084	494.38
326.313	463.38
326.542	461.38
326.77	519.38
326.999	619.38
327.228	877.38
327.457	1319.38
327.686	1535.38
327.914	1080.38
328.143	698.38
328.372	583.38
328.6	566.38
328.829	524.38
329.058	556.38
329.287	548.38
329.515	502.38
329.744	473.38
329.972	472.38
330.201	494.38
330.43	521.38
330.658	585.38
330.887	562.38
331.115	555.38
331.344	483.38
331.572	429.38
331.801	460.38
332.03	449.38
332.258	430.38
332.486	411.38
332.715	392.38
332.943	404.38
333.172	414.38
333.4	425.38
333.629	415.38
333.857	432.38
334.085	462.38
334.314	437.38
334.542	467.38
334.771	490.38
334.999	443.38
335.227	416.38
335.455	393.38
335.684	408.38
335.912	399.38
336.14	383.38
336.369	379.38
336.597	403.38
336.825	398.38
337.053	395.38
337.281	381.38
337.51	369.38
337.738	362.38
337.966	383.38
338.194	373.38
338.422	390.38
338.65	380.38
338.878	385.38
339.106	355.38
339.334	391.38
339.562	380.38
339.79	355.38
340.018	376.38
340.246	376.38
340.474	380.38
340.702	388.38
340.93	375.38
341.158	399.38
341.386	375.38
341.614	353.38
341.842	377.38
342.07	365.38
342.298	371.38
342.526	368.38
342.754	340.38
342.981	343.38
343.209	344.38
343.437	363.38
343.665	358.38
343.893	377.38
344.12	395.38
344.348	367.38
344.576	387.38
344.804	411.38
345.031	374.38
345.259	407.38
345.487	387.38
345.714	374.38
345.942	374.38
346.17	380.38
346.397	376.38
346.625	379.38
346.853	353.38
347.08	367.38
347.308	368.38
347.535	349.38
347.763	375.38
347.99	391.38
348.218	377.38
348.445	381.38
348.673	399.38
348.9	369.38
349.128	355.38
349.355	354.38
349.583	334.38
349.81	329.38
350.037	346.38
350.265	346.38
350.492	346.38
350.72	357.38
350.947	373.38
351.174	359.38
351.402	344.38
351.629	368.38
351.856	376.38
352.083	377.38
352.311	379.38
352.538	385.38
352.765	377.38
352.992	378.38
353.22	380.38
353.447	356.38
353.674	352.38
353.901	350.38
354.128	345.38
354.355	345.38
354.583	317.38
354.81	342.38
355.037	348.38
355.264	327.38
355.491	332.38
355.718	325.38
355.945	310.38
356.172	320.38
356.399	346.38
356.626	343.38
356.853	324.38
357.08	324.38
357.307	331.38
357.534	320.38
357.761	337.38
357.988	349.38
358.215	323.38
358.441	326.38
358.668	332.38
358.895	357.38
359.122	344.38
359.349	354.38
359.576	366.38
359.802	390.38
360.029	397.38
360.256	441.38
360.483	399.38
360.709	371.38
360.936	364.38
361.163	364.38
361.39	380.38
361.616	368.38
361.843	358.38
362.07	367.38
362.296	357.38
362.523	347.38
362.749	370.38
362.976	364.38
363.203	365.38
363.429	357.38
363.656	344.38
363.882	343.38
364.109	335.38
364.335	344.38
364.562	352.38
364.788	352.38
365.015	352.38
365.241	331.38
365.468	344.38
365.694	361.38
365.92	356.38
366.147	336.38
366.373	332.38
366.599	327.38
366.826	348.38
367.052	336.38
367.278	332.38
367.505	332.38
367.731	326.38
367.957	341.38
368.184	344.38
368.41	362.38
368.636	336.38
368.862	345.38
369.089	333.38
369.315	342.38
369.541	349.38
369.767	335.38
369.993	321.38
370.219	345.38
370.445	328.38
370.672	331.38
370.898	340.38
371.124	338.38
371.35	343.38
371.576	329.38
371.802	335.38
372.028	345.38
372.254	347.38
372.48	334.38
372.706	325.38
372.932	331.38
373.158	330.38
373.384	336.38
373.61	337.38
373.835	353.38
374.061	348.38
374.287	357.38
374.513	335.38
374.739	357.38
374.965	356.38
375.191	341.38
375.416	343.38
375.642	339.38
375.868	327.38
376.094	317.38
376.319	333.38
376.545	352.38
376.771	336.38
376.997	329.38
377.222	345.38
377.448	335.38
377.674	344.38
377.899	327.38
378.125	316.38
378.35	329.38
378.576	318.38
378.802	331.38
379.027	329.38
379.253	322.38
379.478	341.38
379.704	340.38
379.929	342.38
380.155	329.38
380.38	349.38
380.606	339.38
380.831	331.38
381.057	333.38
381.282	347.38
381.507	343.38
381.733	334.38
381.958	329.38
382.184	339.38
382.409	334.38
382.634	335.38
382.86	340.38
383.085	349.38
383.31	332.38
383.535	347.38
383.761	360.38
383.986	350.38
384.211	351.38
384.436	339.38
384.662	352.38
384.887	339.38
385.112	343.38
385.337	339.38
385.562	333.38
385.787	335.38
386.013	363.38
386.238	361.38
386.463	378.38
386.688	363.38
386.913	354.38
387.138	324.38
387.363	335.38
387.588	360.38
387.813	352.38
388.038	357.38
388.263	356.38
388.488	351.38
388.713	342.38
388.938	348.38
389.163	367.38
389.387	361.38
389.612	365.38
389.837	353.38
390.062	352.38
390.287	360.38
390.512	381.38
390.736	343.38
390.961	368.38
391.186	357.38
391.411	348.38
391.636	359.38
391.86	372.38
392.085	353.38
392.31	371.38
392.534	365.38
392.759	367.38
392.984	351.38
393.208	372.38
393.433	379.38
393.658	377.38
393.882	371.38
394.107	353.38
394.331	353.38
394.556	379.38
394.78	384.38
395.005	362.38
395.229	365.38
395.454	378.38
395.678	382.38
395.903	380.38
396.127	388.38
396.352	420.38
396.576	388.38
396.801	370.38
397.025	378.38
397.249	383.38
397.474	381.38
397.698	373.38
397.922	410.38
398.147	395.38
398.371	421.38
398.595	405.38
398.82	411.38
399.044	429.38
399.268	421.38
399.492	415.38
399.717	464.38
399.941	461.38
400.165	478.38
400.389	499.38
400.613	443.38
400.837	442.38
401.062	414.38
401.286	422.38
401.51	400.38
401.734	411.38
401.958	413.38
402.182	415.38
402.406	424.38
402.63	405.38
402.854	407.38
403.078	420.38
403.302	431.38
403.526	412.38
403.75	416.38
403.974	404.38
404.198	412.38
404.422	413.38
404.645	437.38
404.869	438.38
405.093	458.38
405.317	484.38
405.541	512.38
405.765	483.38
405.988	459.38
406.212	475.38
406.436	474.38
406.66	470.38
406.883	483.38
407.107	491.38
407.331	517.38
407.555	561.38
407.778	552.38
408.002	496.38
408.226	484.38
408.449	451.38
408.673	471.38
408.896	498.38
409.12	499.38
409.344	497.38
409.567	444.38
409.791	439.38
410.014	423.38
410.238	421.38
410.461	438.38
410.685	439.38
410.908	466.38
411.132	450.38
411.355	504.38
411.578	448.38
411.802	435.38
412.025	419.38
412.249	420.38
412.472	467.38
412.695	492.38
412.919	477.38
413.142	457.38
413.365	417.38
413.589	405.38
413.812	421.38
414.035	423.38
414.258	416.38
414.482	409.38
414.705	382.38
414.928	409.38
415.151	385.38
415.374	404.38
415.597	392.38
415.821	407.38
416.044	381.38
416.267	389.38
416.49	385.38
416.713	377.38
416.936	385.38
417.159	401.38
417.382	414.38
417.605	407.38
417.828	412.38
418.051	411.38
418.274	413.38
418.497	408.38
418.72	411.38
418.943	429.38
419.166	404.38
419.389	418.38
419.611	413.38
419.834	433.38
420.057	418.38
420.28	432.38
420.503	421.38
420.726	428.38
420.948	423.38
421.171	473.38
421.394	493.38
421.617	465.38
421.839	419.38
422.062	412.38
422.285	433.38
422.507	488.38
422.73	530.38
422.953	531.38
423.175	425.38
423.398	439.38
423.621	447.38
423.843	459.38
424.066	463.38
424.288	455.38
424.511	459.38
424.733	517.38
424.956	564.38
425.178	561.38
425.401	564.38
425.623	563.38
425.846	477.38
426.068	454.38
426.291	445.38
426.513	456.38
426.735	461.38
426.958	481.38
427.18	582.38
427.402	664.38
427.625	715.38
427.847	689.38
428.069	576.38
428.292	515.38
428.514	483.38
428.736	445.38
428.958	447.38
429.181	419.38
429.403	419.38
429.625	433.38
429.847	467.38
430.069	534.38
430.292	519.38
430.514	437.38
430.736	441.38
430.958	421.38
431.18	419.38
431.402	415.38
431.624	401.38
431.846	400.38
432.068	401.38
432.29	399.38
432.512	424.38
432.734	415.38
432.956	399.38
433.178	416.38
433.4	405.38
433.622	423.38
433.844	399.38
434.066	401.38
434.287	397.38
434.509	405.38
434.731	427.38
434.953	406.38
435.175	435.38
435.397	447.38
435.618	469.38
435.84	491.38
436.062	571.38
436.284	628.38
436.505	524.38
436.727	471.38
436.949	439.38
437.17	428.38
437.392	449.38
437.614	435.38
437.835	477.38
438.057	544.38
438.278	636.38
438.5	648.38
438.721	670.38
438.943	636.38
439.165	512.38
439.386	481.38
439.608	479.38
439.829	458.38
440.05	513.38
440.272	573.38
440.493	510.38
440.715	466.38
440.936	446.38
441.158	433.38
441.379	439.38
441.6	432.38
441.822	445.38
442.043	481.38
442.264	571.38
442.486	606.38
442.707	499.38
442.928	481.38
443.149	484.38
443.371	516.38
443.592	543.38
443.813	629.38
444.034	663.38
444.255	540.38
444.476	483.38
444.698	459.38
444.919	472.38
445.14	569.38
445.361	526.38
445.582	490.38
445.803	571.38
446.024	624.38
446.245	653.38
446.466	572.38
446.687	487.38
446.908	472.38
447.129	442.38
447.35	447.38
447.571	430.38
447.792	445.38
448.013	419.38
448.234	455.38
448.455	491.38
448.675	591.38
448.896	661.38
449.117	567.38
449.338	533.38
449.559	651.38
449.779	696.38
450	565.38
450.221	478.38
450.442	442.38
450.662	421.38
450.883	467.38
451.104	461.38
451.324	448.38
451.545	426.38
451.766	382.38
451.986	389.38
452.207	410.38
452.428	387.38
452.648	397.38
452.869	399.38
453.089	394.38
453.31	426.38
453.53	420.38
453.751	392.38
453.971	411.38
454.192	430.38
454.412	405.38
454.633	389.38
454.853	399.38
455.073	371.38
455.294	413.38
455.514	443.38
455.734	449.38
455.955	382.38
456.175	362.38
456.395	360.38
456.616	349.38
456.836	365.38
457.056	372.38
457.276	359.38
457.497	362.38
457.717	356.38
457.937	385.38
458.157	374.38
458.377	379.38
458.598	405.38
458.818	470.38
459.038	524.38
459.258	548.38
459.478	473.38
459.698	411.38
459.918	397.38
460.138	392.38
460.358	407.38
460.578	410.38
460.798	397.38
461.018	387.38
461.238	412.38
461.458	398.38
461.678	398.38
461.898	418.38
462.118	389.38
462.338	391.38
462.558	413.38
462.777	419.38
462.997	421.38
463.217	438.38
463.437	430.38
463.657	405.38
463.876	417.38
464.096	429.38
464.316	417.38
464.536	417.38
464.755	427.38
464.975	461.38
465.195	513.38
465.414	590.38
465.634	482.38
465.854	438.38
466.073	430.38
466.293	407.38
466.512	408.38
466.732	408.38
466.951	399.38
467.171	383.38
467.391	379.38
467.61	408.38
467.829	423.38
468.049	406.38
468.268	412.38
468.488	414.38
468.707	389.38
468.927	398.38
469.146	365.38
469.365	387.38
469.585	376.38
469.804	394.38
470.023	396.38
470.243	407.38
470.462	408.38
470.681	417.38
470.901	433.38
471.12	411.38
471.339	401.38
471.558	405.38
471.777	387.38
471.997	416.38
472.216	401.38
472.435	451.38
472.654	424.38
472.873	411.38
473.092	381.38
473.311	377.38
473.53	399.38
473.749	428.38
473.968	455.38
474.187	519.38
474.406	567.38
474.625	442.38
474.844	398.38
475.063	394.38
475.282	406.38
475.501	389.38
475.72	429.38
475.939	407.38
476.158	405.38
476.377	411.38
476.596	412.38
476.814	423.38
477.033	448.38
477.252	425.38
477.471	425.38
477.69	429.38
477.908	418.38
478.127	430.38
478.346	416.38
478.564	437.38
478.783	426.38
479.002	448.38
479.22	471.38
479.439	469.38
479.658	488.38
479.876	465.38
480.095	492.38
480.313	482.38
480.532	495.38
480.751	471.38
480.969	511.38
481.188	563.38
481.406	594.38
481.624	540.38
481.843	504.38
482.061	479.38
482.28	480.38
482.498	469.38
482.717	457.38
482.935	473.38
483.153	476.38
483.372	479.38
483.59	476.38
483.808	468.38
484.027	460.38
484.245	470.38
484.463	479.38
484.681	489.38
484.9	494.38
485.118	488.38
485.336	479.38
485.554	484.38
485.772	488.38
485.99	504.38
486.209	494.38
486.427	485.38
486.645	504.38
486.863	527.38
487.081	541.38
487.299	507.38
487.517	511.38
487.735	474.38
487.953	499.38
488.171	487.38
488.389	525.38
488.607	508.38
488.825	514.38
489.043	502.38
489.261	507.38
489.479	519.38
489.696	524.38
489.914	520.38
490.132	519.38
490.35	519.38
490.568	553.38
490.786	557.38
491.003	559.38
491.221	572.38
491.439	550.38
491.657	575.38
491.874	575.38
492.092	576.38
492.31	580.38
492.527	583.38
492.745	577.38
492.963	601.38
493.18	567.38
493.398	593.38
493.615	605.38
493.833	594.38
494.05	599.38
494.268	569.38
494.485	582.38
494.703	590.38
494.92	603.38
495.138	589.38
495.355	608.38
495.573	618.38
495.79	596.38
496.008	595.38
496.225	589.38
496.442	585.38
496.66	628.38
496.877	601.38
497.094	591.38
497.312	633.38
497.529	629.38
497.746	606.38
497.963	665.38
498.181	639.38
498.398	619.38
498.615	655.38
498.832	671.38
499.049	661.38
499.267	660.38
499.484	666.38
499.701	689.38
499.918	697.38
500.135	720.38
500.352	721.38
500.569	735.38
500.786	763.38
501.003	727.38
501.22	737.38
501.437	703.38
501.654	713.38
501.871	710.38
