Data from 1965.PennyLincolnUp.Lamp.En5.5.200Scan.071719.P1._HRD10591_14-08-51-911.txt Node
Date: Thu Jul 18 14:08:51 EDT 2019
User: cochatt
Spectrometer: HR+D1059
Trigger mode: 1
Integration Time (sec): 1.000000E-1
Scans to average: 1
Electric dark correction enabled: true
Nonlinearity correction enabled: false
Boxcar width: 0
XAxis mode: Wavelengths
Number of Pixels in Spectrum: 2048
>>>>>Begin Spectral Data<<<<<
223.165	-7.62
223.4	-7.62
223.635	-7.62
223.869	1.38
224.104	-18.62
224.338	-18.62
224.573	-19.62
224.808	-13.62
225.042	-13.62
225.277	-8.62
225.511	-1.62
225.746	-2.62
225.98	12.38
226.215	19.38
226.449	1.38
226.683	9.38
226.918	29.38
227.152	31.38
227.387	35.38
227.621	33.38
227.856	44.38
228.09	44.38
228.324	38.38
228.559	73.38
228.793	48.38
229.027	98.38
229.262	101.38
229.496	109.38
229.73	119.38
229.964	132.38
230.199	134.38
230.433	105.38
230.667	106.38
230.901	103.38
231.136	106.38
231.37	103.38
231.604	89.38
231.838	107.38
232.072	89.38
232.306	100.38
232.541	87.38
232.775	99.38
233.009	106.38
233.243	99.38
233.477	101.38
233.711	102.38
233.945	98.38
234.179	97.38
234.413	103.38
234.647	112.38
234.881	97.38
235.115	107.38
235.349	107.38
235.583	105.38
235.817	101.38
236.051	110.38
236.285	112.38
236.519	94.38
236.753	105.38
236.987	132.38
237.221	138.38
237.455	183.38
237.689	156.38
237.922	143.38
238.156	117.38
238.39	117.38
238.624	116.38
238.858	99.38
239.091	108.38
239.325	113.38
239.559	112.38
239.793	117.38
240.027	120.38
240.26	113.38
240.494	142.38
240.728	143.38
240.961	124.38
241.195	120.38
241.429	112.38
241.662	125.38
241.896	111.38
242.13	120.38
242.363	126.38
242.597	118.38
242.83	131.38
243.064	113.38
243.298	109.38
243.531	121.38
243.765	122.38
243.998	134.38
244.232	116.38
244.465	130.38
244.699	119.38
244.932	123.38
245.166	128.38
245.399	120.38
245.633	132.38
245.866	137.38
246.099	130.38
246.333	123.38
246.566	120.38
246.8	137.38
247.033	145.38
247.266	143.38
247.5	125.38
247.733	148.38
247.966	131.38
248.2	155.38
248.433	120.38
248.666	130.38
248.899	157.38
249.133	177.38
249.366	170.38
249.599	166.38
249.832	169.38
250.066	177.38
250.299	162.38
250.532	167.38
250.765	180.38
250.998	167.38
251.231	192.38
251.465	185.38
251.698	179.38
251.931	182.38
252.164	149.38
252.397	174.38
252.63	158.38
252.863	172.38
253.096	176.38
253.329	186.38
253.562	184.38
253.795	174.38
254.028	182.38
254.261	179.38
254.494	196.38
254.727	212.38
254.96	234.38
255.193	227.38
255.426	218.38
255.659	216.38
255.892	199.38
256.124	192.38
256.357	193.38
256.59	198.38
256.823	183.38
257.056	176.38
257.289	181.38
257.521	170.38
257.754	180.38
257.987	174.38
258.22	174.38
258.452	190.38
258.685	190.38
258.918	170.38
259.151	178.38
259.383	185.38
259.616	189.38
259.849	193.38
260.081	199.38
260.314	214.38
260.547	217.38
260.779	210.38
261.012	208.38
261.244	185.38
261.477	200.38
261.71	197.38
261.942	194.38
262.175	209.38
262.407	191.38
262.64	187.38
262.872	177.38
263.105	188.38
263.337	196.38
263.57	183.38
263.802	181.38
264.035	187.38
264.267	174.38
264.499	176.38
264.732	194.38
264.964	188.38
265.197	180.38
265.429	180.38
265.661	187.38
265.894	189.38
266.126	177.38
266.358	190.38
266.591	184.38
266.823	188.38
267.055	204.38
267.287	204.38
267.52	166.38
267.752	190.38
267.984	188.38
268.216	172.38
268.448	189.38
268.681	192.38
268.913	208.38
269.145	213.38
269.377	211.38
269.609	233.38
269.841	235.38
270.073	232.38
270.306	237.38
270.538	255.38
270.77	250.38
271.002	243.38
271.234	245.38
271.466	252.38
271.698	274.38
271.93	264.38
272.162	258.38
272.394	249.38
272.626	265.38
272.858	247.38
273.09	232.38
273.322	243.38
273.553	200.38
273.785	220.38
274.017	240.38
274.249	231.38
274.481	215.38
274.713	219.38
274.945	226.38
275.176	229.38
275.408	222.38
275.64	237.38
275.872	217.38
276.104	233.38
276.335	227.38
276.567	216.38
276.799	247.38
277.031	249.38
277.262	263.38
277.494	265.38
277.726	277.38
277.957	244.38
278.189	236.38
278.421	237.38
278.652	232.38
278.884	219.38
279.115	221.38
279.347	241.38
279.579	226.38
279.81	225.38
280.042	200.38
280.273	211.38
280.505	226.38
280.736	218.38
280.968	211.38
281.199	240.38
281.431	216.38
281.662	223.38
281.894	226.38
282.125	216.38
282.356	246.38
282.588	250.38
282.819	244.38
283.051	221.38
283.282	220.38
283.513	220.38
283.745	205.38
283.976	232.38
284.207	225.38
284.439	230.38
284.67	248.38
284.901	225.38
285.132	225.38
285.364	226.38
285.595	245.38
285.826	226.38
286.057	233.38
286.288	237.38
286.52	233.38
286.751	220.38
286.982	225.38
287.213	227.38
287.444	242.38
287.675	240.38
287.906	230.38
288.138	224.38
288.369	235.38
288.6	236.38
288.831	254.38
289.062	245.38
289.293	260.38
289.524	236.38
289.755	233.38
289.986	229.38
290.217	241.38
290.448	245.38
290.679	241.38
290.91	215.38
291.141	241.38
291.371	222.38
291.602	235.38
291.833	217.38
292.064	219.38
292.295	238.38
292.526	248.38
292.757	244.38
292.987	249.38
293.218	249.38
293.449	232.38
293.68	244.38
293.91	240.38
294.141	245.38
294.372	226.38
294.603	248.38
294.833	227.38
295.064	224.38
295.295	235.38
295.525	245.38
295.756	262.38
295.987	264.38
296.217	269.38
296.448	270.38
296.679	234.38
296.909	251.38
297.14	232.38
297.37	272.38
297.601	232.38
297.831	257.38
298.062	229.38
298.292	233.38
298.523	240.38
298.753	229.38
298.984	237.38
299.214	238.38
299.445	248.38
299.675	257.38
299.905	263.38
300.136	263.38
300.366	261.38
300.597	269.38
300.827	277.38
301.057	270.38
301.288	253.38
301.518	264.38
301.748	266.38
301.979	271.38
302.209	276.38
302.439	277.38
302.669	263.38
302.9	262.38
303.13	253.38
303.36	259.38
303.59	270.38
303.82	269.38
304.051	285.38
304.281	266.38
304.511	269.38
304.741	267.38
304.971	274.38
305.201	266.38
305.431	263.38
305.661	290.38
305.891	274.38
306.121	265.38
306.352	252.38
306.582	276.38
306.812	273.38
307.042	268.38
307.272	268.38
307.502	270.38
307.731	257.38
307.961	256.38
308.191	269.38
308.421	249.38
308.651	285.38
308.881	287.38
309.111	278.38
309.341	274.38
309.571	298.38
309.8	306.38
310.03	286.38
310.26	308.38
310.49	304.38
310.72	314.38
310.949	336.38
311.179	348.38
311.409	324.38
311.639	316.38
311.868	311.38
312.098	322.38
312.328	314.38
312.557	339.38
312.787	325.38
313.017	356.38
313.246	326.38
313.476	309.38
313.706	317.38
313.935	318.38
314.165	343.38
314.394	340.38
314.624	324.38
314.853	346.38
315.083	327.38
315.312	315.38
315.542	321.38
315.771	312.38
316.001	326.38
316.23	325.38
316.46	322.38
316.689	313.38
316.919	327.38
317.148	329.38
317.377	325.38
317.607	331.38
317.836	327.38
318.065	332.38
318.295	324.38
318.524	312.38
318.753	316.38
318.983	321.38
319.212	321.38
319.441	345.38
319.67	322.38
319.9	317.38
320.129	340.38
320.358	319.38
320.587	306.38
320.816	335.38
321.046	326.38
321.275	330.38
321.504	344.38
321.733	338.38
321.962	347.38
322.191	356.38
322.42	368.38
322.649	362.38
322.878	394.38
323.108	405.38
323.337	411.38
323.566	437.38
323.795	460.38
324.024	506.38
324.253	636.38
324.482	903.38
324.71	1365.38
324.939	1849.38
325.168	1575.38
325.397	858.38
325.626	572.38
325.855	500.38
326.084	458.38
326.313	446.38
326.542	454.38
326.77	483.38
326.999	574.38
327.228	797.38
327.457	1186.38
327.686	1386.38
327.914	944.38
328.143	602.38
328.372	578.38
328.6	562.38
328.829	495.38
329.058	493.38
329.287	522.38
329.515	484.38
329.744	459.38
329.972	438.38
330.201	457.38
330.43	491.38
330.658	496.38
330.887	534.38
331.115	525.38
331.344	440.38
331.572	409.38
331.801	404.38
332.03	411.38
332.258	411.38
332.486	404.38
332.715	379.38
332.943	377.38
333.172	366.38
333.4	380.38
333.629	406.38
333.857	396.38
334.085	403.38
334.314	418.38
334.542	468.38
334.771	463.38
334.999	412.38
335.227	402.38
335.455	376.38
335.684	382.38
335.912	376.38
336.14	370.38
336.369	371.38
336.597	380.38
336.825	372.38
337.053	362.38
337.281	340.38
337.51	350.38
337.738	361.38
337.966	358.38
338.194	371.38
338.422	375.38
338.65	356.38
338.878	356.38
339.106	342.38
339.334	375.38
339.562	356.38
339.79	347.38
340.018	358.38
340.246	349.38
340.474	355.38
340.702	363.38
340.93	351.38
341.158	361.38
341.386	359.38
341.614	350.38
341.842	353.38
342.07	349.38
342.298	341.38
342.526	339.38
342.754	336.38
342.981	337.38
343.209	340.38
343.437	355.38
343.665	332.38
343.893	357.38
344.12	348.38
344.348	370.38
344.576	371.38
344.804	364.38
345.031	350.38
345.259	389.38
345.487	358.38
345.714	359.38
345.942	338.38
346.17	350.38
346.397	354.38
346.625	355.38
346.853	348.38
347.08	332.38
347.308	346.38
347.535	366.38
347.763	370.38
347.99	362.38
348.218	351.38
348.445	352.38
348.673	351.38
348.9	338.38
349.128	338.38
349.355	321.38
349.583	339.38
349.81	346.38
350.037	344.38
350.265	326.38
350.492	346.38
350.72	345.38
350.947	334.38
351.174	360.38
351.402	362.38
351.629	347.38
351.856	353.38
352.083	340.38
352.311	366.38
352.538	376.38
352.765	368.38
352.992	376.38
353.22	346.38
353.447	347.38
353.674	352.38
353.901	321.38
354.128	333.38
354.355	325.38
354.583	321.38
354.81	333.38
355.037	325.38
355.264	309.38
355.491	323.38
355.718	306.38
355.945	317.38
356.172	320.38
356.399	332.38
356.626	314.38
356.853	316.38
357.08	329.38
357.307	341.38
357.534	309.38
357.761	320.38
357.988	310.38
358.215	305.38
358.441	321.38
358.668	332.38
358.895	315.38
359.122	328.38
359.349	317.38
359.576	349.38
359.802	364.38
360.029	386.38
360.256	390.38
360.483	370.38
360.709	359.38
360.936	349.38
361.163	321.38
361.39	357.38
361.616	336.38
361.843	342.38
362.07	349.38
362.296	343.38
362.523	334.38
362.749	333.38
362.976	338.38
363.203	338.38
363.429	341.38
363.656	343.38
363.882	338.38
364.109	328.38
364.335	322.38
364.562	342.38
364.788	324.38
365.015	347.38
365.241	321.38
365.468	332.38
365.694	350.38
365.92	350.38
366.147	328.38
366.373	332.38
366.599	319.38
366.826	316.38
367.052	321.38
367.278	320.38
367.505	322.38
367.731	352.38
367.957	329.38
368.184	318.38
368.41	329.38
368.636	331.38
368.862	339.38
369.089	341.38
369.315	337.38
369.541	329.38
369.767	342.38
369.993	327.38
370.219	329.38
370.445	331.38
370.672	333.38
370.898	330.38
371.124	322.38
371.35	322.38
371.576	314.38
371.802	320.38
372.028	325.38
372.254	314.38
372.48	301.38
372.706	300.38
372.932	330.38
373.158	323.38
373.384	325.38
373.61	330.38
373.835	318.38
374.061	321.38
374.287	323.38
374.513	342.38
374.739	315.38
374.965	329.38
375.191	337.38
375.416	331.38
375.642	334.38
375.868	340.38
376.094	330.38
376.319	316.38
376.545	327.38
376.771	328.38
376.997	320.38
377.222	321.38
377.448	313.38
377.674	311.38
377.899	317.38
378.125	298.38
378.35	310.38
378.576	307.38
378.802	328.38
379.027	316.38
379.253	318.38
379.478	323.38
379.704	325.38
379.929	331.38
380.155	312.38
380.38	320.38
380.606	320.38
380.831	316.38
381.057	333.38
381.282	318.38
381.507	322.38
381.733	322.38
381.958	325.38
382.184	317.38
382.409	317.38
382.634	316.38
382.86	341.38
383.085	323.38
383.31	325.38
383.535	334.38
383.761	342.38
383.986	331.38
384.211	344.38
384.436	341.38
384.662	335.38
384.887	343.38
385.112	307.38
385.337	344.38
385.562	337.38
385.787	348.38
386.013	353.38
386.238	349.38
386.463	346.38
386.688	346.38
386.913	352.38
387.138	334.38
387.363	332.38
387.588	349.38
387.813	334.38
388.038	336.38
388.263	330.38
388.488	337.38
388.713	339.38
388.938	341.38
389.163	362.38
389.387	338.38
389.612	336.38
389.837	337.38
390.062	341.38
390.287	332.38
390.512	330.38
390.736	341.38
390.961	345.38
391.186	326.38
391.411	346.38
391.636	339.38
391.86	355.38
392.085	350.38
392.31	342.38
392.534	360.38
392.759	364.38
392.984	338.38
393.208	374.38
393.433	370.38
393.658	347.38
393.882	356.38
394.107	341.38
394.331	329.38
394.556	346.38
394.78	354.38
395.005	350.38
395.229	339.38
395.454	346.38
395.678	349.38
395.903	348.38
396.127	372.38
396.352	373.38
396.576	350.38
396.801	361.38
397.025	346.38
397.249	348.38
397.474	365.38
397.698	369.38
397.922	371.38
398.147	377.38
398.371	392.38
398.595	386.38
398.82	383.38
399.044	379.38
399.268	405.38
399.492	416.38
399.717	422.38
399.941	460.38
400.165	458.38
400.389	514.38
400.613	456.38
400.837	417.38
401.062	420.38
401.286	418.38
401.51	389.38
401.734	387.38
401.958	389.38
402.182	384.38
402.406	396.38
402.63	396.38
402.854	391.38
403.078	388.38
403.302	406.38
403.526	424.38
403.75	420.38
403.974	413.38
404.198	404.38
404.422	401.38
404.645	426.38
404.869	417.38
405.093	441.38
405.317	460.38
405.541	491.38
405.765	459.38
405.988	426.38
406.212	436.38
406.436	475.38
406.66	470.38
406.883	436.38
407.107	458.38
407.331	472.38
407.555	534.38
407.778	518.38
408.002	498.38
408.226	459.38
408.449	420.38
408.673	440.38
408.896	442.38
409.12	479.38
409.344	480.38
409.567	449.38
409.791	404.38
410.014	424.38
410.238	398.38
410.461	405.38
410.685	403.38
410.908	415.38
411.132	418.38
411.355	455.38
411.578	472.38
411.802	415.38
412.025	399.38
412.249	433.38
412.472	438.38
412.695	460.38
412.919	432.38
413.142	429.38
413.365	392.38
413.589	385.38
413.812	393.38
414.035	380.38
414.258	374.38
414.482	372.38
414.705	381.38
414.928	392.38
415.151	382.38
415.374	384.38
415.597	382.38
415.821	380.38
416.044	375.38
416.267	395.38
416.49	375.38
416.713	372.38
416.936	378.38
417.159	374.38
417.382	393.38
417.605	382.38
417.828	378.38
418.051	410.38
418.274	399.38
418.497	368.38
418.72	392.38
418.943	388.38
419.166	399.38
419.389	398.38
419.611	410.38
419.834	402.38
420.057	414.38
420.28	396.38
420.503	401.38
420.726	379.38
420.948	416.38
421.171	446.38
421.394	464.38
421.617	416.38
421.839	404.38
422.062	392.38
422.285	419.38
422.507	451.38
422.73	503.38
422.953	492.38
423.175	422.38
423.398	420.38
423.621	427.38
423.843	419.38
424.066	419.38
424.288	422.38
424.511	449.38
424.733	487.38
424.956	544.38
425.178	536.38
425.401	534.38
425.623	551.38
425.846	473.38
426.068	444.38
426.291	433.38
426.513	440.38
426.735	454.38
426.958	493.38
427.18	542.38
427.402	643.38
427.625	698.38
427.847	629.38
428.069	545.38
428.292	490.38
428.514	446.38
428.736	402.38
428.958	427.38
429.181	403.38
429.403	421.38
429.625	412.38
429.847	448.38
430.069	497.38
430.292	490.38
430.514	418.38
430.736	395.38
430.958	417.38
431.18	391.38
431.402	393.38
431.624	380.38
431.846	390.38
432.068	367.38
432.29	398.38
432.512	402.38
432.734	389.38
432.956	367.38
433.178	380.38
433.4	380.38
433.622	387.38
433.844	389.38
434.066	392.38
434.287	382.38
434.509	383.38
434.731	389.38
434.953	401.38
435.175	409.38
435.397	454.38
435.618	466.38
435.84	492.38
436.062	554.38
436.284	556.38
436.505	480.38
436.727	473.38
436.949	433.38
437.17	402.38
437.392	411.38
437.614	428.38
437.835	446.38
438.057	558.38
438.278	601.38
438.5	584.38
438.721	626.38
438.943	598.38
439.165	513.38
439.386	468.38
439.608	470.38
439.829	461.38
440.05	475.38
440.272	510.38
440.493	479.38
440.715	448.38
440.936	416.38
441.158	435.38
441.379	394.38
441.6	410.38
441.822	421.38
442.043	471.38
442.264	533.38
442.486	575.38
442.707	489.38
442.928	462.38
443.149	458.38
443.371	491.38
443.592	516.38
443.813	573.38
444.034	613.38
444.255	489.38
444.476	445.38
444.698	436.38
444.919	440.38
445.14	532.38
445.361	484.38
445.582	471.38
445.803	526.38
446.024	597.38
446.245	613.38
446.466	542.38
446.687	477.38
446.908	476.38
447.129	419.38
447.35	412.38
447.571	423.38
447.792	386.38
448.013	392.38
448.234	439.38
448.455	470.38
448.675	576.38
448.896	614.38
449.117	538.38
449.338	536.38
449.559	598.38
449.779	650.38
450	532.38
450.221	465.38
450.442	425.38
450.662	407.38
450.883	433.38
451.104	430.38
451.324	419.38
451.545	397.38
451.766	377.38
451.986	383.38
452.207	353.38
452.428	362.38
452.648	382.38
452.869	378.38
453.089	381.38
453.31	383.38
453.53	386.38
453.751	373.38
453.971	371.38
454.192	388.38
454.412	403.38
454.633	379.38
454.853	360.38
455.073	353.38
455.294	391.38
455.514	452.38
455.734	422.38
455.955	372.38
456.175	363.38
456.395	364.38
456.616	363.38
456.836	344.38
457.056	364.38
457.276	358.38
457.497	353.38
457.717	360.38
457.937	371.38
458.157	369.38
458.377	365.38
458.598	388.38
458.818	436.38
459.038	508.38
459.258	498.38
459.478	423.38
459.698	393.38
459.918	377.38
460.138	376.38
460.358	391.38
460.578	362.38
460.798	394.38
461.018	380.38
461.238	384.38
461.458	402.38
461.678	396.38
461.898	397.38
462.118	404.38
462.338	408.38
462.558	395.38
462.777	395.38
462.997	407.38
463.217	407.38
463.437	404.38
463.657	432.38
463.876	404.38
464.096	421.38
464.316	398.38
464.536	419.38
464.755	421.38
464.975	415.38
465.195	456.38
465.414	521.38
465.634	464.38
465.854	426.38
466.073	408.38
466.293	389.38
466.512	370.38
466.732	380.38
466.951	337.38
467.171	380.38
467.391	353.38
467.61	396.38
467.829	386.38
468.049	383.38
468.268	390.38
468.488	362.38
468.707	362.38
468.927	356.38
469.146	365.38
469.365	356.38
469.585	366.38
469.804	398.38
470.023	369.38
470.243	420.38
470.462	396.38
470.681	405.38
470.901	398.38
471.12	376.38
471.339	378.38
471.558	381.38
471.777	389.38
471.997	376.38
472.216	407.38
472.435	425.38
472.654	427.38
472.873	390.38
473.092	395.38
473.311	392.38
473.53	364.38
473.749	392.38
473.968	441.38
474.187	512.38
474.406	511.38
474.625	427.38
474.844	402.38
475.063	396.38
475.282	382.38
475.501	395.38
475.72	410.38
475.939	392.38
476.158	411.38
476.377	409.38
476.596	404.38
476.814	413.38
477.033	419.38
477.252	431.38
477.471	412.38
477.69	399.38
477.908	416.38
478.127	411.38
478.346	411.38
478.564	445.38
478.783	425.38
479.002	420.38
479.22	427.38
479.439	445.38
479.658	471.38
479.876	458.38
480.095	464.38
480.313	505.38
480.532	490.38
480.751	481.38
480.969	480.38
481.188	525.38
481.406	566.38
481.624	514.38
481.843	492.38
482.061	473.38
482.28	446.38
482.498	466.38
482.717	450.38
482.935	456.38
483.153	444.38
483.372	461.38
483.59	437.38
483.808	452.38
484.027	458.38
484.245	459.38
484.463	440.38
484.681	486.38
484.9	454.38
485.118	446.38
485.336	471.38
485.554	471.38
485.772	468.38
485.99	476.38
486.209	480.38
486.427	451.38
486.645	484.38
486.863	520.38
487.081	472.38
487.299	480.38
487.517	490.38
487.735	509.38
487.953	500.38
488.171	473.38
488.389	488.38
488.607	491.38
488.825	486.38
489.043	476.38
489.261	491.38
489.479	483.38
489.696	495.38
489.914	491.38
490.132	498.38
490.35	489.38
490.568	496.38
490.786	502.38
491.003	532.38
491.221	528.38
491.439	510.38
491.657	516.38
491.874	554.38
492.092	556.38
492.31	562.38
492.527	546.38
492.745	564.38
492.963	548.38
493.18	549.38
493.398	551.38
493.615	577.38
493.833	573.38
494.05	538.38
494.268	569.38
494.485	572.38
494.703	578.38
494.92	563.38
495.138	547.38
495.355	572.38
495.573	570.38
495.79	571.38
496.008	574.38
496.225	561.38
496.442	580.38
496.66	583.38
496.877	552.38
497.094	560.38
497.312	602.38
497.529	581.38
497.746	575.38
497.963	596.38
498.181	606.38
498.398	617.38
498.615	654.38
498.832	634.38
499.049	644.38
499.267	632.38
499.484	633.38
499.701	663.38
499.918	666.38
500.135	688.38
500.352	730.38
500.569	729.38
500.786	730.38
501.003	756.38
501.22	732.38
501.437	698.38
501.654	678.38
501.871	700.38
502.088	674.38
