Data from 1965.PennyLincolnUp.Lamp.En5.5.200Scan.071719.P1._HRD10591_14-09-08-911.txt Node
Date: Thu Jul 18 14:09:08 EDT 2019
User: cochatt
Spectrometer: HR+D1059
Trigger mode: 1
Integration Time (sec): 1.000000E-1
Scans to average: 1
Electric dark correction enabled: true
Nonlinearity correction enabled: false
Boxcar width: 0
XAxis mode: Wavelengths
Number of Pixels in Spectrum: 2048
>>>>>Begin Spectral Data<<<<<
223.165	-7.5
223.4	-7.5
223.635	-7.5
223.869	-22.5
224.104	-4.5
224.338	-9.5
224.573	-25.5
224.808	-13.5
225.042	-12.5
225.277	-11.5
225.511	-2.5
225.746	8.5
225.98	3.5
226.215	3.5
226.449	22.5
226.683	20.5
226.918	28.5
227.152	22.5
227.387	35.5
227.621	31.5
227.856	49.5
228.09	40.5
228.324	49.5
228.559	69.5
228.793	68.5
229.027	89.5
229.262	101.5
229.496	123.5
229.73	108.5
229.964	141.5
230.199	112.5
230.433	113.5
230.667	108.5
230.901	102.5
231.136	110.5
231.37	109.5
231.604	115.5
231.838	118.5
232.072	109.5
232.306	92.5
232.541	111.5
232.775	105.5
233.009	106.5
233.243	109.5
233.477	122.5
233.711	102.5
233.945	123.5
234.179	110.5
234.413	116.5
234.647	116.5
234.881	110.5
235.115	111.5
235.349	108.5
235.583	105.5
235.817	103.5
236.051	99.5
236.285	101.5
236.519	107.5
236.753	105.5
236.987	138.5
237.221	175.5
237.455	216.5
237.689	169.5
237.922	141.5
238.156	109.5
238.39	129.5
238.624	108.5
238.858	107.5
239.091	102.5
239.325	116.5
239.559	108.5
239.793	120.5
240.027	122.5
240.26	135.5
240.494	141.5
240.728	135.5
240.961	117.5
241.195	137.5
241.429	117.5
241.662	123.5
241.896	122.5
242.13	114.5
242.363	119.5
242.597	125.5
242.83	131.5
243.064	129.5
243.298	125.5
243.531	122.5
243.765	121.5
243.998	138.5
244.232	121.5
244.465	133.5
244.699	121.5
244.932	140.5
245.166	121.5
245.399	131.5
245.633	133.5
245.866	138.5
246.099	133.5
246.333	133.5
246.566	148.5
246.8	142.5
247.033	148.5
247.266	151.5
247.5	134.5
247.733	141.5
247.966	135.5
248.2	159.5
248.433	161.5
248.666	146.5
248.899	154.5
249.133	181.5
249.366	167.5
249.599	160.5
249.832	170.5
250.066	154.5
250.299	153.5
250.532	166.5
250.765	187.5
250.998	193.5
251.231	195.5
251.465	190.5
251.698	183.5
251.931	186.5
252.164	167.5
252.397	159.5
252.63	187.5
252.863	186.5
253.096	203.5
253.329	209.5
253.562	202.5
253.795	201.5
254.028	211.5
254.261	196.5
254.494	207.5
254.727	245.5
254.96	242.5
255.193	239.5
255.426	226.5
255.659	209.5
255.892	215.5
256.124	196.5
256.357	205.5
256.59	213.5
256.823	205.5
257.056	202.5
257.289	189.5
257.521	206.5
257.754	187.5
257.987	184.5
258.22	192.5
258.452	191.5
258.685	202.5
258.918	168.5
259.151	191.5
259.383	212.5
259.616	183.5
259.849	210.5
260.081	208.5
260.314	217.5
260.547	235.5
260.779	208.5
261.012	205.5
261.244	195.5
261.477	202.5
261.71	194.5
261.942	216.5
262.175	224.5
262.407	208.5
262.64	200.5
262.872	187.5
263.105	181.5
263.337	208.5
263.57	185.5
263.802	197.5
264.035	181.5
264.267	183.5
264.499	183.5
264.732	194.5
264.964	185.5
265.197	184.5
265.429	195.5
265.661	193.5
265.894	192.5
266.126	210.5
266.358	198.5
266.591	187.5
266.823	196.5
267.055	193.5
267.287	188.5
267.52	211.5
267.752	216.5
267.984	198.5
268.216	205.5
268.448	200.5
268.681	203.5
268.913	206.5
269.145	217.5
269.377	255.5
269.609	234.5
269.841	243.5
270.073	257.5
270.306	252.5
270.538	280.5
270.77	281.5
271.002	265.5
271.234	258.5
271.466	266.5
271.698	268.5
271.93	286.5
272.162	266.5
272.394	277.5
272.626	277.5
272.858	250.5
273.09	241.5
273.322	234.5
273.553	233.5
273.785	243.5
274.017	237.5
274.249	216.5
274.481	255.5
274.713	253.5
274.945	245.5
275.176	243.5
275.408	247.5
275.64	233.5
275.872	228.5
276.104	238.5
276.335	217.5
276.567	243.5
276.799	275.5
277.031	286.5
277.262	269.5
277.494	279.5
277.726	248.5
277.957	253.5
278.189	236.5
278.421	247.5
278.652	233.5
278.884	236.5
279.115	242.5
279.347	233.5
279.579	238.5
279.81	226.5
280.042	231.5
280.273	239.5
280.505	232.5
280.736	231.5
280.968	225.5
281.199	230.5
281.431	215.5
281.662	231.5
281.894	233.5
282.125	248.5
282.356	256.5
282.588	276.5
282.819	259.5
283.051	241.5
283.282	248.5
283.513	245.5
283.745	245.5
283.976	233.5
284.207	226.5
284.439	236.5
284.67	244.5
284.901	235.5
285.132	227.5
285.364	239.5
285.595	238.5
285.826	233.5
286.057	243.5
286.288	242.5
286.52	237.5
286.751	225.5
286.982	250.5
287.213	247.5
287.444	253.5
287.675	236.5
287.906	261.5
288.138	269.5
288.369	263.5
288.6	281.5
288.831	269.5
289.062	275.5
289.293	255.5
289.524	243.5
289.755	241.5
289.986	235.5
290.217	242.5
290.448	234.5
290.679	264.5
290.91	238.5
291.141	239.5
291.371	252.5
291.602	244.5
291.833	265.5
292.064	243.5
292.295	260.5
292.526	257.5
292.757	258.5
292.987	271.5
293.218	251.5
293.449	245.5
293.68	241.5
293.91	260.5
294.141	249.5
294.372	261.5
294.603	257.5
294.833	262.5
295.064	266.5
295.295	267.5
295.525	257.5
295.756	275.5
295.987	270.5
296.217	283.5
296.448	296.5
296.679	265.5
296.909	257.5
297.14	281.5
297.37	267.5
297.601	265.5
297.831	258.5
298.062	271.5
298.292	261.5
298.523	248.5
298.753	250.5
298.984	270.5
299.214	268.5
299.445	277.5
299.675	277.5
299.905	287.5
300.136	276.5
300.366	255.5
300.597	281.5
300.827	271.5
301.057	283.5
301.288	279.5
301.518	282.5
301.748	273.5
301.979	279.5
302.209	277.5
302.439	279.5
302.669	290.5
302.9	277.5
303.13	276.5
303.36	280.5
303.59	286.5
303.82	291.5
304.051	283.5
304.281	282.5
304.511	272.5
304.741	295.5
304.971	282.5
305.201	286.5
305.431	288.5
305.661	279.5
305.891	283.5
306.121	292.5
306.352	297.5
306.582	289.5
306.812	294.5
307.042	284.5
307.272	309.5
307.502	292.5
307.731	297.5
307.961	305.5
308.191	290.5
308.421	288.5
308.651	299.5
308.881	313.5
309.111	310.5
309.341	319.5
309.571	318.5
309.8	320.5
310.03	317.5
310.26	316.5
310.49	337.5
310.72	342.5
310.949	337.5
311.179	354.5
311.409	323.5
311.639	340.5
311.868	333.5
312.098	333.5
312.328	354.5
312.557	353.5
312.787	370.5
313.017	369.5
313.246	346.5
313.476	337.5
313.706	337.5
313.935	359.5
314.165	353.5
314.394	363.5
314.624	363.5
314.853	349.5
315.083	344.5
315.312	317.5
315.542	333.5
315.771	323.5
316.001	306.5
316.23	331.5
316.46	331.5
316.689	331.5
316.919	332.5
317.148	314.5
317.377	357.5
317.607	348.5
317.836	350.5
318.065	327.5
318.295	330.5
318.524	342.5
318.753	325.5
318.983	321.5
319.212	375.5
319.441	345.5
319.67	347.5
319.9	335.5
320.129	323.5
320.358	350.5
320.587	341.5
320.816	354.5
321.046	353.5
321.275	389.5
321.504	377.5
321.733	361.5
321.962	380.5
322.191	383.5
322.42	409.5
322.649	418.5
322.878	406.5
323.108	427.5
323.337	443.5
323.566	454.5
323.795	511.5
324.024	565.5
324.253	686.5
324.482	974.5
324.71	1509.5
324.939	2049.5
325.168	1742.5
325.397	933.5
325.626	637.5
325.855	509.5
326.084	483.5
326.313	483.5
326.542	486.5
326.77	511.5
326.999	619.5
327.228	886.5
327.457	1330.5
327.686	1533.5
327.914	1014.5
328.143	693.5
328.372	595.5
328.6	575.5
328.829	547.5
329.058	547.5
329.287	544.5
329.515	506.5
329.744	471.5
329.972	482.5
330.201	496.5
330.43	529.5
330.658	558.5
330.887	553.5
331.115	580.5
331.344	485.5
331.572	432.5
331.801	443.5
332.03	436.5
332.258	428.5
332.486	420.5
332.715	408.5
332.943	397.5
333.172	395.5
333.4	403.5
333.629	408.5
333.857	421.5
334.085	446.5
334.314	444.5
334.542	497.5
334.771	492.5
334.999	453.5
335.227	403.5
335.455	399.5
335.684	393.5
335.912	399.5
336.14	395.5
336.369	389.5
336.597	394.5
336.825	374.5
337.053	396.5
337.281	393.5
337.51	366.5
337.738	376.5
337.966	382.5
338.194	391.5
338.422	393.5
338.65	381.5
338.878	387.5
339.106	388.5
339.334	355.5
339.562	365.5
339.79	373.5
340.018	405.5
340.246	395.5
340.474	399.5
340.702	385.5
340.93	381.5
341.158	377.5
341.386	364.5
341.614	369.5
341.842	370.5
342.07	389.5
342.298	365.5
342.526	368.5
342.754	362.5
342.981	363.5
343.209	353.5
343.437	367.5
343.665	365.5
343.893	359.5
344.12	365.5
344.348	371.5
344.576	393.5
344.804	378.5
345.031	387.5
345.259	400.5
345.487	409.5
345.714	393.5
345.942	376.5
346.17	370.5
346.397	356.5
346.625	350.5
346.853	370.5
347.08	378.5
347.308	365.5
347.535	383.5
347.763	380.5
347.99	388.5
348.218	376.5
348.445	410.5
348.673	383.5
348.9	360.5
349.128	371.5
349.355	362.5
349.583	366.5
349.81	355.5
350.037	334.5
350.265	355.5
350.492	356.5
350.72	343.5
350.947	351.5
351.174	390.5
351.402	377.5
351.629	381.5
351.856	398.5
352.083	377.5
352.311	387.5
352.538	381.5
352.765	386.5
352.992	380.5
353.22	360.5
353.447	379.5
353.674	388.5
353.901	350.5
354.128	348.5
354.355	330.5
354.583	332.5
354.81	330.5
355.037	338.5
355.264	342.5
355.491	338.5
355.718	335.5
355.945	359.5
356.172	343.5
356.399	340.5
356.626	352.5
356.853	343.5
357.08	333.5
357.307	344.5
357.534	331.5
357.761	331.5
357.988	360.5
358.215	358.5
358.441	346.5
358.668	350.5
358.895	335.5
359.122	354.5
359.349	362.5
359.576	363.5
359.802	401.5
360.029	430.5
360.256	449.5
360.483	420.5
360.709	366.5
360.936	381.5
361.163	366.5
361.39	367.5
361.616	384.5
361.843	383.5
362.07	377.5
362.296	375.5
362.523	366.5
362.749	366.5
362.976	371.5
363.203	367.5
363.429	347.5
363.656	373.5
363.882	340.5
364.109	359.5
364.335	344.5
364.562	366.5
364.788	362.5
365.015	356.5
365.241	355.5
365.468	362.5
365.694	354.5
365.92	371.5
366.147	347.5
366.373	348.5
366.599	343.5
366.826	364.5
367.052	345.5
367.278	338.5
367.505	357.5
367.731	361.5
367.957	363.5
368.184	370.5
368.41	353.5
368.636	366.5
368.862	371.5
369.089	380.5
369.315	353.5
369.541	349.5
369.767	367.5
369.993	353.5
370.219	344.5
370.445	357.5
370.672	331.5
370.898	345.5
371.124	340.5
371.35	337.5
371.576	349.5
371.802	331.5
372.028	346.5
372.254	361.5
372.48	338.5
372.706	341.5
372.932	356.5
373.158	345.5
373.384	356.5
373.61	364.5
373.835	344.5
374.061	327.5
374.287	358.5
374.513	350.5
374.739	361.5
374.965	369.5
375.191	355.5
375.416	347.5
375.642	339.5
375.868	331.5
376.094	355.5
376.319	343.5
376.545	338.5
376.771	335.5
376.997	340.5
377.222	359.5
377.448	328.5
377.674	349.5
377.899	339.5
378.125	327.5
378.35	350.5
378.576	324.5
378.802	347.5
379.027	328.5
379.253	349.5
379.478	361.5
379.704	320.5
379.929	333.5
380.155	345.5
380.38	340.5
380.606	352.5
380.831	352.5
381.057	356.5
381.282	341.5
381.507	352.5
381.733	350.5
381.958	335.5
382.184	365.5
382.409	349.5
382.634	347.5
382.86	363.5
383.085	355.5
383.31	340.5
383.535	345.5
383.761	360.5
383.986	378.5
384.211	363.5
384.436	369.5
384.662	351.5
384.887	352.5
385.112	350.5
385.337	354.5
385.562	367.5
385.787	358.5
386.013	384.5
386.238	363.5
386.463	379.5
386.688	359.5
386.913	347.5
387.138	343.5
387.363	359.5
387.588	363.5
387.813	373.5
388.038	381.5
388.263	359.5
388.488	371.5
388.713	385.5
388.938	340.5
389.163	374.5
389.387	361.5
389.612	359.5
389.837	389.5
390.062	377.5
390.287	351.5
390.512	369.5
390.736	363.5
390.961	357.5
391.186	365.5
391.411	346.5
391.636	361.5
391.86	386.5
392.085	381.5
392.31	390.5
392.534	393.5
392.759	370.5
392.984	377.5
393.208	381.5
393.433	379.5
393.658	350.5
393.882	379.5
394.107	361.5
394.331	383.5
394.556	369.5
394.78	369.5
395.005	372.5
395.229	372.5
395.454	390.5
395.678	408.5
395.903	392.5
396.127	386.5
396.352	398.5
396.576	404.5
396.801	371.5
397.025	396.5
397.249	391.5
397.474	394.5
397.698	390.5
397.922	404.5
398.147	397.5
398.371	429.5
398.595	412.5
398.82	398.5
399.044	415.5
399.268	414.5
399.492	447.5
399.717	454.5
399.941	483.5
400.165	505.5
400.389	522.5
400.613	469.5
400.837	446.5
401.062	450.5
401.286	419.5
401.51	436.5
401.734	425.5
401.958	400.5
402.182	429.5
402.406	413.5
402.63	431.5
402.854	426.5
403.078	425.5
403.302	417.5
403.526	423.5
403.75	431.5
403.974	413.5
404.198	430.5
404.422	445.5
404.645	431.5
404.869	448.5
405.093	450.5
405.317	498.5
405.541	527.5
405.765	497.5
405.988	476.5
406.212	484.5
406.436	457.5
406.66	524.5
406.883	475.5
407.107	490.5
407.331	528.5
407.555	565.5
407.778	583.5
408.002	541.5
408.226	481.5
408.449	482.5
408.673	477.5
408.896	494.5
409.12	537.5
409.344	514.5
409.567	474.5
409.791	449.5
410.014	439.5
410.238	443.5
410.461	431.5
410.685	430.5
410.908	453.5
411.132	479.5
411.355	512.5
411.578	473.5
411.802	430.5
412.025	438.5
412.249	435.5
412.472	478.5
412.695	513.5
412.919	492.5
413.142	455.5
413.365	426.5
413.589	421.5
413.812	411.5
414.035	410.5
414.258	416.5
414.482	411.5
414.705	421.5
414.928	412.5
415.151	399.5
415.374	413.5
415.597	408.5
415.821	410.5
416.044	398.5
416.267	407.5
416.49	417.5
416.713	420.5
416.936	387.5
417.159	392.5
417.382	445.5
417.605	401.5
417.828	419.5
418.051	444.5
418.274	439.5
418.497	412.5
418.72	421.5
418.943	400.5
419.166	422.5
419.389	445.5
419.611	429.5
419.834	423.5
420.057	414.5
420.28	437.5
420.503	449.5
420.726	455.5
420.948	458.5
421.171	449.5
421.394	490.5
421.617	443.5
421.839	441.5
422.062	427.5
422.285	460.5
422.507	470.5
422.73	541.5
422.953	521.5
423.175	469.5
423.398	456.5
423.621	445.5
423.843	455.5
424.066	472.5
424.288	463.5
424.511	485.5
424.733	525.5
424.956	608.5
425.178	599.5
425.401	572.5
425.623	583.5
425.846	488.5
426.068	470.5
426.291	458.5
426.513	477.5
426.735	469.5
426.958	537.5
427.18	587.5
427.402	693.5
427.625	753.5
427.847	691.5
428.069	598.5
428.292	494.5
428.514	465.5
428.736	427.5
428.958	448.5
429.181	430.5
429.403	447.5
429.625	459.5
429.847	457.5
430.069	526.5
430.292	520.5
430.514	475.5
430.736	427.5
430.958	445.5
431.18	403.5
431.402	406.5
431.624	410.5
431.846	431.5
432.068	402.5
432.29	396.5
432.512	403.5
432.734	424.5
432.956	427.5
433.178	428.5
433.4	416.5
433.622	410.5
433.844	409.5
434.066	419.5
434.287	408.5
434.509	402.5
434.731	442.5
434.953	430.5
435.175	437.5
435.397	457.5
435.618	462.5
435.84	508.5
436.062	602.5
436.284	618.5
436.505	555.5
436.727	520.5
436.949	476.5
437.17	436.5
437.392	440.5
437.614	430.5
437.835	499.5
438.057	585.5
438.278	646.5
438.5	654.5
438.721	714.5
438.943	678.5
439.165	542.5
439.386	505.5
439.608	500.5
439.829	488.5
440.05	507.5
440.272	567.5
440.493	527.5
440.715	459.5
440.936	458.5
441.158	466.5
441.379	430.5
441.6	464.5
441.822	465.5
442.043	530.5
442.264	571.5
442.486	610.5
442.707	524.5
442.928	501.5
443.149	493.5
443.371	499.5
443.592	537.5
443.813	619.5
444.034	666.5
444.255	555.5
444.476	476.5
444.698	462.5
444.919	478.5
445.14	571.5
445.361	553.5
445.582	539.5
445.803	589.5
446.024	660.5
446.245	654.5
446.466	613.5
446.687	535.5
446.908	477.5
447.129	464.5
447.35	439.5
447.571	458.5
447.792	434.5
448.013	440.5
448.234	468.5
448.455	517.5
448.675	619.5
448.896	678.5
449.117	567.5
449.338	587.5
449.559	657.5
449.779	725.5
450	585.5
450.221	500.5
450.442	446.5
450.662	473.5
450.883	453.5
451.104	464.5
451.324	454.5
451.545	427.5
451.766	421.5
451.986	409.5
452.207	397.5
452.428	400.5
452.648	403.5
452.869	402.5
453.089	385.5
453.31	419.5
453.53	398.5
453.751	400.5
453.971	405.5
454.192	448.5
454.412	433.5
454.633	392.5
454.853	407.5
455.073	385.5
455.294	420.5
455.514	483.5
455.734	431.5
455.955	419.5
456.175	383.5
456.395	393.5
456.616	373.5
456.836	365.5
457.056	371.5
457.276	352.5
457.497	379.5
457.717	369.5
457.937	385.5
458.157	418.5
458.377	405.5
458.598	408.5
458.818	470.5
459.038	539.5
459.258	547.5
459.478	461.5
459.698	420.5
459.918	421.5
460.138	412.5
460.358	397.5
460.578	424.5
460.798	407.5
461.018	423.5
461.238	395.5
461.458	408.5
461.678	405.5
461.898	417.5
462.118	415.5
462.338	409.5
462.558	427.5
462.777	429.5
462.997	429.5
463.217	418.5
463.437	454.5
463.657	446.5
463.876	425.5
464.096	447.5
464.316	454.5
464.536	440.5
464.755	441.5
464.975	462.5
465.195	505.5
465.414	580.5
465.634	491.5
465.854	469.5
466.073	442.5
466.293	428.5
466.512	419.5
466.732	414.5
466.951	395.5
467.171	398.5
467.391	414.5
467.61	388.5
467.829	420.5
468.049	401.5
468.268	421.5
468.488	399.5
468.707	407.5
468.927	397.5
469.146	385.5
469.365	390.5
469.585	385.5
469.804	411.5
470.023	420.5
470.243	427.5
470.462	418.5
470.681	427.5
470.901	422.5
471.12	436.5
471.339	423.5
471.558	411.5
471.777	416.5
471.997	413.5
472.216	430.5
472.435	454.5
472.654	440.5
472.873	415.5
473.092	412.5
473.311	405.5
473.53	426.5
473.749	414.5
473.968	452.5
474.187	556.5
474.406	550.5
474.625	487.5
474.844	413.5
475.063	411.5
475.282	409.5
475.501	408.5
475.72	420.5
475.939	437.5
476.158	415.5
476.377	443.5
476.596	424.5
476.814	431.5
477.033	449.5
477.252	451.5
477.471	430.5
477.69	445.5
477.908	437.5
478.127	448.5
478.346	442.5
478.564	463.5
478.783	468.5
479.002	459.5
479.22	471.5
479.439	457.5
479.658	494.5
479.876	511.5
480.095	501.5
480.313	521.5
480.532	509.5
480.751	493.5
480.969	511.5
481.188	577.5
481.406	615.5
481.624	532.5
481.843	515.5
482.061	495.5
482.28	505.5
482.498	487.5
482.717	514.5
482.935	498.5
483.153	469.5
483.372	481.5
483.59	481.5
483.808	470.5
484.027	493.5
484.245	484.5
484.463	482.5
484.681	506.5
484.9	488.5
485.118	497.5
485.336	480.5
485.554	484.5
485.772	502.5
485.99	515.5
486.209	499.5
486.427	532.5
486.645	511.5
486.863	521.5
487.081	543.5
487.299	517.5
487.517	537.5
487.735	522.5
487.953	521.5
488.171	501.5
488.389	515.5
488.607	519.5
488.825	524.5
489.043	530.5
489.261	531.5
489.479	515.5
489.696	523.5
489.914	522.5
490.132	553.5
490.35	546.5
490.568	566.5
490.786	563.5
491.003	538.5
491.221	586.5
491.439	588.5
491.657	570.5
491.874	565.5
492.092	567.5
492.31	615.5
492.527	587.5
492.745	599.5
492.963	585.5
493.18	585.5
493.398	596.5
493.615	598.5
493.833	601.5
494.05	588.5
494.268	626.5
494.485	617.5
494.703	607.5
494.92	605.5
495.138	609.5
495.355	604.5
495.573	623.5
495.79	606.5
496.008	620.5
496.225	599.5
496.442	614.5
496.66	610.5
496.877	618.5
497.094	608.5
497.312	622.5
497.529	623.5
497.746	619.5
497.963	617.5
498.181	655.5
498.398	676.5
498.615	667.5
498.832	679.5
499.049	687.5
499.267	693.5
499.484	707.5
499.701	712.5
499.918	758.5
500.135	750.5
500.352	753.5
500.569	773.5
500.786	791.5
501.003	782.5
501.22	767.5
501.437	762.5
501.654	727.5
501.871	763.5
502.088	757.5
502.305	683.5
502.522	670.5
502.739	662.5
502.956	653.5
503.172	648.5
503.389	633.5
503.606	630.5
503.823	686.5
504.04	637.5
504.256	614.5
504.473	629.5
504.69	618.5
504.907	612.5
505.123	591.5
505.34	604.5
505.557	614.5
505.773	586.5
505.99	601.5
506.207	597.5
506.423	588.5
506.64	571.5
506.856	590.5
507.073	581.5
507.289	569.5
507.506	587.5
507.722	609.5
507.939	622.5
508.155	571.5
508.372	581.5
508.588	569.5
508.805	562.5
509.021	583.5
509.238	551.5
509.454	596.5
509.67	567.5
509.887	565.5
510.103	574.5
510.319	604.5
510.536	677.5
510.752	1213.5
510.968	947.5
511.184	588.5
511.401	577.5
511.617	584.5
511.833	537.5
512.049	542.5
512.265	536.5
512.481	549.5
512.698	536.5
512.914	533.5
513.13	532.5
513.346	541.5
513.562	531.5
513.778	558.5
513.994	573.5
514.21	549.5
514.426	595.5
514.642	643.5
514.858	667.5
515.074	717.5
515.29	874.5
515.506	1311.5
515.721	1052.5
515.937	693.5
516.153	626.5
516.369	595.5
516.585	583.5
516.801	549.5
517.016	562.5
517.232	557.5
517.448	547.5
517.664	546.5
517.879	535.5
518.095	525.5
518.311	555.5
518.527	549.5
518.742	539.5
518.958	563.5
519.173	533.5
519.389	544.5
519.605	551.5
519.82	537.5
