Data from 1965.PennyLincolnUp.Lamp.En5.5.200Scan.071719.P1._HRD10591_14-07-47-910.txt Node
Date: Thu Jul 18 14:07:47 EDT 2019
User: cochatt
Spectrometer: HR+D1059
Trigger mode: 1
Integration Time (sec): 1.000000E-1
Scans to average: 1
Electric dark correction enabled: true
Nonlinearity correction enabled: false
Boxcar width: 0
XAxis mode: Wavelengths
Number of Pixels in Spectrum: 2048
>>>>>Begin Spectral Data<<<<<
223.165	-9.62
223.4	-9.62
223.635	-9.62
223.869	-28.62
224.104	-22.62
224.338	-8.62
224.573	-10.62
224.808	-27.62
225.042	3.38
225.277	-14.62
225.511	-8.62
225.746	1.38
225.98	14.38
226.215	13.38
226.449	11.38
226.683	29.38
226.918	19.38
227.152	38.38
227.387	33.38
227.621	36.38
227.856	35.38
228.09	47.38
228.324	51.38
228.559	45.38
228.793	59.38
229.027	78.38
229.262	96.38
229.496	101.38
229.73	107.38
229.964	129.38
230.199	103.38
230.433	117.38
230.667	101.38
230.901	86.38
231.136	103.38
231.37	98.38
231.604	102.38
231.838	101.38
232.072	98.38
232.306	101.38
232.541	99.38
232.775	96.38
233.009	90.38
233.243	96.38
233.477	115.38
233.711	97.38
233.945	93.38
234.179	109.38
234.413	100.38
234.647	90.38
234.881	96.38
235.115	94.38
235.349	120.38
235.583	99.38
235.817	101.38
236.051	112.38
236.285	101.38
236.519	104.38
236.753	116.38
236.987	123.38
237.221	164.38
237.455	179.38
237.689	145.38
237.922	120.38
238.156	103.38
238.39	114.38
238.624	97.38
238.858	119.38
239.091	110.38
239.325	109.38
239.559	100.38
239.793	120.38
240.027	112.38
240.26	112.38
240.494	124.38
240.728	120.38
240.961	129.38
241.195	123.38
241.429	121.38
241.662	118.38
241.896	116.38
242.13	105.38
242.363	111.38
242.597	115.38
242.83	122.38
243.064	116.38
243.298	132.38
243.531	113.38
243.765	130.38
243.998	125.38
244.232	118.38
244.465	114.38
244.699	114.38
244.932	104.38
245.166	104.38
245.399	122.38
245.633	114.38
245.866	124.38
246.099	117.38
246.333	107.38
246.566	105.38
246.8	127.38
247.033	135.38
247.266	124.38
247.5	123.38
247.733	140.38
247.966	140.38
248.2	143.38
248.433	145.38
248.666	148.38
248.899	144.38
249.133	155.38
249.366	144.38
249.599	154.38
249.832	160.38
250.066	152.38
250.299	129.38
250.532	143.38
250.765	145.38
250.998	167.38
251.231	162.38
251.465	157.38
251.698	137.38
251.931	165.38
252.164	154.38
252.397	147.38
252.63	159.38
252.863	161.38
253.096	153.38
253.329	188.38
253.562	165.38
253.795	171.38
254.028	183.38
254.261	165.38
254.494	178.38
254.727	205.38
254.96	202.38
255.193	203.38
255.426	178.38
255.659	182.38
255.892	194.38
256.124	170.38
256.357	179.38
256.59	194.38
256.823	155.38
257.056	154.38
257.289	190.38
257.521	160.38
257.754	164.38
257.987	172.38
258.22	165.38
258.452	165.38
258.685	170.38
258.918	162.38
259.151	162.38
259.383	179.38
259.616	176.38
259.849	159.38
260.081	187.38
260.314	195.38
260.547	198.38
260.779	185.38
261.012	170.38
261.244	169.38
261.477	167.38
261.71	171.38
261.942	184.38
262.175	185.38
262.407	167.38
262.64	160.38
262.872	159.38
263.105	156.38
263.337	156.38
263.57	155.38
263.802	169.38
264.035	167.38
264.267	167.38
264.499	156.38
264.732	172.38
264.964	168.38
265.197	141.38
265.429	170.38
265.661	168.38
265.894	153.38
266.126	153.38
266.358	163.38
266.591	165.38
266.823	172.38
267.055	186.38
267.287	181.38
267.52	180.38
267.752	173.38
267.984	163.38
268.216	190.38
268.448	172.38
268.681	188.38
268.913	186.38
269.145	199.38
269.377	197.38
269.609	191.38
269.841	188.38
270.073	203.38
270.306	209.38
270.538	220.38
270.77	213.38
271.002	210.38
271.234	223.38
271.466	228.38
271.698	225.38
271.93	220.38
272.162	217.38
272.394	230.38
272.626	222.38
272.858	219.38
273.09	197.38
273.322	198.38
273.553	199.38
273.785	199.38
274.017	221.38
274.249	214.38
274.481	199.38
274.713	205.38
274.945	213.38
275.176	201.38
275.408	198.38
275.64	194.38
275.872	194.38
276.104	210.38
276.335	198.38
276.567	192.38
276.799	206.38
277.031	202.38
277.262	234.38
277.494	227.38
277.726	208.38
277.957	226.38
278.189	204.38
278.421	201.38
278.652	206.38
278.884	208.38
279.115	202.38
279.347	205.38
279.579	201.38
279.81	196.38
280.042	191.38
280.273	188.38
280.505	198.38
280.736	197.38
280.968	203.38
281.199	203.38
281.431	210.38
281.662	203.38
281.894	200.38
282.125	206.38
282.356	219.38
282.588	218.38
282.819	222.38
283.051	210.38
283.282	202.38
283.513	202.38
283.745	216.38
283.976	191.38
284.207	197.38
284.439	200.38
284.67	211.38
284.901	214.38
285.132	203.38
285.364	220.38
285.595	200.38
285.826	199.38
286.057	207.38
286.288	200.38
286.52	204.38
286.751	208.38
286.982	214.38
287.213	226.38
287.444	208.38
287.675	218.38
287.906	212.38
288.138	221.38
288.369	243.38
288.6	227.38
288.831	233.38
289.062	226.38
289.293	229.38
289.524	207.38
289.755	205.38
289.986	212.38
290.217	229.38
290.448	210.38
290.679	220.38
290.91	213.38
291.141	226.38
291.371	213.38
291.602	205.38
291.833	207.38
292.064	228.38
292.295	197.38
292.526	213.38
292.757	217.38
292.987	210.38
293.218	199.38
293.449	207.38
293.68	232.38
293.91	224.38
294.141	213.38
294.372	222.38
294.603	198.38
294.833	218.38
295.064	215.38
295.295	219.38
295.525	210.38
295.756	217.38
295.987	224.38
296.217	225.38
296.448	239.38
296.679	230.38
296.909	222.38
297.14	230.38
297.37	217.38
297.601	215.38
297.831	236.38
298.062	240.38
298.292	229.38
298.523	226.38
298.753	245.38
298.984	235.38
299.214	226.38
299.445	211.38
299.675	236.38
299.905	237.38
300.136	215.38
300.366	222.38
300.597	239.38
300.827	232.38
301.057	250.38
301.288	251.38
301.518	244.38
301.748	227.38
301.979	251.38
302.209	233.38
302.439	230.38
302.669	242.38
302.9	257.38
303.13	239.38
303.36	243.38
303.59	245.38
303.82	243.38
304.051	257.38
304.281	240.38
304.511	244.38
304.741	232.38
304.971	250.38
305.201	223.38
305.431	244.38
305.661	242.38
305.891	256.38
306.121	264.38
306.352	232.38
306.582	230.38
306.812	250.38
307.042	263.38
307.272	232.38
307.502	243.38
307.731	252.38
307.961	236.38
308.191	247.38
308.421	261.38
308.651	230.38
308.881	263.38
309.111	262.38
309.341	259.38
309.571	241.38
309.8	254.38
310.03	274.38
310.26	266.38
310.49	267.38
310.72	285.38
310.949	292.38
311.179	287.38
311.409	267.38
311.639	281.38
311.868	283.38
312.098	279.38
312.328	270.38
312.557	281.38
312.787	304.38
313.017	281.38
313.246	278.38
313.476	287.38
313.706	286.38
313.935	288.38
314.165	297.38
314.394	286.38
314.624	285.38
314.853	275.38
315.083	281.38
315.312	291.38
315.542	281.38
315.771	273.38
316.001	277.38
316.23	296.38
316.46	279.38
316.689	292.38
316.919	279.38
317.148	303.38
317.377	275.38
317.607	294.38
317.836	284.38
318.065	274.38
318.295	288.38
318.524	266.38
318.753	280.38
318.983	266.38
319.212	278.38
319.441	283.38
319.67	275.38
319.9	307.38
320.129	299.38
320.358	277.38
320.587	281.38
320.816	288.38
321.046	295.38
321.275	284.38
321.504	290.38
321.733	283.38
321.962	291.38
322.191	301.38
322.42	308.38
322.649	325.38
322.878	344.38
323.108	348.38
323.337	339.38
323.566	368.38
323.795	372.38
324.024	419.38
324.253	489.38
324.482	691.38
324.71	1051.38
324.939	1427.38
325.168	1201.38
325.397	648.38
325.626	426.38
325.855	377.38
326.084	360.38
326.313	365.38
326.542	356.38
326.77	378.38
326.999	458.38
327.228	627.38
327.457	942.38
327.686	1069.38
327.914	727.38
328.143	498.38
328.372	420.38
328.6	396.38
328.829	381.38
329.058	404.38
329.287	392.38
329.515	385.38
329.744	376.38
329.972	359.38
330.201	376.38
330.43	379.38
330.658	405.38
330.887	408.38
331.115	434.38
331.344	371.38
331.572	351.38
331.801	348.38
332.03	338.38
332.258	334.38
332.486	343.38
332.715	338.38
332.943	324.38
333.172	321.38
333.4	332.38
333.629	323.38
333.857	338.38
334.085	361.38
334.314	373.38
334.542	364.38
334.771	357.38
334.999	368.38
335.227	332.38
335.455	319.38
335.684	322.38
335.912	316.38
336.14	308.38
336.369	314.38
336.597	307.38
336.825	315.38
337.053	325.38
337.281	307.38
337.51	332.38
337.738	307.38
337.966	315.38
338.194	313.38
338.422	316.38
338.65	332.38
338.878	320.38
339.106	304.38
339.334	323.38
339.562	319.38
339.79	309.38
340.018	325.38
340.246	331.38
340.474	332.38
340.702	308.38
340.93	319.38
341.158	305.38
341.386	319.38
341.614	337.38
341.842	295.38
342.07	311.38
342.298	298.38
342.526	307.38
342.754	317.38
342.981	281.38
343.209	296.38
343.437	306.38
343.665	307.38
343.893	317.38
344.12	315.38
344.348	306.38
344.576	314.38
344.804	315.38
345.031	320.38
345.259	343.38
345.487	327.38
345.714	304.38
345.942	315.38
346.17	308.38
346.397	292.38
346.625	310.38
346.853	315.38
347.08	313.38
347.308	320.38
347.535	297.38
347.763	330.38
347.99	305.38
348.218	312.38
348.445	318.38
348.673	308.38
348.9	322.38
349.128	316.38
349.355	303.38
349.583	307.38
349.81	297.38
350.037	310.38
350.265	292.38
350.492	295.38
350.72	296.38
350.947	297.38
351.174	304.38
351.402	317.38
351.629	307.38
351.856	308.38
352.083	307.38
352.311	315.38
352.538	313.38
352.765	330.38
352.992	317.38
353.22	312.38
353.447	300.38
353.674	308.38
353.901	300.38
354.128	305.38
354.355	313.38
354.583	296.38
354.81	285.38
355.037	287.38
355.264	301.38
355.491	307.38
355.718	296.38
355.945	308.38
356.172	299.38
356.399	292.38
356.626	278.38
356.853	297.38
357.08	293.38
357.307	284.38
357.534	283.38
357.761	271.38
357.988	287.38
358.215	297.38
358.441	297.38
358.668	285.38
358.895	292.38
359.122	284.38
359.349	304.38
359.576	315.38
359.802	330.38
360.029	342.38
360.256	357.38
360.483	315.38
360.709	318.38
360.936	306.38
361.163	296.38
361.39	320.38
361.616	319.38
361.843	310.38
362.07	307.38
362.296	308.38
362.523	326.38
362.749	329.38
362.976	304.38
363.203	305.38
363.429	280.38
363.656	300.38
363.882	279.38
364.109	293.38
364.335	298.38
364.562	305.38
364.788	288.38
365.015	295.38
365.241	307.38
365.468	302.38
365.694	299.38
365.92	309.38
366.147	312.38
366.373	300.38
366.599	303.38
366.826	275.38
367.052	292.38
367.278	292.38
367.505	288.38
367.731	310.38
367.957	305.38
368.184	304.38
368.41	295.38
368.636	309.38
368.862	320.38
369.089	312.38
369.315	299.38
369.541	290.38
369.767	296.38
369.993	289.38
370.219	299.38
370.445	300.38
370.672	336.38
370.898	316.38
371.124	307.38
371.35	295.38
371.576	289.38
371.802	275.38
372.028	288.38
372.254	289.38
372.48	308.38
372.706	294.38
372.932	291.38
373.158	289.38
373.384	304.38
373.61	315.38
373.835	304.38
374.061	308.38
374.287	300.38
374.513	295.38
374.739	298.38
374.965	328.38
375.191	298.38
375.416	312.38
375.642	288.38
375.868	319.38
376.094	313.38
376.319	315.38
376.545	312.38
376.771	297.38
376.997	303.38
377.222	300.38
377.448	292.38
377.674	293.38
377.899	297.38
378.125	295.38
378.35	307.38
378.576	292.38
378.802	292.38
379.027	303.38
379.253	282.38
379.478	286.38
379.704	289.38
379.929	281.38
380.155	298.38
380.38	316.38
380.606	295.38
380.831	301.38
381.057	309.38
381.282	281.38
381.507	283.38
381.733	329.38
381.958	305.38
382.184	305.38
382.409	331.38
382.634	290.38
382.86	315.38
383.085	291.38
383.31	292.38
383.535	297.38
383.761	324.38
383.986	307.38
384.211	309.38
384.436	298.38
384.662	316.38
384.887	323.38
385.112	319.38
385.337	316.38
385.562	319.38
385.787	321.38
386.013	316.38
386.238	332.38
386.463	325.38
386.688	342.38
386.913	320.38
387.138	329.38
387.363	319.38
387.588	322.38
387.813	329.38
388.038	326.38
388.263	321.38
388.488	329.38
388.713	326.38
388.938	324.38
389.163	316.38
389.387	336.38
389.612	328.38
389.837	305.38
390.062	324.38
390.287	309.38
390.512	335.38
390.736	336.38
390.961	321.38
391.186	329.38
391.411	325.38
391.636	316.38
391.86	316.38
392.085	338.38
392.31	317.38
392.534	327.38
392.759	324.38
392.984	346.38
393.208	347.38
393.433	351.38
393.658	336.38
393.882	338.38
394.107	321.38
394.331	328.38
394.556	335.38
394.78	313.38
395.005	347.38
395.229	310.38
395.454	332.38
395.678	334.38
395.903	346.38
396.127	351.38
396.352	359.38
396.576	343.38
396.801	351.38
397.025	337.38
397.249	336.38
397.474	347.38
397.698	343.38
397.922	343.38
398.147	354.38
398.371	356.38
398.595	374.38
398.82	351.38
399.044	379.38
399.268	358.38
399.492	383.38
399.717	389.38
399.941	396.38
400.165	417.38
400.389	452.38
400.613	416.38
400.837	389.38
401.062	380.38
401.286	364.38
401.51	357.38
401.734	353.38
401.958	363.38
402.182	369.38
402.406	391.38
402.63	383.38
402.854	374.38
403.078	370.38
403.302	375.38
403.526	375.38
403.75	386.38
403.974	372.38
404.198	389.38
404.422	380.38
404.645	376.38
404.869	383.38
405.093	411.38
405.317	399.38
405.541	442.38
405.765	426.38
405.988	383.38
406.212	388.38
406.436	415.38
406.66	434.38
406.883	395.38
407.107	407.38
407.331	440.38
407.555	497.38
407.778	504.38
408.002	468.38
408.226	431.38
408.449	403.38
408.673	406.38
408.896	441.38
409.12	464.38
409.344	434.38
409.567	403.38
409.791	385.38
410.014	390.38
410.238	374.38
410.461	390.38
410.685	389.38
410.908	390.38
411.132	432.38
411.355	424.38
411.578	425.38
411.802	390.38
412.025	385.38
412.249	385.38
412.472	393.38
412.695	424.38
412.919	412.38
413.142	385.38
413.365	398.38
413.589	367.38
413.812	362.38
414.035	368.38
414.258	346.38
414.482	349.38
414.705	333.38
414.928	354.38
415.151	352.38
415.374	376.38
415.597	354.38
415.821	358.38
416.044	370.38
416.267	357.38
416.49	365.38
416.713	352.38
416.936	354.38
417.159	355.38
417.382	374.38
417.605	351.38
417.828	385.38
418.051	386.38
418.274	373.38
418.497	358.38
418.72	357.38
418.943	339.38
419.166	361.38
419.389	375.38
419.611	371.38
419.834	387.38
420.057	375.38
420.28	371.38
420.503	363.38
420.726	368.38
420.948	387.38
421.171	407.38
421.394	433.38
421.617	392.38
421.839	350.38
422.062	362.38
422.285	380.38
422.507	423.38
422.73	471.38
422.953	468.38
423.175	379.38
423.398	384.38
423.621	380.38
423.843	407.38
424.066	395.38
424.288	406.38
424.511	405.38
424.733	435.38
424.956	501.38
425.178	468.38
425.401	482.38
425.623	485.38
425.846	416.38
426.068	420.38
426.291	401.38
426.513	397.38
426.735	417.38
426.958	431.38
427.18	480.38
427.402	579.38
427.625	619.38
427.847	535.38
428.069	465.38
428.292	452.38
428.514	408.38
428.736	403.38
428.958	392.38
429.181	381.38
429.403	370.38
429.625	371.38
429.847	402.38
430.069	437.38
430.292	436.38
430.514	376.38
430.736	377.38
430.958	367.38
431.18	357.38
431.402	365.38
431.624	337.38
431.846	341.38
432.068	351.38
432.29	353.38
432.512	354.38
432.734	347.38
432.956	357.38
433.178	363.38
433.4	354.38
433.622	376.38
433.844	367.38
434.066	357.38
434.287	348.38
434.509	356.38
434.731	387.38
434.953	370.38
435.175	381.38
435.397	403.38
435.618	413.38
435.84	449.38
436.062	491.38
436.284	537.38
436.505	443.38
436.727	394.38
436.949	409.38
437.17	377.38
437.392	367.38
437.614	387.38
437.835	413.38
438.057	493.38
438.278	544.38
438.5	531.38
438.721	586.38
438.943	564.38
439.165	445.38
439.386	391.38
439.608	400.38
439.829	447.38
440.05	445.38
440.272	426.38
440.493	424.38
440.715	388.38
440.936	361.38
441.158	360.38
441.379	374.38
441.6	405.38
441.822	437.38
442.043	423.38
442.264	487.38
442.486	516.38
442.707	427.38
442.928	402.38
443.149	403.38
443.371	428.38
443.592	468.38
443.813	521.38
444.034	571.38
444.255	451.38
444.476	418.38
444.698	390.38
444.919	402.38
445.14	482.38
445.361	449.38
445.582	433.38
445.803	484.38
446.024	550.38
446.245	563.38
446.466	500.38
446.687	431.38
446.908	416.38
447.129	393.38
447.35	379.38
447.571	389.38
447.792	346.38
448.013	367.38
448.234	365.38
448.455	422.38
448.675	503.38
448.896	584.38
449.117	474.38
449.338	469.38
449.559	547.38
449.779	600.38
450	461.38
450.221	405.38
450.442	380.38
450.662	375.38
450.883	367.38
451.104	378.38
451.324	368.38
451.545	369.38
451.766	357.38
451.986	337.38
452.207	342.38
452.428	331.38
452.648	347.38
452.869	344.38
453.089	348.38
453.31	353.38
453.53	365.38
453.751	345.38
453.971	336.38
454.192	339.38
454.412	370.38
454.633	335.38
454.853	347.38
455.073	333.38
455.294	346.38
455.514	393.38
455.734	367.38
455.955	313.38
456.175	320.38
456.395	308.38
456.616	309.38
456.836	317.38
457.056	314.38
457.276	324.38
457.497	323.38
457.717	311.38
457.937	331.38
458.157	324.38
458.377	317.38
458.598	347.38
458.818	401.38
459.038	426.38
459.258	451.38
459.478	395.38
459.698	374.38
459.918	368.38
460.138	351.38
460.358	366.38
460.578	353.38
460.798	398.38
461.018	349.38
461.238	354.38
461.458	373.38
461.678	354.38
461.898	373.38
462.118	360.38
462.338	375.38
462.558	359.38
462.777	371.38
462.997	395.38
463.217	364.38
463.437	405.38
463.657	380.38
463.876	378.38
464.096	388.38
464.316	397.38
464.536	355.38
464.755	373.38
464.975	375.38
465.195	429.38
465.414	459.38
465.634	431.38
465.854	378.38
466.073	349.38
466.293	349.38
466.512	352.38
466.732	346.38
466.951	341.38
467.171	347.38
467.391	338.38
467.61	352.38
467.829	343.38
468.049	342.38
468.268	343.38
468.488	354.38
468.707	348.38
468.927	351.38
469.146	339.38
469.365	364.38
469.585	332.38
469.804	351.38
470.023	359.38
470.243	341.38
470.462	358.38
470.681	375.38
470.901	372.38
471.12	349.38
471.339	345.38
471.558	360.38
471.777	362.38
471.997	356.38
472.216	358.38
472.435	372.38
472.654	364.38
472.873	370.38
473.092	360.38
473.311	343.38
473.53	347.38
473.749	376.38
473.968	375.38
474.187	454.38
474.406	487.38
474.625	386.38
474.844	367.38
475.063	347.38
475.282	357.38
475.501	347.38
475.72	362.38
475.939	338.38
476.158	371.38
476.377	363.38
476.596	373.38
476.814	395.38
477.033	377.38
477.252	393.38
477.471	369.38
477.69	375.38
477.908	385.38
478.127	385.38
478.346	410.38
478.564	398.38
478.783	379.38
479.002	405.38
479.22	401.38
479.439	399.38
479.658	419.38
479.876	440.38
480.095	420.38
480.313	436.38
480.532	414.38
480.751	415.38
480.969	451.38
481.188	445.38
481.406	481.38
481.624	448.38
481.843	449.38
482.061	440.38
482.28	434.38
482.498	422.38
482.717	420.38
482.935	430.38
483.153	412.38
483.372	426.38
483.59	437.38
483.808	411.38
484.027	411.38
484.245	419.38
484.463	413.38
484.681	428.38
484.9	436.38
485.118	433.38
485.336	431.38
485.554	437.38
485.772	420.38
485.99	414.38
486.209	411.38
486.427	421.38
486.645	449.38
486.863	457.38
487.081	457.38
487.299	446.38
487.517	459.38
487.735	448.38
487.953	461.38
488.171	466.38
488.389	455.38
488.607	451.38
488.825	443.38
489.043	457.38
489.261	480.38
489.479	459.38
489.696	469.38
489.914	452.38
490.132	448.38
490.35	457.38
490.568	484.38
490.786	482.38
491.003	448.38
491.221	471.38
491.439	486.38
491.657	487.38
491.874	492.38
492.092	490.38
492.31	503.38
492.527	488.38
492.745	497.38
492.963	513.38
493.18	517.38
493.398	518.38
493.615	524.38
493.833	503.38
494.05	499.38
494.268	512.38
494.485	531.38
494.703	519.38
494.92	501.38
495.138	524.38
495.355	502.38
495.573	519.38
495.79	495.38
496.008	523.38
496.225	518.38
496.442	522.38
496.66	520.38
496.877	525.38
497.094	519.38
497.312	521.38
497.529	515.38
497.746	539.38
497.963	534.38
498.181	549.38
498.398	563.38
498.615	563.38
498.832	592.38
499.049	587.38
499.267	601.38
499.484	600.38
499.701	623.38
499.918	641.38
500.135	661.38
500.352	679.38
500.569	722.38
500.786	684.38
501.003	662.38
501.22	674.38
501.437	667.38
501.654	631.38
501.871	649.38
502.088	612.38
