Data from 1965.PennyLincolnUp.Lamp.En5.5.200Scan.071719.P1._HRD10591_14-08-36-911.txt Node
Date: Thu Jul 18 14:08:36 EDT 2019
User: cochatt
Spectrometer: HR+D1059
Trigger mode: 1
Integration Time (sec): 1.000000E-1
Scans to average: 1
Electric dark correction enabled: true
Nonlinearity correction enabled: false
Boxcar width: 0
XAxis mode: Wavelengths
Number of Pixels in Spectrum: 2048
>>>>>Begin Spectral Data<<<<<
223.165	-19.38
223.4	-19.38
223.635	-19.38
223.869	-29.38
224.104	-15.38
224.338	-22.38
224.573	-13.38
224.808	-8.38
225.042	-23.38
225.277	0.62
225.511	-9.38
225.746	5.62
225.98	11.62
226.215	16.62
226.449	8.62
226.683	28.62
226.918	38.62
227.152	30.62
227.387	39.62
227.621	35.62
227.856	59.62
228.09	45.62
228.324	44.62
228.559	50.62
228.793	53.62
229.027	94.62
229.262	106.62
229.496	103.62
229.73	117.62
229.964	145.62
230.199	126.62
230.433	118.62
230.667	96.62
230.901	107.62
231.136	90.62
231.37	110.62
231.604	102.62
231.838	97.62
232.072	89.62
232.306	116.62
232.541	105.62
232.775	103.62
233.009	99.62
233.243	103.62
233.477	115.62
233.711	111.62
233.945	102.62
234.179	108.62
234.413	109.62
234.647	103.62
234.881	104.62
235.115	116.62
235.349	107.62
235.583	114.62
235.817	119.62
236.051	124.62
236.285	125.62
236.519	109.62
236.753	108.62
236.987	140.62
237.221	179.62
237.455	210.62
237.689	167.62
237.922	136.62
238.156	121.62
238.39	120.62
238.624	114.62
238.858	108.62
239.091	110.62
239.325	118.62
239.559	111.62
239.793	108.62
240.027	111.62
240.26	134.62
240.494	149.62
240.728	143.62
240.961	141.62
241.195	120.62
241.429	141.62
241.662	123.62
241.896	123.62
242.13	133.62
242.363	130.62
242.597	126.62
242.83	106.62
243.064	122.62
243.298	125.62
243.531	139.62
243.765	119.62
243.998	120.62
244.232	121.62
244.465	122.62
244.699	135.62
244.932	130.62
245.166	124.62
245.399	140.62
245.633	144.62
245.866	144.62
246.099	139.62
246.333	140.62
246.566	120.62
246.8	141.62
247.033	137.62
247.266	139.62
247.5	155.62
247.733	140.62
247.966	143.62
248.2	145.62
248.433	150.62
248.666	162.62
248.899	164.62
249.133	177.62
249.366	167.62
249.599	178.62
249.832	180.62
250.066	172.62
250.299	147.62
250.532	160.62
250.765	164.62
250.998	187.62
251.231	199.62
251.465	194.62
251.698	183.62
251.931	175.62
252.164	167.62
252.397	173.62
252.63	187.62
252.863	199.62
253.096	172.62
253.329	185.62
253.562	186.62
253.795	198.62
254.028	191.62
254.261	191.62
254.494	201.62
254.727	216.62
254.96	230.62
255.193	223.62
255.426	226.62
255.659	221.62
255.892	199.62
256.124	216.62
256.357	196.62
256.59	186.62
256.823	176.62
257.056	204.62
257.289	179.62
257.521	182.62
257.754	181.62
257.987	179.62
258.22	196.62
258.452	186.62
258.685	186.62
258.918	190.62
259.151	184.62
259.383	182.62
259.616	194.62
259.849	191.62
260.081	193.62
260.314	222.62
260.547	230.62
260.779	228.62
261.012	203.62
261.244	184.62
261.477	179.62
261.71	191.62
261.942	196.62
262.175	204.62
262.407	208.62
262.64	187.62
262.872	187.62
263.105	182.62
263.337	188.62
263.57	187.62
263.802	191.62
264.035	199.62
264.267	198.62
264.499	179.62
264.732	194.62
264.964	170.62
265.197	171.62
265.429	179.62
265.661	190.62
265.894	188.62
266.126	181.62
266.358	197.62
266.591	184.62
266.823	198.62
267.055	205.62
267.287	202.62
267.52	202.62
267.752	206.62
267.984	198.62
268.216	196.62
268.448	210.62
268.681	205.62
268.913	243.62
269.145	235.62
269.377	227.62
269.609	225.62
269.841	243.62
270.073	224.62
270.306	242.62
270.538	263.62
270.77	265.62
271.002	247.62
271.234	261.62
271.466	264.62
271.698	270.62
271.93	276.62
272.162	263.62
272.394	268.62
272.626	239.62
272.858	252.62
273.09	241.62
273.322	247.62
273.553	211.62
273.785	226.62
274.017	226.62
274.249	226.62
274.481	218.62
274.713	234.62
274.945	240.62
275.176	223.62
275.408	229.62
275.64	223.62
275.872	229.62
276.104	237.62
276.335	225.62
276.567	220.62
276.799	245.62
277.031	254.62
277.262	258.62
277.494	268.62
277.726	259.62
277.957	243.62
278.189	243.62
278.421	242.62
278.652	227.62
278.884	238.62
279.115	235.62
279.347	235.62
279.579	220.62
279.81	235.62
280.042	218.62
280.273	230.62
280.505	234.62
280.736	233.62
280.968	238.62
281.199	238.62
281.431	220.62
281.662	222.62
281.894	220.62
282.125	231.62
282.356	237.62
282.588	251.62
282.819	279.62
283.051	230.62
283.282	223.62
283.513	225.62
283.745	242.62
283.976	232.62
284.207	229.62
284.439	239.62
284.67	235.62
284.901	223.62
285.132	223.62
285.364	232.62
285.595	260.62
285.826	236.62
286.057	242.62
286.288	224.62
286.52	212.62
286.751	235.62
286.982	236.62
287.213	245.62
287.444	235.62
287.675	258.62
287.906	237.62
288.138	250.62
288.369	265.62
288.6	275.62
288.831	250.62
289.062	229.62
289.293	251.62
289.524	253.62
289.755	239.62
289.986	249.62
290.217	251.62
290.448	239.62
290.679	237.62
290.91	239.62
291.141	230.62
291.371	258.62
291.602	250.62
291.833	250.62
292.064	247.62
292.295	241.62
292.526	260.62
292.757	250.62
292.987	233.62
293.218	227.62
293.449	257.62
293.68	250.62
293.91	246.62
294.141	246.62
294.372	240.62
294.603	228.62
294.833	255.62
295.064	239.62
295.295	252.62
295.525	258.62
295.756	251.62
295.987	272.62
296.217	288.62
296.448	275.62
296.679	261.62
296.909	272.62
297.14	259.62
297.37	260.62
297.601	252.62
297.831	257.62
298.062	255.62
298.292	239.62
298.523	233.62
298.753	260.62
298.984	264.62
299.214	268.62
299.445	243.62
299.675	268.62
299.905	266.62
300.136	262.62
300.366	264.62
300.597	284.62
300.827	264.62
301.057	264.62
301.288	284.62
301.518	284.62
301.748	278.62
301.979	266.62
302.209	256.62
302.439	275.62
302.669	273.62
302.9	268.62
303.13	270.62
303.36	265.62
303.59	269.62
303.82	283.62
304.051	267.62
304.281	280.62
304.511	264.62
304.741	268.62
304.971	266.62
305.201	283.62
305.431	278.62
305.661	272.62
305.891	269.62
306.121	287.62
306.352	286.62
306.582	283.62
306.812	283.62
307.042	275.62
307.272	273.62
307.502	282.62
307.731	260.62
307.961	274.62
308.191	283.62
308.421	283.62
308.651	287.62
308.881	302.62
309.111	286.62
309.341	298.62
309.571	306.62
309.8	299.62
310.03	312.62
310.26	324.62
310.49	317.62
310.72	330.62
310.949	322.62
311.179	341.62
311.409	321.62
311.639	324.62
311.868	311.62
312.098	330.62
312.328	318.62
312.557	336.62
312.787	355.62
313.017	347.62
313.246	330.62
313.476	343.62
313.706	327.62
313.935	323.62
314.165	347.62
314.394	362.62
314.624	365.62
314.853	343.62
315.083	334.62
315.312	334.62
315.542	312.62
315.771	310.62
316.001	318.62
316.23	327.62
316.46	335.62
316.689	319.62
316.919	332.62
317.148	314.62
317.377	334.62
317.607	329.62
317.836	319.62
318.065	314.62
318.295	315.62
318.524	321.62
318.753	312.62
318.983	311.62
319.212	322.62
319.441	341.62
319.67	342.62
319.9	324.62
320.129	322.62
320.358	331.62
320.587	320.62
320.816	333.62
321.046	349.62
321.275	355.62
321.504	359.62
321.733	364.62
321.962	361.62
322.191	364.62
322.42	375.62
322.649	382.62
322.878	414.62
323.108	423.62
323.337	448.62
323.566	446.62
323.795	475.62
324.024	516.62
324.253	640.62
324.482	902.62
324.71	1421.62
324.939	1934.62
325.168	1643.62
325.397	853.62
325.626	590.62
325.855	484.62
326.084	456.62
326.313	437.62
326.542	458.62
326.77	499.62
326.999	574.62
327.228	826.62
327.457	1265.62
327.686	1458.62
327.914	964.62
328.143	647.62
328.372	567.62
328.6	532.62
328.829	518.62
329.058	527.62
329.287	547.62
329.515	482.62
329.744	443.62
329.972	447.62
330.201	473.62
330.43	503.62
330.658	521.62
330.887	552.62
331.115	521.62
331.344	443.62
331.572	422.62
331.801	436.62
332.03	419.62
332.258	395.62
332.486	387.62
332.715	379.62
332.943	360.62
333.172	386.62
333.4	392.62
333.629	383.62
333.857	411.62
334.085	409.62
334.314	437.62
334.542	458.62
334.771	480.62
334.999	421.62
335.227	406.62
335.455	383.62
335.684	366.62
335.912	381.62
336.14	375.62
336.369	384.62
336.597	386.62
336.825	388.62
337.053	371.62
337.281	390.62
337.51	375.62
337.738	376.62
337.966	378.62
338.194	367.62
338.422	373.62
338.65	356.62
338.878	377.62
339.106	366.62
339.334	370.62
339.562	358.62
339.79	372.62
340.018	350.62
340.246	364.62
340.474	377.62
340.702	370.62
340.93	350.62
341.158	366.62
341.386	359.62
341.614	366.62
341.842	361.62
342.07	351.62
342.298	359.62
342.526	360.62
342.754	361.62
342.981	343.62
343.209	338.62
343.437	356.62
343.665	376.62
343.893	352.62
344.12	374.62
344.348	374.62
344.576	356.62
344.804	373.62
345.031	392.62
345.259	378.62
345.487	374.62
345.714	390.62
345.942	380.62
346.17	350.62
346.397	348.62
346.625	365.62
346.853	358.62
347.08	342.62
347.308	350.62
347.535	377.62
347.763	384.62
347.99	364.62
348.218	373.62
348.445	363.62
348.673	369.62
348.9	348.62
349.128	349.62
349.355	342.62
349.583	335.62
349.81	338.62
350.037	343.62
350.265	334.62
350.492	338.62
350.72	358.62
350.947	331.62
351.174	358.62
351.402	359.62
351.629	374.62
351.856	354.62
352.083	374.62
352.311	360.62
352.538	390.62
352.765	372.62
352.992	391.62
353.22	364.62
353.447	365.62
353.674	355.62
353.901	350.62
354.128	335.62
354.355	344.62
354.583	324.62
354.81	337.62
355.037	331.62
355.264	342.62
355.491	323.62
355.718	317.62
355.945	342.62
356.172	317.62
356.399	321.62
356.626	311.62
356.853	320.62
357.08	331.62
357.307	340.62
357.534	332.62
357.761	337.62
357.988	340.62
358.215	335.62
358.441	308.62
358.668	340.62
358.895	317.62
359.122	317.62
359.349	349.62
359.576	367.62
359.802	387.62
360.029	407.62
360.256	415.62
360.483	414.62
360.709	382.62
360.936	350.62
361.163	355.62
361.39	370.62
361.616	374.62
361.843	356.62
362.07	363.62
362.296	373.62
362.523	336.62
362.749	360.62
362.976	333.62
363.203	350.62
363.429	330.62
363.656	337.62
363.882	349.62
364.109	337.62
364.335	307.62
364.562	335.62
364.788	338.62
365.015	350.62
365.241	346.62
365.468	342.62
365.694	347.62
365.92	338.62
366.147	326.62
366.373	343.62
366.599	338.62
366.826	337.62
367.052	330.62
367.278	342.62
367.505	336.62
367.731	351.62
367.957	331.62
368.184	325.62
368.41	356.62
368.636	347.62
368.862	354.62
369.089	346.62
369.315	341.62
369.541	323.62
369.767	333.62
369.993	327.62
370.219	332.62
370.445	318.62
370.672	321.62
370.898	338.62
371.124	325.62
371.35	322.62
371.576	333.62
371.802	324.62
372.028	317.62
372.254	333.62
372.48	340.62
372.706	341.62
372.932	331.62
373.158	333.62
373.384	340.62
373.61	334.62
373.835	317.62
374.061	335.62
374.287	334.62
374.513	339.62
374.739	326.62
374.965	323.62
375.191	351.62
375.416	327.62
375.642	353.62
375.868	345.62
376.094	343.62
376.319	340.62
376.545	314.62
376.771	325.62
376.997	309.62
377.222	314.62
377.448	321.62
377.674	331.62
377.899	332.62
378.125	322.62
378.35	315.62
378.576	332.62
378.802	339.62
379.027	339.62
379.253	336.62
379.478	326.62
379.704	324.62
379.929	322.62
380.155	308.62
380.38	349.62
380.606	319.62
380.831	329.62
381.057	330.62
381.282	352.62
381.507	313.62
381.733	353.62
381.958	351.62
382.184	344.62
382.409	347.62
382.634	348.62
382.86	343.62
383.085	354.62
383.31	317.62
383.535	334.62
383.761	318.62
383.986	326.62
384.211	336.62
384.436	348.62
384.662	331.62
384.887	350.62
385.112	344.62
385.337	347.62
385.562	347.62
385.787	358.62
386.013	350.62
386.238	378.62
386.463	363.62
386.688	355.62
386.913	339.62
387.138	346.62
387.363	346.62
387.588	362.62
387.813	345.62
388.038	360.62
388.263	346.62
388.488	322.62
388.713	342.62
388.938	359.62
389.163	332.62
389.387	347.62
389.612	358.62
389.837	349.62
390.062	341.62
390.287	347.62
390.512	353.62
390.736	347.62
390.961	348.62
391.186	343.62
391.411	349.62
391.636	357.62
391.86	362.62
392.085	359.62
392.31	342.62
392.534	359.62
392.759	370.62
392.984	370.62
393.208	357.62
393.433	363.62
393.658	350.62
393.882	347.62
394.107	348.62
394.331	335.62
394.556	350.62
394.78	360.62
395.005	360.62
395.229	342.62
395.454	370.62
395.678	354.62
395.903	380.62
396.127	408.62
396.352	390.62
396.576	359.62
396.801	373.62
397.025	372.62
397.249	349.62
397.474	379.62
397.698	356.62
397.922	388.62
398.147	398.62
398.371	394.62
398.595	399.62
398.82	402.62
399.044	406.62
399.268	421.62
399.492	434.62
399.717	443.62
399.941	452.62
400.165	482.62
400.389	489.62
400.613	453.62
400.837	419.62
401.062	433.62
401.286	410.62
401.51	411.62
401.734	403.62
401.958	396.62
402.182	402.62
402.406	408.62
402.63	428.62
402.854	410.62
403.078	412.62
403.302	405.62
403.526	410.62
403.75	426.62
403.974	412.62
404.198	414.62
404.422	420.62
404.645	412.62
404.869	420.62
405.093	448.62
405.317	492.62
405.541	497.62
405.765	460.62
405.988	435.62
406.212	452.62
406.436	490.62
406.66	484.62
406.883	466.62
407.107	466.62
407.331	493.62
407.555	546.62
407.778	562.62
408.002	504.62
408.226	487.62
408.449	451.62
408.673	466.62
408.896	480.62
409.12	492.62
409.344	468.62
409.567	441.62
409.791	437.62
410.014	416.62
410.238	407.62
410.461	427.62
410.685	413.62
410.908	444.62
411.132	459.62
411.355	470.62
411.578	458.62
411.802	429.62
412.025	398.62
412.249	430.62
412.472	462.62
412.695	468.62
412.919	458.62
413.142	405.62
413.365	423.62
413.589	407.62
413.812	383.62
414.035	401.62
414.258	400.62
414.482	387.62
414.705	399.62
414.928	382.62
415.151	395.62
415.374	401.62
415.597	400.62
415.821	394.62
416.044	385.62
416.267	387.62
416.49	391.62
416.713	381.62
416.936	394.62
417.159	393.62
417.382	410.62
417.605	430.62
417.828	397.62
418.051	415.62
418.274	408.62
418.497	408.62
418.72	414.62
418.943	393.62
419.166	396.62
419.389	420.62
419.611	400.62
419.834	406.62
420.057	417.62
420.28	404.62
420.503	420.62
420.726	426.62
420.948	443.62
421.171	457.62
421.394	483.62
421.617	432.62
421.839	418.62
422.062	414.62
422.285	407.62
422.507	480.62
422.73	546.62
422.953	504.62
423.175	458.62
423.398	447.62
423.621	434.62
423.843	461.62
424.066	455.62
424.288	443.62
424.511	457.62
424.733	504.62
424.956	573.62
425.178	559.62
425.401	544.62
425.623	565.62
425.846	477.62
426.068	438.62
426.291	449.62
426.513	450.62
426.735	463.62
426.958	485.62
427.18	566.62
427.402	632.62
427.625	729.62
427.847	654.62
428.069	554.62
428.292	503.62
428.514	448.62
428.736	457.62
428.958	429.62
429.181	425.62
429.403	421.62
429.625	449.62
429.847	472.62
430.069	511.62
430.292	493.62
430.514	469.62
430.736	423.62
430.958	412.62
431.18	396.62
431.402	392.62
431.624	399.62
431.846	391.62
432.068	384.62
432.29	389.62
432.512	399.62
432.734	404.62
432.956	396.62
433.178	410.62
433.4	424.62
433.622	388.62
433.844	407.62
434.066	397.62
434.287	399.62
434.509	413.62
434.731	414.62
434.953	411.62
435.175	419.62
435.397	437.62
435.618	448.62
435.84	486.62
436.062	589.62
436.284	619.62
436.505	498.62
436.727	472.62
436.949	443.62
437.17	410.62
437.392	411.62
437.614	422.62
437.835	481.62
438.057	552.62
438.278	623.62
438.5	607.62
438.721	645.62
438.943	635.62
439.165	530.62
439.386	448.62
439.608	477.62
439.829	454.62
440.05	489.62
440.272	515.62
440.493	506.62
440.715	462.62
440.936	430.62
441.158	414.62
441.379	425.62
441.6	448.62
441.822	465.62
442.043	504.62
442.264	543.62
442.486	570.62
442.707	505.62
442.928	470.62
443.149	487.62
443.371	489.62
443.592	542.62
443.813	582.62
444.034	618.62
444.255	507.62
444.476	481.62
444.698	452.62
444.919	436.62
445.14	545.62
445.361	498.62
445.582	498.62
445.803	565.62
446.024	623.62
446.245	607.62
446.466	574.62
446.687	495.62
446.908	450.62
447.129	441.62
447.35	434.62
447.571	422.62
447.792	417.62
448.013	428.62
448.234	428.62
448.455	485.62
448.675	600.62
448.896	637.62
449.117	562.62
449.338	559.62
449.559	626.62
449.779	682.62
450	559.62
450.221	483.62
450.442	431.62
450.662	427.62
450.883	443.62
451.104	438.62
451.324	450.62
451.545	434.62
451.766	400.62
451.986	377.62
452.207	375.62
452.428	372.62
452.648	382.62
452.869	377.62
453.089	390.62
453.31	395.62
453.53	407.62
453.751	367.62
453.971	370.62
454.192	428.62
454.412	397.62
454.633	391.62
454.853	388.62
455.073	387.62
455.294	415.62
455.514	461.62
455.734	456.62
455.955	400.62
456.175	357.62
456.395	352.62
456.616	370.62
456.836	374.62
457.056	335.62
457.276	346.62
457.497	361.62
457.717	359.62
457.937	388.62
458.157	376.62
458.377	380.62
458.598	404.62
458.818	459.62
459.038	527.62
459.258	537.62
459.478	451.62
459.698	430.62
459.918	396.62
460.138	395.62
460.358	405.62
460.578	381.62
460.798	401.62
461.018	387.62
461.238	377.62
461.458	412.62
461.678	388.62
461.898	398.62
462.118	401.62
462.338	394.62
462.558	427.62
462.777	396.62
462.997	418.62
463.217	408.62
463.437	418.62
463.657	412.62
463.876	431.62
464.096	420.62
464.316	420.62
464.536	452.62
464.755	429.62
464.975	431.62
465.195	487.62
465.414	544.62
465.634	485.62
465.854	434.62
466.073	415.62
466.293	393.62
466.512	399.62
466.732	400.62
466.951	376.62
467.171	400.62
467.391	420.62
467.61	411.62
467.829	404.62
468.049	408.62
468.268	418.62
468.488	392.62
468.707	402.62
468.927	375.62
469.146	380.62
469.365	364.62
469.585	405.62
469.804	378.62
470.023	404.62
470.243	404.62
470.462	413.62
470.681	410.62
470.901	418.62
471.12	384.62
471.339	393.62
471.558	380.62
471.777	422.62
471.997	394.62
472.216	407.62
472.435	447.62
472.654	438.62
472.873	387.62
473.092	394.62
473.311	397.62
473.53	381.62
473.749	410.62
473.968	438.62
474.187	565.62
474.406	522.62
474.625	438.62
474.844	400.62
475.063	410.62
475.282	399.62
475.501	407.62
475.72	401.62
475.939	415.62
476.158	384.62
476.377	400.62
476.596	414.62
476.814	406.62
477.033	431.62
477.252	409.62
477.471	427.62
477.69	406.62
477.908	424.62
478.127	438.62
478.346	445.62
478.564	430.62
478.783	435.62
479.002	434.62
479.22	442.62
479.439	461.62
479.658	483.62
479.876	484.62
480.095	485.62
480.313	502.62
480.532	517.62
480.751	480.62
480.969	473.62
481.188	552.62
481.406	583.62
481.624	520.62
481.843	489.62
482.061	489.62
482.28	487.62
482.498	455.62
482.717	465.62
482.935	453.62
483.153	461.62
483.372	467.62
483.59	447.62
483.808	468.62
484.027	445.62
484.245	454.62
484.463	463.62
484.681	482.62
484.9	460.62
485.118	487.62
485.336	468.62
485.554	499.62
485.772	464.62
485.99	476.62
486.209	498.62
486.427	487.62
486.645	496.62
486.863	528.62
487.081	520.62
487.299	503.62
487.517	501.62
487.735	515.62
487.953	492.62
488.171	495.62
488.389	499.62
488.607	493.62
488.825	507.62
489.043	480.62
489.261	501.62
489.479	520.62
489.696	503.62
489.914	513.62
490.132	507.62
490.35	514.62
490.568	521.62
490.786	537.62
491.003	566.62
491.221	560.62
491.439	576.62
491.657	554.62
491.874	548.62
492.092	555.62
492.31	566.62
492.527	567.62
492.745	566.62
492.963	563.62
493.18	574.62
493.398	586.62
493.615	586.62
493.833	604.62
494.05	587.62
494.268	564.62
494.485	587.62
494.703	582.62
494.92	584.62
495.138	576.62
495.355	581.62
495.573	588.62
495.79	586.62
496.008	572.62
496.225	593.62
496.442	584.62
496.66	579.62
496.877	571.62
497.094	576.62
497.312	583.62
497.529	610.62
497.746	596.62
497.963	598.62
498.181	627.62
498.398	626.62
498.615	643.62
498.832	656.62
499.049	666.62
499.267	639.62
499.484	662.62
499.701	693.62
499.918	708.62
500.135	713.62
500.352	734.62
500.569	762.62
500.786	751.62
501.003	763.62
501.22	727.62
501.437	732.62
501.654	716.62
501.871	712.62
502.088	701.62
