Data from 1965.PennyLincolnUp.Lamp.En5.5.200Scan.071719.P1._HRD10591_14-10-58-912.txt Node
Date: Thu Jul 18 14:10:58 EDT 2019
User: cochatt
Spectrometer: HR+D1059
Trigger mode: 1
Integration Time (sec): 1.000000E-1
Scans to average: 1
Electric dark correction enabled: true
Nonlinearity correction enabled: false
Boxcar width: 0
XAxis mode: Wavelengths
Number of Pixels in Spectrum: 2048
>>>>>Begin Spectral Data<<<<<
223.165	-21.56
223.4	-21.56
223.635	-21.56
223.869	-20.56
224.104	-32.56
224.338	-19.56
224.573	-15.56
224.808	-5.56
225.042	-3.56
225.277	-14.56
225.511	-4.56
225.746	8.44
225.98	11.44
226.215	14.44
226.449	15.44
226.683	25.44
226.918	27.44
227.152	35.44
227.387	44.44
227.621	34.44
227.856	21.44
228.09	36.44
228.324	53.44
228.559	53.44
228.793	66.44
229.027	85.44
229.262	107.44
229.496	111.44
229.73	116.44
229.964	149.44
230.199	136.44
230.433	122.44
230.667	109.44
230.901	110.44
231.136	116.44
231.37	120.44
231.604	96.44
231.838	115.44
232.072	102.44
232.306	120.44
232.541	106.44
232.775	112.44
233.009	104.44
233.243	113.44
233.477	85.44
233.711	110.44
233.945	111.44
234.179	108.44
234.413	95.44
234.647	117.44
234.881	109.44
235.115	107.44
235.349	112.44
235.583	137.44
235.817	119.44
236.051	109.44
236.285	117.44
236.519	107.44
236.753	141.44
236.987	133.44
237.221	163.44
237.455	210.44
237.689	186.44
237.922	139.44
238.156	137.44
238.39	124.44
238.624	118.44
238.858	117.44
239.091	125.44
239.325	126.44
239.559	116.44
239.793	113.44
240.027	137.44
240.26	115.44
240.494	157.44
240.728	147.44
240.961	142.44
241.195	136.44
241.429	123.44
241.662	131.44
241.896	119.44
242.13	118.44
242.363	109.44
242.597	123.44
242.83	127.44
243.064	136.44
243.298	133.44
243.531	127.44
243.765	134.44
243.998	118.44
244.232	131.44
244.465	119.44
244.699	138.44
244.932	145.44
245.166	136.44
245.399	125.44
245.633	147.44
245.866	133.44
246.099	137.44
246.333	134.44
246.566	142.44
246.8	124.44
247.033	139.44
247.266	138.44
247.5	132.44
247.733	166.44
247.966	144.44
248.2	161.44
248.433	157.44
248.666	153.44
248.899	169.44
249.133	196.44
249.366	185.44
249.599	192.44
249.832	160.44
250.066	167.44
250.299	188.44
250.532	199.44
250.765	186.44
250.998	199.44
251.231	209.44
251.465	201.44
251.698	187.44
251.931	182.44
252.164	194.44
252.397	183.44
252.63	195.44
252.863	185.44
253.096	204.44
253.329	204.44
253.562	206.44
253.795	216.44
254.028	205.44
254.261	200.44
254.494	216.44
254.727	236.44
254.96	275.44
255.193	249.44
255.426	239.44
255.659	214.44
255.892	221.44
256.124	206.44
256.357	218.44
256.59	216.44
256.823	213.44
257.056	188.44
257.289	209.44
257.521	195.44
257.754	200.44
257.987	190.44
258.22	212.44
258.452	202.44
258.685	191.44
258.918	186.44
259.151	207.44
259.383	204.44
259.616	210.44
259.849	206.44
260.081	218.44
260.314	230.44
260.547	239.44
260.779	221.44
261.012	223.44
261.244	213.44
261.477	205.44
261.71	215.44
261.942	223.44
262.175	240.44
262.407	224.44
262.64	195.44
262.872	186.44
263.105	214.44
263.337	171.44
263.57	197.44
263.802	195.44
264.035	193.44
264.267	188.44
264.499	191.44
264.732	198.44
264.964	211.44
265.197	202.44
265.429	189.44
265.661	182.44
265.894	203.44
266.126	212.44
266.358	200.44
266.591	196.44
266.823	207.44
267.055	219.44
267.287	215.44
267.52	215.44
267.752	211.44
267.984	209.44
268.216	211.44
268.448	206.44
268.681	213.44
268.913	227.44
269.145	245.44
269.377	249.44
269.609	244.44
269.841	255.44
270.073	250.44
270.306	271.44
270.538	278.44
270.77	296.44
271.002	291.44
271.234	279.44
271.466	292.44
271.698	296.44
271.93	295.44
272.162	325.44
272.394	311.44
272.626	308.44
272.858	276.44
273.09	263.44
273.322	258.44
273.553	257.44
273.785	235.44
274.017	241.44
274.249	241.44
274.481	243.44
274.713	236.44
274.945	237.44
275.176	246.44
275.408	251.44
275.64	253.44
275.872	244.44
276.104	242.44
276.335	247.44
276.567	254.44
276.799	268.44
277.031	288.44
277.262	290.44
277.494	309.44
277.726	277.44
277.957	271.44
278.189	259.44
278.421	245.44
278.652	249.44
278.884	239.44
279.115	239.44
279.347	233.44
279.579	228.44
279.81	239.44
280.042	252.44
280.273	237.44
280.505	249.44
280.736	228.44
280.968	257.44
281.199	230.44
281.431	241.44
281.662	243.44
281.894	214.44
282.125	228.44
282.356	250.44
282.588	279.44
282.819	300.44
283.051	240.44
283.282	249.44
283.513	271.44
283.745	250.44
283.976	249.44
284.207	250.44
284.439	239.44
284.67	241.44
284.901	262.44
285.132	237.44
285.364	259.44
285.595	263.44
285.826	267.44
286.057	253.44
286.288	249.44
286.52	256.44
286.751	251.44
286.982	244.44
287.213	241.44
287.444	252.44
287.675	265.44
287.906	273.44
288.138	267.44
288.369	277.44
288.6	298.44
288.831	261.44
289.062	267.44
289.293	267.44
289.524	244.44
289.755	261.44
289.986	276.44
290.217	246.44
290.448	260.44
290.679	250.44
290.91	264.44
291.141	274.44
291.371	244.44
291.602	255.44
291.833	246.44
292.064	262.44
292.295	265.44
292.526	279.44
292.757	265.44
292.987	252.44
293.218	265.44
293.449	250.44
293.68	267.44
293.91	263.44
294.141	273.44
294.372	247.44
294.603	252.44
294.833	266.44
295.064	257.44
295.295	263.44
295.525	263.44
295.756	275.44
295.987	275.44
296.217	290.44
296.448	288.44
296.679	278.44
296.909	269.44
297.14	258.44
297.37	280.44
297.601	248.44
297.831	251.44
298.062	276.44
298.292	267.44
298.523	277.44
298.753	278.44
298.984	263.44
299.214	268.44
299.445	277.44
299.675	277.44
299.905	284.44
300.136	289.44
300.366	254.44
300.597	274.44
300.827	290.44
301.057	285.44
301.288	294.44
301.518	313.44
301.748	301.44
301.979	286.44
302.209	291.44
302.439	286.44
302.669	307.44
302.9	317.44
303.13	287.44
303.36	307.44
303.59	305.44
303.82	318.44
304.051	311.44
304.281	298.44
304.511	289.44
304.741	287.44
304.971	311.44
305.201	290.44
305.431	299.44
305.661	293.44
305.891	298.44
306.121	302.44
306.352	315.44
306.582	315.44
306.812	298.44
307.042	299.44
307.272	297.44
307.502	292.44
307.731	297.44
307.961	309.44
308.191	305.44
308.421	309.44
308.651	297.44
308.881	307.44
309.111	305.44
309.341	291.44
309.571	325.44
309.8	334.44
310.03	334.44
310.26	358.44
310.49	345.44
310.72	354.44
310.949	366.44
311.179	370.44
311.409	337.44
311.639	349.44
311.868	364.44
312.098	350.44
312.328	351.44
312.557	381.44
312.787	384.44
313.017	403.44
313.246	350.44
313.476	358.44
313.706	358.44
313.935	348.44
314.165	361.44
314.394	379.44
314.624	380.44
314.853	366.44
315.083	330.44
315.312	340.44
315.542	347.44
315.771	341.44
316.001	333.44
316.23	355.44
316.46	335.44
316.689	339.44
316.919	353.44
317.148	351.44
317.377	372.44
317.607	377.44
317.836	361.44
318.065	369.44
318.295	336.44
318.524	350.44
318.753	350.44
318.983	358.44
319.212	367.44
319.441	359.44
319.67	357.44
319.9	366.44
320.129	357.44
320.358	356.44
320.587	369.44
320.816	362.44
321.046	372.44
321.275	373.44
321.504	381.44
321.733	376.44
321.962	400.44
322.191	399.44
322.42	419.44
322.649	410.44
322.878	431.44
323.108	450.44
323.337	496.44
323.566	480.44
323.795	518.44
324.024	583.44
324.253	733.44
324.482	1065.44
324.71	1623.44
324.939	2265.44
325.168	1860.44
325.397	966.44
325.626	659.44
325.855	531.44
326.084	499.44
326.313	494.44
326.542	505.44
326.77	545.44
326.999	694.44
327.228	951.44
327.457	1425.44
327.686	1635.44
327.914	1108.44
328.143	740.44
328.372	630.44
328.6	599.44
328.829	563.44
329.058	579.44
329.287	615.44
329.515	571.44
329.744	515.44
329.972	510.44
330.201	520.44
330.43	581.44
330.658	599.44
330.887	622.44
331.115	576.44
331.344	482.44
331.572	473.44
331.801	460.44
332.03	466.44
332.258	443.44
332.486	421.44
332.715	405.44
332.943	425.44
333.172	430.44
333.4	425.44
333.629	414.44
333.857	442.44
334.085	455.44
334.314	470.44
334.542	521.44
334.771	541.44
334.999	473.44
335.227	427.44
335.455	415.44
335.684	423.44
335.912	399.44
336.14	388.44
336.369	421.44
336.597	397.44
336.825	408.44
337.053	403.44
337.281	407.44
337.51	389.44
337.738	399.44
337.966	395.44
338.194	401.44
338.422	433.44
338.65	396.44
338.878	408.44
339.106	394.44
339.334	404.44
339.562	396.44
339.79	390.44
340.018	403.44
340.246	396.44
340.474	397.44
340.702	411.44
340.93	385.44
341.158	411.44
341.386	382.44
341.614	396.44
341.842	385.44
342.07	375.44
342.298	387.44
342.526	364.44
342.754	379.44
342.981	384.44
343.209	378.44
343.437	388.44
343.665	376.44
343.893	390.44
344.12	389.44
344.348	387.44
344.576	394.44
344.804	398.44
345.031	396.44
345.259	407.44
345.487	390.44
345.714	396.44
345.942	373.44
346.17	368.44
346.397	370.44
346.625	381.44
346.853	383.44
347.08	376.44
347.308	398.44
347.535	399.44
347.763	394.44
347.99	395.44
348.218	400.44
348.445	401.44
348.673	394.44
348.9	387.44
349.128	391.44
349.355	376.44
349.583	377.44
349.81	359.44
350.037	374.44
350.265	375.44
350.492	357.44
350.72	369.44
350.947	374.44
351.174	397.44
351.402	399.44
351.629	405.44
351.856	386.44
352.083	398.44
352.311	397.44
352.538	391.44
352.765	413.44
352.992	398.44
353.22	375.44
353.447	390.44
353.674	389.44
353.901	354.44
354.128	366.44
354.355	348.44
354.583	364.44
354.81	357.44
355.037	337.44
355.264	355.44
355.491	354.44
355.718	346.44
355.945	359.44
356.172	345.44
356.399	337.44
356.626	326.44
356.853	341.44
357.08	341.44
357.307	347.44
357.534	355.44
357.761	343.44
357.988	363.44
358.215	360.44
358.441	341.44
358.668	358.44
358.895	363.44
359.122	350.44
359.349	370.44
359.576	381.44
359.802	391.44
360.029	453.44
360.256	455.44
360.483	424.44
360.709	388.44
360.936	386.44
361.163	373.44
361.39	390.44
361.616	390.44
361.843	374.44
362.07	389.44
362.296	400.44
362.523	387.44
362.749	390.44
362.976	395.44
363.203	383.44
363.429	341.44
363.656	381.44
363.882	359.44
364.109	357.44
364.335	349.44
364.562	373.44
364.788	352.44
365.015	357.44
365.241	366.44
365.468	369.44
365.694	374.44
365.92	370.44
366.147	359.44
366.373	374.44
366.599	371.44
366.826	355.44
367.052	353.44
367.278	349.44
367.505	353.44
367.731	353.44
367.957	362.44
368.184	357.44
368.41	372.44
368.636	383.44
368.862	374.44
369.089	371.44
369.315	371.44
369.541	374.44
369.767	353.44
369.993	339.44
370.219	363.44
370.445	350.44
370.672	346.44
370.898	361.44
371.124	348.44
371.35	336.44
371.576	359.44
371.802	360.44
372.028	366.44
372.254	338.44
372.48	345.44
372.706	361.44
372.932	370.44
373.158	349.44
373.384	329.44
373.61	355.44
373.835	356.44
374.061	349.44
374.287	360.44
374.513	345.44
374.739	347.44
374.965	369.44
375.191	369.44
375.416	356.44
375.642	327.44
375.868	340.44
376.094	336.44
376.319	346.44
376.545	332.44
376.771	358.44
376.997	360.44
377.222	356.44
377.448	353.44
377.674	354.44
377.899	364.44
378.125	350.44
378.35	356.44
378.576	347.44
378.802	335.44
379.027	342.44
379.253	361.44
379.478	354.44
379.704	341.44
379.929	357.44
380.155	349.44
380.38	364.44
380.606	342.44
380.831	350.44
381.057	354.44
381.282	349.44
381.507	354.44
381.733	339.44
381.958	361.44
382.184	363.44
382.409	341.44
382.634	355.44
382.86	359.44
383.085	355.44
383.31	356.44
383.535	346.44
383.761	341.44
383.986	350.44
384.211	363.44
384.436	366.44
384.662	371.44
384.887	380.44
385.112	353.44
385.337	367.44
385.562	381.44
385.787	372.44
386.013	385.44
386.238	379.44
386.463	391.44
386.688	383.44
386.913	365.44
387.138	378.44
387.363	350.44
387.588	377.44
387.813	361.44
388.038	393.44
388.263	374.44
388.488	376.44
388.713	386.44
388.938	390.44
389.163	381.44
389.387	385.44
389.612	372.44
389.837	379.44
390.062	378.44
390.287	375.44
390.512	356.44
390.736	369.44
390.961	386.44
391.186	397.44
391.411	382.44
391.636	374.44
391.86	373.44
392.085	399.44
392.31	397.44
392.534	385.44
392.759	380.44
392.984	372.44
393.208	395.44
393.433	387.44
393.658	378.44
393.882	375.44
394.107	364.44
394.331	367.44
394.556	367.44
394.78	382.44
395.005	383.44
395.229	375.44
395.454	376.44
395.678	375.44
395.903	380.44
396.127	414.44
396.352	413.44
396.576	398.44
396.801	371.44
397.025	400.44
397.249	400.44
397.474	410.44
397.698	397.44
397.922	424.44
398.147	416.44
398.371	423.44
398.595	418.44
398.82	420.44
399.044	413.44
399.268	437.44
399.492	458.44
399.717	470.44
399.941	487.44
400.165	518.44
400.389	515.44
400.613	461.44
400.837	449.44
401.062	445.44
401.286	448.44
401.51	435.44
401.734	414.44
401.958	447.44
402.182	403.44
402.406	449.44
402.63	450.44
402.854	439.44
403.078	425.44
403.302	444.44
403.526	459.44
403.75	451.44
403.974	454.44
404.198	442.44
404.422	459.44
404.645	466.44
404.869	473.44
405.093	482.44
405.317	523.44
405.541	532.44
405.765	481.44
405.988	463.44
406.212	468.44
406.436	521.44
406.66	541.44
406.883	490.44
407.107	492.44
407.331	554.44
407.555	609.44
407.778	556.44
408.002	541.44
408.226	509.44
408.449	513.44
408.673	487.44
408.896	514.44
409.12	547.44
409.344	504.44
409.567	462.44
409.791	456.44
410.014	445.44
410.238	426.44
410.461	462.44
410.685	455.44
410.908	459.44
411.132	477.44
411.355	532.44
411.578	506.44
411.802	449.44
412.025	449.44
412.249	469.44
412.472	478.44
412.695	522.44
412.919	500.44
413.142	467.44
413.365	430.44
413.589	453.44
413.812	425.44
414.035	424.44
414.258	403.44
414.482	405.44
414.705	419.44
414.928	404.44
415.151	403.44
415.374	434.44
415.597	423.44
415.821	414.44
416.044	405.44
416.267	420.44
416.49	409.44
416.713	422.44
416.936	407.44
417.159	426.44
417.382	451.44
417.605	424.44
417.828	446.44
418.051	456.44
418.274	419.44
418.497	411.44
418.72	431.44
418.943	428.44
419.166	435.44
419.389	451.44
419.611	450.44
419.834	438.44
420.057	458.44
420.28	456.44
420.503	453.44
420.726	457.44
420.948	469.44
421.171	503.44
421.394	527.44
421.617	451.44
421.839	431.44
422.062	449.44
422.285	449.44
422.507	526.44
422.73	561.44
422.953	573.44
423.175	485.44
423.398	457.44
423.621	474.44
423.843	463.44
424.066	476.44
424.288	487.44
424.511	491.44
424.733	544.44
424.956	621.44
425.178	598.44
425.401	585.44
425.623	609.44
425.846	523.44
426.068	495.44
426.291	502.44
426.513	483.44
426.735	493.44
426.958	547.44
427.18	610.44
427.402	735.44
427.625	791.44
427.847	685.44
428.069	610.44
428.292	514.44
428.514	510.44
428.736	449.44
428.958	476.44
429.181	454.44
429.403	445.44
429.625	482.44
429.847	481.44
430.069	519.44
430.292	561.44
430.514	469.44
430.736	458.44
430.958	443.44
431.18	451.44
431.402	429.44
431.624	409.44
431.846	431.44
432.068	428.44
432.29	415.44
432.512	422.44
432.734	442.44
432.956	430.44
433.178	429.44
433.4	466.44
433.622	426.44
433.844	417.44
434.066	425.44
434.287	412.44
434.509	420.44
434.731	448.44
434.953	439.44
435.175	433.44
435.397	470.44
435.618	493.44
435.84	541.44
436.062	598.44
436.284	670.44
436.505	574.44
436.727	509.44
436.949	482.44
437.17	458.44
437.392	443.44
437.614	472.44
437.835	524.44
438.057	607.44
438.278	691.44
438.5	677.44
438.721	717.44
438.943	686.44
439.165	559.44
439.386	526.44
439.608	510.44
439.829	512.44
440.05	526.44
440.272	572.44
440.493	540.44
440.715	482.44
440.936	472.44
441.158	453.44
441.379	461.44
441.6	478.44
441.822	501.44
442.043	527.44
442.264	614.44
442.486	620.44
442.707	556.44
442.928	531.44
443.149	508.44
443.371	537.44
443.592	570.44
443.813	669.44
444.034	711.44
444.255	577.44
444.476	511.44
444.698	499.44
444.919	479.44
445.14	563.44
445.361	536.44
445.582	536.44
445.803	594.44
446.024	707.44
446.245	715.44
446.466	614.44
446.687	537.44
446.908	505.44
447.129	468.44
447.35	466.44
447.571	455.44
447.792	444.44
448.013	465.44
448.234	492.44
448.455	524.44
448.675	636.44
448.896	716.44
449.117	585.44
449.338	575.44
449.559	655.44
449.779	740.44
450	602.44
450.221	528.44
450.442	483.44
450.662	450.44
450.883	463.44
451.104	489.44
451.324	462.44
451.545	419.44
451.766	401.44
451.986	398.44
452.207	413.44
452.428	406.44
452.648	408.44
452.869	414.44
453.089	414.44
453.31	437.44
453.53	429.44
453.751	443.44
453.971	420.44
454.192	445.44
454.412	430.44
454.633	416.44
454.853	421.44
455.073	406.44
455.294	458.44
455.514	506.44
455.734	474.44
455.955	431.44
456.175	394.44
456.395	386.44
456.616	366.44
456.836	364.44
457.056	363.44
457.276	367.44
457.497	371.44
457.717	393.44
457.937	402.44
458.157	394.44
458.377	390.44
458.598	437.44
458.818	489.44
459.038	544.44
459.258	604.44
459.478	474.44
459.698	460.44
459.918	424.44
460.138	409.44
460.358	428.44
460.578	439.44
460.798	419.44
461.018	409.44
461.238	423.44
461.458	407.44
461.678	396.44
461.898	419.44
462.118	425.44
462.338	410.44
462.558	441.44
462.777	421.44
462.997	444.44
463.217	439.44
463.437	459.44
463.657	439.44
463.876	463.44
464.096	441.44
464.316	448.44
464.536	470.44
464.755	441.44
464.975	475.44
465.195	506.44
465.414	582.44
465.634	526.44
465.854	461.44
466.073	459.44
466.293	437.44
466.512	423.44
466.732	412.44
466.951	435.44
467.171	419.44
467.391	428.44
467.61	398.44
467.829	435.44
468.049	441.44
468.268	437.44
468.488	414.44
468.707	395.44
468.927	398.44
469.146	405.44
469.365	422.44
469.585	395.44
469.804	411.44
470.023	432.44
470.243	422.44
470.462	442.44
470.681	467.44
470.901	442.44
471.12	417.44
471.339	417.44
471.558	419.44
471.777	419.44
471.997	422.44
472.216	461.44
472.435	479.44
472.654	466.44
472.873	445.44
473.092	429.44
473.311	429.44
473.53	421.44
473.749	449.44
473.968	492.44
474.187	589.44
474.406	586.44
474.625	495.44
474.844	439.44
475.063	426.44
475.282	403.44
475.501	435.44
475.72	439.44
475.939	430.44
476.158	431.44
476.377	419.44
476.596	410.44
476.814	429.44
477.033	455.44
477.252	453.44
477.471	468.44
477.69	462.44
477.908	438.44
478.127	469.44
478.346	454.44
478.564	457.44
478.783	473.44
479.002	478.44
479.22	472.44
479.439	493.44
479.658	479.44
479.876	527.44
480.095	522.44
480.313	549.44
480.532	531.44
480.751	506.44
480.969	571.44
481.188	627.44
481.406	643.44
481.624	550.44
481.843	533.44
482.061	515.44
482.28	501.44
482.498	506.44
482.717	538.44
482.935	494.44
483.153	480.44
483.372	498.44
483.59	471.44
483.808	512.44
484.027	517.44
484.245	481.44
484.463	501.44
484.681	498.44
484.9	489.44
485.118	494.44
485.336	494.44
485.554	505.44
485.772	517.44
485.99	521.44
486.209	534.44
486.427	531.44
486.645	539.44
486.863	551.44
487.081	536.44
487.299	541.44
487.517	521.44
487.735	526.44
487.953	541.44
488.171	530.44
488.389	519.44
488.607	538.44
488.825	544.44
489.043	544.44
489.261	544.44
489.479	554.44
489.696	551.44
489.914	567.44
490.132	541.44
490.35	563.44
490.568	556.44
490.786	573.44
491.003	595.44
491.221	589.44
491.439	597.44
491.657	593.44
491.874	589.44
492.092	592.44
492.31	611.44
492.527	595.44
492.745	606.44
492.963	631.44
493.18	613.44
493.398	618.44
493.615	655.44
493.833	658.44
494.05	614.44
494.268	618.44
494.485	634.44
494.703	620.44
494.92	622.44
495.138	637.44
495.355	614.44
495.573	627.44
495.79	641.44
496.008	669.44
496.225	647.44
496.442	640.44
496.66	625.44
496.877	629.44
497.094	617.44
497.312	625.44
497.529	647.44
497.746	647.44
497.963	642.44
498.181	709.44
498.398	693.44
498.615	665.44
498.832	692.44
499.049	716.44
499.267	724.44
499.484	731.44
499.701	758.44
499.918	729.44
500.135	761.44
500.352	780.44
500.569	799.44
500.786	794.44
501.003	782.44
501.22	783.44
501.437	791.44
501.654	773.44
501.871	771.44
