Data from 1965.PennyLincolnUp.Lamp.En5.5.200Scan.071719.P1._HRD10591_14-07-56-911.txt Node
Date: Thu Jul 18 14:07:56 EDT 2019
User: cochatt
Spectrometer: HR+D1059
Trigger mode: 1
Integration Time (sec): 1.000000E-1
Scans to average: 1
Electric dark correction enabled: true
Nonlinearity correction enabled: false
Boxcar width: 0
XAxis mode: Wavelengths
Number of Pixels in Spectrum: 2048
>>>>>Begin Spectral Data<<<<<
223.165	-2.38
223.4	-2.38
223.635	-2.38
223.869	-13.38
224.104	-22.38
224.338	-18.38
224.573	-20.38
224.808	-16.38
225.042	-10.38
225.277	-15.38
225.511	-9.38
225.746	10.62
225.98	19.62
226.215	6.62
226.449	18.62
226.683	28.62
226.918	21.62
227.152	22.62
227.387	34.62
227.621	44.62
227.856	43.62
228.09	42.62
228.324	32.62
228.559	63.62
228.793	62.62
229.027	83.62
229.262	76.62
229.496	90.62
229.73	112.62
229.964	119.62
230.199	100.62
230.433	96.62
230.667	115.62
230.901	116.62
231.136	91.62
231.37	103.62
231.604	101.62
231.838	99.62
232.072	105.62
232.306	94.62
232.541	113.62
232.775	91.62
233.009	105.62
233.243	107.62
233.477	96.62
233.711	97.62
233.945	105.62
234.179	97.62
234.413	105.62
234.647	94.62
234.881	90.62
235.115	98.62
235.349	106.62
235.583	102.62
235.817	94.62
236.051	110.62
236.285	97.62
236.519	99.62
236.753	114.62
236.987	128.62
237.221	153.62
237.455	181.62
237.689	152.62
237.922	118.62
238.156	118.62
238.39	110.62
238.624	102.62
238.858	99.62
239.091	102.62
239.325	115.62
239.559	108.62
239.793	101.62
240.027	111.62
240.26	126.62
240.494	130.62
240.728	115.62
240.961	100.62
241.195	121.62
241.429	118.62
241.662	110.62
241.896	111.62
242.13	115.62
242.363	102.62
242.597	97.62
242.83	113.62
243.064	112.62
243.298	123.62
243.531	121.62
243.765	118.62
243.998	108.62
244.232	118.62
244.465	128.62
244.699	122.62
244.932	118.62
245.166	115.62
245.399	118.62
245.633	132.62
245.866	120.62
246.099	138.62
246.333	130.62
246.566	126.62
246.8	126.62
247.033	122.62
247.266	126.62
247.5	135.62
247.733	124.62
247.966	141.62
248.2	116.62
248.433	141.62
248.666	132.62
248.899	150.62
249.133	163.62
249.366	168.62
249.599	155.62
249.832	150.62
250.066	140.62
250.299	157.62
250.532	146.62
250.765	159.62
250.998	178.62
251.231	159.62
251.465	160.62
251.698	169.62
251.931	155.62
252.164	159.62
252.397	171.62
252.63	159.62
252.863	155.62
253.096	174.62
253.329	170.62
253.562	163.62
253.795	161.62
254.028	184.62
254.261	184.62
254.494	175.62
254.727	193.62
254.96	211.62
255.193	191.62
255.426	178.62
255.659	194.62
255.892	169.62
256.124	192.62
256.357	176.62
256.59	171.62
256.823	164.62
257.056	169.62
257.289	174.62
257.521	163.62
257.754	164.62
257.987	170.62
258.22	176.62
258.452	167.62
258.685	170.62
258.918	170.62
259.151	181.62
259.383	176.62
259.616	176.62
259.849	175.62
260.081	196.62
260.314	205.62
260.547	199.62
260.779	190.62
261.012	185.62
261.244	163.62
261.477	181.62
261.71	183.62
261.942	196.62
262.175	176.62
262.407	182.62
262.64	158.62
262.872	178.62
263.105	168.62
263.337	180.62
263.57	182.62
263.802	169.62
264.035	163.62
264.267	168.62
264.499	174.62
264.732	175.62
264.964	175.62
265.197	163.62
265.429	176.62
265.661	188.62
265.894	175.62
266.126	192.62
266.358	170.62
266.591	169.62
266.823	172.62
267.055	186.62
267.287	175.62
267.52	184.62
267.752	183.62
267.984	188.62
268.216	189.62
268.448	184.62
268.681	180.62
268.913	174.62
269.145	210.62
269.377	207.62
269.609	204.62
269.841	209.62
270.073	199.62
270.306	215.62
270.538	217.62
270.77	231.62
271.002	233.62
271.234	215.62
271.466	236.62
271.698	229.62
271.93	230.62
272.162	254.62
272.394	260.62
272.626	222.62
272.858	214.62
273.09	215.62
273.322	200.62
273.553	220.62
273.785	223.62
274.017	203.62
274.249	201.62
274.481	223.62
274.713	199.62
274.945	201.62
275.176	200.62
275.408	204.62
275.64	216.62
275.872	209.62
276.104	219.62
276.335	202.62
276.567	219.62
276.799	225.62
277.031	229.62
277.262	208.62
277.494	235.62
277.726	240.62
277.957	224.62
278.189	219.62
278.421	200.62
278.652	202.62
278.884	197.62
279.115	207.62
279.347	225.62
279.579	209.62
279.81	204.62
280.042	202.62
280.273	234.62
280.505	193.62
280.736	204.62
280.968	207.62
281.199	210.62
281.431	203.62
281.662	215.62
281.894	212.62
282.125	214.62
282.356	218.62
282.588	243.62
282.819	238.62
283.051	215.62
283.282	207.62
283.513	215.62
283.745	215.62
283.976	203.62
284.207	204.62
284.439	197.62
284.67	212.62
284.901	231.62
285.132	215.62
285.364	216.62
285.595	225.62
285.826	214.62
286.057	233.62
286.288	206.62
286.52	211.62
286.751	225.62
286.982	215.62
287.213	218.62
287.444	227.62
287.675	222.62
287.906	226.62
288.138	227.62
288.369	232.62
288.6	219.62
288.831	242.62
289.062	227.62
289.293	216.62
289.524	222.62
289.755	228.62
289.986	221.62
290.217	227.62
290.448	238.62
290.679	218.62
290.91	219.62
291.141	222.62
291.371	217.62
291.602	233.62
291.833	234.62
292.064	232.62
292.295	227.62
292.526	232.62
292.757	220.62
292.987	225.62
293.218	228.62
293.449	214.62
293.68	220.62
293.91	223.62
294.141	245.62
294.372	222.62
294.603	227.62
294.833	224.62
295.064	233.62
295.295	233.62
295.525	236.62
295.756	228.62
295.987	221.62
296.217	241.62
296.448	254.62
296.679	243.62
296.909	220.62
297.14	250.62
297.37	233.62
297.601	240.62
297.831	222.62
298.062	225.62
298.292	239.62
298.523	250.62
298.753	248.62
298.984	244.62
299.214	217.62
299.445	231.62
299.675	242.62
299.905	240.62
300.136	239.62
300.366	239.62
300.597	241.62
300.827	247.62
301.057	243.62
301.288	230.62
301.518	235.62
301.748	260.62
301.979	252.62
302.209	231.62
302.439	247.62
302.669	264.62
302.9	242.62
303.13	235.62
303.36	258.62
303.59	267.62
303.82	273.62
304.051	258.62
304.281	234.62
304.511	251.62
304.741	249.62
304.971	255.62
305.201	259.62
305.431	260.62
305.661	243.62
305.891	250.62
306.121	258.62
306.352	260.62
306.582	261.62
306.812	262.62
307.042	261.62
307.272	265.62
307.502	254.62
307.731	271.62
307.961	260.62
308.191	246.62
308.421	263.62
308.651	290.62
308.881	276.62
309.111	264.62
309.341	270.62
309.571	281.62
309.8	268.62
310.03	281.62
310.26	294.62
310.49	269.62
310.72	289.62
310.949	294.62
311.179	302.62
311.409	287.62
311.639	286.62
311.868	275.62
312.098	289.62
312.328	289.62
312.557	313.62
312.787	312.62
313.017	316.62
313.246	308.62
313.476	281.62
313.706	286.62
313.935	302.62
314.165	280.62
314.394	318.62
314.624	331.62
314.853	311.62
315.083	315.62
315.312	291.62
315.542	293.62
315.771	278.62
316.001	294.62
316.23	285.62
316.46	281.62
316.689	284.62
316.919	303.62
317.148	293.62
317.377	294.62
317.607	306.62
317.836	290.62
318.065	300.62
318.295	295.62
318.524	283.62
318.753	290.62
318.983	307.62
319.212	288.62
319.441	305.62
319.67	325.62
319.9	320.62
320.129	315.62
320.358	297.62
320.587	300.62
320.816	291.62
321.046	291.62
321.275	309.62
321.504	314.62
321.733	301.62
321.962	320.62
322.191	321.62
322.42	322.62
322.649	328.62
322.878	337.62
323.108	356.62
323.337	376.62
323.566	395.62
323.795	405.62
324.024	445.62
324.253	516.62
324.482	758.62
324.71	1129.62
324.939	1569.62
325.168	1283.62
325.397	688.62
325.626	490.62
325.855	420.62
326.084	373.62
326.313	376.62
326.542	392.62
326.77	423.62
326.999	503.62
327.228	682.62
327.457	982.62
327.686	1169.62
327.914	778.62
328.143	557.62
328.372	459.62
328.6	453.62
328.829	419.62
329.058	433.62
329.287	446.62
329.515	405.62
329.744	388.62
329.972	404.62
330.201	387.62
330.43	426.62
330.658	457.62
330.887	459.62
331.115	461.62
331.344	376.62
331.572	396.62
331.801	379.62
332.03	361.62
332.258	368.62
332.486	350.62
332.715	349.62
332.943	361.62
333.172	333.62
333.4	338.62
333.629	344.62
333.857	347.62
334.085	353.62
334.314	396.62
334.542	402.62
334.771	388.62
334.999	389.62
335.227	372.62
335.455	351.62
335.684	373.62
335.912	333.62
336.14	329.62
336.369	338.62
336.597	340.62
336.825	351.62
337.053	342.62
337.281	320.62
337.51	310.62
337.738	335.62
337.966	330.62
338.194	338.62
338.422	336.62
338.65	328.62
338.878	329.62
339.106	336.62
339.334	328.62
339.562	347.62
339.79	328.62
340.018	336.62
340.246	326.62
340.474	344.62
340.702	330.62
340.93	330.62
341.158	306.62
341.386	331.62
341.614	347.62
341.842	338.62
342.07	323.62
342.298	328.62
342.526	319.62
342.754	340.62
342.981	314.62
343.209	297.62
343.437	344.62
343.665	317.62
343.893	313.62
344.12	338.62
344.348	331.62
344.576	337.62
344.804	342.62
345.031	349.62
345.259	338.62
345.487	342.62
345.714	358.62
345.942	314.62
346.17	319.62
346.397	317.62
346.625	316.62
346.853	328.62
347.08	325.62
347.308	323.62
347.535	335.62
347.763	341.62
347.99	339.62
348.218	327.62
348.445	334.62
348.673	320.62
348.9	321.62
349.128	310.62
349.355	305.62
349.583	308.62
349.81	322.62
350.037	325.62
350.265	314.62
350.492	292.62
350.72	311.62
350.947	320.62
351.174	328.62
351.402	298.62
351.629	331.62
351.856	332.62
352.083	329.62
352.311	329.62
352.538	340.62
352.765	341.62
352.992	321.62
353.22	328.62
353.447	310.62
353.674	334.62
353.901	338.62
354.128	316.62
354.355	312.62
354.583	292.62
354.81	312.62
355.037	324.62
355.264	307.62
355.491	292.62
355.718	311.62
355.945	315.62
356.172	311.62
356.399	301.62
356.626	295.62
356.853	312.62
357.08	300.62
357.307	299.62
357.534	306.62
357.761	297.62
357.988	310.62
358.215	290.62
358.441	309.62
358.668	314.62
358.895	312.62
359.122	320.62
359.349	318.62
359.576	339.62
359.802	339.62
360.029	370.62
360.256	353.62
360.483	340.62
360.709	309.62
360.936	313.62
361.163	327.62
361.39	335.62
361.616	340.62
361.843	322.62
362.07	331.62
362.296	313.62
362.523	335.62
362.749	324.62
362.976	308.62
363.203	310.62
363.429	296.62
363.656	317.62
363.882	308.62
364.109	316.62
364.335	314.62
364.562	299.62
364.788	308.62
365.015	310.62
365.241	298.62
365.468	297.62
365.694	323.62
365.92	311.62
366.147	310.62
366.373	319.62
366.599	310.62
366.826	310.62
367.052	318.62
367.278	313.62
367.505	322.62
367.731	327.62
367.957	315.62
368.184	318.62
368.41	304.62
368.636	319.62
368.862	326.62
369.089	322.62
369.315	326.62
369.541	298.62
369.767	295.62
369.993	304.62
370.219	322.62
370.445	314.62
370.672	309.62
370.898	293.62
371.124	290.62
371.35	296.62
371.576	312.62
371.802	303.62
372.028	310.62
372.254	311.62
372.48	288.62
372.706	314.62
372.932	307.62
373.158	309.62
373.384	302.62
373.61	310.62
373.835	316.62
374.061	307.62
374.287	305.62
374.513	313.62
374.739	315.62
374.965	323.62
375.191	330.62
375.416	314.62
375.642	319.62
375.868	333.62
376.094	321.62
376.319	311.62
376.545	288.62
376.771	320.62
376.997	303.62
377.222	305.62
377.448	341.62
377.674	307.62
377.899	302.62
378.125	298.62
378.35	313.62
378.576	293.62
378.802	305.62
379.027	313.62
379.253	322.62
379.478	289.62
379.704	294.62
379.929	312.62
380.155	299.62
380.38	346.62
380.606	311.62
380.831	299.62
381.057	302.62
381.282	308.62
381.507	283.62
381.733	310.62
381.958	318.62
382.184	306.62
382.409	311.62
382.634	331.62
382.86	327.62
383.085	330.62
383.31	323.62
383.535	318.62
383.761	311.62
383.986	318.62
384.211	341.62
384.436	322.62
384.662	298.62
384.887	338.62
385.112	328.62
385.337	330.62
385.562	330.62
385.787	346.62
386.013	326.62
386.238	333.62
386.463	323.62
386.688	320.62
386.913	335.62
387.138	336.62
387.363	347.62
387.588	344.62
387.813	329.62
388.038	335.62
388.263	335.62
388.488	336.62
388.713	337.62
388.938	348.62
389.163	336.62
389.387	344.62
389.612	346.62
389.837	327.62
390.062	328.62
390.287	337.62
390.512	347.62
390.736	338.62
390.961	325.62
391.186	357.62
391.411	334.62
391.636	333.62
391.86	343.62
392.085	347.62
392.31	338.62
392.534	335.62
392.759	336.62
392.984	331.62
393.208	330.62
393.433	352.62
393.658	346.62
393.882	344.62
394.107	345.62
394.331	335.62
394.556	322.62
394.78	343.62
395.005	339.62
395.229	336.62
395.454	322.62
395.678	346.62
395.903	354.62
396.127	391.62
396.352	362.62
396.576	351.62
396.801	356.62
397.025	347.62
397.249	344.62
397.474	351.62
397.698	361.62
397.922	375.62
398.147	393.62
398.371	378.62
398.595	378.62
398.82	365.62
399.044	387.62
399.268	369.62
399.492	388.62
399.717	413.62
399.941	423.62
400.165	446.62
400.389	438.62
400.613	430.62
400.837	393.62
401.062	389.62
401.286	376.62
401.51	377.62
401.734	385.62
401.958	401.62
402.182	394.62
402.406	376.62
402.63	411.62
402.854	357.62
403.078	376.62
403.302	379.62
403.526	393.62
403.75	383.62
403.974	389.62
404.198	390.62
404.422	404.62
404.645	395.62
404.869	388.62
405.093	438.62
405.317	445.62
405.541	462.62
405.765	429.62
405.988	405.62
406.212	402.62
406.436	427.62
406.66	432.62
406.883	426.62
407.107	455.62
407.331	475.62
407.555	503.62
407.778	510.62
408.002	436.62
408.226	425.62
408.449	416.62
408.673	424.62
408.896	456.62
409.12	470.62
409.344	458.62
409.567	414.62
409.791	415.62
410.014	383.62
410.238	376.62
410.461	417.62
410.685	397.62
410.908	409.62
411.132	451.62
411.355	447.62
411.578	419.62
411.802	375.62
412.025	385.62
412.249	386.62
412.472	406.62
412.695	442.62
412.919	427.62
413.142	432.62
413.365	375.62
413.589	391.62
413.812	392.62
414.035	363.62
414.258	396.62
414.482	365.62
414.705	375.62
414.928	387.62
415.151	379.62
415.374	369.62
415.597	363.62
415.821	374.62
416.044	374.62
416.267	383.62
416.49	360.62
416.713	368.62
416.936	374.62
417.159	364.62
417.382	386.62
417.605	358.62
417.828	384.62
418.051	385.62
418.274	388.62
418.497	377.62
418.72	359.62
418.943	385.62
419.166	378.62
419.389	389.62
419.611	406.62
419.834	404.62
420.057	402.62
420.28	383.62
420.503	392.62
420.726	363.62
420.948	402.62
421.171	449.62
421.394	445.62
421.617	402.62
421.839	411.62
422.062	384.62
422.285	395.62
422.507	451.62
422.73	506.62
422.953	490.62
423.175	426.62
423.398	399.62
423.621	398.62
423.843	406.62
424.066	414.62
424.288	420.62
424.511	433.62
424.733	463.62
424.956	518.62
425.178	506.62
425.401	504.62
425.623	488.62
425.846	452.62
426.068	425.62
426.291	417.62
426.513	410.62
426.735	446.62
426.958	468.62
427.18	487.62
427.402	606.62
427.625	661.62
427.847	592.62
428.069	513.62
428.292	472.62
428.514	431.62
428.736	417.62
428.958	399.62
429.181	386.62
429.403	378.62
429.625	381.62
429.847	419.62
430.069	462.62
430.292	458.62
430.514	418.62
430.736	399.62
430.958	379.62
431.18	371.62
431.402	378.62
431.624	376.62
431.846	368.62
432.068	369.62
432.29	350.62
432.512	347.62
432.734	373.62
432.956	384.62
433.178	379.62
433.4	390.62
433.622	377.62
433.844	376.62
434.066	386.62
434.287	362.62
434.509	374.62
434.731	372.62
434.953	388.62
435.175	382.62
435.397	401.62
435.618	440.62
435.84	440.62
436.062	532.62
436.284	542.62
436.505	472.62
436.727	426.62
436.949	388.62
437.17	391.62
437.392	384.62
437.614	414.62
437.835	427.62
438.057	515.62
438.278	562.62
438.5	540.62
438.721	603.62
438.943	592.62
439.165	466.62
439.386	436.62
439.608	435.62
439.829	435.62
440.05	444.62
440.272	484.62
440.493	460.62
440.715	401.62
440.936	393.62
441.158	393.62
441.379	393.62
441.6	408.62
441.822	435.62
442.043	439.62
442.264	514.62
442.486	532.62
442.707	463.62
442.928	434.62
443.149	435.62
443.371	446.62
443.592	492.62
443.813	562.62
444.034	554.62
444.255	494.62
444.476	425.62
444.698	421.62
444.919	405.62
445.14	487.62
445.361	448.62
445.582	446.62
445.803	496.62
446.024	552.62
446.245	568.62
446.466	507.62
446.687	466.62
446.908	425.62
447.129	404.62
447.35	415.62
447.571	388.62
447.792	394.62
448.013	401.62
448.234	443.62
448.455	434.62
448.675	508.62
448.896	606.62
449.117	516.62
449.338	499.62
449.559	574.62
449.779	628.62
450	516.62
450.221	411.62
450.442	410.62
450.662	375.62
450.883	388.62
451.104	400.62
451.324	386.62
451.545	362.62
451.766	357.62
451.986	368.62
452.207	352.62
452.428	363.62
452.648	341.62
452.869	361.62
453.089	358.62
453.31	377.62
453.53	349.62
453.751	360.62
453.971	360.62
454.192	372.62
454.412	363.62
454.633	356.62
454.853	351.62
455.073	353.62
455.294	363.62
455.514	407.62
455.734	410.62
455.955	357.62
456.175	345.62
456.395	344.62
456.616	325.62
456.836	330.62
457.056	345.62
457.276	347.62
457.497	351.62
457.717	339.62
457.937	345.62
458.157	325.62
458.377	341.62
458.598	378.62
458.818	407.62
459.038	467.62
459.258	484.62
459.478	417.62
459.698	372.62
459.918	384.62
460.138	351.62
460.358	382.62
460.578	363.62
460.798	378.62
461.018	422.62
461.238	377.62
461.458	383.62
461.678	373.62
461.898	382.62
462.118	386.62
462.338	380.62
462.558	380.62
462.777	393.62
462.997	388.62
463.217	386.62
463.437	405.62
463.657	400.62
463.876	393.62
464.096	406.62
464.316	402.62
464.536	408.62
464.755	389.62
464.975	414.62
465.195	439.62
465.414	516.62
465.634	428.62
465.854	410.62
466.073	385.62
466.293	394.62
466.512	366.62
466.732	355.62
466.951	374.62
467.171	358.62
467.391	379.62
467.61	359.62
467.829	378.62
468.049	368.62
468.268	384.62
468.488	357.62
468.707	341.62
468.927	367.62
469.146	370.62
469.365	363.62
469.585	372.62
469.804	363.62
470.023	378.62
470.243	384.62
470.462	376.62
470.681	393.62
470.901	370.62
471.12	366.62
471.339	371.62
471.558	358.62
471.777	370.62
471.997	366.62
472.216	381.62
472.435	406.62
472.654	383.62
472.873	377.62
473.092	362.62
473.311	358.62
473.53	369.62
473.749	390.62
473.968	398.62
474.187	468.62
474.406	501.62
474.625	432.62
474.844	376.62
475.063	371.62
475.282	382.62
475.501	343.62
475.72	379.62
475.939	398.62
476.158	386.62
476.377	384.62
476.596	396.62
476.814	402.62
477.033	383.62
477.252	392.62
477.471	419.62
477.69	406.62
477.908	396.62
478.127	393.62
478.346	395.62
478.564	417.62
478.783	400.62
479.002	423.62
479.22	414.62
479.439	442.62
479.658	452.62
479.876	457.62
480.095	450.62
480.313	478.62
480.532	466.62
480.751	463.62
480.969	465.62
481.188	484.62
481.406	502.62
481.624	467.62
481.843	453.62
482.061	436.62
482.28	451.62
482.498	455.62
482.717	439.62
482.935	443.62
483.153	435.62
483.372	420.62
483.59	434.62
483.808	432.62
484.027	424.62
484.245	434.62
484.463	455.62
484.681	457.62
484.9	447.62
485.118	466.62
485.336	461.62
485.554	459.62
485.772	486.62
485.99	448.62
486.209	461.62
486.427	467.62
486.645	471.62
486.863	478.62
487.081	487.62
487.299	482.62
487.517	475.62
487.735	458.62
487.953	466.62
488.171	468.62
488.389	457.62
488.607	445.62
488.825	468.62
489.043	449.62
489.261	456.62
489.479	463.62
489.696	480.62
489.914	480.62
490.132	460.62
490.35	467.62
490.568	494.62
490.786	498.62
491.003	486.62
491.221	503.62
491.439	528.62
491.657	502.62
491.874	505.62
492.092	530.62
492.31	532.62
492.527	515.62
492.745	494.62
492.963	528.62
493.18	522.62
493.398	542.62
493.615	539.62
493.833	544.62
494.05	540.62
494.268	536.62
494.485	542.62
494.703	549.62
494.92	530.62
495.138	542.62
495.355	544.62
495.573	541.62
495.79	553.62
496.008	546.62
496.225	542.62
496.442	516.62
496.66	552.62
496.877	563.62
497.094	552.62
497.312	570.62
497.529	588.62
497.746	584.62
497.963	578.62
498.181	570.62
498.398	619.62
498.615	580.62
498.832	611.62
499.049	629.62
499.267	622.62
499.484	650.62
499.701	646.62
499.918	645.62
500.135	734.62
500.352	695.62
500.569	721.62
500.786	745.62
501.003	721.62
501.22	679.62
501.437	671.62
501.654	664.62
501.871	675.62
502.088	650.62
