Data from 1965.PennyLincolnUp.Lamp.En5.5.200Scan.071719.P1._HRD10591_14-10-46-913.txt Node
Date: Thu Jul 18 14:10:46 EDT 2019
User: cochatt
Spectrometer: HR+D1059
Trigger mode: 1
Integration Time (sec): 1.000000E-1
Scans to average: 1
Electric dark correction enabled: true
Nonlinearity correction enabled: false
Boxcar width: 0
XAxis mode: Wavelengths
Number of Pixels in Spectrum: 2048
>>>>>Begin Spectral Data<<<<<
223.165	-7.56
223.4	-7.56
223.635	-7.56
223.869	-2.56
224.104	-10.56
224.338	-9.56
224.573	-30.56
224.808	-13.56
225.042	-8.56
225.277	-2.56
225.511	-8.56
225.746	6.44
225.98	5.44
226.215	-7.56
226.449	16.44
226.683	21.44
226.918	24.44
227.152	27.44
227.387	34.44
227.621	32.44
227.856	51.44
228.09	46.44
228.324	51.44
228.559	65.44
228.793	66.44
229.027	99.44
229.262	101.44
229.496	112.44
229.73	149.44
229.964	147.44
230.199	112.44
230.433	103.44
230.667	118.44
230.901	109.44
231.136	109.44
231.37	104.44
231.604	131.44
231.838	112.44
232.072	117.44
232.306	116.44
232.541	109.44
232.775	109.44
233.009	118.44
233.243	124.44
233.477	108.44
233.711	102.44
233.945	127.44
234.179	131.44
234.413	109.44
234.647	125.44
234.881	105.44
235.115	109.44
235.349	110.44
235.583	117.44
235.817	125.44
236.051	126.44
236.285	148.44
236.519	120.44
236.753	131.44
236.987	136.44
237.221	163.44
237.455	223.44
237.689	184.44
237.922	141.44
238.156	123.44
238.39	128.44
238.624	129.44
238.858	130.44
239.091	126.44
239.325	117.44
239.559	109.44
239.793	109.44
240.027	140.44
240.26	153.44
240.494	145.44
240.728	143.44
240.961	133.44
241.195	127.44
241.429	129.44
241.662	120.44
241.896	127.44
242.13	114.44
242.363	131.44
242.597	130.44
242.83	128.44
243.064	148.44
243.298	139.44
243.531	129.44
243.765	129.44
243.998	125.44
244.232	124.44
244.465	137.44
244.699	145.44
244.932	141.44
245.166	145.44
245.399	140.44
245.633	144.44
245.866	133.44
246.099	143.44
246.333	129.44
246.566	137.44
246.8	141.44
247.033	146.44
247.266	142.44
247.5	157.44
247.733	146.44
247.966	161.44
248.2	170.44
248.433	161.44
248.666	145.44
248.899	162.44
249.133	190.44
249.366	179.44
249.599	201.44
249.832	172.44
250.066	168.44
250.299	165.44
250.532	171.44
250.765	184.44
250.998	197.44
251.231	219.44
251.465	201.44
251.698	184.44
251.931	186.44
252.164	174.44
252.397	178.44
252.63	200.44
252.863	189.44
253.096	203.44
253.329	204.44
253.562	217.44
253.795	200.44
254.028	218.44
254.261	212.44
254.494	201.44
254.727	238.44
254.96	259.44
255.193	264.44
255.426	227.44
255.659	217.44
255.892	221.44
256.124	223.44
256.357	222.44
256.59	203.44
256.823	200.44
257.056	201.44
257.289	201.44
257.521	187.44
257.754	203.44
257.987	201.44
258.22	193.44
258.452	215.44
258.685	194.44
258.918	193.44
259.151	196.44
259.383	196.44
259.616	210.44
259.849	200.44
260.081	233.44
260.314	231.44
260.547	221.44
260.779	220.44
261.012	219.44
261.244	208.44
261.477	218.44
261.71	204.44
261.942	221.44
262.175	224.44
262.407	224.44
262.64	208.44
262.872	206.44
263.105	202.44
263.337	205.44
263.57	206.44
263.802	189.44
264.035	187.44
264.267	203.44
264.499	189.44
264.732	204.44
264.964	207.44
265.197	190.44
265.429	197.44
265.661	201.44
265.894	196.44
266.126	198.44
266.358	196.44
266.591	193.44
266.823	196.44
267.055	213.44
267.287	211.44
267.52	223.44
267.752	194.44
267.984	208.44
268.216	217.44
268.448	209.44
268.681	218.44
268.913	214.44
269.145	241.44
269.377	257.44
269.609	250.44
269.841	245.44
270.073	255.44
270.306	253.44
270.538	283.44
270.77	301.44
271.002	290.44
271.234	275.44
271.466	287.44
271.698	281.44
271.93	313.44
272.162	282.44
272.394	287.44
272.626	275.44
272.858	276.44
273.09	274.44
273.322	274.44
273.553	256.44
273.785	239.44
274.017	240.44
274.249	241.44
274.481	217.44
274.713	239.44
274.945	245.44
275.176	245.44
275.408	252.44
275.64	241.44
275.872	242.44
276.104	236.44
276.335	257.44
276.567	258.44
276.799	275.44
277.031	282.44
277.262	288.44
277.494	272.44
277.726	278.44
277.957	269.44
278.189	253.44
278.421	224.44
278.652	247.44
278.884	265.44
279.115	240.44
279.347	252.44
279.579	234.44
279.81	227.44
280.042	224.44
280.273	255.44
280.505	266.44
280.736	233.44
280.968	227.44
281.199	229.44
281.431	253.44
281.662	245.44
281.894	246.44
282.125	242.44
282.356	254.44
282.588	279.44
282.819	281.44
283.051	265.44
283.282	249.44
283.513	248.44
283.745	262.44
283.976	240.44
284.207	237.44
284.439	254.44
284.67	264.44
284.901	242.44
285.132	255.44
285.364	256.44
285.595	260.44
285.826	227.44
286.057	253.44
286.288	245.44
286.52	263.44
286.751	256.44
286.982	247.44
287.213	257.44
287.444	255.44
287.675	263.44
287.906	247.44
288.138	264.44
288.369	284.44
288.6	277.44
288.831	261.44
289.062	260.44
289.293	285.44
289.524	261.44
289.755	249.44
289.986	263.44
290.217	252.44
290.448	271.44
290.679	251.44
290.91	258.44
291.141	247.44
291.371	254.44
291.602	246.44
291.833	264.44
292.064	268.44
292.295	249.44
292.526	242.44
292.757	273.44
292.987	241.44
293.218	259.44
293.449	252.44
293.68	246.44
293.91	251.44
294.141	266.44
294.372	256.44
294.603	265.44
294.833	262.44
295.064	258.44
295.295	258.44
295.525	265.44
295.756	275.44
295.987	305.44
296.217	318.44
296.448	313.44
296.679	267.44
296.909	271.44
297.14	249.44
297.37	245.44
297.601	278.44
297.831	265.44
298.062	266.44
298.292	271.44
298.523	282.44
298.753	289.44
298.984	273.44
299.214	266.44
299.445	285.44
299.675	289.44
299.905	281.44
300.136	290.44
300.366	268.44
300.597	263.44
300.827	273.44
301.057	291.44
301.288	296.44
301.518	297.44
301.748	282.44
301.979	292.44
302.209	298.44
302.439	306.44
302.669	283.44
302.9	285.44
303.13	299.44
303.36	285.44
303.59	320.44
303.82	329.44
304.051	309.44
304.281	305.44
304.511	300.44
304.741	280.44
304.971	279.44
305.201	310.44
305.431	292.44
305.661	297.44
305.891	300.44
306.121	293.44
306.352	290.44
306.582	305.44
306.812	306.44
307.042	301.44
307.272	286.44
307.502	287.44
307.731	290.44
307.961	293.44
308.191	283.44
308.421	319.44
308.651	282.44
308.881	282.44
309.111	306.44
309.341	314.44
309.571	331.44
309.8	337.44
310.03	338.44
310.26	352.44
310.49	346.44
310.72	355.44
310.949	374.44
311.179	379.44
311.409	369.44
311.639	345.44
311.868	370.44
312.098	326.44
312.328	349.44
312.557	370.44
312.787	355.44
313.017	397.44
313.246	379.44
313.476	344.44
313.706	338.44
313.935	351.44
314.165	362.44
314.394	354.44
314.624	358.44
314.853	354.44
315.083	349.44
315.312	357.44
315.542	344.44
315.771	328.44
316.001	329.44
316.23	357.44
316.46	341.44
316.689	338.44
316.919	359.44
317.148	355.44
317.377	348.44
317.607	342.44
317.836	334.44
318.065	330.44
318.295	336.44
318.524	343.44
318.753	345.44
318.983	357.44
319.212	341.44
319.441	344.44
319.67	373.44
319.9	359.44
320.129	348.44
320.358	358.44
320.587	358.44
320.816	366.44
321.046	375.44
321.275	383.44
321.504	394.44
321.733	361.44
321.962	391.44
322.191	406.44
322.42	418.44
322.649	434.44
322.878	425.44
323.108	441.44
323.337	467.44
323.566	471.44
323.795	510.44
324.024	580.44
324.253	717.44
324.482	1028.44
324.71	1610.44
324.939	2234.44
325.168	1796.44
325.397	972.44
325.626	663.44
325.855	548.44
326.084	505.44
326.313	471.44
326.542	501.44
326.77	533.44
326.999	641.44
327.228	929.44
327.457	1405.44
327.686	1637.44
327.914	1099.44
328.143	719.44
328.372	621.44
328.6	605.44
328.829	554.44
329.058	565.44
329.287	569.44
329.515	529.44
329.744	494.44
329.972	489.44
330.201	504.44
330.43	559.44
330.658	588.44
330.887	596.44
331.115	592.44
331.344	499.44
331.572	477.44
331.801	464.44
332.03	453.44
332.258	436.44
332.486	425.44
332.715	399.44
332.943	407.44
333.172	407.44
333.4	408.44
333.629	438.44
333.857	454.44
334.085	457.44
334.314	450.44
334.542	517.44
334.771	513.44
334.999	476.44
335.227	428.44
335.455	419.44
335.684	387.44
335.912	387.44
336.14	394.44
336.369	399.44
336.597	403.44
336.825	397.44
337.053	399.44
337.281	393.44
337.51	363.44
337.738	396.44
337.966	387.44
338.194	403.44
338.422	419.44
338.65	386.44
338.878	381.44
339.106	382.44
339.334	369.44
339.562	362.44
339.79	390.44
340.018	380.44
340.246	365.44
340.474	382.44
340.702	381.44
340.93	386.44
341.158	379.44
341.386	394.44
341.614	399.44
341.842	361.44
342.07	381.44
342.298	395.44
342.526	374.44
342.754	373.44
342.981	370.44
343.209	378.44
343.437	390.44
343.665	368.44
343.893	385.44
344.12	381.44
344.348	392.44
344.576	395.44
344.804	378.44
345.031	391.44
345.259	403.44
345.487	392.44
345.714	379.44
345.942	402.44
346.17	379.44
346.397	377.44
346.625	365.44
346.853	375.44
347.08	362.44
347.308	362.44
347.535	382.44
347.763	364.44
347.99	405.44
348.218	395.44
348.445	402.44
348.673	398.44
348.9	383.44
349.128	366.44
349.355	359.44
349.583	351.44
349.81	335.44
350.037	343.44
350.265	368.44
350.492	363.44
350.72	366.44
350.947	385.44
351.174	393.44
351.402	388.44
351.629	383.44
351.856	382.44
352.083	396.44
352.311	400.44
352.538	402.44
352.765	416.44
352.992	395.44
353.22	366.44
353.447	380.44
353.674	371.44
353.901	350.44
354.128	369.44
354.355	350.44
354.583	361.44
354.81	359.44
355.037	361.44
355.264	361.44
355.491	340.44
355.718	364.44
355.945	346.44
356.172	346.44
356.399	340.44
356.626	350.44
356.853	341.44
357.08	327.44
357.307	335.44
357.534	348.44
357.761	354.44
357.988	352.44
358.215	347.44
358.441	349.44
358.668	335.44
358.895	354.44
359.122	368.44
359.349	371.44
359.576	365.44
359.802	393.44
360.029	448.44
360.256	456.44
360.483	419.44
360.709	377.44
360.936	373.44
361.163	370.44
361.39	387.44
361.616	403.44
361.843	387.44
362.07	366.44
362.296	392.44
362.523	361.44
362.749	366.44
362.976	373.44
363.203	357.44
363.429	360.44
363.656	356.44
363.882	349.44
364.109	348.44
364.335	362.44
364.562	368.44
364.788	368.44
365.015	369.44
365.241	347.44
365.468	355.44
365.694	361.44
365.92	374.44
366.147	352.44
366.373	341.44
366.599	349.44
366.826	361.44
367.052	362.44
367.278	338.44
367.505	348.44
367.731	360.44
367.957	360.44
368.184	336.44
368.41	349.44
368.636	367.44
368.862	361.44
369.089	366.44
369.315	361.44
369.541	363.44
369.767	362.44
369.993	358.44
370.219	343.44
370.445	357.44
370.672	360.44
370.898	346.44
371.124	349.44
371.35	342.44
371.576	353.44
371.802	340.44
372.028	334.44
372.254	337.44
372.48	343.44
372.706	346.44
372.932	338.44
373.158	340.44
373.384	339.44
373.61	347.44
373.835	350.44
374.061	358.44
374.287	353.44
374.513	360.44
374.739	356.44
374.965	352.44
375.191	339.44
375.416	349.44
375.642	359.44
375.868	366.44
376.094	344.44
376.319	335.44
376.545	344.44
376.771	363.44
376.997	350.44
377.222	339.44
377.448	360.44
377.674	335.44
377.899	340.44
378.125	337.44
378.35	345.44
378.576	346.44
378.802	344.44
379.027	361.44
379.253	334.44
379.478	323.44
379.704	338.44
379.929	376.44
380.155	363.44
380.38	326.44
380.606	342.44
380.831	358.44
381.057	360.44
381.282	330.44
381.507	352.44
381.733	352.44
381.958	347.44
382.184	360.44
382.409	357.44
382.634	329.44
382.86	355.44
383.085	334.44
383.31	341.44
383.535	360.44
383.761	347.44
383.986	343.44
384.211	350.44
384.436	384.44
384.662	373.44
384.887	373.44
385.112	362.44
385.337	377.44
385.562	340.44
385.787	381.44
386.013	387.44
386.238	381.44
386.463	366.44
386.688	381.44
386.913	361.44
387.138	352.44
387.363	393.44
387.588	352.44
387.813	358.44
388.038	393.44
388.263	359.44
388.488	357.44
388.713	370.44
388.938	375.44
389.163	366.44
389.387	359.44
389.612	356.44
389.837	357.44
390.062	373.44
390.287	389.44
390.512	373.44
390.736	379.44
390.961	374.44
391.186	361.44
391.411	379.44
391.636	375.44
391.86	368.44
392.085	375.44
392.31	362.44
392.534	379.44
392.759	364.44
392.984	377.44
393.208	373.44
393.433	370.44
393.658	371.44
393.882	365.44
394.107	375.44
394.331	371.44
394.556	387.44
394.78	358.44
395.005	353.44
395.229	376.44
395.454	387.44
395.678	362.44
395.903	391.44
396.127	411.44
396.352	410.44
396.576	391.44
396.801	377.44
397.025	392.44
397.249	368.44
397.474	393.44
397.698	379.44
397.922	413.44
398.147	405.44
398.371	402.44
398.595	416.44
398.82	416.44
399.044	423.44
399.268	423.44
399.492	427.44
399.717	450.44
399.941	456.44
400.165	495.44
400.389	515.44
400.613	451.44
400.837	439.44
401.062	433.44
401.286	424.44
401.51	432.44
401.734	420.44
401.958	415.44
402.182	418.44
402.406	432.44
402.63	423.44
402.854	422.44
403.078	414.44
403.302	412.44
403.526	428.44
403.75	433.44
403.974	429.44
404.198	444.44
404.422	427.44
404.645	444.44
404.869	461.44
405.093	485.44
405.317	523.44
405.541	562.44
405.765	475.44
405.988	471.44
406.212	483.44
406.436	486.44
406.66	499.44
406.883	483.44
407.107	480.44
407.331	516.44
407.555	568.44
407.778	566.44
408.002	529.44
408.226	486.44
408.449	471.44
408.673	489.44
408.896	508.44
409.12	516.44
409.344	493.44
409.567	474.44
409.791	437.44
410.014	432.44
410.238	423.44
410.461	427.44
410.685	461.44
410.908	447.44
411.132	479.44
411.355	502.44
411.578	481.44
411.802	445.44
412.025	439.44
412.249	433.44
412.472	471.44
412.695	508.44
412.919	475.44
413.142	453.44
413.365	450.44
413.589	437.44
413.812	416.44
414.035	419.44
414.258	403.44
414.482	429.44
414.705	416.44
414.928	401.44
415.151	409.44
415.374	405.44
415.597	402.44
415.821	409.44
416.044	404.44
416.267	409.44
416.49	399.44
416.713	402.44
416.936	407.44
417.159	421.44
417.382	426.44
417.605	418.44
417.828	435.44
418.051	433.44
418.274	418.44
418.497	413.44
418.72	402.44
418.943	416.44
419.166	420.44
419.389	445.44
419.611	446.44
419.834	443.44
420.057	427.44
420.28	424.44
420.503	436.44
420.726	439.44
420.948	463.44
421.171	481.44
421.394	519.44
421.617	452.44
421.839	446.44
422.062	426.44
422.285	453.44
422.507	494.44
422.73	563.44
422.953	535.44
423.175	462.44
423.398	449.44
423.621	431.44
423.843	462.44
424.066	463.44
424.288	470.44
424.511	488.44
424.733	547.44
424.956	603.44
425.178	569.44
425.401	593.44
425.623	595.44
425.846	483.44
426.068	474.44
426.291	485.44
426.513	481.44
426.735	489.44
426.958	492.44
427.18	560.44
427.402	678.44
427.625	764.44
427.847	703.44
428.069	602.44
428.292	540.44
428.514	472.44
428.736	468.44
428.958	459.44
429.181	446.44
429.403	437.44
429.625	469.44
429.847	480.44
430.069	531.44
430.292	536.44
430.514	445.44
430.736	429.44
430.958	427.44
431.18	417.44
431.402	429.44
431.624	406.44
431.846	411.44
432.068	411.44
432.29	400.44
432.512	419.44
432.734	422.44
432.956	419.44
433.178	409.44
433.4	437.44
433.622	438.44
433.844	396.44
434.066	443.44
434.287	420.44
434.509	424.44
434.731	445.44
434.953	440.44
435.175	427.44
435.397	473.44
435.618	486.44
435.84	532.44
436.062	595.44
436.284	644.44
436.505	530.44
436.727	497.44
436.949	478.44
437.17	425.44
437.392	429.44
437.614	468.44
437.835	494.44
438.057	614.44
438.278	685.44
438.5	659.44
438.721	707.44
438.943	652.44
439.165	532.44
439.386	510.44
439.608	503.44
439.829	465.44
440.05	521.44
440.272	553.44
440.493	511.44
440.715	471.44
440.936	458.44
441.158	461.44
441.379	458.44
441.6	439.44
441.822	475.44
442.043	498.44
442.264	585.44
442.486	601.44
442.707	526.44
442.928	518.44
443.149	490.44
443.371	505.44
443.592	559.44
443.813	641.44
444.034	672.44
444.255	567.44
444.476	508.44
444.698	482.44
444.919	480.44
445.14	570.44
445.361	538.44
445.582	515.44
445.803	593.44
446.024	675.44
446.245	687.44
446.466	623.44
446.687	516.44
446.908	489.44
447.129	482.44
447.35	448.44
447.571	442.44
447.792	454.44
448.013	469.44
448.234	466.44
448.455	509.44
448.675	607.44
448.896	696.44
449.117	591.44
449.338	573.44
449.559	654.44
449.779	707.44
450	595.44
450.221	504.44
450.442	476.44
450.662	451.44
450.883	441.44
451.104	449.44
451.324	457.44
451.545	421.44
451.766	435.44
451.986	423.44
452.207	393.44
452.428	407.44
452.648	416.44
452.869	399.44
453.089	423.44
453.31	414.44
453.53	410.44
453.751	391.44
453.971	388.44
454.192	432.44
454.412	417.44
454.633	414.44
454.853	393.44
455.073	405.44
455.294	425.44
455.514	490.44
455.734	475.44
455.955	396.44
456.175	387.44
456.395	367.44
456.616	376.44
456.836	373.44
457.056	352.44
457.276	362.44
457.497	387.44
457.717	379.44
457.937	375.44
458.157	398.44
458.377	395.44
458.598	442.44
458.818	494.44
459.038	576.44
459.258	573.44
459.478	464.44
459.698	432.44
459.918	407.44
460.138	398.44
460.358	403.44
460.578	417.44
460.798	431.44
461.018	412.44
461.238	401.44
461.458	417.44
461.678	430.44
461.898	415.44
462.118	413.44
462.338	427.44
462.558	409.44
462.777	423.44
462.997	430.44
463.217	410.44
463.437	428.44
463.657	429.44
463.876	444.44
464.096	434.44
464.316	458.44
464.536	441.44
464.755	446.44
464.975	456.44
465.195	487.44
465.414	590.44
465.634	514.44
465.854	472.44
466.073	426.44
466.293	395.44
466.512	410.44
466.732	400.44
466.951	413.44
467.171	383.44
467.391	399.44
467.61	424.44
467.829	422.44
468.049	404.44
468.268	433.44
468.488	421.44
468.707	416.44
468.927	397.44
469.146	391.44
469.365	386.44
469.585	392.44
469.804	409.44
470.023	433.44
470.243	422.44
470.462	415.44
470.681	466.44
470.901	433.44
471.12	425.44
471.339	410.44
471.558	428.44
471.777	419.44
471.997	406.44
472.216	424.44
472.435	460.44
472.654	430.44
472.873	393.44
473.092	421.44
473.311	413.44
473.53	434.44
473.749	431.44
473.968	472.44
474.187	547.44
474.406	550.44
474.625	475.44
474.844	440.44
475.063	413.44
475.282	425.44
475.501	413.44
475.72	458.44
475.939	447.44
476.158	439.44
476.377	431.44
476.596	434.44
476.814	463.44
477.033	467.44
477.252	438.44
477.471	429.44
477.69	421.44
477.908	454.44
478.127	450.44
478.346	451.44
478.564	449.44
478.783	446.44
479.002	472.44
479.22	476.44
479.439	486.44
479.658	499.44
479.876	504.44
480.095	501.44
480.313	529.44
480.532	519.44
480.751	498.44
480.969	536.44
481.188	609.44
481.406	604.44
481.624	549.44
481.843	507.44
482.061	503.44
482.28	514.44
482.498	479.44
482.717	477.44
482.935	465.44
483.153	492.44
483.372	493.44
483.59	466.44
483.808	488.44
484.027	481.44
484.245	493.44
484.463	471.44
484.681	484.44
484.9	483.44
485.118	494.44
485.336	501.44
485.554	519.44
485.772	498.44
485.99	482.44
486.209	514.44
486.427	499.44
486.645	523.44
486.863	549.44
487.081	526.44
487.299	523.44
487.517	542.44
487.735	554.44
487.953	525.44
488.171	501.44
488.389	522.44
488.607	514.44
488.825	526.44
489.043	533.44
489.261	531.44
489.479	530.44
489.696	541.44
489.914	525.44
490.132	546.44
490.35	531.44
490.568	556.44
490.786	558.44
491.003	545.44
491.221	569.44
491.439	573.44
491.657	578.44
491.874	585.44
492.092	625.44
492.31	602.44
492.527	621.44
492.745	591.44
492.963	601.44
493.18	601.44
493.398	613.44
493.615	620.44
493.833	629.44
494.05	620.44
494.268	592.44
494.485	608.44
494.703	622.44
494.92	637.44
495.138	598.44
495.355	629.44
495.573	629.44
495.79	627.44
496.008	616.44
496.225	601.44
496.442	619.44
496.66	635.44
496.877	597.44
497.094	621.44
497.312	607.44
497.529	651.44
497.746	643.44
497.963	658.44
498.181	669.44
498.398	655.44
498.615	673.44
498.832	691.44
499.049	659.44
499.267	685.44
499.484	670.44
499.701	703.44
499.918	701.44
500.135	721.44
500.352	754.44
500.569	766.44
500.786	779.44
501.003	769.44
501.22	768.44
501.437	736.44
501.654	746.44
501.871	729.44
