Data from 1965.PennyLincolnUp.Lamp.En5.5.200Scan.071719.P1._HRD10591_14-08-12-910.txt Node
Date: Thu Jul 18 14:08:12 EDT 2019
User: cochatt
Spectrometer: HR+D1059
Trigger mode: 1
Integration Time (sec): 1.000000E-1
Scans to average: 1
Electric dark correction enabled: true
Nonlinearity correction enabled: false
Boxcar width: 0
XAxis mode: Wavelengths
Number of Pixels in Spectrum: 2048
>>>>>Begin Spectral Data<<<<<
223.165	-19.25
223.4	-19.25
223.635	-19.25
223.869	-11.25
224.104	-11.25
224.338	-11.25
224.573	-20.25
224.808	-1.25
225.042	-6.25
225.277	-0.25
225.511	-8.25
225.746	2.75
225.98	3.75
226.215	-1.25
226.449	-3.25
226.683	25.75
226.918	38.75
227.152	22.75
227.387	31.75
227.621	35.75
227.856	47.75
228.09	46.75
228.324	57.75
228.559	57.75
228.793	60.75
229.027	85.75
229.262	107.75
229.496	103.75
229.73	128.75
229.964	131.75
230.199	115.75
230.433	105.75
230.667	95.75
230.901	96.75
231.136	101.75
231.37	104.75
231.604	104.75
231.838	109.75
232.072	108.75
232.306	105.75
232.541	107.75
232.775	104.75
233.009	101.75
233.243	89.75
233.477	91.75
233.711	105.75
233.945	118.75
234.179	115.75
234.413	119.75
234.647	118.75
234.881	100.75
235.115	109.75
235.349	110.75
235.583	115.75
235.817	111.75
236.051	111.75
236.285	94.75
236.519	110.75
236.753	128.75
236.987	123.75
237.221	160.75
237.455	204.75
237.689	179.75
237.922	111.75
238.156	115.75
238.39	107.75
238.624	109.75
238.858	106.75
239.091	113.75
239.325	102.75
239.559	127.75
239.793	120.75
240.027	112.75
240.26	113.75
240.494	133.75
240.728	137.75
240.961	115.75
241.195	128.75
241.429	131.75
241.662	125.75
241.896	118.75
242.13	125.75
242.363	120.75
242.597	121.75
242.83	125.75
243.064	126.75
243.298	109.75
243.531	127.75
243.765	117.75
243.998	130.75
244.232	127.75
244.465	122.75
244.699	142.75
244.932	139.75
245.166	111.75
245.399	120.75
245.633	129.75
245.866	132.75
246.099	121.75
246.333	134.75
246.566	143.75
246.8	125.75
247.033	131.75
247.266	127.75
247.5	133.75
247.733	150.75
247.966	157.75
248.2	152.75
248.433	149.75
248.666	150.75
248.899	157.75
249.133	168.75
249.366	174.75
249.599	170.75
249.832	165.75
250.066	163.75
250.299	141.75
250.532	170.75
250.765	167.75
250.998	168.75
251.231	190.75
251.465	172.75
251.698	170.75
251.931	155.75
252.164	170.75
252.397	163.75
252.63	164.75
252.863	173.75
253.096	192.75
253.329	189.75
253.562	194.75
253.795	166.75
254.028	179.75
254.261	196.75
254.494	201.75
254.727	208.75
254.96	219.75
255.193	220.75
255.426	184.75
255.659	198.75
255.892	180.75
256.124	183.75
256.357	183.75
256.59	185.75
256.823	179.75
257.056	186.75
257.289	191.75
257.521	175.75
257.754	172.75
257.987	174.75
258.22	173.75
258.452	174.75
258.685	176.75
258.918	169.75
259.151	181.75
259.383	179.75
259.616	190.75
259.849	203.75
260.081	185.75
260.314	202.75
260.547	215.75
260.779	204.75
261.012	201.75
261.244	204.75
261.477	185.75
261.71	175.75
261.942	185.75
262.175	183.75
262.407	187.75
262.64	185.75
262.872	189.75
263.105	175.75
263.337	174.75
263.57	183.75
263.802	189.75
264.035	181.75
264.267	187.75
264.499	173.75
264.732	170.75
264.964	180.75
265.197	164.75
265.429	173.75
265.661	177.75
265.894	176.75
266.126	192.75
266.358	196.75
266.591	184.75
266.823	188.75
267.055	169.75
267.287	190.75
267.52	191.75
267.752	190.75
267.984	183.75
268.216	185.75
268.448	175.75
268.681	181.75
268.913	206.75
269.145	205.75
269.377	216.75
269.609	209.75
269.841	220.75
270.073	225.75
270.306	223.75
270.538	252.75
270.77	230.75
271.002	249.75
271.234	236.75
271.466	263.75
271.698	271.75
271.93	235.75
272.162	230.75
272.394	261.75
272.626	234.75
272.858	232.75
273.09	223.75
273.322	226.75
273.553	218.75
273.785	216.75
274.017	220.75
274.249	222.75
274.481	217.75
274.713	224.75
274.945	216.75
275.176	219.75
275.408	201.75
275.64	221.75
275.872	216.75
276.104	213.75
276.335	223.75
276.567	221.75
276.799	232.75
277.031	259.75
277.262	244.75
277.494	246.75
277.726	251.75
277.957	230.75
278.189	224.75
278.421	218.75
278.652	211.75
278.884	216.75
279.115	198.75
279.347	221.75
279.579	201.75
279.81	198.75
280.042	211.75
280.273	228.75
280.505	218.75
280.736	217.75
280.968	215.75
281.199	223.75
281.431	214.75
281.662	229.75
281.894	212.75
282.125	226.75
282.356	227.75
282.588	260.75
282.819	247.75
283.051	239.75
283.282	230.75
283.513	227.75
283.745	230.75
283.976	228.75
284.207	234.75
284.439	224.75
284.67	225.75
284.901	247.75
285.132	230.75
285.364	218.75
285.595	225.75
285.826	219.75
286.057	224.75
286.288	205.75
286.52	237.75
286.751	225.75
286.982	225.75
287.213	216.75
287.444	225.75
287.675	233.75
287.906	252.75
288.138	261.75
288.369	241.75
288.6	220.75
288.831	243.75
289.062	248.75
289.293	238.75
289.524	236.75
289.755	232.75
289.986	234.75
290.217	240.75
290.448	222.75
290.679	216.75
290.91	224.75
291.141	212.75
291.371	230.75
291.602	245.75
291.833	240.75
292.064	247.75
292.295	243.75
292.526	226.75
292.757	227.75
292.987	240.75
293.218	235.75
293.449	231.75
293.68	245.75
293.91	244.75
294.141	235.75
294.372	237.75
294.603	237.75
294.833	261.75
295.064	239.75
295.295	222.75
295.525	246.75
295.756	237.75
295.987	252.75
296.217	261.75
296.448	271.75
296.679	241.75
296.909	244.75
297.14	238.75
297.37	242.75
297.601	247.75
297.831	233.75
298.062	240.75
298.292	274.75
298.523	216.75
298.753	248.75
298.984	252.75
299.214	252.75
299.445	271.75
299.675	246.75
299.905	233.75
300.136	245.75
300.366	243.75
300.597	261.75
300.827	269.75
301.057	254.75
301.288	270.75
301.518	256.75
301.748	259.75
301.979	245.75
302.209	271.75
302.439	272.75
302.669	262.75
302.9	288.75
303.13	280.75
303.36	267.75
303.59	274.75
303.82	268.75
304.051	281.75
304.281	266.75
304.511	271.75
304.741	273.75
304.971	259.75
305.201	289.75
305.431	253.75
305.661	271.75
305.891	272.75
306.121	270.75
306.352	283.75
306.582	271.75
306.812	287.75
307.042	270.75
307.272	261.75
307.502	279.75
307.731	268.75
307.961	271.75
308.191	293.75
308.421	258.75
308.651	274.75
308.881	280.75
309.111	292.75
309.341	280.75
309.571	291.75
309.8	292.75
310.03	292.75
310.26	310.75
310.49	299.75
310.72	311.75
310.949	317.75
311.179	313.75
311.409	312.75
311.639	299.75
311.868	299.75
312.098	301.75
312.328	302.75
312.557	327.75
312.787	341.75
313.017	345.75
313.246	316.75
313.476	293.75
313.706	299.75
313.935	304.75
314.165	313.75
314.394	322.75
314.624	327.75
314.853	320.75
315.083	311.75
315.312	313.75
315.542	314.75
315.771	287.75
316.001	309.75
316.23	300.75
316.46	304.75
316.689	312.75
316.919	307.75
317.148	314.75
317.377	313.75
317.607	299.75
317.836	300.75
318.065	310.75
318.295	313.75
318.524	331.75
318.753	315.75
318.983	305.75
319.212	302.75
319.441	322.75
319.67	314.75
319.9	302.75
320.129	342.75
320.358	308.75
320.587	322.75
320.816	338.75
321.046	320.75
321.275	331.75
321.504	320.75
321.733	328.75
321.962	326.75
322.191	334.75
322.42	355.75
322.649	360.75
322.878	364.75
323.108	376.75
323.337	391.75
323.566	412.75
323.795	446.75
324.024	476.75
324.253	568.75
324.482	811.75
324.71	1217.75
324.939	1685.75
325.168	1430.75
325.397	775.75
325.626	542.75
325.855	435.75
326.084	427.75
326.313	417.75
326.542	417.75
326.77	469.75
326.999	521.75
327.228	738.75
327.457	1059.75
327.686	1252.75
327.914	863.75
328.143	598.75
328.372	522.75
328.6	491.75
328.829	458.75
329.058	450.75
329.287	476.75
329.515	436.75
329.744	432.75
329.972	397.75
330.201	401.75
330.43	455.75
330.658	460.75
330.887	505.75
331.115	485.75
331.344	415.75
331.572	398.75
331.801	407.75
332.03	401.75
332.258	396.75
332.486	373.75
332.715	368.75
332.943	372.75
333.172	362.75
333.4	353.75
333.629	366.75
333.857	381.75
334.085	389.75
334.314	403.75
334.542	419.75
334.771	439.75
334.999	407.75
335.227	372.75
335.455	373.75
335.684	373.75
335.912	376.75
336.14	379.75
336.369	351.75
336.597	368.75
336.825	373.75
337.053	341.75
337.281	331.75
337.51	363.75
337.738	371.75
337.966	364.75
338.194	358.75
338.422	357.75
338.65	351.75
338.878	353.75
339.106	343.75
339.334	356.75
339.562	342.75
339.79	355.75
340.018	352.75
340.246	352.75
340.474	357.75
340.702	355.75
340.93	322.75
341.158	334.75
341.386	337.75
341.614	351.75
341.842	351.75
342.07	342.75
342.298	318.75
342.526	353.75
342.754	329.75
342.981	337.75
343.209	339.75
343.437	361.75
343.665	355.75
343.893	357.75
344.12	338.75
344.348	364.75
344.576	362.75
344.804	370.75
345.031	347.75
345.259	358.75
345.487	354.75
345.714	341.75
345.942	350.75
346.17	349.75
346.397	328.75
346.625	361.75
346.853	335.75
347.08	341.75
347.308	341.75
347.535	332.75
347.763	336.75
347.99	352.75
348.218	361.75
348.445	344.75
348.673	337.75
348.9	339.75
349.128	345.75
349.355	329.75
349.583	329.75
349.81	326.75
350.037	320.75
350.265	325.75
350.492	323.75
350.72	336.75
350.947	346.75
351.174	356.75
351.402	347.75
351.629	329.75
351.856	352.75
352.083	352.75
352.311	362.75
352.538	358.75
352.765	361.75
352.992	343.75
353.22	334.75
353.447	329.75
353.674	320.75
353.901	324.75
354.128	309.75
354.355	319.75
354.583	297.75
354.81	301.75
355.037	335.75
355.264	321.75
355.491	313.75
355.718	304.75
355.945	302.75
356.172	316.75
356.399	317.75
356.626	320.75
356.853	321.75
357.08	323.75
357.307	331.75
357.534	301.75
357.761	327.75
357.988	312.75
358.215	298.75
358.441	316.75
358.668	321.75
358.895	338.75
359.122	328.75
359.349	336.75
359.576	351.75
359.802	366.75
360.029	369.75
360.256	395.75
360.483	381.75
360.709	335.75
360.936	315.75
361.163	328.75
361.39	356.75
361.616	346.75
361.843	318.75
362.07	341.75
362.296	343.75
362.523	348.75
362.749	336.75
362.976	343.75
363.203	338.75
363.429	309.75
363.656	337.75
363.882	325.75
364.109	326.75
364.335	326.75
364.562	332.75
364.788	341.75
365.015	326.75
365.241	308.75
365.468	312.75
365.694	344.75
365.92	324.75
366.147	325.75
366.373	341.75
366.599	323.75
366.826	330.75
367.052	322.75
367.278	323.75
367.505	303.75
367.731	295.75
367.957	319.75
368.184	325.75
368.41	334.75
368.636	367.75
368.862	329.75
369.089	329.75
369.315	344.75
369.541	311.75
369.767	320.75
369.993	314.75
370.219	317.75
370.445	340.75
370.672	333.75
370.898	333.75
371.124	328.75
371.35	324.75
371.576	324.75
371.802	324.75
372.028	312.75
372.254	313.75
372.48	326.75
372.706	341.75
372.932	335.75
373.158	300.75
373.384	334.75
373.61	320.75
373.835	314.75
374.061	312.75
374.287	332.75
374.513	339.75
374.739	328.75
374.965	331.75
375.191	331.75
375.416	333.75
375.642	327.75
375.868	318.75
376.094	320.75
376.319	336.75
376.545	318.75
376.771	331.75
376.997	349.75
377.222	338.75
377.448	302.75
377.674	323.75
377.899	325.75
378.125	328.75
378.35	337.75
378.576	320.75
378.802	315.75
379.027	304.75
379.253	328.75
379.478	321.75
379.704	307.75
379.929	327.75
380.155	334.75
380.38	328.75
380.606	331.75
380.831	333.75
381.057	335.75
381.282	320.75
381.507	317.75
381.733	316.75
381.958	320.75
382.184	312.75
382.409	320.75
382.634	325.75
382.86	327.75
383.085	334.75
383.31	336.75
383.535	327.75
383.761	337.75
383.986	342.75
384.211	333.75
384.436	333.75
384.662	344.75
384.887	331.75
385.112	355.75
385.337	346.75
385.562	352.75
385.787	340.75
386.013	359.75
386.238	354.75
386.463	355.75
386.688	343.75
386.913	346.75
387.138	340.75
387.363	352.75
387.588	344.75
387.813	328.75
388.038	349.75
388.263	342.75
388.488	332.75
388.713	360.75
388.938	343.75
389.163	355.75
389.387	327.75
389.612	326.75
389.837	351.75
390.062	348.75
390.287	344.75
390.512	330.75
390.736	330.75
390.961	342.75
391.186	356.75
391.411	347.75
391.636	375.75
391.86	350.75
392.085	351.75
392.31	347.75
392.534	347.75
392.759	343.75
392.984	360.75
393.208	335.75
393.433	359.75
393.658	365.75
393.882	355.75
394.107	344.75
394.331	350.75
394.556	336.75
394.78	338.75
395.005	353.75
395.229	355.75
395.454	355.75
395.678	367.75
395.903	381.75
396.127	398.75
396.352	384.75
396.576	366.75
396.801	377.75
397.025	356.75
397.249	363.75
397.474	372.75
397.698	355.75
397.922	377.75
398.147	383.75
398.371	379.75
398.595	365.75
398.82	391.75
399.044	380.75
399.268	417.75
399.492	409.75
399.717	421.75
399.941	454.75
400.165	474.75
400.389	463.75
400.613	453.75
400.837	432.75
401.062	402.75
401.286	412.75
401.51	411.75
401.734	402.75
401.958	408.75
402.182	422.75
402.406	396.75
402.63	425.75
402.854	406.75
403.078	399.75
403.302	403.75
403.526	414.75
403.75	409.75
403.974	399.75
404.198	420.75
404.422	421.75
404.645	419.75
404.869	429.75
405.093	420.75
405.317	464.75
405.541	484.75
405.765	472.75
405.988	426.75
406.212	452.75
406.436	442.75
406.66	466.75
406.883	430.75
407.107	456.75
407.331	457.75
407.555	513.75
407.778	521.75
408.002	477.75
408.226	455.75
408.449	451.75
408.673	449.75
408.896	452.75
409.12	479.75
409.344	459.75
409.567	439.75
409.791	419.75
410.014	396.75
410.238	398.75
410.461	398.75
410.685	383.75
410.908	413.75
411.132	439.75
411.355	494.75
411.578	441.75
411.802	423.75
412.025	413.75
412.249	426.75
412.472	412.75
412.695	464.75
412.919	431.75
413.142	402.75
413.365	379.75
413.589	383.75
413.812	396.75
414.035	379.75
414.258	381.75
414.482	395.75
414.705	385.75
414.928	377.75
415.151	371.75
415.374	388.75
415.597	378.75
415.821	380.75
416.044	381.75
416.267	378.75
416.49	391.75
416.713	388.75
416.936	392.75
417.159	361.75
417.382	393.75
417.605	377.75
417.828	415.75
418.051	409.75
418.274	390.75
418.497	383.75
418.72	375.75
418.943	393.75
419.166	399.75
419.389	436.75
419.611	403.75
419.834	428.75
420.057	400.75
420.28	400.75
420.503	380.75
420.726	396.75
420.948	414.75
421.171	453.75
421.394	469.75
421.617	411.75
421.839	396.75
422.062	408.75
422.285	425.75
422.507	465.75
422.73	504.75
422.953	496.75
423.175	436.75
423.398	422.75
423.621	414.75
423.843	427.75
424.066	436.75
424.288	448.75
424.511	421.75
424.733	476.75
424.956	555.75
425.178	534.75
425.401	521.75
425.623	545.75
425.846	473.75
426.068	454.75
426.291	445.75
426.513	439.75
426.735	441.75
426.958	476.75
427.18	519.75
427.402	622.75
427.625	667.75
427.847	622.75
428.069	515.75
428.292	467.75
428.514	442.75
428.736	412.75
428.958	420.75
429.181	396.75
429.403	417.75
429.625	415.75
429.847	438.75
430.069	472.75
430.292	479.75
430.514	437.75
430.736	411.75
430.958	412.75
431.18	384.75
431.402	373.75
431.624	391.75
431.846	375.75
432.068	372.75
432.29	372.75
432.512	401.75
432.734	409.75
432.956	393.75
433.178	403.75
433.4	421.75
433.622	379.75
433.844	391.75
434.066	389.75
434.287	372.75
434.509	419.75
434.731	393.75
434.953	438.75
435.175	416.75
435.397	435.75
435.618	430.75
435.84	477.75
436.062	529.75
436.284	573.75
436.505	488.75
436.727	405.75
436.949	423.75
437.17	419.75
437.392	424.75
437.614	414.75
437.835	462.75
438.057	514.75
438.278	611.75
438.5	561.75
438.721	621.75
438.943	601.75
439.165	501.75
439.386	471.75
439.608	444.75
439.829	453.75
440.05	448.75
440.272	493.75
440.493	475.75
440.715	452.75
440.936	445.75
441.158	405.75
441.379	417.75
441.6	440.75
441.822	428.75
442.043	456.75
442.264	556.75
442.486	560.75
442.707	476.75
442.928	439.75
443.149	450.75
443.371	471.75
443.592	500.75
443.813	565.75
444.034	606.75
444.255	521.75
444.476	470.75
444.698	453.75
444.919	452.75
445.14	508.75
445.361	484.75
445.582	444.75
445.803	535.75
446.024	612.75
446.245	603.75
446.466	543.75
446.687	464.75
446.908	423.75
447.129	412.75
447.35	431.75
447.571	411.75
447.792	404.75
448.013	383.75
448.234	436.75
448.455	473.75
448.675	550.75
448.896	636.75
449.117	541.75
449.338	528.75
449.559	592.75
449.779	650.75
450	549.75
450.221	462.75
450.442	424.75
450.662	414.75
450.883	412.75
451.104	401.75
451.324	413.75
451.545	384.75
451.766	377.75
451.986	361.75
452.207	360.75
452.428	359.75
452.648	380.75
452.869	378.75
453.089	366.75
453.31	379.75
453.53	373.75
453.751	369.75
453.971	357.75
454.192	386.75
454.412	389.75
454.633	372.75
454.853	366.75
455.073	351.75
455.294	385.75
455.514	433.75
455.734	402.75
455.955	373.75
456.175	364.75
456.395	344.75
456.616	357.75
456.836	359.75
457.056	345.75
457.276	353.75
457.497	347.75
457.717	350.75
457.937	355.75
458.157	353.75
458.377	357.75
458.598	401.75
458.818	429.75
459.038	492.75
459.258	486.75
459.478	413.75
459.698	402.75
459.918	380.75
460.138	394.75
460.358	391.75
460.578	381.75
460.798	392.75
461.018	385.75
461.238	383.75
461.458	390.75
461.678	399.75
461.898	388.75
462.118	372.75
462.338	383.75
462.558	416.75
462.777	414.75
462.997	412.75
463.217	404.75
463.437	417.75
463.657	419.75
463.876	413.75
464.096	407.75
464.316	408.75
464.536	410.75
464.755	409.75
464.975	421.75
465.195	439.75
465.414	517.75
465.634	457.75
465.854	426.75
466.073	375.75
466.293	386.75
466.512	398.75
466.732	405.75
466.951	381.75
467.171	372.75
467.391	387.75
467.61	389.75
467.829	392.75
468.049	389.75
468.268	389.75
468.488	375.75
468.707	361.75
468.927	377.75
469.146	377.75
469.365	375.75
469.585	367.75
469.804	375.75
470.023	395.75
470.243	394.75
470.462	401.75
470.681	413.75
470.901	388.75
471.12	407.75
471.339	383.75
471.558	383.75
471.777	391.75
471.997	400.75
472.216	399.75
472.435	411.75
472.654	390.75
472.873	391.75
473.092	399.75
473.311	383.75
473.53	387.75
473.749	392.75
473.968	432.75
474.187	490.75
474.406	515.75
474.625	441.75
474.844	411.75
475.063	395.75
475.282	369.75
475.501	398.75
475.72	382.75
475.939	378.75
476.158	385.75
476.377	390.75
476.596	413.75
476.814	415.75
477.033	408.75
477.252	401.75
477.471	416.75
477.69	405.75
477.908	413.75
478.127	422.75
478.346	413.75
478.564	424.75
478.783	403.75
479.002	422.75
479.22	435.75
479.439	433.75
479.658	467.75
479.876	444.75
480.095	456.75
480.313	466.75
480.532	486.75
480.751	478.75
480.969	499.75
481.188	530.75
481.406	535.75
481.624	477.75
481.843	463.75
482.061	451.75
482.28	470.75
482.498	447.75
482.717	452.75
482.935	445.75
483.153	454.75
483.372	439.75
483.59	443.75
483.808	429.75
484.027	452.75
484.245	437.75
484.463	471.75
484.681	438.75
484.9	463.75
485.118	459.75
485.336	464.75
485.554	463.75
485.772	451.75
485.99	449.75
486.209	464.75
486.427	453.75
486.645	488.75
486.863	479.75
487.081	476.75
487.299	485.75
487.517	492.75
487.735	477.75
487.953	479.75
488.171	489.75
488.389	492.75
488.607	505.75
488.825	488.75
489.043	472.75
489.261	500.75
489.479	481.75
489.696	492.75
489.914	494.75
490.132	521.75
490.35	517.75
490.568	487.75
490.786	502.75
491.003	521.75
491.221	525.75
491.439	535.75
491.657	529.75
491.874	527.75
492.092	543.75
492.31	557.75
492.527	543.75
492.745	528.75
492.963	546.75
493.18	554.75
493.398	563.75
493.615	549.75
493.833	550.75
494.05	549.75
494.268	553.75
494.485	561.75
494.703	548.75
494.92	550.75
495.138	563.75
495.355	560.75
495.573	582.75
495.79	578.75
496.008	576.75
496.225	561.75
496.442	565.75
496.66	605.75
496.877	569.75
497.094	556.75
497.312	560.75
497.529	559.75
497.746	576.75
497.963	606.75
498.181	623.75
498.398	614.75
498.615	637.75
498.832	608.75
499.049	631.75
499.267	630.75
499.484	657.75
499.701	645.75
499.918	697.75
500.135	686.75
500.352	709.75
500.569	731.75
500.786	748.75
501.003	753.75
501.22	704.75
501.437	701.75
501.654	700.75
501.871	698.75
502.088	656.75
