Data from 1965.PennyLincolnUp.Lamp.En5.5.200Scan.071719.P1._HRD10591_14-09-47-911.txt Node
Date: Thu Jul 18 14:09:47 EDT 2019
User: cochatt
Spectrometer: HR+D1059
Trigger mode: 1
Integration Time (sec): 1.000000E-1
Scans to average: 1
Electric dark correction enabled: true
Nonlinearity correction enabled: false
Boxcar width: 0
XAxis mode: Wavelengths
Number of Pixels in Spectrum: 2048
>>>>>Begin Spectral Data<<<<<
223.165	-30.75
223.4	-30.75
223.635	-30.75
223.869	-14.75
224.104	-19.75
224.338	-8.75
224.573	-17.75
224.808	-16.75
225.042	-7.75
225.277	-0.75
225.511	4.25
225.746	9.25
225.98	5.25
226.215	10.25
226.449	15.25
226.683	21.25
226.918	28.25
227.152	23.25
227.387	40.25
227.621	38.25
227.856	29.25
228.09	49.25
228.324	41.25
228.559	49.25
228.793	70.25
229.027	91.25
229.262	118.25
229.496	111.25
229.73	120.25
229.964	149.25
230.199	130.25
230.433	113.25
230.667	109.25
230.901	101.25
231.136	114.25
231.37	95.25
231.604	115.25
231.838	97.25
232.072	82.25
232.306	102.25
232.541	100.25
232.775	103.25
233.009	103.25
233.243	106.25
233.477	96.25
233.711	118.25
233.945	106.25
234.179	124.25
234.413	95.25
234.647	115.25
234.881	112.25
235.115	102.25
235.349	105.25
235.583	119.25
235.817	117.25
236.051	124.25
236.285	124.25
236.519	119.25
236.753	124.25
236.987	139.25
237.221	153.25
237.455	207.25
237.689	184.25
237.922	135.25
238.156	125.25
238.39	119.25
238.624	115.25
238.858	113.25
239.091	119.25
239.325	109.25
239.559	110.25
239.793	110.25
240.027	127.25
240.26	131.25
240.494	131.25
240.728	139.25
240.961	140.25
241.195	133.25
241.429	128.25
241.662	125.25
241.896	119.25
242.13	116.25
242.363	133.25
242.597	121.25
242.83	119.25
243.064	133.25
243.298	129.25
243.531	139.25
243.765	118.25
243.998	134.25
244.232	122.25
244.465	119.25
244.699	120.25
244.932	132.25
245.166	121.25
245.399	123.25
245.633	126.25
245.866	133.25
246.099	135.25
246.333	137.25
246.566	138.25
246.8	141.25
247.033	143.25
247.266	157.25
247.5	149.25
247.733	156.25
247.966	141.25
248.2	141.25
248.433	171.25
248.666	168.25
248.899	174.25
249.133	177.25
249.366	181.25
249.599	177.25
249.832	166.25
250.066	149.25
250.299	165.25
250.532	179.25
250.765	188.25
250.998	197.25
251.231	197.25
251.465	183.25
251.698	182.25
251.931	184.25
252.164	178.25
252.397	193.25
252.63	185.25
252.863	197.25
253.096	192.25
253.329	220.25
253.562	196.25
253.795	179.25
254.028	197.25
254.261	190.25
254.494	218.25
254.727	211.25
254.96	259.25
255.193	243.25
255.426	212.25
255.659	224.25
255.892	213.25
256.124	218.25
256.357	218.25
256.59	207.25
256.823	188.25
257.056	190.25
257.289	185.25
257.521	213.25
257.754	181.25
257.987	207.25
258.22	191.25
258.452	180.25
258.685	193.25
258.918	175.25
259.151	170.25
259.383	209.25
259.616	209.25
259.849	202.25
260.081	184.25
260.314	223.25
260.547	226.25
260.779	222.25
261.012	224.25
261.244	194.25
261.477	226.25
261.71	195.25
261.942	212.25
262.175	218.25
262.407	217.25
262.64	193.25
262.872	173.25
263.105	211.25
263.337	187.25
263.57	188.25
263.802	179.25
264.035	181.25
264.267	174.25
264.499	189.25
264.732	202.25
264.964	183.25
265.197	182.25
265.429	194.25
265.661	179.25
265.894	195.25
266.126	189.25
266.358	191.25
266.591	194.25
266.823	194.25
267.055	204.25
267.287	189.25
267.52	207.25
267.752	212.25
267.984	215.25
268.216	210.25
268.448	212.25
268.681	202.25
268.913	196.25
269.145	230.25
269.377	248.25
269.609	235.25
269.841	230.25
270.073	243.25
270.306	261.25
270.538	287.25
270.77	278.25
271.002	293.25
271.234	256.25
271.466	268.25
271.698	279.25
271.93	286.25
272.162	272.25
272.394	298.25
272.626	287.25
272.858	263.25
273.09	247.25
273.322	245.25
273.553	247.25
273.785	236.25
274.017	225.25
274.249	241.25
274.481	226.25
274.713	223.25
274.945	230.25
275.176	241.25
275.408	234.25
275.64	241.25
275.872	253.25
276.104	233.25
276.335	248.25
276.567	236.25
276.799	261.25
277.031	265.25
277.262	279.25
277.494	282.25
277.726	255.25
277.957	238.25
278.189	239.25
278.421	252.25
278.652	230.25
278.884	228.25
279.115	243.25
279.347	237.25
279.579	249.25
279.81	245.25
280.042	236.25
280.273	243.25
280.505	252.25
280.736	222.25
280.968	244.25
281.199	243.25
281.431	219.25
281.662	232.25
281.894	239.25
282.125	246.25
282.356	244.25
282.588	269.25
282.819	279.25
283.051	261.25
283.282	251.25
283.513	267.25
283.745	230.25
283.976	255.25
284.207	246.25
284.439	268.25
284.67	251.25
284.901	246.25
285.132	221.25
285.364	246.25
285.595	237.25
285.826	232.25
286.057	249.25
286.288	247.25
286.52	248.25
286.751	251.25
286.982	248.25
287.213	252.25
287.444	251.25
287.675	259.25
287.906	234.25
288.138	249.25
288.369	241.25
288.6	271.25
288.831	253.25
289.062	268.25
289.293	255.25
289.524	250.25
289.755	250.25
289.986	250.25
290.217	242.25
290.448	263.25
290.679	238.25
290.91	246.25
291.141	257.25
291.371	246.25
291.602	257.25
291.833	243.25
292.064	261.25
292.295	245.25
292.526	264.25
292.757	271.25
292.987	249.25
293.218	234.25
293.449	243.25
293.68	246.25
293.91	251.25
294.141	255.25
294.372	261.25
294.603	248.25
294.833	236.25
295.064	238.25
295.295	266.25
295.525	246.25
295.756	267.25
295.987	257.25
296.217	292.25
296.448	287.25
296.679	278.25
296.909	267.25
297.14	235.25
297.37	259.25
297.601	269.25
297.831	264.25
298.062	268.25
298.292	285.25
298.523	271.25
298.753	259.25
298.984	271.25
299.214	257.25
299.445	277.25
299.675	267.25
299.905	264.25
300.136	289.25
300.366	275.25
300.597	283.25
300.827	268.25
301.057	269.25
301.288	291.25
301.518	279.25
301.748	283.25
301.979	289.25
302.209	294.25
302.439	270.25
302.669	284.25
302.9	298.25
303.13	285.25
303.36	305.25
303.59	295.25
303.82	298.25
304.051	283.25
304.281	280.25
304.511	269.25
304.741	305.25
304.971	289.25
305.201	294.25
305.431	278.25
305.661	290.25
305.891	287.25
306.121	281.25
306.352	293.25
306.582	293.25
306.812	281.25
307.042	297.25
307.272	277.25
307.502	307.25
307.731	291.25
307.961	307.25
308.191	286.25
308.421	285.25
308.651	297.25
308.881	307.25
309.111	282.25
309.341	302.25
309.571	322.25
309.8	315.25
310.03	307.25
310.26	331.25
310.49	337.25
310.72	335.25
310.949	323.25
311.179	353.25
311.409	321.25
311.639	331.25
311.868	329.25
312.098	317.25
312.328	365.25
312.557	330.25
312.787	364.25
313.017	349.25
313.246	348.25
313.476	343.25
313.706	334.25
313.935	330.25
314.165	348.25
314.394	362.25
314.624	348.25
314.853	332.25
315.083	337.25
315.312	343.25
315.542	331.25
315.771	322.25
316.001	327.25
316.23	330.25
316.46	329.25
316.689	324.25
316.919	343.25
317.148	353.25
317.377	331.25
317.607	337.25
317.836	352.25
318.065	336.25
318.295	340.25
318.524	328.25
318.753	333.25
318.983	338.25
319.212	337.25
319.441	339.25
319.67	348.25
319.9	333.25
320.129	342.25
320.358	345.25
320.587	339.25
320.816	337.25
321.046	349.25
321.275	349.25
321.504	350.25
321.733	359.25
321.962	362.25
322.191	388.25
322.42	391.25
322.649	398.25
322.878	421.25
323.108	415.25
323.337	430.25
323.566	466.25
323.795	515.25
324.024	553.25
324.253	681.25
324.482	978.25
324.71	1501.25
324.939	2065.25
325.168	1752.25
325.397	913.25
325.626	605.25
325.855	512.25
326.084	478.25
326.313	469.25
326.542	462.25
326.77	526.25
326.999	623.25
327.228	874.25
327.457	1329.25
327.686	1491.25
327.914	1021.25
328.143	683.25
328.372	587.25
328.6	571.25
328.829	548.25
329.058	523.25
329.287	560.25
329.515	511.25
329.744	463.25
329.972	471.25
330.201	506.25
330.43	552.25
330.658	563.25
330.887	577.25
331.115	557.25
331.344	474.25
331.572	453.25
331.801	451.25
332.03	441.25
332.258	423.25
332.486	419.25
332.715	397.25
332.943	387.25
333.172	399.25
333.4	381.25
333.629	405.25
333.857	404.25
334.085	432.25
334.314	443.25
334.542	474.25
334.771	477.25
334.999	469.25
335.227	414.25
335.455	405.25
335.684	390.25
335.912	393.25
336.14	375.25
336.369	379.25
336.597	403.25
336.825	392.25
337.053	376.25
337.281	361.25
337.51	377.25
337.738	369.25
337.966	396.25
338.194	395.25
338.422	400.25
338.65	381.25
338.878	388.25
339.106	363.25
339.334	377.25
339.562	389.25
339.79	377.25
340.018	366.25
340.246	383.25
340.474	399.25
340.702	389.25
340.93	363.25
341.158	375.25
341.386	381.25
341.614	388.25
341.842	381.25
342.07	380.25
342.298	373.25
342.526	371.25
342.754	371.25
342.981	359.25
343.209	353.25
343.437	347.25
343.665	370.25
343.893	370.25
344.12	389.25
344.348	373.25
344.576	375.25
344.804	378.25
345.031	386.25
345.259	405.25
345.487	411.25
345.714	378.25
345.942	369.25
346.17	370.25
346.397	368.25
346.625	366.25
346.853	377.25
347.08	365.25
347.308	364.25
347.535	367.25
347.763	369.25
347.99	375.25
348.218	378.25
348.445	383.25
348.673	395.25
348.9	371.25
349.128	351.25
349.355	350.25
349.583	352.25
349.81	341.25
350.037	358.25
350.265	354.25
350.492	374.25
350.72	369.25
350.947	363.25
351.174	364.25
351.402	385.25
351.629	373.25
351.856	366.25
352.083	357.25
352.311	380.25
352.538	387.25
352.765	379.25
352.992	375.25
353.22	373.25
353.447	374.25
353.674	341.25
353.901	349.25
354.128	368.25
354.355	377.25
354.583	345.25
354.81	339.25
355.037	330.25
355.264	345.25
355.491	337.25
355.718	330.25
355.945	334.25
356.172	348.25
356.399	326.25
356.626	331.25
356.853	352.25
357.08	330.25
357.307	330.25
357.534	336.25
357.761	333.25
357.988	335.25
358.215	335.25
358.441	343.25
358.668	360.25
358.895	357.25
359.122	347.25
359.349	366.25
359.576	384.25
359.802	381.25
360.029	428.25
360.256	424.25
360.483	399.25
360.709	362.25
360.936	358.25
361.163	392.25
361.39	383.25
361.616	381.25
361.843	355.25
362.07	368.25
362.296	359.25
362.523	379.25
362.749	352.25
362.976	356.25
363.203	363.25
363.429	365.25
363.656	343.25
363.882	343.25
364.109	342.25
364.335	332.25
364.562	349.25
364.788	341.25
365.015	345.25
365.241	347.25
365.468	339.25
365.694	349.25
365.92	364.25
366.147	367.25
366.373	343.25
366.599	347.25
366.826	345.25
367.052	338.25
367.278	351.25
367.505	340.25
367.731	348.25
367.957	351.25
368.184	362.25
368.41	348.25
368.636	351.25
368.862	355.25
369.089	373.25
369.315	360.25
369.541	332.25
369.767	347.25
369.993	353.25
370.219	347.25
370.445	338.25
370.672	337.25
370.898	337.25
371.124	338.25
371.35	326.25
371.576	339.25
371.802	341.25
372.028	330.25
372.254	320.25
372.48	342.25
372.706	351.25
372.932	359.25
373.158	340.25
373.384	345.25
373.61	349.25
373.835	334.25
374.061	323.25
374.287	354.25
374.513	339.25
374.739	349.25
374.965	331.25
375.191	328.25
375.416	347.25
375.642	328.25
375.868	325.25
376.094	345.25
376.319	337.25
376.545	338.25
376.771	358.25
376.997	330.25
377.222	329.25
377.448	348.25
377.674	348.25
377.899	332.25
378.125	328.25
378.35	324.25
378.576	333.25
378.802	344.25
379.027	322.25
379.253	357.25
379.478	344.25
379.704	350.25
379.929	334.25
380.155	342.25
380.38	350.25
380.606	365.25
380.831	335.25
381.057	339.25
381.282	357.25
381.507	332.25
381.733	329.25
381.958	340.25
382.184	353.25
382.409	325.25
382.634	331.25
382.86	332.25
383.085	350.25
383.31	344.25
383.535	357.25
383.761	348.25
383.986	352.25
384.211	343.25
384.436	366.25
384.662	344.25
384.887	378.25
385.112	342.25
385.337	354.25
385.562	362.25
385.787	355.25
386.013	383.25
386.238	361.25
386.463	367.25
386.688	356.25
386.913	347.25
387.138	365.25
387.363	355.25
387.588	365.25
387.813	364.25
388.038	374.25
388.263	365.25
388.488	359.25
388.713	369.25
388.938	365.25
389.163	373.25
389.387	364.25
389.612	366.25
389.837	375.25
390.062	354.25
390.287	352.25
390.512	366.25
390.736	372.25
390.961	361.25
391.186	356.25
391.411	345.25
391.636	366.25
391.86	355.25
392.085	364.25
392.31	382.25
392.534	380.25
392.759	369.25
392.984	374.25
393.208	370.25
393.433	393.25
393.658	379.25
393.882	377.25
394.107	366.25
394.331	377.25
394.556	361.25
394.78	360.25
395.005	369.25
395.229	371.25
395.454	368.25
395.678	376.25
395.903	390.25
396.127	397.25
396.352	404.25
396.576	375.25
396.801	371.25
397.025	359.25
397.249	391.25
397.474	394.25
397.698	395.25
397.922	389.25
398.147	419.25
398.371	419.25
398.595	412.25
398.82	399.25
399.044	417.25
399.268	430.25
399.492	445.25
399.717	448.25
399.941	475.25
400.165	482.25
400.389	491.25
400.613	463.25
400.837	431.25
401.062	435.25
401.286	424.25
401.51	413.25
401.734	405.25
401.958	413.25
402.182	398.25
402.406	421.25
402.63	435.25
402.854	441.25
403.078	426.25
403.302	417.25
403.526	417.25
403.75	410.25
403.974	442.25
404.198	419.25
404.422	451.25
404.645	441.25
404.869	449.25
405.093	462.25
405.317	490.25
405.541	536.25
405.765	485.25
405.988	468.25
406.212	466.25
406.436	479.25
406.66	502.25
406.883	463.25
407.107	476.25
407.331	504.25
407.555	554.25
407.778	569.25
408.002	499.25
408.226	484.25
408.449	460.25
408.673	474.25
408.896	487.25
409.12	514.25
409.344	498.25
409.567	464.25
409.791	450.25
410.014	442.25
410.238	428.25
410.461	423.25
410.685	419.25
410.908	462.25
411.132	488.25
411.355	504.25
411.578	467.25
411.802	455.25
412.025	414.25
412.249	454.25
412.472	451.25
412.695	503.25
412.919	470.25
413.142	458.25
413.365	431.25
413.589	422.25
413.812	399.25
414.035	429.25
414.258	403.25
414.482	395.25
414.705	395.25
414.928	411.25
415.151	414.25
415.374	405.25
415.597	397.25
415.821	410.25
416.044	412.25
416.267	410.25
416.49	400.25
416.713	390.25
416.936	413.25
417.159	412.25
417.382	400.25
417.605	425.25
417.828	413.25
418.051	430.25
418.274	420.25
418.497	422.25
418.72	394.25
418.943	402.25
419.166	412.25
419.389	428.25
419.611	441.25
419.834	418.25
420.057	427.25
420.28	442.25
420.503	437.25
420.726	415.25
420.948	425.25
421.171	487.25
421.394	495.25
421.617	446.25
421.839	420.25
422.062	433.25
422.285	452.25
422.507	504.25
422.73	531.25
422.953	543.25
423.175	471.25
423.398	480.25
423.621	444.25
423.843	461.25
424.066	474.25
424.288	461.25
424.511	495.25
424.733	518.25
424.956	565.25
425.178	555.25
425.401	549.25
425.623	566.25
425.846	491.25
426.068	475.25
426.291	467.25
426.513	479.25
426.735	447.25
426.958	532.25
427.18	575.25
427.402	661.25
427.625	738.25
427.847	687.25
428.069	583.25
428.292	519.25
428.514	490.25
428.736	455.25
428.958	453.25
429.181	446.25
429.403	428.25
429.625	461.25
429.847	445.25
430.069	526.25
430.292	535.25
430.514	451.25
430.736	443.25
430.958	427.25
431.18	418.25
431.402	389.25
431.624	385.25
431.846	410.25
432.068	394.25
432.29	419.25
432.512	415.25
432.734	403.25
432.956	410.25
433.178	407.25
433.4	443.25
433.622	438.25
433.844	405.25
434.066	402.25
434.287	403.25
434.509	415.25
434.731	420.25
434.953	394.25
435.175	435.25
435.397	467.25
435.618	469.25
435.84	518.25
436.062	582.25
436.284	629.25
436.505	546.25
436.727	483.25
436.949	461.25
437.17	437.25
437.392	445.25
437.614	450.25
437.835	492.25
438.057	590.25
438.278	661.25
438.5	663.25
438.721	661.25
438.943	651.25
439.165	545.25
439.386	496.25
439.608	482.25
439.829	486.25
440.05	511.25
440.272	544.25
440.493	517.25
440.715	478.25
440.936	454.25
441.158	425.25
441.379	425.25
441.6	441.25
441.822	457.25
442.043	514.25
442.264	573.25
442.486	620.25
442.707	537.25
442.928	490.25
443.149	500.25
443.371	513.25
443.592	543.25
443.813	606.25
444.034	643.25
444.255	561.25
444.476	486.25
444.698	469.25
444.919	472.25
445.14	585.25
445.361	527.25
445.582	529.25
445.803	596.25
446.024	645.25
446.245	665.25
446.466	577.25
446.687	519.25
446.908	483.25
447.129	445.25
447.35	433.25
447.571	455.25
447.792	441.25
448.013	451.25
448.234	474.25
448.455	519.25
448.675	605.25
448.896	675.25
449.117	577.25
449.338	575.25
449.559	627.25
449.779	700.25
450	600.25
450.221	491.25
450.442	453.25
450.662	422.25
450.883	431.25
451.104	468.25
451.324	445.25
451.545	420.25
451.766	393.25
451.986	395.25
452.207	397.25
452.428	389.25
452.648	413.25
452.869	384.25
453.089	397.25
453.31	418.25
453.53	400.25
453.751	383.25
453.971	403.25
454.192	425.25
454.412	412.25
454.633	390.25
454.853	373.25
455.073	385.25
455.294	412.25
455.514	465.25
455.734	465.25
455.955	382.25
456.175	373.25
456.395	376.25
456.616	363.25
456.836	373.25
457.056	357.25
457.276	367.25
457.497	376.25
457.717	393.25
457.937	367.25
458.157	372.25
458.377	379.25
458.598	415.25
458.818	459.25
459.038	542.25
459.258	533.25
459.478	469.25
459.698	432.25
459.918	394.25
460.138	399.25
460.358	417.25
460.578	412.25
460.798	397.25
461.018	416.25
461.238	407.25
461.458	407.25
461.678	404.25
461.898	412.25
462.118	405.25
462.338	399.25
462.558	420.25
462.777	414.25
462.997	449.25
463.217	419.25
463.437	433.25
463.657	419.25
463.876	415.25
464.096	461.25
464.316	445.25
464.536	435.25
464.755	426.25
464.975	462.25
465.195	488.25
465.414	565.25
465.634	495.25
465.854	439.25
466.073	417.25
466.293	416.25
466.512	403.25
466.732	395.25
466.951	385.25
467.171	395.25
467.391	410.25
467.61	410.25
467.829	426.25
468.049	424.25
468.268	418.25
468.488	408.25
468.707	395.25
468.927	405.25
469.146	400.25
469.365	407.25
469.585	397.25
469.804	400.25
470.023	407.25
470.243	406.25
470.462	426.25
470.681	430.25
470.901	412.25
471.12	390.25
471.339	410.25
471.558	430.25
471.777	410.25
471.997	395.25
472.216	430.25
472.435	456.25
472.654	442.25
472.873	410.25
473.092	406.25
473.311	403.25
473.53	402.25
473.749	427.25
473.968	465.25
474.187	538.25
474.406	560.25
474.625	462.25
474.844	437.25
475.063	409.25
475.282	419.25
475.501	399.25
475.72	417.25
475.939	418.25
476.158	403.25
476.377	394.25
476.596	422.25
476.814	423.25
477.033	417.25
477.252	449.25
477.471	449.25
477.69	433.25
477.908	438.25
478.127	435.25
478.346	435.25
478.564	444.25
478.783	462.25
479.002	447.25
479.22	455.25
479.439	475.25
479.658	479.25
479.876	506.25
480.095	490.25
480.313	515.25
480.532	507.25
480.751	469.25
480.969	510.25
481.188	561.25
481.406	633.25
481.624	551.25
481.843	501.25
482.061	507.25
482.28	490.25
482.498	473.25
482.717	482.25
482.935	473.25
483.153	478.25
483.372	455.25
483.59	473.25
483.808	459.25
484.027	485.25
484.245	470.25
484.463	487.25
484.681	478.25
484.9	462.25
485.118	485.25
485.336	481.25
485.554	476.25
485.772	492.25
485.99	494.25
486.209	521.25
486.427	532.25
486.645	517.25
486.863	536.25
487.081	513.25
487.299	521.25
487.517	525.25
487.735	513.25
487.953	516.25
488.171	497.25
488.389	541.25
488.607	513.25
488.825	548.25
489.043	531.25
489.261	542.25
489.479	522.25
489.696	532.25
489.914	543.25
490.132	517.25
490.35	543.25
490.568	536.25
490.786	550.25
491.003	558.25
491.221	561.25
491.439	576.25
491.657	572.25
491.874	557.25
492.092	593.25
492.31	583.25
492.527	580.25
492.745	595.25
492.963	610.25
493.18	593.25
493.398	598.25
493.615	614.25
493.833	601.25
494.05	604.25
494.268	601.25
494.485	615.25
494.703	599.25
494.92	583.25
495.138	623.25
495.355	605.25
495.573	607.25
495.79	607.25
496.008	621.25
496.225	605.25
496.442	621.25
496.66	642.25
496.877	589.25
497.094	611.25
497.312	620.25
497.529	606.25
497.746	639.25
497.963	637.25
498.181	665.25
498.398	633.25
498.615	637.25
498.832	664.25
499.049	663.25
499.267	661.25
499.484	702.25
499.701	706.25
499.918	729.25
500.135	729.25
500.352	742.25
500.569	790.25
500.786	761.25
501.003	763.25
501.22	791.25
501.437	749.25
501.654	709.25
501.871	734.25
502.088	710.25
