Data from 1965.PennyLincolnUp.Lamp.En5.5.200Scan.071719.P1._HRD10591_14-08-42-910.txt Node
Date: Thu Jul 18 14:08:42 EDT 2019
User: cochatt
Spectrometer: HR+D1059
Trigger mode: 1
Integration Time (sec): 1.000000E-1
Scans to average: 1
Electric dark correction enabled: true
Nonlinearity correction enabled: false
Boxcar width: 0
XAxis mode: Wavelengths
Number of Pixels in Spectrum: 2048
>>>>>Begin Spectral Data<<<<<
223.165	1.94
223.4	1.94
223.635	1.94
223.869	-16.06
224.104	-17.06
224.338	-15.06
224.573	-31.06
224.808	-8.06
225.042	-9.06
225.277	-8.06
225.511	-10.06
225.746	9.94
225.98	-10.06
226.215	10.94
226.449	16.94
226.683	25.94
226.918	31.94
227.152	26.94
227.387	17.94
227.621	43.94
227.856	44.94
228.09	43.94
228.324	52.94
228.559	46.94
228.793	67.94
229.027	84.94
229.262	93.94
229.496	108.94
229.73	112.94
229.964	131.94
230.199	118.94
230.433	110.94
230.667	109.94
230.901	114.94
231.136	118.94
231.37	93.94
231.604	104.94
231.838	117.94
232.072	104.94
232.306	99.94
232.541	100.94
232.775	99.94
233.009	116.94
233.243	91.94
233.477	109.94
233.711	105.94
233.945	115.94
234.179	110.94
234.413	111.94
234.647	121.94
234.881	125.94
235.115	112.94
235.349	110.94
235.583	119.94
235.817	100.94
236.051	114.94
236.285	100.94
236.519	115.94
236.753	104.94
236.987	143.94
237.221	154.94
237.455	203.94
237.689	160.94
237.922	122.94
238.156	137.94
238.39	128.94
238.624	125.94
238.858	121.94
239.091	118.94
239.325	104.94
239.559	114.94
239.793	124.94
240.027	130.94
240.26	140.94
240.494	150.94
240.728	127.94
240.961	123.94
241.195	134.94
241.429	136.94
241.662	104.94
241.896	132.94
242.13	128.94
242.363	136.94
242.597	123.94
242.83	135.94
243.064	117.94
243.298	125.94
243.531	120.94
243.765	122.94
243.998	120.94
244.232	134.94
244.465	133.94
244.699	123.94
244.932	119.94
245.166	122.94
245.399	130.94
245.633	123.94
245.866	126.94
246.099	120.94
246.333	112.94
246.566	124.94
246.8	138.94
247.033	125.94
247.266	127.94
247.5	127.94
247.733	150.94
247.966	159.94
248.2	152.94
248.433	147.94
248.666	158.94
248.899	155.94
249.133	173.94
249.366	171.94
249.599	161.94
249.832	150.94
250.066	157.94
250.299	155.94
250.532	164.94
250.765	188.94
250.998	185.94
251.231	195.94
251.465	184.94
251.698	190.94
251.931	176.94
252.164	168.94
252.397	160.94
252.63	170.94
252.863	182.94
253.096	167.94
253.329	182.94
253.562	198.94
253.795	190.94
254.028	179.94
254.261	200.94
254.494	203.94
254.727	212.94
254.96	244.94
255.193	236.94
255.426	225.94
255.659	204.94
255.892	180.94
256.124	197.94
256.357	202.94
256.59	207.94
256.823	186.94
257.056	188.94
257.289	168.94
257.521	174.94
257.754	192.94
257.987	191.94
258.22	187.94
258.452	186.94
258.685	188.94
258.918	186.94
259.151	185.94
259.383	196.94
259.616	189.94
259.849	172.94
260.081	210.94
260.314	228.94
260.547	211.94
260.779	204.94
261.012	196.94
261.244	197.94
261.477	207.94
261.71	201.94
261.942	210.94
262.175	195.94
262.407	214.94
262.64	182.94
262.872	187.94
263.105	199.94
263.337	190.94
263.57	182.94
263.802	191.94
264.035	183.94
264.267	178.94
264.499	178.94
264.732	176.94
264.964	168.94
265.197	195.94
265.429	176.94
265.661	169.94
265.894	194.94
266.126	178.94
266.358	175.94
266.591	189.94
266.823	181.94
267.055	204.94
267.287	194.94
267.52	181.94
267.752	196.94
267.984	195.94
268.216	207.94
268.448	195.94
268.681	199.94
268.913	203.94
269.145	228.94
269.377	235.94
269.609	233.94
269.841	228.94
270.073	247.94
270.306	237.94
270.538	261.94
270.77	263.94
271.002	255.94
271.234	233.94
271.466	252.94
271.698	264.94
271.93	268.94
272.162	260.94
272.394	264.94
272.626	255.94
272.858	243.94
273.09	246.94
273.322	222.94
273.553	232.94
273.785	246.94
274.017	205.94
274.249	231.94
274.481	222.94
274.713	220.94
274.945	238.94
275.176	209.94
275.408	216.94
275.64	224.94
275.872	231.94
276.104	219.94
276.335	234.94
276.567	240.94
276.799	243.94
277.031	235.94
277.262	258.94
277.494	275.94
277.726	264.94
277.957	237.94
278.189	223.94
278.421	208.94
278.652	225.94
278.884	230.94
279.115	223.94
279.347	240.94
279.579	228.94
279.81	236.94
280.042	227.94
280.273	245.94
280.505	225.94
280.736	223.94
280.968	216.94
281.199	215.94
281.431	209.94
281.662	245.94
281.894	244.94
282.125	255.94
282.356	252.94
282.588	266.94
282.819	233.94
283.051	245.94
283.282	233.94
283.513	234.94
283.745	236.94
283.976	250.94
284.207	237.94
284.439	235.94
284.67	232.94
284.901	229.94
285.132	228.94
285.364	231.94
285.595	235.94
285.826	230.94
286.057	222.94
286.288	225.94
286.52	233.94
286.751	237.94
286.982	239.94
287.213	220.94
287.444	243.94
287.675	249.94
287.906	251.94
288.138	238.94
288.369	242.94
288.6	267.94
288.831	256.94
289.062	228.94
289.293	261.94
289.524	252.94
289.755	234.94
289.986	232.94
290.217	246.94
290.448	243.94
290.679	238.94
290.91	239.94
291.141	223.94
291.371	246.94
291.602	252.94
291.833	245.94
292.064	237.94
292.295	244.94
292.526	234.94
292.757	231.94
292.987	237.94
293.218	237.94
293.449	257.94
293.68	246.94
293.91	249.94
294.141	222.94
294.372	240.94
294.603	226.94
294.833	240.94
295.064	231.94
295.295	238.94
295.525	250.94
295.756	246.94
295.987	262.94
296.217	286.94
296.448	287.94
296.679	263.94
296.909	264.94
297.14	244.94
297.37	269.94
297.601	251.94
297.831	236.94
298.062	248.94
298.292	273.94
298.523	249.94
298.753	253.94
298.984	245.94
299.214	261.94
299.445	266.94
299.675	259.94
299.905	290.94
300.136	280.94
300.366	261.94
300.597	262.94
300.827	257.94
301.057	264.94
301.288	286.94
301.518	297.94
301.748	271.94
301.979	254.94
302.209	285.94
302.439	284.94
302.669	267.94
302.9	298.94
303.13	269.94
303.36	259.94
303.59	290.94
303.82	284.94
304.051	276.94
304.281	303.94
304.511	278.94
304.741	270.94
304.971	268.94
305.201	264.94
305.431	287.94
305.661	263.94
305.891	269.94
306.121	277.94
306.352	289.94
306.582	280.94
306.812	286.94
307.042	284.94
307.272	266.94
307.502	276.94
307.731	280.94
307.961	268.94
308.191	286.94
308.421	290.94
308.651	295.94
308.881	307.94
309.111	306.94
309.341	275.94
309.571	317.94
309.8	312.94
310.03	318.94
310.26	314.94
310.49	309.94
310.72	329.94
310.949	342.94
311.179	334.94
311.409	317.94
311.639	334.94
311.868	324.94
312.098	329.94
312.328	340.94
312.557	331.94
312.787	364.94
313.017	345.94
313.246	348.94
313.476	333.94
313.706	326.94
313.935	311.94
314.165	323.94
314.394	341.94
314.624	342.94
314.853	347.94
315.083	341.94
315.312	325.94
315.542	314.94
315.771	316.94
316.001	304.94
316.23	325.94
316.46	310.94
316.689	325.94
316.919	328.94
317.148	336.94
317.377	345.94
317.607	320.94
317.836	336.94
318.065	330.94
318.295	300.94
318.524	324.94
318.753	317.94
318.983	311.94
319.212	311.94
319.441	334.94
319.67	332.94
319.9	331.94
320.129	334.94
320.358	329.94
320.587	331.94
320.816	335.94
321.046	355.94
321.275	327.94
321.504	338.94
321.733	343.94
321.962	364.94
322.191	356.94
322.42	374.94
322.649	386.94
322.878	404.94
323.108	383.94
323.337	409.94
323.566	427.94
323.795	486.94
324.024	540.94
324.253	641.94
324.482	944.94
324.71	1440.94
324.939	1974.94
325.168	1640.94
325.397	854.94
325.626	608.94
325.855	499.94
326.084	436.94
326.313	440.94
326.542	451.94
326.77	478.94
326.999	584.94
327.228	822.94
327.457	1247.94
327.686	1443.94
327.914	973.94
328.143	652.94
328.372	557.94
328.6	530.94
328.829	499.94
329.058	516.94
329.287	510.94
329.515	471.94
329.744	453.94
329.972	462.94
330.201	463.94
330.43	516.94
330.658	534.94
330.887	553.94
331.115	522.94
331.344	445.94
331.572	423.94
331.801	446.94
332.03	418.94
332.258	394.94
332.486	390.94
332.715	358.94
332.943	389.94
333.172	381.94
333.4	370.94
333.629	387.94
333.857	410.94
334.085	428.94
334.314	431.94
334.542	446.94
334.771	455.94
334.999	437.94
335.227	407.94
335.455	376.94
335.684	383.94
335.912	381.94
336.14	371.94
336.369	378.94
336.597	405.94
336.825	370.94
337.053	381.94
337.281	362.94
337.51	348.94
337.738	370.94
337.966	379.94
338.194	357.94
338.422	379.94
338.65	368.94
338.878	359.94
339.106	350.94
339.334	347.94
339.562	361.94
339.79	379.94
340.018	362.94
340.246	377.94
340.474	362.94
340.702	377.94
340.93	370.94
341.158	370.94
341.386	375.94
341.614	370.94
341.842	342.94
342.07	328.94
342.298	342.94
342.526	346.94
342.754	346.94
342.981	347.94
343.209	335.94
343.437	337.94
343.665	355.94
343.893	357.94
344.12	367.94
344.348	387.94
344.576	374.94
344.804	370.94
345.031	383.94
345.259	367.94
345.487	378.94
345.714	374.94
345.942	367.94
346.17	348.94
346.397	342.94
346.625	338.94
346.853	338.94
347.08	350.94
347.308	352.94
347.535	372.94
347.763	376.94
347.99	364.94
348.218	388.94
348.445	370.94
348.673	384.94
348.9	366.94
349.128	351.94
349.355	358.94
349.583	331.94
349.81	343.94
350.037	352.94
350.265	361.94
350.492	335.94
350.72	354.94
350.947	350.94
351.174	370.94
351.402	393.94
351.629	355.94
351.856	366.94
352.083	366.94
352.311	355.94
352.538	365.94
352.765	405.94
352.992	352.94
353.22	367.94
353.447	351.94
353.674	366.94
353.901	340.94
354.128	331.94
354.355	330.94
354.583	326.94
354.81	328.94
355.037	340.94
355.264	316.94
355.491	317.94
355.718	345.94
355.945	328.94
356.172	318.94
356.399	324.94
356.626	314.94
356.853	330.94
357.08	314.94
357.307	334.94
357.534	302.94
357.761	320.94
357.988	332.94
358.215	334.94
358.441	335.94
358.668	335.94
358.895	317.94
359.122	334.94
359.349	367.94
359.576	347.94
359.802	370.94
360.029	408.94
360.256	407.94
360.483	396.94
360.709	346.94
360.936	372.94
361.163	355.94
361.39	358.94
361.616	377.94
361.843	352.94
362.07	342.94
362.296	323.94
362.523	353.94
362.749	338.94
362.976	350.94
363.203	353.94
363.429	330.94
363.656	349.94
363.882	335.94
364.109	344.94
364.335	333.94
364.562	344.94
364.788	324.94
365.015	345.94
365.241	346.94
365.468	347.94
365.694	351.94
365.92	341.94
366.147	349.94
366.373	336.94
366.599	350.94
366.826	340.94
367.052	340.94
367.278	320.94
367.505	327.94
367.731	335.94
367.957	340.94
368.184	350.94
368.41	335.94
368.636	346.94
368.862	350.94
369.089	341.94
369.315	320.94
369.541	334.94
369.767	339.94
369.993	352.94
370.219	341.94
370.445	339.94
370.672	325.94
370.898	326.94
371.124	335.94
371.35	325.94
371.576	323.94
371.802	315.94
372.028	334.94
372.254	323.94
372.48	330.94
372.706	327.94
372.932	341.94
373.158	337.94
373.384	330.94
373.61	343.94
373.835	357.94
374.061	343.94
374.287	334.94
374.513	341.94
374.739	331.94
374.965	335.94
375.191	321.94
375.416	327.94
375.642	322.94
375.868	315.94
376.094	340.94
376.319	335.94
376.545	348.94
376.771	323.94
376.997	340.94
377.222	339.94
377.448	339.94
377.674	319.94
377.899	304.94
378.125	325.94
378.35	326.94
378.576	338.94
378.802	329.94
379.027	329.94
379.253	307.94
379.478	325.94
379.704	340.94
379.929	330.94
380.155	333.94
380.38	338.94
380.606	330.94
380.831	342.94
381.057	339.94
381.282	340.94
381.507	330.94
381.733	309.94
381.958	348.94
382.184	360.94
382.409	323.94
382.634	338.94
382.86	331.94
383.085	354.94
383.31	349.94
383.535	336.94
383.761	332.94
383.986	326.94
384.211	343.94
384.436	343.94
384.662	337.94
384.887	349.94
385.112	354.94
385.337	358.94
385.562	343.94
385.787	338.94
386.013	352.94
386.238	349.94
386.463	371.94
386.688	369.94
386.913	343.94
387.138	338.94
387.363	349.94
387.588	355.94
387.813	362.94
388.038	340.94
388.263	349.94
388.488	373.94
388.713	351.94
388.938	345.94
389.163	356.94
389.387	379.94
389.612	350.94
389.837	354.94
390.062	370.94
390.287	336.94
390.512	355.94
390.736	348.94
390.961	333.94
391.186	357.94
391.411	367.94
391.636	365.94
391.86	366.94
392.085	349.94
392.31	351.94
392.534	359.94
392.759	352.94
392.984	355.94
393.208	352.94
393.433	361.94
393.658	363.94
393.882	348.94
394.107	356.94
394.331	359.94
394.556	347.94
394.78	348.94
395.005	361.94
395.229	346.94
395.454	379.94
395.678	355.94
395.903	384.94
396.127	380.94
396.352	400.94
396.576	372.94
396.801	354.94
397.025	375.94
397.249	382.94
397.474	370.94
397.698	368.94
397.922	377.94
398.147	394.94
398.371	407.94
398.595	394.94
398.82	407.94
399.044	397.94
399.268	420.94
399.492	419.94
399.717	443.94
399.941	470.94
400.165	468.94
400.389	477.94
400.613	426.94
400.837	439.94
401.062	429.94
401.286	398.94
401.51	410.94
401.734	388.94
401.958	410.94
402.182	412.94
402.406	409.94
402.63	404.94
402.854	411.94
403.078	407.94
403.302	413.94
403.526	425.94
403.75	421.94
403.974	411.94
404.198	403.94
404.422	418.94
404.645	432.94
404.869	417.94
405.093	443.94
405.317	464.94
405.541	518.94
405.765	436.94
405.988	450.94
406.212	440.94
406.436	472.94
406.66	498.94
406.883	462.94
407.107	487.94
407.331	503.94
407.555	552.94
407.778	541.94
408.002	482.94
408.226	490.94
408.449	474.94
408.673	465.94
408.896	467.94
409.12	493.94
409.344	491.94
409.567	427.94
409.791	430.94
410.014	410.94
410.238	391.94
410.461	442.94
410.685	427.94
410.908	423.94
411.132	450.94
411.355	451.94
411.578	456.94
411.802	422.94
412.025	412.94
412.249	447.94
412.472	458.94
412.695	465.94
412.919	464.94
413.142	412.94
413.365	407.94
413.589	408.94
413.812	405.94
414.035	396.94
414.258	390.94
414.482	393.94
414.705	388.94
414.928	380.94
415.151	391.94
415.374	380.94
415.597	407.94
415.821	391.94
416.044	395.94
416.267	400.94
416.49	390.94
416.713	381.94
416.936	405.94
417.159	383.94
417.382	400.94
417.605	387.94
417.828	391.94
418.051	412.94
418.274	414.94
418.497	413.94
418.72	389.94
418.943	395.94
419.166	413.94
419.389	441.94
419.611	418.94
419.834	407.94
420.057	412.94
420.28	411.94
420.503	408.94
420.726	405.94
420.948	424.94
421.171	460.94
421.394	462.94
421.617	440.94
421.839	418.94
422.062	430.94
422.285	424.94
422.507	460.94
422.73	516.94
422.953	507.94
423.175	464.94
423.398	431.94
423.621	439.94
423.843	448.94
424.066	444.94
424.288	456.94
424.511	459.94
424.733	496.94
424.956	557.94
425.178	562.94
425.401	541.94
425.623	552.94
425.846	491.94
426.068	446.94
426.291	457.94
426.513	459.94
426.735	461.94
426.958	485.94
427.18	542.94
427.402	652.94
427.625	717.94
427.847	657.94
428.069	542.94
428.292	495.94
428.514	450.94
428.736	440.94
428.958	418.94
429.181	429.94
429.403	429.94
429.625	430.94
429.847	459.94
430.069	512.94
430.292	519.94
430.514	437.94
430.736	446.94
430.958	409.94
431.18	390.94
431.402	392.94
431.624	383.94
431.846	378.94
432.068	376.94
432.29	413.94
432.512	400.94
432.734	410.94
432.956	402.94
433.178	398.94
433.4	400.94
433.622	398.94
433.844	403.94
434.066	398.94
434.287	419.94
434.509	398.94
434.731	406.94
434.953	408.94
435.175	414.94
435.397	469.94
435.618	448.94
435.84	502.94
436.062	571.94
436.284	596.94
436.505	496.94
436.727	471.94
436.949	415.94
437.17	427.94
437.392	420.94
437.614	439.94
437.835	466.94
438.057	548.94
438.278	609.94
438.5	623.94
438.721	664.94
438.943	630.94
439.165	512.94
439.386	471.94
439.608	460.94
439.829	462.94
440.05	484.94
440.272	514.94
440.493	494.94
440.715	440.94
440.936	416.94
441.158	412.94
441.379	423.94
441.6	428.94
441.822	438.94
442.043	470.94
442.264	536.94
442.486	564.94
442.707	499.94
442.928	456.94
443.149	455.94
443.371	487.94
443.592	542.94
443.813	593.94
444.034	615.94
444.255	518.94
444.476	469.94
444.698	478.94
444.919	448.94
445.14	526.94
445.361	502.94
445.582	507.94
445.803	571.94
446.024	619.94
446.245	632.94
446.466	602.94
446.687	520.94
446.908	454.94
447.129	420.94
447.35	412.94
447.571	409.94
447.792	421.94
448.013	438.94
448.234	442.94
448.455	481.94
448.675	572.94
448.896	635.94
449.117	562.94
449.338	531.94
449.559	621.94
449.779	693.94
450	549.94
450.221	451.94
450.442	430.94
450.662	430.94
450.883	423.94
451.104	435.94
451.324	409.94
451.545	414.94
451.766	387.94
451.986	389.94
452.207	382.94
452.428	388.94
452.648	375.94
452.869	366.94
453.089	402.94
453.31	414.94
453.53	384.94
453.751	396.94
453.971	386.94
454.192	411.94
454.412	400.94
454.633	389.94
454.853	382.94
455.073	372.94
455.294	398.94
455.514	476.94
455.734	428.94
455.955	386.94
456.175	374.94
456.395	356.94
456.616	346.94
456.836	356.94
457.056	358.94
457.276	340.94
457.497	352.94
457.717	357.94
457.937	359.94
458.157	344.94
458.377	360.94
458.598	375.94
458.818	454.94
459.038	540.94
459.258	525.94
459.478	456.94
459.698	404.94
459.918	403.94
460.138	411.94
460.358	383.94
460.578	404.94
460.798	413.94
461.018	392.94
461.238	396.94
461.458	405.94
461.678	387.94
461.898	402.94
462.118	386.94
462.338	396.94
462.558	413.94
462.777	400.94
462.997	407.94
463.217	428.94
463.437	417.94
463.657	430.94
463.876	401.94
464.096	431.94
464.316	444.94
464.536	429.94
464.755	436.94
464.975	446.94
465.195	484.94
465.414	564.94
465.634	478.94
465.854	444.94
466.073	406.94
466.293	380.94
466.512	389.94
466.732	379.94
466.951	392.94
467.171	396.94
467.391	385.94
467.61	405.94
467.829	412.94
468.049	392.94
468.268	398.94
468.488	379.94
468.707	380.94
468.927	390.94
469.146	370.94
469.365	375.94
469.585	407.94
469.804	394.94
470.023	383.94
470.243	401.94
470.462	405.94
470.681	421.94
470.901	422.94
471.12	394.94
471.339	394.94
471.558	400.94
471.777	407.94
471.997	395.94
472.216	383.94
472.435	444.94
472.654	424.94
472.873	402.94
473.092	396.94
473.311	368.94
473.53	386.94
473.749	404.94
473.968	451.94
474.187	535.94
474.406	512.94
474.625	452.94
474.844	414.94
475.063	402.94
475.282	376.94
475.501	400.94
475.72	398.94
475.939	397.94
476.158	393.94
476.377	412.94
476.596	391.94
476.814	406.94
477.033	428.94
477.252	425.94
477.471	413.94
477.69	448.94
477.908	424.94
478.127	435.94
478.346	428.94
478.564	434.94
478.783	430.94
479.002	428.94
479.22	440.94
479.439	446.94
479.658	462.94
479.876	479.94
480.095	473.94
480.313	481.94
480.532	480.94
480.751	466.94
480.969	477.94
481.188	559.94
481.406	594.94
481.624	522.94
481.843	488.94
482.061	476.94
482.28	450.94
482.498	450.94
482.717	461.94
482.935	459.94
483.153	456.94
483.372	456.94
483.59	448.94
483.808	470.94
484.027	444.94
484.245	449.94
484.463	455.94
484.681	466.94
484.9	472.94
485.118	463.94
485.336	486.94
485.554	494.94
485.772	474.94
485.99	472.94
486.209	486.94
486.427	499.94
486.645	509.94
486.863	496.94
487.081	515.94
487.299	490.94
487.517	464.94
487.735	475.94
487.953	485.94
488.171	504.94
488.389	509.94
488.607	501.94
488.825	512.94
489.043	494.94
489.261	493.94
489.479	501.94
489.696	514.94
489.914	503.94
490.132	510.94
490.35	524.94
490.568	536.94
490.786	526.94
491.003	530.94
491.221	538.94
491.439	544.94
491.657	560.94
491.874	551.94
492.092	569.94
492.31	557.94
492.527	566.94
492.745	576.94
492.963	584.94
493.18	565.94
493.398	565.94
493.615	581.94
493.833	591.94
494.05	588.94
494.268	589.94
494.485	595.94
494.703	577.94
494.92	580.94
495.138	601.94
495.355	586.94
495.573	573.94
495.79	574.94
496.008	564.94
496.225	597.94
496.442	607.94
496.66	589.94
496.877	597.94
497.094	596.94
497.312	591.94
497.529	601.94
497.746	604.94
497.963	621.94
498.181	612.94
498.398	644.94
498.615	649.94
498.832	643.94
499.049	643.94
499.267	648.94
499.484	669.94
499.701	703.94
499.918	698.94
500.135	708.94
500.352	731.94
500.569	728.94
500.786	772.94
501.003	715.94
501.22	736.94
501.437	723.94
501.654	709.94
501.871	720.94
502.088	690.94
