Data from 1965.PennyLincolnUp.Lamp.En5.5.200Scan.071719.P1._HRD10591_14-09-01-911.txt Node
Date: Thu Jul 18 14:09:01 EDT 2019
User: cochatt
Spectrometer: HR+D1059
Trigger mode: 1
Integration Time (sec): 1.000000E-1
Scans to average: 1
Electric dark correction enabled: true
Nonlinearity correction enabled: false
Boxcar width: 0
XAxis mode: Wavelengths
Number of Pixels in Spectrum: 2048
>>>>>Begin Spectral Data<<<<<
223.165	-9.69
223.4	-9.69
223.635	-9.69
223.869	-30.69
224.104	-10.69
224.338	-17.69
224.573	-10.69
224.808	-20.69
225.042	-11.69
225.277	-3.69
225.511	-13.69
225.746	4.31
225.98	16.31
226.215	8.31
226.449	8.31
226.683	32.31
226.918	25.31
227.152	34.31
227.387	46.31
227.621	50.31
227.856	35.31
228.09	51.31
228.324	48.31
228.559	48.31
228.793	65.31
229.027	74.31
229.262	92.31
229.496	112.31
229.73	107.31
229.964	126.31
230.199	99.31
230.433	107.31
230.667	116.31
230.901	102.31
231.136	119.31
231.37	99.31
231.604	96.31
231.838	109.31
232.072	107.31
232.306	109.31
232.541	107.31
232.775	99.31
233.009	117.31
233.243	115.31
233.477	93.31
233.711	117.31
233.945	101.31
234.179	109.31
234.413	118.31
234.647	113.31
234.881	112.31
235.115	109.31
235.349	103.31
235.583	109.31
235.817	101.31
236.051	130.31
236.285	119.31
236.519	117.31
236.753	120.31
236.987	143.31
237.221	152.31
237.455	224.31
237.689	154.31
237.922	114.31
238.156	118.31
238.39	117.31
238.624	109.31
238.858	116.31
239.091	104.31
239.325	116.31
239.559	103.31
239.793	109.31
240.027	129.31
240.26	109.31
240.494	141.31
240.728	132.31
240.961	141.31
241.195	123.31
241.429	109.31
241.662	123.31
241.896	117.31
242.13	130.31
242.363	130.31
242.597	132.31
242.83	125.31
243.064	115.31
243.298	131.31
243.531	121.31
243.765	129.31
243.998	128.31
244.232	123.31
244.465	118.31
244.699	128.31
244.932	129.31
245.166	120.31
245.399	118.31
245.633	132.31
245.866	129.31
246.099	142.31
246.333	132.31
246.566	137.31
246.8	122.31
247.033	135.31
247.266	130.31
247.5	144.31
247.733	152.31
247.966	158.31
248.2	152.31
248.433	156.31
248.666	157.31
248.899	165.31
249.133	162.31
249.366	188.31
249.599	178.31
249.832	154.31
250.066	157.31
250.299	162.31
250.532	164.31
250.765	184.31
250.998	196.31
251.231	200.31
251.465	187.31
251.698	195.31
251.931	177.31
252.164	188.31
252.397	182.31
252.63	192.31
252.863	180.31
253.096	192.31
253.329	193.31
253.562	184.31
253.795	187.31
254.028	193.31
254.261	192.31
254.494	190.31
254.727	220.31
254.96	239.31
255.193	220.31
255.426	212.31
255.659	188.31
255.892	202.31
256.124	195.31
256.357	193.31
256.59	188.31
256.823	201.31
257.056	181.31
257.289	200.31
257.521	194.31
257.754	166.31
257.987	192.31
258.22	178.31
258.452	173.31
258.685	174.31
258.918	187.31
259.151	190.31
259.383	196.31
259.616	182.31
259.849	196.31
260.081	197.31
260.314	208.31
260.547	211.31
260.779	214.31
261.012	203.31
261.244	194.31
261.477	197.31
261.71	196.31
261.942	210.31
262.175	197.31
262.407	195.31
262.64	183.31
262.872	193.31
263.105	183.31
263.337	190.31
263.57	192.31
263.802	179.31
264.035	188.31
264.267	202.31
264.499	203.31
264.732	177.31
264.964	176.31
265.197	175.31
265.429	160.31
265.661	196.31
265.894	182.31
266.126	189.31
266.358	184.31
266.591	167.31
266.823	171.31
267.055	193.31
267.287	203.31
267.52	178.31
267.752	198.31
267.984	194.31
268.216	206.31
268.448	204.31
268.681	209.31
268.913	221.31
269.145	218.31
269.377	232.31
269.609	237.31
269.841	243.31
270.073	224.31
270.306	230.31
270.538	268.31
270.77	278.31
271.002	243.31
271.234	256.31
271.466	256.31
271.698	249.31
271.93	268.31
272.162	268.31
272.394	260.31
272.626	252.31
272.858	239.31
273.09	233.31
273.322	223.31
273.553	225.31
273.785	216.31
274.017	221.31
274.249	244.31
274.481	229.31
274.713	220.31
274.945	258.31
275.176	228.31
275.408	233.31
275.64	225.31
275.872	226.31
276.104	242.31
276.335	224.31
276.567	230.31
276.799	233.31
277.031	247.31
277.262	266.31
277.494	274.31
277.726	243.31
277.957	231.31
278.189	237.31
278.421	233.31
278.652	242.31
278.884	246.31
279.115	246.31
279.347	237.31
279.579	241.31
279.81	216.31
280.042	238.31
280.273	226.31
280.505	235.31
280.736	230.31
280.968	227.31
281.199	220.31
281.431	221.31
281.662	227.31
281.894	230.31
282.125	230.31
282.356	232.31
282.588	272.31
282.819	274.31
283.051	221.31
283.282	244.31
283.513	240.31
283.745	234.31
283.976	256.31
284.207	233.31
284.439	242.31
284.67	246.31
284.901	218.31
285.132	227.31
285.364	232.31
285.595	229.31
285.826	229.31
286.057	236.31
286.288	243.31
286.52	240.31
286.751	261.31
286.982	235.31
287.213	229.31
287.444	250.31
287.675	237.31
287.906	246.31
288.138	259.31
288.369	260.31
288.6	266.31
288.831	254.31
289.062	265.31
289.293	249.31
289.524	248.31
289.755	245.31
289.986	244.31
290.217	251.31
290.448	232.31
290.679	251.31
290.91	243.31
291.141	242.31
291.371	256.31
291.602	244.31
291.833	246.31
292.064	250.31
292.295	250.31
292.526	256.31
292.757	269.31
292.987	237.31
293.218	264.31
293.449	238.31
293.68	242.31
293.91	264.31
294.141	235.31
294.372	252.31
294.603	247.31
294.833	242.31
295.064	250.31
295.295	243.31
295.525	265.31
295.756	246.31
295.987	261.31
296.217	278.31
296.448	301.31
296.679	249.31
296.909	242.31
297.14	250.31
297.37	245.31
297.601	236.31
297.831	258.31
298.062	245.31
298.292	255.31
298.523	259.31
298.753	253.31
298.984	260.31
299.214	270.31
299.445	258.31
299.675	270.31
299.905	267.31
300.136	248.31
300.366	271.31
300.597	263.31
300.827	279.31
301.057	260.31
301.288	264.31
301.518	293.31
301.748	271.31
301.979	267.31
302.209	271.31
302.439	284.31
302.669	283.31
302.9	279.31
303.13	262.31
303.36	270.31
303.59	268.31
303.82	289.31
304.051	269.31
304.281	293.31
304.511	279.31
304.741	273.31
304.971	283.31
305.201	284.31
305.431	267.31
305.661	284.31
305.891	285.31
306.121	278.31
306.352	307.31
306.582	295.31
306.812	282.31
307.042	286.31
307.272	301.31
307.502	285.31
307.731	290.31
307.961	276.31
308.191	291.31
308.421	300.31
308.651	275.31
308.881	304.31
309.111	307.31
309.341	281.31
309.571	299.31
309.8	312.31
310.03	320.31
310.26	329.31
310.49	334.31
310.72	346.31
310.949	340.31
311.179	348.31
311.409	324.31
311.639	320.31
311.868	313.31
312.098	287.31
312.328	334.31
312.557	362.31
312.787	337.31
313.017	344.31
313.246	346.31
313.476	318.31
313.706	309.31
313.935	329.31
314.165	338.31
314.394	334.31
314.624	334.31
314.853	323.31
315.083	346.31
315.312	345.31
315.542	329.31
315.771	318.31
316.001	334.31
316.23	327.31
316.46	316.31
316.689	311.31
316.919	330.31
317.148	334.31
317.377	347.31
317.607	344.31
317.836	357.31
318.065	330.31
318.295	318.31
318.524	330.31
318.753	329.31
318.983	333.31
319.212	333.31
319.441	316.31
319.67	329.31
319.9	324.31
320.129	314.31
320.358	314.31
320.587	341.31
320.816	336.31
321.046	343.31
321.275	356.31
321.504	336.31
321.733	342.31
321.962	343.31
322.191	368.31
322.42	373.31
322.649	396.31
322.878	405.31
323.108	434.31
323.337	445.31
323.566	459.31
323.795	476.31
324.024	520.31
324.253	667.31
324.482	970.31
324.71	1462.31
324.939	1993.31
325.168	1674.31
325.397	890.31
325.626	605.31
325.855	512.31
326.084	458.31
326.313	450.31
326.542	456.31
326.77	516.31
326.999	608.31
327.228	829.31
327.457	1281.31
327.686	1478.31
327.914	984.31
328.143	668.31
328.372	568.31
328.6	523.31
328.829	490.31
329.058	528.31
329.287	531.31
329.515	488.31
329.744	468.31
329.972	473.31
330.201	484.31
330.43	509.31
330.658	532.31
330.887	566.31
331.115	542.31
331.344	446.31
331.572	428.31
331.801	419.31
332.03	425.31
332.258	410.31
332.486	385.31
332.715	405.31
332.943	382.31
333.172	381.31
333.4	380.31
333.629	381.31
333.857	421.31
334.085	418.31
334.314	435.31
334.542	470.31
334.771	474.31
334.999	434.31
335.227	397.31
335.455	397.31
335.684	387.31
335.912	381.31
336.14	388.31
336.369	382.31
336.597	381.31
336.825	376.31
337.053	392.31
337.281	334.31
337.51	360.31
337.738	360.31
337.966	375.31
338.194	372.31
338.422	388.31
338.65	359.31
338.878	350.31
339.106	362.31
339.334	359.31
339.562	349.31
339.79	357.31
340.018	371.31
340.246	368.31
340.474	371.31
340.702	361.31
340.93	376.31
341.158	361.31
341.386	373.31
341.614	380.31
341.842	359.31
342.07	360.31
342.298	352.31
342.526	360.31
342.754	346.31
342.981	371.31
343.209	349.31
343.437	362.31
343.665	363.31
343.893	342.31
344.12	360.31
344.348	364.31
344.576	370.31
344.804	398.31
345.031	354.31
345.259	366.31
345.487	390.31
345.714	378.31
345.942	353.31
346.17	365.31
346.397	358.31
346.625	357.31
346.853	357.31
347.08	349.31
347.308	348.31
347.535	369.31
347.763	362.31
347.99	358.31
348.218	365.31
348.445	374.31
348.673	358.31
348.9	345.31
349.128	334.31
349.355	356.31
349.583	336.31
349.81	357.31
350.037	335.31
350.265	342.31
350.492	342.31
350.72	337.31
350.947	317.31
351.174	369.31
351.402	373.31
351.629	369.31
351.856	365.31
352.083	380.31
352.311	381.31
352.538	378.31
352.765	379.31
352.992	349.31
353.22	361.31
353.447	356.31
353.674	366.31
353.901	348.31
354.128	352.31
354.355	329.31
354.583	350.31
354.81	334.31
355.037	342.31
355.264	329.31
355.491	316.31
355.718	311.31
355.945	314.31
356.172	317.31
356.399	304.31
356.626	326.31
356.853	324.31
357.08	315.31
357.307	316.31
357.534	337.31
357.761	344.31
357.988	327.31
358.215	313.31
358.441	320.31
358.668	328.31
358.895	335.31
359.122	334.31
359.349	353.31
359.576	362.31
359.802	390.31
360.029	422.31
360.256	427.31
360.483	389.31
360.709	356.31
360.936	374.31
361.163	364.31
361.39	374.31
361.616	373.31
361.843	360.31
362.07	353.31
362.296	360.31
362.523	352.31
362.749	361.31
362.976	361.31
363.203	379.31
363.429	347.31
363.656	342.31
363.882	345.31
364.109	325.31
364.335	336.31
364.562	355.31
364.788	358.31
365.015	357.31
365.241	354.31
365.468	364.31
365.694	364.31
365.92	347.31
366.147	349.31
366.373	329.31
366.599	324.31
366.826	312.31
367.052	340.31
367.278	338.31
367.505	331.31
367.731	326.31
367.957	334.31
368.184	349.31
368.41	343.31
368.636	353.31
368.862	352.31
369.089	324.31
369.315	308.31
369.541	349.31
369.767	344.31
369.993	348.31
370.219	322.31
370.445	335.31
370.672	354.31
370.898	361.31
371.124	343.31
371.35	314.31
371.576	315.31
371.802	348.31
372.028	340.31
372.254	345.31
372.48	306.31
372.706	333.31
372.932	342.31
373.158	330.31
373.384	352.31
373.61	338.31
373.835	328.31
374.061	324.31
374.287	366.31
374.513	330.31
374.739	351.31
374.965	333.31
375.191	335.31
375.416	338.31
375.642	323.31
375.868	327.31
376.094	331.31
376.319	339.31
376.545	357.31
376.771	331.31
376.997	329.31
377.222	339.31
377.448	328.31
377.674	325.31
377.899	317.31
378.125	339.31
378.35	330.31
378.576	333.31
378.802	320.31
379.027	330.31
379.253	329.31
379.478	315.31
379.704	355.31
379.929	340.31
380.155	317.31
380.38	332.31
380.606	328.31
380.831	323.31
381.057	332.31
381.282	345.31
381.507	339.31
381.733	330.31
381.958	336.31
382.184	338.31
382.409	349.31
382.634	360.31
382.86	370.31
383.085	340.31
383.31	340.31
383.535	339.31
383.761	342.31
383.986	328.31
384.211	338.31
384.436	333.31
384.662	333.31
384.887	371.31
385.112	348.31
385.337	357.31
385.562	354.31
385.787	346.31
386.013	377.31
386.238	384.31
386.463	362.31
386.688	352.31
386.913	365.31
387.138	355.31
387.363	344.31
387.588	343.31
387.813	355.31
388.038	368.31
388.263	371.31
388.488	341.31
388.713	355.31
388.938	341.31
389.163	347.31
389.387	365.31
389.612	364.31
389.837	344.31
390.062	359.31
390.287	358.31
390.512	353.31
390.736	344.31
390.961	370.31
391.186	353.31
391.411	369.31
391.636	347.31
391.86	352.31
392.085	358.31
392.31	372.31
392.534	370.31
392.759	346.31
392.984	377.31
393.208	373.31
393.433	353.31
393.658	348.31
393.882	353.31
394.107	351.31
394.331	340.31
394.556	364.31
394.78	348.31
395.005	385.31
395.229	372.31
395.454	363.31
395.678	363.31
395.903	379.31
396.127	390.31
396.352	394.31
396.576	380.31
396.801	381.31
397.025	380.31
397.249	378.31
397.474	378.31
397.698	394.31
397.922	385.31
398.147	389.31
398.371	392.31
398.595	379.31
398.82	391.31
399.044	408.31
399.268	410.31
399.492	409.31
399.717	445.31
399.941	444.31
400.165	489.31
400.389	478.31
400.613	436.31
400.837	423.31
401.062	402.31
401.286	405.31
401.51	401.31
401.734	391.31
401.958	422.31
402.182	426.31
402.406	425.31
402.63	442.31
402.854	413.31
403.078	427.31
403.302	428.31
403.526	424.31
403.75	449.31
403.974	422.31
404.198	433.31
404.422	428.31
404.645	424.31
404.869	429.31
405.093	446.31
405.317	487.31
405.541	512.31
405.765	484.31
405.988	480.31
406.212	453.31
406.436	470.31
406.66	472.31
406.883	466.31
407.107	502.31
407.331	501.31
407.555	560.31
407.778	533.31
408.002	496.31
408.226	456.31
408.449	437.31
408.673	455.31
408.896	489.31
409.12	493.31
409.344	472.31
409.567	430.31
409.791	431.31
410.014	420.31
410.238	411.31
410.461	419.31
410.685	411.31
410.908	440.31
411.132	456.31
411.355	473.31
411.578	444.31
411.802	434.31
412.025	430.31
412.249	398.31
412.472	451.31
412.695	473.31
412.919	462.31
413.142	437.31
413.365	422.31
413.589	398.31
413.812	406.31
414.035	396.31
414.258	377.31
414.482	382.31
414.705	403.31
414.928	401.31
415.151	392.31
415.374	393.31
415.597	382.31
415.821	386.31
416.044	384.31
416.267	416.31
416.49	396.31
416.713	391.31
416.936	398.31
417.159	399.31
417.382	398.31
417.605	413.31
417.828	429.31
418.051	420.31
418.274	412.31
418.497	417.31
418.72	391.31
418.943	402.31
419.166	412.31
419.389	419.31
419.611	425.31
419.834	433.31
420.057	422.31
420.28	437.31
420.503	418.31
420.726	436.31
420.948	432.31
421.171	469.31
421.394	466.31
421.617	420.31
421.839	422.31
422.062	419.31
422.285	426.31
422.507	474.31
422.73	541.31
422.953	523.31
423.175	457.31
423.398	440.31
423.621	448.31
423.843	444.31
424.066	443.31
424.288	457.31
424.511	482.31
424.733	509.31
424.956	576.31
425.178	558.31
425.401	545.31
425.623	549.31
425.846	472.31
426.068	450.31
426.291	445.31
426.513	453.31
426.735	443.31
426.958	485.31
427.18	548.31
427.402	665.31
427.625	734.31
427.847	636.31
428.069	549.31
428.292	485.31
428.514	474.31
428.736	448.31
428.958	449.31
429.181	436.31
429.403	413.31
429.625	434.31
429.847	457.31
430.069	504.31
430.292	507.31
430.514	444.31
430.736	412.31
430.958	441.31
431.18	404.31
431.402	400.31
431.624	392.31
431.846	392.31
432.068	390.31
432.29	387.31
432.512	398.31
432.734	404.31
432.956	407.31
433.178	418.31
433.4	398.31
433.622	393.31
433.844	403.31
434.066	391.31
434.287	399.31
434.509	403.31
434.731	414.31
434.953	421.31
435.175	411.31
435.397	438.31
435.618	464.31
435.84	488.31
436.062	566.31
436.284	636.31
436.505	527.31
436.727	486.31
436.949	424.31
437.17	423.31
437.392	419.31
437.614	426.31
437.835	487.31
438.057	579.31
438.278	618.31
438.5	609.31
438.721	658.31
438.943	649.31
439.165	537.31
439.386	466.31
439.608	458.31
439.829	480.31
440.05	482.31
440.272	532.31
440.493	514.31
440.715	457.31
440.936	440.31
441.158	443.31
441.379	410.31
441.6	422.31
441.822	448.31
442.043	494.31
442.264	540.31
442.486	582.31
442.707	511.31
442.928	466.31
443.149	458.31
443.371	489.31
443.592	524.31
443.813	622.31
444.034	641.31
444.255	527.31
444.476	479.31
444.698	471.31
444.919	464.31
445.14	532.31
445.361	529.31
445.582	519.31
445.803	565.31
446.024	650.31
446.245	638.31
446.466	599.31
446.687	508.31
446.908	473.31
447.129	461.31
447.35	437.31
447.571	436.31
447.792	439.31
448.013	441.31
448.234	448.31
448.455	506.31
448.675	570.31
448.896	658.31
449.117	549.31
449.338	516.31
449.559	619.31
449.779	694.31
450	564.31
450.221	464.31
450.442	445.31
450.662	429.31
450.883	445.31
451.104	442.31
451.324	434.31
451.545	411.31
451.766	400.31
451.986	394.31
452.207	371.31
452.428	378.31
452.648	388.31
452.869	398.31
453.089	381.31
453.31	402.31
453.53	396.31
453.751	402.31
453.971	385.31
454.192	406.31
454.412	403.31
454.633	401.31
454.853	396.31
455.073	386.31
455.294	388.31
455.514	475.31
455.734	447.31
455.955	414.31
456.175	366.31
456.395	361.31
456.616	368.31
456.836	355.31
457.056	351.31
457.276	339.31
457.497	364.31
457.717	370.31
457.937	368.31
458.157	380.31
458.377	380.31
458.598	392.31
458.818	456.31
459.038	521.31
459.258	540.31
459.478	441.31
459.698	394.31
459.918	403.31
460.138	382.31
460.358	434.31
460.578	399.31
460.798	399.31
461.018	415.31
461.238	418.31
461.458	389.31
461.678	386.31
461.898	381.31
462.118	403.31
462.338	410.31
462.558	417.31
462.777	412.31
462.997	430.31
463.217	412.31
463.437	421.31
463.657	434.31
463.876	424.31
464.096	426.31
464.316	424.31
464.536	417.31
464.755	432.31
464.975	442.31
465.195	483.31
465.414	554.31
465.634	495.31
465.854	439.31
466.073	418.31
466.293	411.31
466.512	404.31
466.732	406.31
466.951	377.31
467.171	394.31
467.391	405.31
467.61	416.31
467.829	411.31
468.049	392.31
468.268	391.31
468.488	401.31
468.707	396.31
468.927	372.31
469.146	377.31
469.365	397.31
469.585	400.31
469.804	387.31
470.023	404.31
470.243	392.31
470.462	408.31
470.681	433.31
470.901	432.31
471.12	399.31
471.339	380.31
471.558	398.31
471.777	406.31
471.997	385.31
472.216	400.31
472.435	434.31
472.654	426.31
472.873	394.31
473.092	381.31
473.311	386.31
473.53	427.31
473.749	406.31
473.968	434.31
474.187	548.31
474.406	542.31
474.625	457.31
474.844	414.31
475.063	409.31
475.282	380.31
475.501	408.31
475.72	417.31
475.939	419.31
476.158	422.31
476.377	401.31
476.596	390.31
476.814	432.31
477.033	416.31
477.252	421.31
477.471	413.31
477.69	420.31
477.908	433.31
478.127	419.31
478.346	437.31
478.564	452.31
478.783	413.31
479.002	452.31
479.22	458.31
479.439	476.31
479.658	467.31
479.876	483.31
480.095	496.31
480.313	481.31
480.532	499.31
480.751	484.31
480.969	525.31
481.188	564.31
481.406	613.31
481.624	523.31
481.843	504.31
482.061	485.31
482.28	481.31
482.498	481.31
482.717	499.31
482.935	480.31
483.153	469.31
483.372	440.31
483.59	452.31
483.808	468.31
484.027	477.31
484.245	464.31
484.463	465.31
484.681	473.31
484.9	465.31
485.118	480.31
485.336	474.31
485.554	493.31
485.772	487.31
485.99	493.31
486.209	481.31
486.427	478.31
486.645	506.31
486.863	521.31
487.081	510.31
487.299	494.31
487.517	490.31
487.735	492.31
487.953	501.31
488.171	506.31
488.389	517.31
488.607	508.31
488.825	512.31
489.043	513.31
489.261	515.31
489.479	501.31
489.696	522.31
489.914	512.31
490.132	514.31
490.35	514.31
490.568	517.31
490.786	535.31
491.003	547.31
491.221	553.31
491.439	550.31
491.657	564.31
491.874	586.31
492.092	556.31
492.31	564.31
492.527	578.31
492.745	570.31
492.963	584.31
493.18	585.31
493.398	591.31
493.615	596.31
493.833	572.31
494.05	580.31
494.268	580.31
494.485	562.31
494.703	587.31
494.92	572.31
495.138	594.31
495.355	592.31
495.573	589.31
495.79	603.31
496.008	589.31
496.225	609.31
496.442	576.31
496.66	594.31
496.877	554.31
497.094	604.31
497.312	618.31
497.529	609.31
497.746	632.31
497.963	624.31
498.181	636.31
498.398	650.31
498.615	654.31
498.832	669.31
499.049	670.31
499.267	674.31
499.484	680.31
499.701	678.31
499.918	730.31
500.135	729.31
500.352	736.31
500.569	758.31
500.786	747.31
501.003	781.31
501.22	757.31
501.437	718.31
501.654	724.31
501.871	741.31
502.088	713.31
