Data from 1965.PennyLincolnUp.Lamp.En5.5.200Scan.071719.P1._HRD10591_14-09-00-911.txt Node
Date: Thu Jul 18 14:09:00 EDT 2019
User: cochatt
Spectrometer: HR+D1059
Trigger mode: 1
Integration Time (sec): 1.000000E-1
Scans to average: 1
Electric dark correction enabled: true
Nonlinearity correction enabled: false
Boxcar width: 0
XAxis mode: Wavelengths
Number of Pixels in Spectrum: 2048
>>>>>Begin Spectral Data<<<<<
223.165	-21.94
223.4	-21.94
223.635	-21.94
223.869	-16.94
224.104	-10.94
224.338	-7.94
224.573	-10.94
224.808	-20.94
225.042	-10.94
225.277	-5.94
225.511	-1.94
225.746	-0.94
225.98	4.06
226.215	-0.94
226.449	21.06
226.683	26.06
226.918	23.06
227.152	36.06
227.387	22.06
227.621	46.06
227.856	40.06
228.09	50.06
228.324	60.06
228.559	62.06
228.793	71.06
229.027	98.06
229.262	108.06
229.496	119.06
229.73	136.06
229.964	149.06
230.199	120.06
230.433	108.06
230.667	110.06
230.901	106.06
231.136	118.06
231.37	112.06
231.604	100.06
231.838	122.06
232.072	120.06
232.306	104.06
232.541	116.06
232.775	99.06
233.009	112.06
233.243	115.06
233.477	116.06
233.711	118.06
233.945	109.06
234.179	107.06
234.413	107.06
234.647	105.06
234.881	122.06
235.115	126.06
235.349	111.06
235.583	117.06
235.817	118.06
236.051	114.06
236.285	132.06
236.519	124.06
236.753	121.06
236.987	149.06
237.221	187.06
237.455	198.06
237.689	180.06
237.922	148.06
238.156	117.06
238.39	133.06
238.624	116.06
238.858	123.06
239.091	127.06
239.325	128.06
239.559	134.06
239.793	120.06
240.027	127.06
240.26	115.06
240.494	165.06
240.728	144.06
240.961	134.06
241.195	141.06
241.429	125.06
241.662	141.06
241.896	123.06
242.13	132.06
242.363	123.06
242.597	111.06
242.83	132.06
243.064	129.06
243.298	144.06
243.531	140.06
243.765	131.06
243.998	122.06
244.232	122.06
244.465	145.06
244.699	134.06
244.932	138.06
245.166	132.06
245.399	133.06
245.633	137.06
245.866	131.06
246.099	132.06
246.333	124.06
246.566	155.06
246.8	133.06
247.033	142.06
247.266	140.06
247.5	151.06
247.733	161.06
247.966	147.06
248.2	160.06
248.433	144.06
248.666	168.06
248.899	172.06
249.133	178.06
249.366	188.06
249.599	183.06
249.832	163.06
250.066	170.06
250.299	160.06
250.532	166.06
250.765	186.06
250.998	193.06
251.231	190.06
251.465	177.06
251.698	180.06
251.931	189.06
252.164	182.06
252.397	187.06
252.63	194.06
252.863	186.06
253.096	198.06
253.329	200.06
253.562	183.06
253.795	212.06
254.028	196.06
254.261	193.06
254.494	206.06
254.727	237.06
254.96	259.06
255.193	253.06
255.426	222.06
255.659	216.06
255.892	212.06
256.124	203.06
256.357	217.06
256.59	203.06
256.823	198.06
257.056	195.06
257.289	200.06
257.521	194.06
257.754	170.06
257.987	189.06
258.22	196.06
258.452	184.06
258.685	196.06
258.918	186.06
259.151	178.06
259.383	193.06
259.616	216.06
259.849	200.06
260.081	205.06
260.314	234.06
260.547	232.06
260.779	213.06
261.012	208.06
261.244	207.06
261.477	210.06
261.71	207.06
261.942	198.06
262.175	224.06
262.407	212.06
262.64	193.06
262.872	204.06
263.105	197.06
263.337	205.06
263.57	191.06
263.802	194.06
264.035	199.06
264.267	205.06
264.499	186.06
264.732	194.06
264.964	179.06
265.197	190.06
265.429	208.06
265.661	205.06
265.894	202.06
266.126	197.06
266.358	200.06
266.591	205.06
266.823	194.06
267.055	211.06
267.287	189.06
267.52	201.06
267.752	205.06
267.984	209.06
268.216	211.06
268.448	211.06
268.681	223.06
268.913	229.06
269.145	209.06
269.377	236.06
269.609	241.06
269.841	216.06
270.073	240.06
270.306	270.06
270.538	278.06
270.77	282.06
271.002	273.06
271.234	266.06
271.466	251.06
271.698	272.06
271.93	282.06
272.162	289.06
272.394	302.06
272.626	253.06
272.858	258.06
273.09	253.06
273.322	250.06
273.553	241.06
273.785	237.06
274.017	234.06
274.249	230.06
274.481	225.06
274.713	237.06
274.945	218.06
275.176	235.06
275.408	231.06
275.64	248.06
275.872	226.06
276.104	226.06
276.335	224.06
276.567	242.06
276.799	243.06
277.031	268.06
277.262	286.06
277.494	298.06
277.726	278.06
277.957	266.06
278.189	242.06
278.421	254.06
278.652	238.06
278.884	235.06
279.115	227.06
279.347	242.06
279.579	261.06
279.81	245.06
280.042	227.06
280.273	243.06
280.505	242.06
280.736	240.06
280.968	242.06
281.199	228.06
281.431	231.06
281.662	248.06
281.894	230.06
282.125	237.06
282.356	255.06
282.588	272.06
282.819	266.06
283.051	254.06
283.282	244.06
283.513	238.06
283.745	249.06
283.976	230.06
284.207	262.06
284.439	238.06
284.67	253.06
284.901	251.06
285.132	242.06
285.364	258.06
285.595	254.06
285.826	256.06
286.057	244.06
286.288	259.06
286.52	221.06
286.751	234.06
286.982	239.06
287.213	241.06
287.444	253.06
287.675	254.06
287.906	259.06
288.138	257.06
288.369	252.06
288.6	251.06
288.831	256.06
289.062	275.06
289.293	267.06
289.524	246.06
289.755	257.06
289.986	240.06
290.217	244.06
290.448	251.06
290.679	248.06
290.91	252.06
291.141	259.06
291.371	249.06
291.602	257.06
291.833	245.06
292.064	239.06
292.295	268.06
292.526	267.06
292.757	239.06
292.987	251.06
293.218	254.06
293.449	270.06
293.68	258.06
293.91	241.06
294.141	238.06
294.372	263.06
294.603	260.06
294.833	255.06
295.064	269.06
295.295	252.06
295.525	254.06
295.756	254.06
295.987	278.06
296.217	296.06
296.448	291.06
296.679	275.06
296.909	237.06
297.14	230.06
297.37	268.06
297.601	260.06
297.831	237.06
298.062	268.06
298.292	253.06
298.523	270.06
298.753	255.06
298.984	267.06
299.214	259.06
299.445	254.06
299.675	244.06
299.905	271.06
300.136	284.06
300.366	288.06
300.597	275.06
300.827	285.06
301.057	294.06
301.288	290.06
301.518	299.06
301.748	288.06
301.979	276.06
302.209	268.06
302.439	284.06
302.669	302.06
302.9	284.06
303.13	286.06
303.36	272.06
303.59	287.06
303.82	293.06
304.051	303.06
304.281	276.06
304.511	280.06
304.741	275.06
304.971	298.06
305.201	270.06
305.431	273.06
305.661	294.06
305.891	299.06
306.121	290.06
306.352	274.06
306.582	294.06
306.812	293.06
307.042	286.06
307.272	302.06
307.502	288.06
307.731	310.06
307.961	303.06
308.191	289.06
308.421	272.06
308.651	278.06
308.881	307.06
309.111	305.06
309.341	320.06
309.571	301.06
309.8	325.06
310.03	322.06
310.26	342.06
310.49	353.06
310.72	348.06
310.949	343.06
311.179	373.06
311.409	349.06
311.639	316.06
311.868	317.06
312.098	329.06
312.328	353.06
312.557	369.06
312.787	363.06
313.017	362.06
313.246	347.06
313.476	322.06
313.706	334.06
313.935	330.06
314.165	342.06
314.394	344.06
314.624	355.06
314.853	349.06
315.083	345.06
315.312	334.06
315.542	338.06
315.771	330.06
316.001	337.06
316.23	322.06
316.46	331.06
316.689	316.06
316.919	342.06
317.148	343.06
317.377	341.06
317.607	340.06
317.836	336.06
318.065	338.06
318.295	346.06
318.524	339.06
318.753	331.06
318.983	333.06
319.212	330.06
319.441	342.06
319.67	356.06
319.9	340.06
320.129	334.06
320.358	347.06
320.587	332.06
320.816	352.06
321.046	356.06
321.275	355.06
321.504	354.06
321.733	354.06
321.962	350.06
322.191	376.06
322.42	390.06
322.649	394.06
322.878	399.06
323.108	406.06
323.337	433.06
323.566	471.06
323.795	489.06
324.024	554.06
324.253	665.06
324.482	938.06
324.71	1496.06
324.939	2037.06
325.168	1670.06
325.397	889.06
325.626	607.06
325.855	484.06
326.084	464.06
326.313	445.06
326.542	453.06
326.77	512.06
326.999	596.06
327.228	851.06
327.457	1251.06
327.686	1468.06
327.914	980.06
328.143	650.06
328.372	580.06
328.6	522.06
328.829	508.06
329.058	533.06
329.287	527.06
329.515	520.06
329.744	468.06
329.972	489.06
330.201	485.06
330.43	526.06
330.658	552.06
330.887	560.06
331.115	533.06
331.344	470.06
331.572	421.06
331.801	433.06
332.03	443.06
332.258	419.06
332.486	395.06
332.715	384.06
332.943	386.06
333.172	397.06
333.4	404.06
333.629	405.06
333.857	414.06
334.085	439.06
334.314	456.06
334.542	475.06
334.771	504.06
334.999	426.06
335.227	425.06
335.455	388.06
335.684	389.06
335.912	391.06
336.14	390.06
336.369	376.06
336.597	397.06
336.825	416.06
337.053	389.06
337.281	380.06
337.51	370.06
337.738	388.06
337.966	396.06
338.194	417.06
338.422	410.06
338.65	394.06
338.878	366.06
339.106	377.06
339.334	365.06
339.562	370.06
339.79	377.06
340.018	376.06
340.246	382.06
340.474	371.06
340.702	392.06
340.93	392.06
341.158	390.06
341.386	379.06
341.614	356.06
341.842	372.06
342.07	383.06
342.298	367.06
342.526	370.06
342.754	377.06
342.981	344.06
343.209	373.06
343.437	369.06
343.665	344.06
343.893	354.06
344.12	391.06
344.348	378.06
344.576	379.06
344.804	364.06
345.031	382.06
345.259	379.06
345.487	380.06
345.714	413.06
345.942	389.06
346.17	369.06
346.397	353.06
346.625	355.06
346.853	364.06
347.08	358.06
347.308	377.06
347.535	372.06
347.763	368.06
347.99	358.06
348.218	374.06
348.445	395.06
348.673	383.06
348.9	388.06
349.128	346.06
349.355	352.06
349.583	337.06
349.81	350.06
350.037	350.06
350.265	358.06
350.492	365.06
350.72	341.06
350.947	366.06
351.174	366.06
351.402	380.06
351.629	390.06
351.856	386.06
352.083	371.06
352.311	390.06
352.538	382.06
352.765	385.06
352.992	376.06
353.22	382.06
353.447	378.06
353.674	347.06
353.901	339.06
354.128	338.06
354.355	347.06
354.583	328.06
354.81	350.06
355.037	337.06
355.264	345.06
355.491	339.06
355.718	330.06
355.945	327.06
356.172	329.06
356.399	334.06
356.626	315.06
356.853	309.06
357.08	347.06
357.307	337.06
357.534	326.06
357.761	348.06
357.988	328.06
358.215	328.06
358.441	341.06
358.668	345.06
358.895	356.06
359.122	356.06
359.349	358.06
359.576	364.06
359.802	388.06
360.029	413.06
360.256	428.06
360.483	401.06
360.709	361.06
360.936	373.06
361.163	356.06
361.39	381.06
361.616	365.06
361.843	377.06
362.07	371.06
362.296	377.06
362.523	366.06
362.749	366.06
362.976	340.06
363.203	365.06
363.429	341.06
363.656	359.06
363.882	356.06
364.109	351.06
364.335	358.06
364.562	345.06
364.788	343.06
365.015	344.06
365.241	349.06
365.468	345.06
365.694	349.06
365.92	364.06
366.147	344.06
366.373	331.06
366.599	358.06
366.826	344.06
367.052	344.06
367.278	351.06
367.505	333.06
367.731	352.06
367.957	340.06
368.184	346.06
368.41	361.06
368.636	360.06
368.862	373.06
369.089	348.06
369.315	384.06
369.541	356.06
369.767	339.06
369.993	357.06
370.219	349.06
370.445	340.06
370.672	337.06
370.898	339.06
371.124	346.06
371.35	322.06
371.576	338.06
371.802	347.06
372.028	335.06
372.254	356.06
372.48	341.06
372.706	336.06
372.932	360.06
373.158	340.06
373.384	340.06
373.61	349.06
373.835	335.06
374.061	337.06
374.287	357.06
374.513	352.06
374.739	351.06
374.965	355.06
375.191	342.06
375.416	336.06
375.642	330.06
375.868	339.06
376.094	343.06
376.319	349.06
376.545	342.06
376.771	329.06
376.997	344.06
377.222	338.06
377.448	327.06
377.674	336.06
377.899	333.06
378.125	341.06
378.35	350.06
378.576	351.06
378.802	341.06
379.027	329.06
379.253	336.06
379.478	338.06
379.704	355.06
379.929	318.06
380.155	322.06
380.38	320.06
380.606	338.06
380.831	353.06
381.057	339.06
381.282	342.06
381.507	332.06
381.733	336.06
381.958	345.06
382.184	343.06
382.409	361.06
382.634	349.06
382.86	345.06
383.085	340.06
383.31	350.06
383.535	345.06
383.761	342.06
383.986	371.06
384.211	347.06
384.436	363.06
384.662	349.06
384.887	358.06
385.112	337.06
385.337	366.06
385.562	348.06
385.787	350.06
386.013	378.06
386.238	376.06
386.463	383.06
386.688	359.06
386.913	349.06
387.138	340.06
387.363	366.06
387.588	363.06
387.813	370.06
388.038	380.06
388.263	360.06
388.488	355.06
388.713	370.06
388.938	357.06
389.163	373.06
389.387	368.06
389.612	369.06
389.837	365.06
390.062	360.06
390.287	363.06
390.512	366.06
390.736	367.06
390.961	358.06
391.186	374.06
391.411	381.06
391.636	366.06
391.86	368.06
392.085	374.06
392.31	371.06
392.534	372.06
392.759	377.06
392.984	369.06
393.208	366.06
393.433	363.06
393.658	371.06
393.882	346.06
394.107	356.06
394.331	387.06
394.556	384.06
394.78	383.06
395.005	382.06
395.229	369.06
395.454	381.06
395.678	362.06
395.903	384.06
396.127	416.06
396.352	412.06
396.576	402.06
396.801	384.06
397.025	378.06
397.249	381.06
397.474	386.06
397.698	392.06
397.922	386.06
398.147	417.06
398.371	414.06
398.595	401.06
398.82	388.06
399.044	401.06
399.268	399.06
399.492	453.06
399.717	442.06
399.941	488.06
400.165	485.06
400.389	484.06
400.613	445.06
400.837	436.06
401.062	410.06
401.286	406.06
401.51	419.06
401.734	395.06
401.958	402.06
402.182	402.06
402.406	436.06
402.63	423.06
402.854	431.06
403.078	422.06
403.302	418.06
403.526	429.06
403.75	425.06
403.974	423.06
404.198	437.06
404.422	413.06
404.645	428.06
404.869	443.06
405.093	444.06
405.317	493.06
405.541	502.06
405.765	479.06
405.988	456.06
406.212	452.06
406.436	482.06
406.66	486.06
406.883	479.06
407.107	474.06
407.331	505.06
407.555	538.06
407.778	560.06
408.002	531.06
408.226	483.06
408.449	454.06
408.673	464.06
408.896	489.06
409.12	508.06
409.344	493.06
409.567	431.06
409.791	434.06
410.014	431.06
410.238	404.06
410.461	434.06
410.685	448.06
410.908	448.06
411.132	481.06
411.355	494.06
411.578	467.06
411.802	440.06
412.025	437.06
412.249	417.06
412.472	457.06
412.695	499.06
412.919	480.06
413.142	433.06
413.365	423.06
413.589	445.06
413.812	422.06
414.035	415.06
414.258	404.06
414.482	385.06
414.705	405.06
414.928	413.06
415.151	392.06
415.374	397.06
415.597	420.06
415.821	413.06
416.044	420.06
416.267	398.06
416.49	389.06
416.713	397.06
416.936	409.06
417.159	396.06
417.382	407.06
417.605	410.06
417.828	405.06
418.051	433.06
418.274	414.06
418.497	428.06
418.72	407.06
418.943	418.06
419.166	437.06
419.389	440.06
419.611	428.06
419.834	410.06
420.057	424.06
420.28	432.06
420.503	407.06
420.726	422.06
420.948	440.06
421.171	470.06
421.394	464.06
421.617	426.06
421.839	432.06
422.062	429.06
422.285	448.06
422.507	503.06
422.73	524.06
422.953	508.06
423.175	435.06
423.398	448.06
423.621	440.06
423.843	457.06
424.066	444.06
424.288	451.06
424.511	468.06
424.733	527.06
424.956	565.06
425.178	563.06
425.401	570.06
425.623	553.06
425.846	476.06
426.068	463.06
426.291	462.06
426.513	453.06
426.735	453.06
426.958	471.06
427.18	571.06
427.402	674.06
427.625	736.06
427.847	666.06
428.069	592.06
428.292	490.06
428.514	466.06
428.736	447.06
428.958	430.06
429.181	424.06
429.403	447.06
429.625	450.06
429.847	464.06
430.069	509.06
430.292	501.06
430.514	454.06
430.736	423.06
430.958	424.06
431.18	409.06
431.402	416.06
431.624	403.06
431.846	400.06
432.068	415.06
432.29	395.06
432.512	418.06
432.734	408.06
432.956	418.06
433.178	418.06
433.4	417.06
433.622	416.06
433.844	430.06
434.066	399.06
434.287	404.06
434.509	410.06
434.731	406.06
434.953	422.06
435.175	453.06
435.397	455.06
435.618	479.06
435.84	499.06
436.062	593.06
436.284	614.06
436.505	532.06
436.727	459.06
436.949	447.06
437.17	435.06
437.392	455.06
437.614	466.06
437.835	499.06
438.057	562.06
438.278	646.06
438.5	616.06
438.721	678.06
438.943	654.06
439.165	499.06
439.386	493.06
439.608	488.06
439.829	477.06
440.05	514.06
440.272	551.06
440.493	520.06
440.715	469.06
440.936	445.06
441.158	437.06
441.379	436.06
441.6	461.06
441.822	469.06
442.043	489.06
442.264	557.06
442.486	602.06
442.707	506.06
442.928	477.06
443.149	477.06
443.371	504.06
443.592	540.06
443.813	614.06
444.034	658.06
444.255	552.06
444.476	483.06
444.698	472.06
444.919	456.06
445.14	564.06
445.361	520.06
445.582	504.06
445.803	554.06
446.024	638.06
446.245	643.06
446.466	608.06
446.687	508.06
446.908	470.06
447.129	443.06
447.35	436.06
447.571	441.06
447.792	428.06
448.013	440.06
448.234	459.06
448.455	517.06
448.675	579.06
448.896	653.06
449.117	562.06
449.338	560.06
449.559	652.06
449.779	714.06
450	570.06
450.221	454.06
450.442	447.06
450.662	422.06
450.883	424.06
451.104	446.06
451.324	465.06
451.545	392.06
451.766	411.06
451.986	414.06
452.207	383.06
452.428	386.06
452.648	376.06
452.869	395.06
453.089	406.06
453.31	416.06
453.53	415.06
453.751	384.06
453.971	403.06
454.192	425.06
454.412	414.06
454.633	402.06
454.853	391.06
455.073	400.06
455.294	437.06
455.514	475.06
455.734	470.06
455.955	396.06
456.175	372.06
456.395	380.06
456.616	368.06
456.836	375.06
457.056	362.06
457.276	350.06
457.497	380.06
457.717	358.06
457.937	365.06
458.157	378.06
458.377	388.06
458.598	403.06
458.818	485.06
459.038	562.06
459.258	542.06
459.478	461.06
459.698	427.06
459.918	392.06
460.138	392.06
460.358	395.06
460.578	412.06
460.798	407.06
461.018	417.06
461.238	399.06
461.458	400.06
461.678	400.06
461.898	418.06
462.118	400.06
462.338	442.06
462.558	454.06
462.777	417.06
462.997	437.06
463.217	455.06
463.437	446.06
463.657	431.06
463.876	418.06
464.096	419.06
464.316	436.06
464.536	439.06
464.755	438.06
464.975	456.06
465.195	479.06
465.414	546.06
465.634	470.06
465.854	446.06
466.073	438.06
466.293	428.06
466.512	418.06
466.732	402.06
466.951	406.06
467.171	386.06
467.391	411.06
467.61	407.06
467.829	425.06
468.049	416.06
468.268	403.06
468.488	402.06
468.707	384.06
468.927	379.06
469.146	387.06
469.365	398.06
469.585	409.06
469.804	401.06
470.023	409.06
470.243	416.06
470.462	420.06
470.681	436.06
470.901	440.06
471.12	400.06
471.339	399.06
471.558	395.06
471.777	388.06
471.997	399.06
472.216	418.06
472.435	465.06
472.654	426.06
472.873	420.06
473.092	409.06
473.311	401.06
473.53	394.06
473.749	419.06
473.968	468.06
474.187	557.06
474.406	548.06
474.625	458.06
474.844	418.06
475.063	418.06
475.282	411.06
475.501	391.06
475.72	419.06
475.939	404.06
476.158	411.06
476.377	412.06
476.596	403.06
476.814	424.06
477.033	431.06
477.252	428.06
477.471	433.06
477.69	445.06
477.908	424.06
478.127	445.06
478.346	426.06
478.564	450.06
478.783	443.06
479.002	449.06
479.22	458.06
479.439	454.06
479.658	474.06
479.876	501.06
480.095	480.06
480.313	507.06
480.532	510.06
480.751	488.06
480.969	512.06
481.188	580.06
481.406	594.06
481.624	540.06
481.843	501.06
482.061	490.06
482.28	480.06
482.498	474.06
482.717	481.06
482.935	491.06
483.153	462.06
483.372	475.06
483.59	470.06
483.808	482.06
484.027	477.06
484.245	470.06
484.463	490.06
484.681	474.06
484.9	463.06
485.118	482.06
485.336	478.06
485.554	506.06
485.772	497.06
485.99	483.06
486.209	476.06
486.427	494.06
486.645	499.06
486.863	511.06
487.081	520.06
487.299	526.06
487.517	524.06
487.735	510.06
487.953	512.06
488.171	509.06
488.389	510.06
488.607	507.06
488.825	496.06
489.043	520.06
489.261	515.06
489.479	505.06
489.696	518.06
489.914	508.06
490.132	521.06
490.35	529.06
490.568	520.06
490.786	545.06
491.003	524.06
491.221	546.06
491.439	558.06
491.657	573.06
491.874	572.06
492.092	568.06
492.31	570.06
492.527	591.06
492.745	575.06
492.963	561.06
493.18	597.06
493.398	578.06
493.615	590.06
493.833	616.06
494.05	592.06
494.268	607.06
494.485	586.06
494.703	572.06
494.92	585.06
495.138	584.06
495.355	591.06
495.573	598.06
495.79	601.06
496.008	592.06
496.225	584.06
496.442	608.06
496.66	610.06
496.877	585.06
497.094	626.06
497.312	623.06
497.529	600.06
497.746	594.06
497.963	613.06
498.181	643.06
498.398	652.06
498.615	655.06
498.832	649.06
499.049	668.06
499.267	701.06
499.484	662.06
499.701	712.06
499.918	723.06
500.135	724.06
500.352	755.06
500.569	755.06
500.786	761.06
501.003	763.06
501.22	745.06
501.437	763.06
501.654	741.06
501.871	723.06
