Data from 1965.PennyLincolnUp.Lamp.En5.5.200Scan.071719.P1._HRD10591_14-10-56-912.txt Node
Date: Thu Jul 18 14:10:56 EDT 2019
User: cochatt
Spectrometer: HR+D1059
Trigger mode: 1
Integration Time (sec): 1.000000E-1
Scans to average: 1
Electric dark correction enabled: true
Nonlinearity correction enabled: false
Boxcar width: 0
XAxis mode: Wavelengths
Number of Pixels in Spectrum: 2048
>>>>>Begin Spectral Data<<<<<
223.165	-26.88
223.4	-26.88
223.635	-26.88
223.869	-7.88
224.104	-19.88
224.338	-3.88
224.573	-17.88
224.808	-10.88
225.042	-8.88
225.277	2.12
225.511	1.12
225.746	7.12
225.98	7.12
226.215	2.12
226.449	12.12
226.683	22.12
226.918	17.12
227.152	25.12
227.387	41.12
227.621	36.12
227.856	46.12
228.09	52.12
228.324	45.12
228.559	64.12
228.793	81.12
229.027	96.12
229.262	104.12
229.496	120.12
229.73	141.12
229.964	147.12
230.199	123.12
230.433	109.12
230.667	128.12
230.901	115.12
231.136	119.12
231.37	109.12
231.604	107.12
231.838	118.12
232.072	104.12
232.306	104.12
232.541	106.12
232.775	109.12
233.009	123.12
233.243	105.12
233.477	107.12
233.711	116.12
233.945	101.12
234.179	115.12
234.413	126.12
234.647	103.12
234.881	102.12
235.115	97.12
235.349	127.12
235.583	110.12
235.817	112.12
236.051	112.12
236.285	113.12
236.519	121.12
236.753	123.12
236.987	127.12
237.221	195.12
237.455	226.12
237.689	181.12
237.922	130.12
238.156	124.12
238.39	127.12
238.624	105.12
238.858	117.12
239.091	117.12
239.325	120.12
239.559	115.12
239.793	122.12
240.027	142.12
240.26	139.12
240.494	147.12
240.728	134.12
240.961	152.12
241.195	140.12
241.429	126.12
241.662	130.12
241.896	123.12
242.13	127.12
242.363	113.12
242.597	120.12
242.83	123.12
243.064	136.12
243.298	126.12
243.531	130.12
243.765	142.12
243.998	136.12
244.232	129.12
244.465	145.12
244.699	128.12
244.932	126.12
245.166	133.12
245.399	135.12
245.633	140.12
245.866	142.12
246.099	138.12
246.333	153.12
246.566	140.12
246.8	146.12
247.033	143.12
247.266	152.12
247.5	149.12
247.733	164.12
247.966	183.12
248.2	170.12
248.433	153.12
248.666	173.12
248.899	177.12
249.133	205.12
249.366	197.12
249.599	189.12
249.832	178.12
250.066	168.12
250.299	178.12
250.532	176.12
250.765	191.12
250.998	222.12
251.231	204.12
251.465	197.12
251.698	195.12
251.931	184.12
252.164	172.12
252.397	187.12
252.63	188.12
252.863	195.12
253.096	197.12
253.329	212.12
253.562	205.12
253.795	224.12
254.028	208.12
254.261	223.12
254.494	219.12
254.727	226.12
254.96	273.12
255.193	261.12
255.426	235.12
255.659	232.12
255.892	197.12
256.124	207.12
256.357	192.12
256.59	202.12
256.823	212.12
257.056	206.12
257.289	204.12
257.521	176.12
257.754	188.12
257.987	185.12
258.22	186.12
258.452	199.12
258.685	193.12
258.918	198.12
259.151	197.12
259.383	190.12
259.616	204.12
259.849	217.12
260.081	223.12
260.314	254.12
260.547	240.12
260.779	236.12
261.012	203.12
261.244	205.12
261.477	209.12
261.71	205.12
261.942	212.12
262.175	225.12
262.407	217.12
262.64	217.12
262.872	208.12
263.105	194.12
263.337	219.12
263.57	203.12
263.802	203.12
264.035	201.12
264.267	201.12
264.499	186.12
264.732	192.12
264.964	205.12
265.197	207.12
265.429	214.12
265.661	192.12
265.894	199.12
266.126	185.12
266.358	206.12
266.591	203.12
266.823	200.12
267.055	217.12
267.287	220.12
267.52	204.12
267.752	219.12
267.984	209.12
268.216	213.12
268.448	219.12
268.681	235.12
268.913	213.12
269.145	243.12
269.377	252.12
269.609	265.12
269.841	248.12
270.073	262.12
270.306	261.12
270.538	288.12
270.77	301.12
271.002	271.12
271.234	270.12
271.466	273.12
271.698	284.12
271.93	285.12
272.162	291.12
272.394	305.12
272.626	284.12
272.858	289.12
273.09	252.12
273.322	268.12
273.553	234.12
273.785	260.12
274.017	248.12
274.249	261.12
274.481	231.12
274.713	252.12
274.945	248.12
275.176	245.12
275.408	244.12
275.64	242.12
275.872	237.12
276.104	267.12
276.335	250.12
276.567	260.12
276.799	258.12
277.031	288.12
277.262	311.12
277.494	327.12
277.726	279.12
277.957	271.12
278.189	274.12
278.421	248.12
278.652	268.12
278.884	246.12
279.115	248.12
279.347	236.12
279.579	245.12
279.81	266.12
280.042	225.12
280.273	233.12
280.505	238.12
280.736	258.12
280.968	237.12
281.199	247.12
281.431	256.12
281.662	237.12
281.894	259.12
282.125	259.12
282.356	272.12
282.588	297.12
282.819	292.12
283.051	278.12
283.282	250.12
283.513	246.12
283.745	240.12
283.976	255.12
284.207	239.12
284.439	252.12
284.67	252.12
284.901	252.12
285.132	259.12
285.364	241.12
285.595	270.12
285.826	259.12
286.057	259.12
286.288	256.12
286.52	267.12
286.751	239.12
286.982	247.12
287.213	243.12
287.444	255.12
287.675	255.12
287.906	276.12
288.138	275.12
288.369	271.12
288.6	269.12
288.831	268.12
289.062	266.12
289.293	272.12
289.524	249.12
289.755	248.12
289.986	241.12
290.217	249.12
290.448	256.12
290.679	256.12
290.91	273.12
291.141	250.12
291.371	270.12
291.602	274.12
291.833	247.12
292.064	270.12
292.295	267.12
292.526	282.12
292.757	267.12
292.987	252.12
293.218	257.12
293.449	268.12
293.68	260.12
293.91	255.12
294.141	256.12
294.372	262.12
294.603	277.12
294.833	271.12
295.064	269.12
295.295	262.12
295.525	261.12
295.756	270.12
295.987	279.12
296.217	319.12
296.448	274.12
296.679	292.12
296.909	270.12
297.14	255.12
297.37	263.12
297.601	268.12
297.831	286.12
298.062	270.12
298.292	281.12
298.523	266.12
298.753	288.12
298.984	275.12
299.214	249.12
299.445	285.12
299.675	284.12
299.905	284.12
300.136	290.12
300.366	287.12
300.597	291.12
300.827	285.12
301.057	288.12
301.288	286.12
301.518	298.12
301.748	286.12
301.979	313.12
302.209	293.12
302.439	308.12
302.669	299.12
302.9	265.12
303.13	293.12
303.36	288.12
303.59	307.12
303.82	319.12
304.051	299.12
304.281	321.12
304.511	295.12
304.741	297.12
304.971	282.12
305.201	287.12
305.431	303.12
305.661	303.12
305.891	289.12
306.121	304.12
306.352	324.12
306.582	320.12
306.812	309.12
307.042	307.12
307.272	297.12
307.502	310.12
307.731	291.12
307.961	281.12
308.191	305.12
308.421	315.12
308.651	303.12
308.881	299.12
309.111	318.12
309.341	310.12
309.571	351.12
309.8	348.12
310.03	341.12
310.26	355.12
310.49	339.12
310.72	356.12
310.949	371.12
311.179	380.12
311.409	342.12
311.639	367.12
311.868	333.12
312.098	336.12
312.328	362.12
312.557	364.12
312.787	388.12
313.017	401.12
313.246	384.12
313.476	355.12
313.706	358.12
313.935	324.12
314.165	364.12
314.394	368.12
314.624	361.12
314.853	355.12
315.083	345.12
315.312	345.12
315.542	345.12
315.771	336.12
316.001	332.12
316.23	348.12
316.46	354.12
316.689	361.12
316.919	353.12
317.148	352.12
317.377	369.12
317.607	361.12
317.836	359.12
318.065	333.12
318.295	348.12
318.524	363.12
318.753	348.12
318.983	372.12
319.212	368.12
319.441	367.12
319.67	373.12
319.9	346.12
320.129	343.12
320.358	365.12
320.587	368.12
320.816	378.12
321.046	378.12
321.275	371.12
321.504	380.12
321.733	383.12
321.962	399.12
322.191	407.12
322.42	432.12
322.649	423.12
322.878	451.12
323.108	450.12
323.337	481.12
323.566	488.12
323.795	540.12
324.024	594.12
324.253	753.12
324.482	1051.12
324.71	1615.12
324.939	2257.12
325.168	1897.12
325.397	975.12
325.626	658.12
325.855	557.12
326.084	517.12
326.313	495.12
326.542	500.12
326.77	567.12
326.999	666.12
327.228	923.12
327.457	1419.12
327.686	1683.12
327.914	1103.12
328.143	742.12
328.372	673.12
328.6	608.12
328.829	583.12
329.058	580.12
329.287	599.12
329.515	550.12
329.744	508.12
329.972	488.12
330.201	515.12
330.43	578.12
330.658	600.12
330.887	591.12
331.115	600.12
331.344	513.12
331.572	476.12
331.801	477.12
332.03	470.12
332.258	452.12
332.486	426.12
332.715	435.12
332.943	438.12
333.172	413.12
333.4	424.12
333.629	439.12
333.857	435.12
334.085	448.12
334.314	480.12
334.542	509.12
334.771	517.12
334.999	467.12
335.227	452.12
335.455	439.12
335.684	419.12
335.912	410.12
336.14	405.12
336.369	415.12
336.597	414.12
336.825	411.12
337.053	402.12
337.281	425.12
337.51	392.12
337.738	406.12
337.966	404.12
338.194	413.12
338.422	410.12
338.65	374.12
338.878	402.12
339.106	362.12
339.334	406.12
339.562	385.12
339.79	401.12
340.018	403.12
340.246	378.12
340.474	393.12
340.702	404.12
340.93	387.12
341.158	381.12
341.386	395.12
341.614	406.12
341.842	387.12
342.07	390.12
342.298	399.12
342.526	368.12
342.754	373.12
342.981	363.12
343.209	373.12
343.437	385.12
343.665	383.12
343.893	398.12
344.12	382.12
344.348	380.12
344.576	383.12
344.804	400.12
345.031	410.12
345.259	412.12
345.487	434.12
345.714	404.12
345.942	375.12
346.17	375.12
346.397	361.12
346.625	399.12
346.853	371.12
347.08	392.12
347.308	388.12
347.535	385.12
347.763	401.12
347.99	397.12
348.218	416.12
348.445	415.12
348.673	400.12
348.9	394.12
349.128	383.12
349.355	366.12
349.583	366.12
349.81	362.12
350.037	362.12
350.265	359.12
350.492	375.12
350.72	364.12
350.947	397.12
351.174	395.12
351.402	416.12
351.629	392.12
351.856	395.12
352.083	378.12
352.311	419.12
352.538	400.12
352.765	409.12
352.992	414.12
353.22	394.12
353.447	382.12
353.674	363.12
353.901	353.12
354.128	346.12
354.355	357.12
354.583	359.12
354.81	362.12
355.037	351.12
355.264	343.12
355.491	355.12
355.718	349.12
355.945	342.12
356.172	356.12
356.399	343.12
356.626	343.12
356.853	340.12
357.08	352.12
357.307	368.12
357.534	365.12
357.761	371.12
357.988	359.12
358.215	355.12
358.441	360.12
358.668	344.12
358.895	358.12
359.122	359.12
359.349	373.12
359.576	381.12
359.802	388.12
360.029	457.12
360.256	461.12
360.483	437.12
360.709	415.12
360.936	406.12
361.163	384.12
361.39	383.12
361.616	391.12
361.843	359.12
362.07	397.12
362.296	395.12
362.523	376.12
362.749	379.12
362.976	388.12
363.203	381.12
363.429	381.12
363.656	357.12
363.882	369.12
364.109	379.12
364.335	375.12
364.562	376.12
364.788	373.12
365.015	378.12
365.241	373.12
365.468	363.12
365.694	385.12
365.92	404.12
366.147	364.12
366.373	345.12
366.599	378.12
366.826	340.12
367.052	359.12
367.278	361.12
367.505	354.12
367.731	389.12
367.957	371.12
368.184	342.12
368.41	374.12
368.636	381.12
368.862	370.12
369.089	371.12
369.315	356.12
369.541	359.12
369.767	359.12
369.993	343.12
370.219	332.12
370.445	340.12
370.672	343.12
370.898	334.12
371.124	353.12
371.35	372.12
371.576	355.12
371.802	344.12
372.028	335.12
372.254	344.12
372.48	333.12
372.706	355.12
372.932	332.12
373.158	360.12
373.384	359.12
373.61	349.12
373.835	364.12
374.061	349.12
374.287	347.12
374.513	376.12
374.739	337.12
374.965	358.12
375.191	341.12
375.416	346.12
375.642	356.12
375.868	365.12
376.094	342.12
376.319	337.12
376.545	358.12
376.771	346.12
376.997	352.12
377.222	343.12
377.448	340.12
377.674	360.12
377.899	345.12
378.125	343.12
378.35	364.12
378.576	340.12
378.802	332.12
379.027	347.12
379.253	353.12
379.478	356.12
379.704	358.12
379.929	332.12
380.155	361.12
380.38	336.12
380.606	379.12
380.831	352.12
381.057	361.12
381.282	347.12
381.507	358.12
381.733	358.12
381.958	342.12
382.184	367.12
382.409	361.12
382.634	357.12
382.86	347.12
383.085	361.12
383.31	350.12
383.535	359.12
383.761	347.12
383.986	377.12
384.211	363.12
384.436	363.12
384.662	360.12
384.887	372.12
385.112	367.12
385.337	377.12
385.562	373.12
385.787	374.12
386.013	381.12
386.238	386.12
386.463	399.12
386.688	367.12
386.913	379.12
387.138	381.12
387.363	378.12
387.588	384.12
387.813	383.12
388.038	402.12
388.263	374.12
388.488	362.12
388.713	393.12
388.938	383.12
389.163	366.12
389.387	381.12
389.612	377.12
389.837	380.12
390.062	379.12
390.287	383.12
390.512	382.12
390.736	375.12
390.961	395.12
391.186	375.12
391.411	371.12
391.636	378.12
391.86	388.12
392.085	389.12
392.31	385.12
392.534	384.12
392.759	382.12
392.984	373.12
393.208	373.12
393.433	374.12
393.658	362.12
393.882	375.12
394.107	377.12
394.331	374.12
394.556	391.12
394.78	384.12
395.005	397.12
395.229	369.12
395.454	384.12
395.678	391.12
395.903	405.12
396.127	419.12
396.352	421.12
396.576	411.12
396.801	399.12
397.025	410.12
397.249	401.12
397.474	399.12
397.698	400.12
397.922	409.12
398.147	429.12
398.371	421.12
398.595	413.12
398.82	431.12
399.044	451.12
399.268	420.12
399.492	447.12
399.717	448.12
399.941	479.12
400.165	522.12
400.389	509.12
400.613	476.12
400.837	459.12
401.062	453.12
401.286	449.12
401.51	422.12
401.734	442.12
401.958	424.12
402.182	438.12
402.406	453.12
402.63	467.12
402.854	448.12
403.078	431.12
403.302	430.12
403.526	436.12
403.75	440.12
403.974	457.12
404.198	449.12
404.422	443.12
404.645	461.12
404.869	459.12
405.093	455.12
405.317	521.12
405.541	541.12
405.765	502.12
405.988	471.12
406.212	485.12
406.436	510.12
406.66	505.12
406.883	477.12
407.107	509.12
407.331	528.12
407.555	600.12
407.778	597.12
408.002	548.12
408.226	501.12
408.449	486.12
408.673	480.12
408.896	505.12
409.12	544.12
409.344	510.12
409.567	475.12
409.791	451.12
410.014	454.12
410.238	448.12
410.461	455.12
410.685	456.12
410.908	480.12
411.132	518.12
411.355	501.12
411.578	486.12
411.802	453.12
412.025	465.12
412.249	461.12
412.472	475.12
412.695	496.12
412.919	482.12
413.142	463.12
413.365	428.12
413.589	432.12
413.812	422.12
414.035	415.12
414.258	440.12
414.482	421.12
414.705	424.12
414.928	409.12
415.151	429.12
415.374	414.12
415.597	424.12
415.821	414.12
416.044	432.12
416.267	435.12
416.49	405.12
416.713	408.12
416.936	413.12
417.159	411.12
417.382	425.12
417.605	423.12
417.828	452.12
418.051	441.12
418.274	437.12
418.497	437.12
418.72	430.12
418.943	384.12
419.166	450.12
419.389	445.12
419.611	459.12
419.834	429.12
420.057	454.12
420.28	435.12
420.503	446.12
420.726	457.12
420.948	463.12
421.171	495.12
421.394	516.12
421.617	473.12
421.839	445.12
422.062	427.12
422.285	444.12
422.507	503.12
422.73	556.12
422.953	545.12
423.175	474.12
423.398	486.12
423.621	449.12
423.843	470.12
424.066	484.12
424.288	459.12
424.511	499.12
424.733	546.12
424.956	612.12
425.178	576.12
425.401	579.12
425.623	589.12
425.846	549.12
426.068	515.12
426.291	483.12
426.513	473.12
426.735	501.12
426.958	542.12
427.18	611.12
427.402	701.12
427.625	798.12
427.847	727.12
428.069	608.12
428.292	563.12
428.514	490.12
428.736	459.12
428.958	469.12
429.181	454.12
429.403	458.12
429.625	460.12
429.847	501.12
430.069	570.12
430.292	534.12
430.514	464.12
430.736	443.12
430.958	439.12
431.18	439.12
431.402	441.12
431.624	412.12
431.846	413.12
432.068	412.12
432.29	419.12
432.512	427.12
432.734	412.12
432.956	430.12
433.178	442.12
433.4	464.12
433.622	421.12
433.844	407.12
434.066	423.12
434.287	406.12
434.509	430.12
434.731	420.12
434.953	439.12
435.175	428.12
435.397	492.12
435.618	511.12
435.84	531.12
436.062	628.12
436.284	661.12
436.505	539.12
436.727	493.12
436.949	477.12
437.17	457.12
437.392	439.12
437.614	478.12
437.835	494.12
438.057	585.12
438.278	678.12
438.5	697.12
438.721	736.12
438.943	661.12
439.165	549.12
439.386	502.12
439.608	487.12
439.829	522.12
440.05	553.12
440.272	595.12
440.493	549.12
440.715	481.12
440.936	500.12
441.158	449.12
441.379	460.12
441.6	457.12
441.822	493.12
442.043	544.12
442.264	600.12
442.486	630.12
442.707	522.12
442.928	497.12
443.149	511.12
443.371	539.12
443.592	568.12
443.813	647.12
444.034	671.12
444.255	566.12
444.476	495.12
444.698	479.12
444.919	477.12
445.14	570.12
445.361	518.12
445.582	541.12
445.803	597.12
446.024	694.12
446.245	694.12
446.466	638.12
446.687	560.12
446.908	500.12
447.129	477.12
447.35	444.12
447.571	478.12
447.792	455.12
448.013	475.12
448.234	480.12
448.455	541.12
448.675	624.12
448.896	703.12
449.117	636.12
449.338	586.12
449.559	672.12
449.779	747.12
450	609.12
450.221	521.12
450.442	484.12
450.662	457.12
450.883	467.12
451.104	490.12
451.324	461.12
451.545	410.12
451.766	424.12
451.986	412.12
452.207	395.12
452.428	388.12
452.648	394.12
452.869	417.12
453.089	435.12
453.31	445.12
453.53	405.12
453.751	419.12
453.971	409.12
454.192	453.12
454.412	430.12
454.633	397.12
454.853	391.12
455.073	434.12
455.294	456.12
455.514	518.12
455.734	473.12
455.955	405.12
456.175	382.12
456.395	403.12
456.616	380.12
456.836	374.12
457.056	379.12
457.276	390.12
457.497	391.12
457.717	395.12
457.937	410.12
458.157	404.12
458.377	415.12
458.598	433.12
458.818	488.12
459.038	563.12
459.258	577.12
459.478	468.12
459.698	431.12
459.918	439.12
460.138	426.12
460.358	415.12
460.578	416.12
460.798	436.12
461.018	426.12
461.238	424.12
461.458	427.12
461.678	416.12
461.898	416.12
462.118	415.12
462.338	428.12
462.558	429.12
462.777	439.12
462.997	436.12
463.217	439.12
463.437	456.12
463.657	443.12
463.876	433.12
464.096	445.12
464.316	441.12
464.536	441.12
464.755	462.12
464.975	479.12
465.195	523.12
465.414	608.12
465.634	525.12
465.854	468.12
466.073	445.12
466.293	453.12
466.512	416.12
466.732	409.12
466.951	407.12
467.171	403.12
467.391	413.12
467.61	405.12
467.829	428.12
468.049	433.12
468.268	432.12
468.488	414.12
468.707	406.12
468.927	420.12
469.146	394.12
469.365	419.12
469.585	402.12
469.804	399.12
470.023	451.12
470.243	419.12
470.462	439.12
470.681	465.12
470.901	440.12
471.12	445.12
471.339	431.12
471.558	432.12
471.777	423.12
471.997	412.12
472.216	413.12
472.435	452.12
472.654	460.12
472.873	420.12
473.092	423.12
473.311	419.12
473.53	410.12
473.749	426.12
473.968	481.12
474.187	573.12
474.406	597.12
474.625	489.12
474.844	430.12
475.063	433.12
475.282	442.12
475.501	411.12
475.72	455.12
475.939	425.12
476.158	415.12
476.377	423.12
476.596	449.12
476.814	448.12
477.033	457.12
477.252	460.12
477.471	440.12
477.69	451.12
477.908	443.12
478.127	459.12
478.346	451.12
478.564	465.12
478.783	446.12
479.002	469.12
479.22	457.12
479.439	461.12
479.658	496.12
479.876	536.12
480.095	534.12
480.313	536.12
480.532	529.12
480.751	515.12
480.969	543.12
481.188	592.12
481.406	657.12
481.624	575.12
481.843	529.12
482.061	518.12
482.28	523.12
482.498	503.12
482.717	499.12
482.935	500.12
483.153	501.12
483.372	494.12
483.59	497.12
483.808	480.12
484.027	503.12
484.245	495.12
484.463	484.12
484.681	501.12
484.9	512.12
485.118	508.12
485.336	510.12
485.554	518.12
485.772	512.12
485.99	527.12
486.209	541.12
486.427	525.12
486.645	550.12
486.863	545.12
487.081	557.12
487.299	555.12
487.517	539.12
487.735	540.12
487.953	534.12
488.171	526.12
488.389	542.12
488.607	553.12
488.825	547.12
489.043	542.12
489.261	521.12
489.479	543.12
489.696	557.12
489.914	566.12
490.132	549.12
490.35	546.12
490.568	569.12
490.786	573.12
491.003	559.12
491.221	611.12
491.439	624.12
491.657	603.12
491.874	637.12
492.092	601.12
492.31	627.12
492.527	615.12
492.745	629.12
492.963	622.12
493.18	620.12
493.398	641.12
493.615	631.12
493.833	642.12
494.05	625.12
494.268	653.12
494.485	632.12
494.703	644.12
494.92	637.12
495.138	637.12
495.355	641.12
495.573	654.12
495.79	631.12
496.008	629.12
496.225	602.12
496.442	624.12
496.66	640.12
496.877	635.12
497.094	635.12
497.312	647.12
497.529	660.12
497.746	651.12
497.963	669.12
498.181	685.12
498.398	686.12
498.615	714.12
498.832	710.12
499.049	702.12
499.267	713.12
499.484	721.12
499.701	711.12
499.918	762.12
500.135	777.12
500.352	777.12
500.569	806.12
500.786	812.12
501.003	778.12
501.22	790.12
501.437	760.12
501.654	747.12
501.871	776.12
502.088	721.12
