Data from 1965.PennyLincolnUp.Lamp.En5.5.200Scan.071719.P1._HRD10591_14-09-49-912.txt Node
Date: Thu Jul 18 14:09:49 EDT 2019
User: cochatt
Spectrometer: HR+D1059
Trigger mode: 1
Integration Time (sec): 1.000000E-1
Scans to average: 1
Electric dark correction enabled: true
Nonlinearity correction enabled: false
Boxcar width: 0
XAxis mode: Wavelengths
Number of Pixels in Spectrum: 2048
>>>>>Begin Spectral Data<<<<<
223.165	6.81
223.4	6.81
223.635	6.81
223.869	-29.19
224.104	-21.19
224.338	-5.19
224.573	-13.19
224.808	-4.19
225.042	-2.19
225.277	-20.19
225.511	-3.19
225.746	6.81
225.98	7.81
226.215	9.81
226.449	6.81
226.683	16.81
226.918	11.81
227.152	31.81
227.387	22.81
227.621	40.81
227.856	37.81
228.09	48.81
228.324	54.81
228.559	47.81
228.793	53.81
229.027	76.81
229.262	101.81
229.496	120.81
229.73	125.81
229.964	139.81
230.199	112.81
230.433	115.81
230.667	96.81
230.901	106.81
231.136	89.81
231.37	98.81
231.604	92.81
231.838	95.81
232.072	101.81
232.306	112.81
232.541	113.81
232.775	122.81
233.009	111.81
233.243	104.81
233.477	101.81
233.711	96.81
233.945	98.81
234.179	115.81
234.413	112.81
234.647	104.81
234.881	105.81
235.115	109.81
235.349	112.81
235.583	115.81
235.817	116.81
236.051	116.81
236.285	123.81
236.519	109.81
236.753	113.81
236.987	141.81
237.221	174.81
237.455	227.81
237.689	180.81
237.922	125.81
238.156	113.81
238.39	120.81
238.624	106.81
238.858	115.81
239.091	119.81
239.325	113.81
239.559	100.81
239.793	104.81
240.027	119.81
240.26	138.81
240.494	147.81
240.728	135.81
240.961	129.81
241.195	139.81
241.429	118.81
241.662	129.81
241.896	123.81
242.13	116.81
242.363	107.81
242.597	123.81
242.83	123.81
243.064	136.81
243.298	123.81
243.531	131.81
243.765	140.81
243.998	129.81
244.232	116.81
244.465	121.81
244.699	129.81
244.932	120.81
245.166	141.81
245.399	129.81
245.633	145.81
245.866	141.81
246.099	139.81
246.333	137.81
246.566	126.81
246.8	157.81
247.033	131.81
247.266	147.81
247.5	134.81
247.733	145.81
247.966	147.81
248.2	145.81
248.433	154.81
248.666	167.81
248.899	174.81
249.133	185.81
249.366	186.81
249.599	171.81
249.832	161.81
250.066	177.81
250.299	168.81
250.532	172.81
250.765	204.81
250.998	204.81
251.231	210.81
251.465	196.81
251.698	181.81
251.931	189.81
252.164	169.81
252.397	185.81
252.63	186.81
252.863	186.81
253.096	207.81
253.329	208.81
253.562	204.81
253.795	192.81
254.028	195.81
254.261	191.81
254.494	191.81
254.727	234.81
254.96	253.81
255.193	246.81
255.426	203.81
255.659	207.81
255.892	194.81
256.124	214.81
256.357	198.81
256.59	208.81
256.823	195.81
257.056	207.81
257.289	193.81
257.521	195.81
257.754	201.81
257.987	177.81
258.22	182.81
258.452	193.81
258.685	187.81
258.918	196.81
259.151	184.81
259.383	191.81
259.616	208.81
259.849	193.81
260.081	224.81
260.314	227.81
260.547	217.81
260.779	216.81
261.012	206.81
261.244	203.81
261.477	207.81
261.71	200.81
261.942	214.81
262.175	213.81
262.407	225.81
262.64	195.81
262.872	201.81
263.105	191.81
263.337	203.81
263.57	192.81
263.802	193.81
264.035	188.81
264.267	177.81
264.499	198.81
264.732	194.81
264.964	182.81
265.197	182.81
265.429	180.81
265.661	180.81
265.894	187.81
266.126	192.81
266.358	187.81
266.591	213.81
266.823	204.81
267.055	208.81
267.287	212.81
267.52	196.81
267.752	192.81
267.984	205.81
268.216	204.81
268.448	211.81
268.681	228.81
268.913	206.81
269.145	231.81
269.377	257.81
269.609	223.81
269.841	241.81
270.073	247.81
270.306	254.81
270.538	275.81
270.77	269.81
271.002	261.81
271.234	257.81
271.466	280.81
271.698	290.81
271.93	283.81
272.162	281.81
272.394	279.81
272.626	270.81
272.858	263.81
273.09	259.81
273.322	255.81
273.553	241.81
273.785	233.81
274.017	247.81
274.249	231.81
274.481	237.81
274.713	228.81
274.945	244.81
275.176	252.81
275.408	225.81
275.64	239.81
275.872	220.81
276.104	238.81
276.335	252.81
276.567	241.81
276.799	251.81
277.031	292.81
277.262	283.81
277.494	293.81
277.726	269.81
277.957	251.81
278.189	240.81
278.421	241.81
278.652	231.81
278.884	234.81
279.115	235.81
279.347	237.81
279.579	234.81
279.81	234.81
280.042	221.81
280.273	231.81
280.505	235.81
280.736	221.81
280.968	229.81
281.199	251.81
281.431	259.81
281.662	250.81
281.894	255.81
282.125	243.81
282.356	247.81
282.588	275.81
282.819	273.81
283.051	269.81
283.282	224.81
283.513	236.81
283.745	241.81
283.976	255.81
284.207	244.81
284.439	251.81
284.67	257.81
284.901	252.81
285.132	234.81
285.364	239.81
285.595	244.81
285.826	235.81
286.057	218.81
286.288	257.81
286.52	240.81
286.751	249.81
286.982	240.81
287.213	243.81
287.444	276.81
287.675	246.81
287.906	262.81
288.138	268.81
288.369	261.81
288.6	276.81
288.831	264.81
289.062	271.81
289.293	257.81
289.524	267.81
289.755	247.81
289.986	241.81
290.217	247.81
290.448	255.81
290.679	248.81
290.91	264.81
291.141	270.81
291.371	247.81
291.602	257.81
291.833	265.81
292.064	240.81
292.295	261.81
292.526	260.81
292.757	255.81
292.987	262.81
293.218	253.81
293.449	262.81
293.68	268.81
293.91	253.81
294.141	262.81
294.372	247.81
294.603	247.81
294.833	239.81
295.064	274.81
295.295	259.81
295.525	263.81
295.756	263.81
295.987	280.81
296.217	287.81
296.448	289.81
296.679	296.81
296.909	257.81
297.14	260.81
297.37	265.81
297.601	253.81
297.831	252.81
298.062	280.81
298.292	260.81
298.523	250.81
298.753	264.81
298.984	247.81
299.214	271.81
299.445	245.81
299.675	260.81
299.905	273.81
300.136	265.81
300.366	288.81
300.597	271.81
300.827	269.81
301.057	276.81
301.288	288.81
301.518	283.81
301.748	289.81
301.979	282.81
302.209	295.81
302.439	284.81
302.669	290.81
302.9	291.81
303.13	282.81
303.36	283.81
303.59	284.81
303.82	303.81
304.051	298.81
304.281	289.81
304.511	302.81
304.741	279.81
304.971	301.81
305.201	284.81
305.431	284.81
305.661	284.81
305.891	259.81
306.121	291.81
306.352	292.81
306.582	296.81
306.812	293.81
307.042	296.81
307.272	291.81
307.502	302.81
307.731	296.81
307.961	293.81
308.191	308.81
308.421	279.81
308.651	284.81
308.881	286.81
309.111	296.81
309.341	296.81
309.571	306.81
309.8	318.81
310.03	316.81
310.26	361.81
310.49	344.81
310.72	330.81
310.949	365.81
311.179	349.81
311.409	361.81
311.639	337.81
311.868	317.81
312.098	337.81
312.328	352.81
312.557	368.81
312.787	376.81
313.017	368.81
313.246	357.81
313.476	353.81
313.706	329.81
313.935	333.81
314.165	383.81
314.394	375.81
314.624	379.81
314.853	360.81
315.083	346.81
315.312	330.81
315.542	335.81
315.771	323.81
316.001	311.81
316.23	333.81
316.46	329.81
316.689	332.81
316.919	349.81
317.148	345.81
317.377	342.81
317.607	327.81
317.836	331.81
318.065	346.81
318.295	333.81
318.524	343.81
318.753	341.81
318.983	327.81
319.212	331.81
319.441	371.81
319.67	343.81
319.9	355.81
320.129	353.81
320.358	336.81
320.587	356.81
320.816	334.81
321.046	367.81
321.275	359.81
321.504	365.81
321.733	355.81
321.962	361.81
322.191	376.81
322.42	394.81
322.649	412.81
322.878	404.81
323.108	418.81
323.337	460.81
323.566	496.81
323.795	515.81
324.024	563.81
324.253	693.81
324.482	1015.81
324.71	1583.81
324.939	2131.81
325.168	1792.81
325.397	949.81
325.626	647.81
325.855	531.81
326.084	484.81
326.313	452.81
326.542	486.81
326.77	520.81
326.999	609.81
327.228	907.81
327.457	1364.81
327.686	1551.81
327.914	1055.81
328.143	697.81
328.372	636.81
328.6	563.81
328.829	557.81
329.058	554.81
329.287	593.81
329.515	560.81
329.744	479.81
329.972	471.81
330.201	497.81
330.43	562.81
330.658	577.81
330.887	585.81
331.115	567.81
331.344	499.81
331.572	442.81
331.801	446.81
332.03	459.81
332.258	428.81
332.486	420.81
332.715	395.81
332.943	417.81
333.172	407.81
333.4	424.81
333.629	425.81
333.857	432.81
334.085	439.81
334.314	452.81
334.542	482.81
334.771	511.81
334.999	459.81
335.227	445.81
335.455	412.81
335.684	404.81
335.912	392.81
336.14	394.81
336.369	380.81
336.597	410.81
336.825	404.81
337.053	393.81
337.281	395.81
337.51	364.81
337.738	380.81
337.966	377.81
338.194	375.81
338.422	405.81
338.65	388.81
338.878	371.81
339.106	367.81
339.334	373.81
339.562	379.81
339.79	385.81
340.018	367.81
340.246	364.81
340.474	378.81
340.702	377.81
340.93	395.81
341.158	359.81
341.386	375.81
341.614	367.81
341.842	393.81
342.07	384.81
342.298	377.81
342.526	379.81
342.754	348.81
342.981	359.81
343.209	364.81
343.437	359.81
343.665	370.81
343.893	385.81
344.12	383.81
344.348	383.81
344.576	374.81
344.804	369.81
345.031	389.81
345.259	395.81
345.487	400.81
345.714	401.81
345.942	369.81
346.17	361.81
346.397	347.81
346.625	369.81
346.853	387.81
347.08	372.81
347.308	361.81
347.535	389.81
347.763	383.81
347.99	376.81
348.218	379.81
348.445	389.81
348.673	394.81
348.9	389.81
349.128	355.81
349.355	343.81
349.583	342.81
349.81	359.81
350.037	352.81
350.265	345.81
350.492	363.81
350.72	370.81
350.947	357.81
351.174	377.81
351.402	379.81
351.629	373.81
351.856	386.81
352.083	380.81
352.311	402.81
352.538	396.81
352.765	398.81
352.992	386.81
353.22	366.81
353.447	365.81
353.674	369.81
353.901	355.81
354.128	338.81
354.355	330.81
354.583	363.81
354.81	346.81
355.037	348.81
355.264	332.81
355.491	333.81
355.718	330.81
355.945	334.81
356.172	336.81
356.399	331.81
356.626	338.81
356.853	352.81
357.08	336.81
357.307	340.81
357.534	331.81
357.761	328.81
357.988	323.81
358.215	332.81
358.441	329.81
358.668	347.81
358.895	345.81
359.122	369.81
359.349	371.81
359.576	373.81
359.802	378.81
360.029	438.81
360.256	443.81
360.483	431.81
360.709	373.81
360.936	373.81
361.163	362.81
361.39	385.81
361.616	379.81
361.843	367.81
362.07	379.81
362.296	369.81
362.523	360.81
362.749	371.81
362.976	358.81
363.203	374.81
363.429	359.81
363.656	354.81
363.882	361.81
364.109	343.81
364.335	344.81
364.562	332.81
364.788	356.81
365.015	357.81
365.241	367.81
365.468	348.81
365.694	361.81
365.92	379.81
366.147	355.81
366.373	344.81
366.599	344.81
366.826	345.81
367.052	331.81
367.278	343.81
367.505	340.81
367.731	326.81
367.957	343.81
368.184	354.81
368.41	360.81
368.636	374.81
368.862	369.81
369.089	356.81
369.315	354.81
369.541	327.81
369.767	350.81
369.993	341.81
370.219	346.81
370.445	343.81
370.672	335.81
370.898	334.81
371.124	330.81
371.35	344.81
371.576	315.81
371.802	352.81
372.028	335.81
372.254	348.81
372.48	335.81
372.706	329.81
372.932	356.81
373.158	348.81
373.384	338.81
373.61	344.81
373.835	346.81
374.061	331.81
374.287	349.81
374.513	345.81
374.739	342.81
374.965	346.81
375.191	333.81
375.416	343.81
375.642	329.81
375.868	354.81
376.094	333.81
376.319	343.81
376.545	323.81
376.771	326.81
376.997	328.81
377.222	339.81
377.448	335.81
377.674	340.81
377.899	324.81
378.125	332.81
378.35	367.81
378.576	333.81
378.802	313.81
379.027	315.81
379.253	357.81
379.478	331.81
379.704	331.81
379.929	349.81
380.155	352.81
380.38	332.81
380.606	353.81
380.831	345.81
381.057	342.81
381.282	329.81
381.507	335.81
381.733	352.81
381.958	347.81
382.184	345.81
382.409	355.81
382.634	341.81
382.86	346.81
383.085	351.81
383.31	334.81
383.535	353.81
383.761	347.81
383.986	341.81
384.211	363.81
384.436	327.81
384.662	344.81
384.887	370.81
385.112	363.81
385.337	343.81
385.562	344.81
385.787	362.81
386.013	383.81
386.238	385.81
386.463	357.81
386.688	379.81
386.913	352.81
387.138	354.81
387.363	353.81
387.588	346.81
387.813	344.81
388.038	365.81
388.263	361.81
388.488	358.81
388.713	347.81
388.938	374.81
389.163	380.81
389.387	361.81
389.612	345.81
389.837	373.81
390.062	351.81
390.287	352.81
390.512	372.81
390.736	355.81
390.961	356.81
391.186	380.81
391.411	362.81
391.636	375.81
391.86	377.81
392.085	356.81
392.31	369.81
392.534	377.81
392.759	358.81
392.984	392.81
393.208	379.81
393.433	376.81
393.658	395.81
393.882	369.81
394.107	364.81
394.331	353.81
394.556	351.81
394.78	371.81
395.005	353.81
395.229	372.81
395.454	382.81
395.678	404.81
395.903	372.81
396.127	374.81
396.352	398.81
396.576	395.81
396.801	383.81
397.025	377.81
397.249	371.81
397.474	401.81
397.698	383.81
397.922	384.81
398.147	403.81
398.371	413.81
398.595	398.81
398.82	399.81
399.044	431.81
399.268	418.81
399.492	448.81
399.717	460.81
399.941	485.81
400.165	488.81
400.389	503.81
400.613	448.81
400.837	433.81
401.062	416.81
401.286	447.81
401.51	389.81
401.734	429.81
401.958	434.81
402.182	428.81
402.406	413.81
402.63	425.81
402.854	444.81
403.078	427.81
403.302	419.81
403.526	423.81
403.75	425.81
403.974	431.81
404.198	424.81
404.422	403.81
404.645	443.81
404.869	437.81
405.093	469.81
405.317	497.81
405.541	511.81
405.765	480.81
405.988	472.81
406.212	472.81
406.436	492.81
406.66	505.81
406.883	455.81
407.107	495.81
407.331	529.81
407.555	557.81
407.778	572.81
408.002	511.81
408.226	491.81
408.449	463.81
408.673	477.81
408.896	477.81
409.12	523.81
409.344	484.81
409.567	429.81
409.791	450.81
410.014	458.81
410.238	430.81
410.461	433.81
410.685	422.81
410.908	453.81
411.132	490.81
411.355	495.81
411.578	474.81
411.802	440.81
412.025	424.81
412.249	464.81
412.472	480.81
412.695	482.81
412.919	488.81
413.142	465.81
413.365	428.81
413.589	415.81
413.812	403.81
414.035	397.81
414.258	391.81
414.482	411.81
414.705	412.81
414.928	412.81
415.151	410.81
415.374	426.81
415.597	408.81
415.821	411.81
416.044	398.81
416.267	387.81
416.49	392.81
416.713	390.81
416.936	416.81
417.159	390.81
417.382	395.81
417.605	406.81
417.828	414.81
418.051	453.81
418.274	407.81
418.497	422.81
418.72	396.81
418.943	368.81
419.166	405.81
419.389	431.81
419.611	419.81
419.834	416.81
420.057	440.81
420.28	412.81
420.503	422.81
420.726	416.81
420.948	436.81
421.171	489.81
421.394	495.81
421.617	436.81
421.839	421.81
422.062	438.81
422.285	442.81
422.507	499.81
422.73	548.81
422.953	534.81
423.175	452.81
423.398	465.81
423.621	461.81
423.843	449.81
424.066	467.81
424.288	474.81
424.511	475.81
424.733	544.81
424.956	599.81
425.178	582.81
425.401	577.81
425.623	552.81
425.846	476.81
426.068	470.81
426.291	451.81
426.513	491.81
426.735	476.81
426.958	482.81
427.18	573.81
427.402	667.81
427.625	749.81
427.847	676.81
428.069	589.81
428.292	529.81
428.514	473.81
428.736	453.81
428.958	453.81
429.181	431.81
429.403	439.81
429.625	420.81
429.847	480.81
430.069	537.81
430.292	511.81
430.514	468.81
430.736	433.81
430.958	430.81
431.18	399.81
431.402	419.81
431.624	392.81
431.846	401.81
432.068	385.81
432.29	408.81
432.512	405.81
432.734	403.81
432.956	419.81
433.178	421.81
433.4	429.81
433.622	428.81
433.844	429.81
434.066	406.81
434.287	417.81
434.509	409.81
434.731	423.81
434.953	412.81
435.175	460.81
435.397	449.81
435.618	449.81
435.84	516.81
436.062	602.81
436.284	620.81
436.505	541.81
436.727	497.81
436.949	468.81
437.17	446.81
437.392	431.81
437.614	448.81
437.835	514.81
438.057	576.81
438.278	659.81
438.5	645.81
438.721	694.81
438.943	677.81
439.165	544.81
439.386	504.81
439.608	490.81
439.829	500.81
440.05	525.81
440.272	562.81
440.493	519.81
440.715	468.81
440.936	439.81
441.158	433.81
441.379	455.81
441.6	451.81
441.822	479.81
442.043	503.81
442.264	566.81
442.486	594.81
442.707	539.81
442.928	495.81
443.149	484.81
443.371	515.81
443.592	551.81
443.813	599.81
444.034	687.81
444.255	551.81
444.476	520.81
444.698	476.81
444.919	464.81
445.14	583.81
445.361	549.81
445.582	526.81
445.803	561.81
446.024	663.81
446.245	672.81
446.466	586.81
446.687	513.81
446.908	467.81
447.129	459.81
447.35	439.81
447.571	444.81
447.792	435.81
448.013	433.81
448.234	460.81
448.455	516.81
448.675	597.81
448.896	701.81
449.117	573.81
449.338	584.81
449.559	624.81
449.779	703.81
450	563.81
450.221	469.81
450.442	450.81
450.662	454.81
450.883	466.81
451.104	443.81
451.324	458.81
451.545	440.81
451.766	431.81
451.986	399.81
452.207	384.81
452.428	395.81
452.648	389.81
452.869	399.81
453.089	397.81
453.31	409.81
453.53	401.81
453.751	384.81
453.971	401.81
454.192	425.81
454.412	405.81
454.633	395.81
454.853	376.81
455.073	387.81
455.294	435.81
455.514	497.81
455.734	478.81
455.955	379.81
456.175	379.81
456.395	361.81
456.616	367.81
456.836	363.81
457.056	375.81
457.276	343.81
457.497	383.81
457.717	377.81
457.937	400.81
458.157	378.81
458.377	388.81
458.598	404.81
458.818	457.81
459.038	559.81
459.258	549.81
459.478	461.81
459.698	407.81
459.918	431.81
460.138	413.81
460.358	427.81
460.578	433.81
460.798	410.81
461.018	417.81
461.238	421.81
461.458	393.81
461.678	411.81
461.898	404.81
462.118	403.81
462.338	424.81
462.558	410.81
462.777	420.81
462.997	433.81
463.217	441.81
463.437	424.81
463.657	424.81
463.876	441.81
464.096	439.81
464.316	438.81
464.536	468.81
464.755	445.81
464.975	459.81
465.195	500.81
465.414	577.81
465.634	495.81
465.854	460.81
466.073	411.81
466.293	421.81
466.512	414.81
466.732	407.81
466.951	388.81
467.171	391.81
467.391	402.81
467.61	423.81
467.829	417.81
468.049	415.81
468.268	432.81
468.488	410.81
468.707	379.81
468.927	389.81
469.146	386.81
469.365	414.81
469.585	389.81
469.804	416.81
470.023	418.81
470.243	407.81
470.462	424.81
470.681	417.81
470.901	419.81
471.12	407.81
471.339	404.81
471.558	397.81
471.777	411.81
471.997	418.81
472.216	420.81
472.435	459.81
472.654	437.81
472.873	416.81
473.092	405.81
473.311	417.81
473.53	416.81
473.749	419.81
473.968	479.81
474.187	576.81
474.406	559.81
474.625	476.81
474.844	428.81
475.063	397.81
475.282	421.81
475.501	411.81
475.72	440.81
475.939	432.81
476.158	430.81
476.377	412.81
476.596	401.81
476.814	444.81
477.033	448.81
477.252	443.81
477.471	433.81
477.69	436.81
477.908	422.81
478.127	435.81
478.346	437.81
478.564	455.81
478.783	441.81
479.002	458.81
479.22	445.81
479.439	477.81
479.658	479.81
479.876	488.81
480.095	496.81
480.313	520.81
480.532	544.81
480.751	516.81
480.969	543.81
481.188	574.81
481.406	611.81
481.624	525.81
481.843	509.81
482.061	513.81
482.28	487.81
482.498	470.81
482.717	472.81
482.935	481.81
483.153	478.81
483.372	481.81
483.59	482.81
483.808	475.81
484.027	473.81
484.245	467.81
484.463	493.81
484.681	509.81
484.9	512.81
485.118	488.81
485.336	485.81
485.554	490.81
485.772	482.81
485.99	486.81
486.209	487.81
486.427	507.81
486.645	509.81
486.863	532.81
487.081	524.81
487.299	532.81
487.517	531.81
487.735	521.81
487.953	506.81
488.171	522.81
488.389	496.81
488.607	520.81
488.825	528.81
489.043	509.81
489.261	515.81
489.479	521.81
489.696	534.81
489.914	524.81
490.132	552.81
490.35	547.81
490.568	535.81
490.786	560.81
491.003	573.81
491.221	571.81
491.439	557.81
491.657	593.81
491.874	612.81
492.092	596.81
492.31	568.81
492.527	583.81
492.745	605.81
492.963	606.81
493.18	589.81
493.398	623.81
493.615	606.81
493.833	632.81
494.05	627.81
494.268	604.81
494.485	596.81
494.703	605.81
494.92	606.81
495.138	627.81
495.355	616.81
495.573	621.81
495.79	620.81
496.008	617.81
496.225	601.81
496.442	607.81
496.66	624.81
496.877	616.81
497.094	630.81
497.312	607.81
497.529	633.81
497.746	609.81
497.963	619.81
498.181	663.81
498.398	665.81
498.615	662.81
498.832	669.81
499.049	664.81
499.267	680.81
499.484	692.81
499.701	722.81
499.918	717.81
500.135	736.81
500.352	776.81
500.569	792.81
500.786	780.81
501.003	768.81
501.22	738.81
501.437	759.81
501.654	729.81
501.871	727.81
502.088	718.81
