Data from 1965.PennyLincolnUp.Lamp.En5.5.200Scan.071719.P1._HRD10591_14-09-19-911.txt Node
Date: Thu Jul 18 14:09:19 EDT 2019
User: cochatt
Spectrometer: HR+D1059
Trigger mode: 1
Integration Time (sec): 1.000000E-1
Scans to average: 1
Electric dark correction enabled: true
Nonlinearity correction enabled: false
Boxcar width: 0
XAxis mode: Wavelengths
Number of Pixels in Spectrum: 2048
>>>>>Begin Spectral Data<<<<<
223.165	-5.31
223.4	-5.31
223.635	-5.31
223.869	-19.31
224.104	-17.31
224.338	-14.31
224.573	-13.31
224.808	-12.31
225.042	-19.31
225.277	-13.31
225.511	0.69
225.746	5.69
225.98	9.69
226.215	14.69
226.449	10.69
226.683	16.69
226.918	15.69
227.152	40.69
227.387	25.69
227.621	32.69
227.856	36.69
228.09	51.69
228.324	57.69
228.559	56.69
228.793	70.69
229.027	88.69
229.262	105.69
229.496	118.69
229.73	130.69
229.964	134.69
230.199	120.69
230.433	109.69
230.667	105.69
230.901	108.69
231.136	114.69
231.37	104.69
231.604	114.69
231.838	115.69
232.072	93.69
232.306	120.69
232.541	118.69
232.775	105.69
233.009	106.69
233.243	109.69
233.477	105.69
233.711	105.69
233.945	109.69
234.179	118.69
234.413	97.69
234.647	119.69
234.881	105.69
235.115	111.69
235.349	124.69
235.583	108.69
235.817	121.69
236.051	110.69
236.285	119.69
236.519	103.69
236.753	106.69
236.987	141.69
237.221	171.69
237.455	228.69
237.689	161.69
237.922	141.69
238.156	121.69
238.39	124.69
238.624	116.69
238.858	114.69
239.091	108.69
239.325	97.69
239.559	110.69
239.793	124.69
240.027	134.69
240.26	119.69
240.494	150.69
240.728	146.69
240.961	144.69
241.195	144.69
241.429	123.69
241.662	141.69
241.896	130.69
242.13	129.69
242.363	123.69
242.597	125.69
242.83	123.69
243.064	116.69
243.298	124.69
243.531	126.69
243.765	126.69
243.998	120.69
244.232	138.69
244.465	123.69
244.699	130.69
244.932	128.69
245.166	126.69
245.399	122.69
245.633	123.69
245.866	148.69
246.099	139.69
246.333	147.69
246.566	145.69
246.8	142.69
247.033	124.69
247.266	144.69
247.5	149.69
247.733	142.69
247.966	150.69
248.2	140.69
248.433	134.69
248.666	161.69
248.899	160.69
249.133	182.69
249.366	186.69
249.599	173.69
249.832	162.69
250.066	162.69
250.299	166.69
250.532	186.69
250.765	204.69
250.998	189.69
251.231	186.69
251.465	193.69
251.698	183.69
251.931	192.69
252.164	174.69
252.397	179.69
252.63	184.69
252.863	184.69
253.096	214.69
253.329	183.69
253.562	192.69
253.795	196.69
254.028	211.69
254.261	212.69
254.494	196.69
254.727	247.69
254.96	242.69
255.193	248.69
255.426	215.69
255.659	214.69
255.892	200.69
256.124	194.69
256.357	200.69
256.59	219.69
256.823	200.69
257.056	189.69
257.289	198.69
257.521	179.69
257.754	196.69
257.987	194.69
258.22	184.69
258.452	196.69
258.685	182.69
258.918	184.69
259.151	200.69
259.383	201.69
259.616	194.69
259.849	207.69
260.081	214.69
260.314	219.69
260.547	218.69
260.779	213.69
261.012	222.69
261.244	198.69
261.477	210.69
261.71	201.69
261.942	187.69
262.175	199.69
262.407	205.69
262.64	200.69
262.872	186.69
263.105	168.69
263.337	204.69
263.57	201.69
263.802	170.69
264.035	194.69
264.267	197.69
264.499	193.69
264.732	169.69
264.964	192.69
265.197	194.69
265.429	198.69
265.661	187.69
265.894	185.69
266.126	176.69
266.358	181.69
266.591	181.69
266.823	187.69
267.055	188.69
267.287	213.69
267.52	200.69
267.752	211.69
267.984	199.69
268.216	199.69
268.448	210.69
268.681	198.69
268.913	221.69
269.145	244.69
269.377	238.69
269.609	259.69
269.841	244.69
270.073	215.69
270.306	271.69
270.538	276.69
270.77	256.69
271.002	259.69
271.234	248.69
271.466	268.69
271.698	286.69
271.93	293.69
272.162	276.69
272.394	271.69
272.626	284.69
272.858	261.69
273.09	255.69
273.322	236.69
273.553	223.69
273.785	234.69
274.017	231.69
274.249	217.69
274.481	228.69
274.713	242.69
274.945	242.69
275.176	217.69
275.408	239.69
275.64	236.69
275.872	252.69
276.104	241.69
276.335	237.69
276.567	232.69
276.799	248.69
277.031	283.69
277.262	274.69
277.494	274.69
277.726	277.69
277.957	275.69
278.189	253.69
278.421	241.69
278.652	232.69
278.884	245.69
279.115	234.69
279.347	231.69
279.579	237.69
279.81	235.69
280.042	228.69
280.273	230.69
280.505	236.69
280.736	228.69
280.968	238.69
281.199	227.69
281.431	225.69
281.662	226.69
281.894	229.69
282.125	236.69
282.356	244.69
282.588	268.69
282.819	266.69
283.051	246.69
283.282	225.69
283.513	242.69
283.745	248.69
283.976	261.69
284.207	232.69
284.439	239.69
284.67	244.69
284.901	220.69
285.132	245.69
285.364	244.69
285.595	250.69
285.826	237.69
286.057	245.69
286.288	244.69
286.52	234.69
286.751	240.69
286.982	233.69
287.213	249.69
287.444	240.69
287.675	250.69
287.906	266.69
288.138	248.69
288.369	252.69
288.6	273.69
288.831	262.69
289.062	274.69
289.293	254.69
289.524	248.69
289.755	251.69
289.986	267.69
290.217	247.69
290.448	250.69
290.679	262.69
290.91	251.69
291.141	258.69
291.371	248.69
291.602	246.69
291.833	245.69
292.064	235.69
292.295	238.69
292.526	252.69
292.757	248.69
292.987	236.69
293.218	240.69
293.449	253.69
293.68	256.69
293.91	248.69
294.141	251.69
294.372	264.69
294.603	245.69
294.833	254.69
295.064	269.69
295.295	256.69
295.525	250.69
295.756	259.69
295.987	268.69
296.217	286.69
296.448	296.69
296.679	268.69
296.909	247.69
297.14	248.69
297.37	266.69
297.601	244.69
297.831	257.69
298.062	273.69
298.292	264.69
298.523	264.69
298.753	252.69
298.984	253.69
299.214	275.69
299.445	275.69
299.675	289.69
299.905	259.69
300.136	251.69
300.366	265.69
300.597	275.69
300.827	278.69
301.057	260.69
301.288	282.69
301.518	272.69
301.748	290.69
301.979	299.69
302.209	280.69
302.439	275.69
302.669	272.69
302.9	277.69
303.13	279.69
303.36	269.69
303.59	291.69
303.82	305.69
304.051	293.69
304.281	285.69
304.511	287.69
304.741	289.69
304.971	275.69
305.201	261.69
305.431	283.69
305.661	277.69
305.891	268.69
306.121	279.69
306.352	289.69
306.582	288.69
306.812	275.69
307.042	305.69
307.272	304.69
307.502	280.69
307.731	292.69
307.961	273.69
308.191	284.69
308.421	292.69
308.651	305.69
308.881	299.69
309.111	282.69
309.341	292.69
309.571	307.69
309.8	299.69
310.03	344.69
310.26	339.69
310.49	349.69
310.72	348.69
310.949	349.69
311.179	352.69
311.409	337.69
311.639	331.69
311.868	325.69
312.098	322.69
312.328	348.69
312.557	346.69
312.787	380.69
313.017	368.69
313.246	344.69
313.476	336.69
313.706	339.69
313.935	337.69
314.165	354.69
314.394	348.69
314.624	348.69
314.853	341.69
315.083	325.69
315.312	342.69
315.542	324.69
315.771	318.69
316.001	333.69
316.23	330.69
316.46	324.69
316.689	342.69
316.919	346.69
317.148	347.69
317.377	335.69
317.607	343.69
317.836	323.69
318.065	334.69
318.295	344.69
318.524	340.69
318.753	314.69
318.983	356.69
319.212	328.69
319.441	347.69
319.67	329.69
319.9	348.69
320.129	337.69
320.358	327.69
320.587	331.69
320.816	372.69
321.046	344.69
321.275	353.69
321.504	344.69
321.733	347.69
321.962	362.69
322.191	361.69
322.42	402.69
322.649	406.69
322.878	414.69
323.108	436.69
323.337	442.69
323.566	469.69
323.795	496.69
324.024	562.69
324.253	710.69
324.482	989.69
324.71	1545.69
324.939	2103.69
325.168	1734.69
325.397	922.69
325.626	633.69
325.855	521.69
326.084	468.69
326.313	454.69
326.542	479.69
326.77	542.69
326.999	629.69
327.228	886.69
327.457	1312.69
327.686	1551.69
327.914	998.69
328.143	672.69
328.372	579.69
328.6	562.69
328.829	537.69
329.058	537.69
329.287	548.69
329.515	486.69
329.744	474.69
329.972	482.69
330.201	502.69
330.43	545.69
330.658	557.69
330.887	589.69
331.115	563.69
331.344	478.69
331.572	441.69
331.801	470.69
332.03	437.69
332.258	417.69
332.486	411.69
332.715	400.69
332.943	388.69
333.172	397.69
333.4	400.69
333.629	409.69
333.857	420.69
334.085	438.69
334.314	436.69
334.542	478.69
334.771	510.69
334.999	458.69
335.227	419.69
335.455	404.69
335.684	402.69
335.912	399.69
336.14	391.69
336.369	398.69
336.597	390.69
336.825	393.69
337.053	387.69
337.281	388.69
337.51	376.69
337.738	404.69
337.966	377.69
338.194	368.69
338.422	385.69
338.65	384.69
338.878	381.69
339.106	378.69
339.334	373.69
339.562	372.69
339.79	369.69
340.018	368.69
340.246	387.69
340.474	391.69
340.702	389.69
340.93	372.69
341.158	375.69
341.386	379.69
341.614	378.69
341.842	359.69
342.07	370.69
342.298	356.69
342.526	373.69
342.754	341.69
342.981	362.69
343.209	374.69
343.437	365.69
343.665	364.69
343.893	357.69
344.12	360.69
344.348	377.69
344.576	359.69
344.804	385.69
345.031	412.69
345.259	383.69
345.487	388.69
345.714	391.69
345.942	380.69
346.17	355.69
346.397	346.69
346.625	376.69
346.853	357.69
347.08	380.69
347.308	354.69
347.535	356.69
347.763	387.69
347.99	377.69
348.218	369.69
348.445	389.69
348.673	377.69
348.9	384.69
349.128	371.69
349.355	349.69
349.583	327.69
349.81	341.69
350.037	339.69
350.265	361.69
350.492	362.69
350.72	331.69
350.947	377.69
351.174	384.69
351.402	373.69
351.629	364.69
351.856	367.69
352.083	390.69
352.311	371.69
352.538	388.69
352.765	382.69
352.992	399.69
353.22	384.69
353.447	360.69
353.674	344.69
353.901	352.69
354.128	352.69
354.355	353.69
354.583	342.69
354.81	342.69
355.037	325.69
355.264	327.69
355.491	338.69
355.718	344.69
355.945	332.69
356.172	336.69
356.399	331.69
356.626	328.69
356.853	331.69
357.08	360.69
357.307	330.69
357.534	328.69
357.761	315.69
357.988	343.69
358.215	339.69
358.441	331.69
358.668	327.69
358.895	333.69
359.122	334.69
359.349	360.69
359.576	369.69
359.802	384.69
360.029	408.69
360.256	435.69
360.483	414.69
360.709	378.69
360.936	377.69
361.163	381.69
361.39	385.69
361.616	384.69
361.843	372.69
362.07	370.69
362.296	373.69
362.523	361.69
362.749	363.69
362.976	357.69
363.203	355.69
363.429	353.69
363.656	347.69
363.882	339.69
364.109	355.69
364.335	325.69
364.562	347.69
364.788	357.69
365.015	358.69
365.241	346.69
365.468	343.69
365.694	350.69
365.92	363.69
366.147	337.69
366.373	375.69
366.599	332.69
366.826	334.69
367.052	329.69
367.278	351.69
367.505	347.69
367.731	345.69
367.957	355.69
368.184	323.69
368.41	344.69
368.636	342.69
368.862	355.69
369.089	356.69
369.315	341.69
369.541	342.69
369.767	317.69
369.993	337.69
370.219	329.69
370.445	346.69
370.672	360.69
370.898	332.69
371.124	336.69
371.35	333.69
371.576	361.69
371.802	344.69
372.028	328.69
372.254	317.69
372.48	310.69
372.706	347.69
372.932	331.69
373.158	316.69
373.384	324.69
373.61	331.69
373.835	338.69
374.061	356.69
374.287	347.69
374.513	350.69
374.739	358.69
374.965	349.69
375.191	340.69
375.416	346.69
375.642	340.69
375.868	325.69
376.094	348.69
376.319	347.69
376.545	345.69
376.771	340.69
376.997	321.69
377.222	334.69
377.448	322.69
377.674	337.69
377.899	322.69
378.125	332.69
378.35	360.69
378.576	340.69
378.802	326.69
379.027	347.69
379.253	325.69
379.478	334.69
379.704	324.69
379.929	338.69
380.155	349.69
380.38	347.69
380.606	351.69
380.831	333.69
381.057	342.69
381.282	336.69
381.507	335.69
381.733	333.69
381.958	320.69
382.184	323.69
382.409	348.69
382.634	357.69
382.86	363.69
383.085	334.69
383.31	337.69
383.535	346.69
383.761	341.69
383.986	339.69
384.211	332.69
384.436	341.69
384.662	343.69
384.887	359.69
385.112	350.69
385.337	346.69
385.562	345.69
385.787	362.69
386.013	380.69
386.238	367.69
386.463	370.69
386.688	376.69
386.913	363.69
387.138	360.69
387.363	352.69
387.588	358.69
387.813	363.69
388.038	360.69
388.263	370.69
388.488	368.69
388.713	356.69
388.938	365.69
389.163	390.69
389.387	373.69
389.612	341.69
389.837	350.69
390.062	365.69
390.287	336.69
390.512	347.69
390.736	345.69
390.961	346.69
391.186	355.69
391.411	358.69
391.636	361.69
391.86	371.69
392.085	365.69
392.31	368.69
392.534	368.69
392.759	369.69
392.984	370.69
393.208	362.69
393.433	355.69
393.658	365.69
393.882	357.69
394.107	366.69
394.331	358.69
394.556	353.69
394.78	354.69
395.005	360.69
395.229	374.69
395.454	357.69
395.678	349.69
395.903	375.69
396.127	386.69
396.352	406.69
396.576	375.69
396.801	374.69
397.025	377.69
397.249	385.69
397.474	365.69
397.698	395.69
397.922	392.69
398.147	414.69
398.371	412.69
398.595	403.69
398.82	398.69
399.044	397.69
399.268	402.69
399.492	423.69
399.717	426.69
399.941	456.69
400.165	473.69
400.389	487.69
400.613	443.69
400.837	435.69
401.062	440.69
401.286	413.69
401.51	406.69
401.734	407.69
401.958	414.69
402.182	407.69
402.406	422.69
402.63	422.69
402.854	433.69
403.078	418.69
403.302	405.69
403.526	420.69
403.75	429.69
403.974	415.69
404.198	402.69
404.422	419.69
404.645	411.69
404.869	458.69
405.093	440.69
405.317	475.69
405.541	515.69
405.765	474.69
405.988	468.69
406.212	447.69
406.436	484.69
406.66	515.69
406.883	478.69
407.107	471.69
407.331	488.69
407.555	561.69
407.778	562.69
408.002	510.69
408.226	485.69
408.449	475.69
408.673	456.69
408.896	467.69
409.12	509.69
409.344	514.69
409.567	440.69
409.791	422.69
410.014	427.69
410.238	418.69
410.461	432.69
410.685	430.69
410.908	452.69
411.132	472.69
411.355	509.69
411.578	470.69
411.802	431.69
412.025	430.69
412.249	442.69
412.472	458.69
412.695	494.69
412.919	494.69
413.142	433.69
413.365	414.69
413.589	404.69
413.812	406.69
414.035	409.69
414.258	388.69
414.482	400.69
414.705	406.69
414.928	397.69
415.151	405.69
415.374	406.69
415.597	384.69
415.821	380.69
416.044	382.69
416.267	406.69
416.49	389.69
416.713	396.69
416.936	405.69
417.159	424.69
417.382	412.69
417.605	396.69
417.828	417.69
418.051	415.69
418.274	424.69
418.497	417.69
418.72	397.69
418.943	385.69
419.166	404.69
419.389	425.69
419.611	400.69
419.834	425.69
420.057	422.69
420.28	417.69
420.503	407.69
420.726	416.69
420.948	435.69
421.171	454.69
421.394	479.69
421.617	441.69
421.839	409.69
422.062	419.69
422.285	427.69
422.507	478.69
422.73	522.69
422.953	515.69
423.175	460.69
423.398	443.69
423.621	422.69
423.843	428.69
424.066	476.69
424.288	445.69
424.511	465.69
424.733	518.69
424.956	573.69
425.178	556.69
425.401	558.69
425.623	563.69
425.846	487.69
426.068	462.69
426.291	453.69
426.513	475.69
426.735	477.69
426.958	515.69
427.18	578.69
427.402	677.69
427.625	736.69
427.847	675.69
428.069	585.69
428.292	520.69
428.514	501.69
428.736	448.69
428.958	450.69
429.181	435.69
429.403	427.69
429.625	452.69
429.847	466.69
430.069	521.69
430.292	503.69
430.514	469.69
430.736	426.69
430.958	401.69
431.18	414.69
431.402	402.69
431.624	400.69
431.846	396.69
432.068	392.69
432.29	414.69
432.512	382.69
432.734	401.69
432.956	412.69
433.178	421.69
433.4	410.69
433.622	400.69
433.844	429.69
434.066	406.69
434.287	395.69
434.509	398.69
434.731	425.69
434.953	402.69
435.175	412.69
435.397	451.69
435.618	464.69
435.84	496.69
436.062	588.69
436.284	631.69
436.505	530.69
436.727	486.69
436.949	435.69
437.17	432.69
437.392	413.69
437.614	444.69
437.835	481.69
438.057	563.69
438.278	638.69
438.5	647.69
438.721	690.69
438.943	633.69
439.165	541.69
439.386	480.69
439.608	475.69
439.829	472.69
440.05	490.69
440.272	525.69
440.493	499.69
440.715	470.69
440.936	427.69
441.158	450.69
441.379	433.69
441.6	459.69
441.822	481.69
442.043	522.69
442.264	595.69
442.486	603.69
442.707	501.69
442.928	489.69
443.149	483.69
443.371	515.69
443.592	524.69
443.813	609.69
444.034	630.69
444.255	540.69
444.476	496.69
444.698	452.69
444.919	460.69
445.14	587.69
445.361	524.69
445.582	512.69
445.803	572.69
446.024	649.69
446.245	647.69
446.466	579.69
446.687	524.69
446.908	474.69
447.129	463.69
447.35	434.69
447.571	422.69
447.792	425.69
448.013	447.69
448.234	465.69
448.455	481.69
448.675	587.69
448.896	676.69
449.117	568.69
449.338	571.69
449.559	652.69
449.779	682.69
450	582.69
450.221	485.69
450.442	467.69
450.662	437.69
450.883	436.69
451.104	468.69
451.324	443.69
451.545	422.69
451.766	391.69
451.986	391.69
452.207	385.69
452.428	375.69
452.648	390.69
452.869	394.69
453.089	411.69
453.31	413.69
453.53	398.69
453.751	407.69
453.971	396.69
454.192	411.69
454.412	419.69
454.633	386.69
454.853	403.69
455.073	374.69
455.294	428.69
455.514	468.69
455.734	438.69
455.955	387.69
456.175	377.69
456.395	370.69
456.616	355.69
456.836	367.69
457.056	366.69
457.276	378.69
457.497	373.69
457.717	371.69
457.937	380.69
458.157	379.69
458.377	379.69
458.598	418.69
458.818	459.69
459.038	549.69
459.258	546.69
459.478	465.69
459.698	406.69
459.918	396.69
460.138	402.69
460.358	396.69
460.578	409.69
460.798	391.69
461.018	402.69
461.238	408.69
461.458	398.69
461.678	396.69
461.898	386.69
462.118	398.69
462.338	413.69
462.558	429.69
462.777	405.69
462.997	406.69
463.217	438.69
463.437	445.69
463.657	444.69
463.876	418.69
464.096	425.69
464.316	432.69
464.536	445.69
464.755	420.69
464.975	444.69
465.195	510.69
465.414	565.69
465.634	505.69
465.854	464.69
466.073	433.69
466.293	429.69
466.512	399.69
466.732	426.69
466.951	399.69
467.171	409.69
467.391	390.69
467.61	427.69
467.829	418.69
468.049	417.69
468.268	417.69
468.488	409.69
468.707	393.69
468.927	410.69
469.146	394.69
469.365	396.69
469.585	395.69
469.804	411.69
470.023	392.69
470.243	409.69
470.462	403.69
470.681	442.69
470.901	419.69
471.12	410.69
471.339	410.69
471.558	395.69
471.777	393.69
471.997	422.69
472.216	424.69
472.435	482.69
472.654	445.69
472.873	440.69
473.092	412.69
473.311	418.69
473.53	394.69
473.749	409.69
473.968	454.69
474.187	540.69
474.406	568.69
474.625	475.69
474.844	400.69
475.063	395.69
475.282	394.69
475.501	400.69
475.72	405.69
475.939	404.69
476.158	416.69
476.377	420.69
476.596	405.69
476.814	429.69
477.033	414.69
477.252	424.69
477.471	428.69
477.69	426.69
477.908	424.69
478.127	431.69
478.346	438.69
478.564	437.69
478.783	453.69
479.002	458.69
479.22	452.69
479.439	473.69
479.658	482.69
479.876	490.69
480.095	482.69
480.313	505.69
480.532	501.69
480.751	471.69
480.969	512.69
481.188	592.69
481.406	609.69
481.624	566.69
481.843	504.69
482.061	491.69
482.28	461.69
482.498	462.69
482.717	452.69
482.935	483.69
483.153	485.69
483.372	452.69
483.59	467.69
483.808	478.69
484.027	486.69
484.245	457.69
484.463	481.69
484.681	477.69
484.9	458.69
485.118	477.69
485.336	460.69
485.554	452.69
485.772	485.69
485.99	473.69
486.209	480.69
486.427	489.69
486.645	503.69
486.863	517.69
487.081	508.69
487.299	520.69
487.517	520.69
487.735	498.69
487.953	516.69
488.171	506.69
488.389	520.69
488.607	522.69
488.825	502.69
489.043	514.69
489.261	515.69
489.479	516.69
489.696	519.69
489.914	539.69
490.132	523.69
490.35	524.69
490.568	567.69
490.786	545.69
491.003	561.69
491.221	570.69
491.439	592.69
491.657	572.69
491.874	584.69
492.092	583.69
492.31	577.69
492.527	571.69
492.745	581.69
492.963	588.69
493.18	585.69
493.398	602.69
493.615	593.69
493.833	590.69
494.05	612.69
494.268	597.69
494.485	580.69
494.703	604.69
494.92	601.69
495.138	583.69
495.355	590.69
495.573	611.69
495.79	609.69
496.008	598.69
496.225	589.69
496.442	593.69
496.66	613.69
496.877	597.69
497.094	609.69
497.312	613.69
497.529	609.69
497.746	620.69
497.963	632.69
498.181	650.69
498.398	642.69
498.615	640.69
498.832	664.69
499.049	645.69
499.267	681.69
499.484	681.69
499.701	675.69
499.918	733.69
500.135	708.69
500.352	752.69
500.569	759.69
500.786	766.69
501.003	768.69
501.22	752.69
501.437	731.69
501.654	722.69
501.871	770.69
502.088	719.69
