Data from 1965.PennyLincolnUp.Lamp.En5.5.200Scan.071719.P1._HRD10591_14-10-15-911.txt Node
Date: Thu Jul 18 14:10:15 EDT 2019
User: cochatt
Spectrometer: HR+D1059
Trigger mode: 1
Integration Time (sec): 1.000000E-1
Scans to average: 1
Electric dark correction enabled: true
Nonlinearity correction enabled: false
Boxcar width: 0
XAxis mode: Wavelengths
Number of Pixels in Spectrum: 2048
>>>>>Begin Spectral Data<<<<<
223.165	-5.69
223.4	-5.69
223.635	-5.69
223.869	-32.69
224.104	-11.69
224.338	-19.69
224.573	-14.69
224.808	-13.69
225.042	-11.69
225.277	-0.69
225.511	2.31
225.746	6.31
225.98	9.31
226.215	6.31
226.449	16.31
226.683	14.31
226.918	32.31
227.152	23.31
227.387	40.31
227.621	32.31
227.856	57.31
228.09	44.31
228.324	51.31
228.559	46.31
228.793	69.31
229.027	85.31
229.262	94.31
229.496	109.31
229.73	134.31
229.964	141.31
230.199	122.31
230.433	111.31
230.667	114.31
230.901	102.31
231.136	121.31
231.37	103.31
231.604	105.31
231.838	105.31
232.072	125.31
232.306	102.31
232.541	121.31
232.775	113.31
233.009	113.31
233.243	126.31
233.477	105.31
233.711	119.31
233.945	114.31
234.179	108.31
234.413	103.31
234.647	106.31
234.881	104.31
235.115	109.31
235.349	107.31
235.583	115.31
235.817	112.31
236.051	114.31
236.285	118.31
236.519	125.31
236.753	112.31
236.987	157.31
237.221	185.31
237.455	225.31
237.689	197.31
237.922	130.31
238.156	118.31
238.39	125.31
238.624	128.31
238.858	126.31
239.091	128.31
239.325	124.31
239.559	110.31
239.793	132.31
240.027	137.31
240.26	155.31
240.494	151.31
240.728	140.31
240.961	136.31
241.195	143.31
241.429	136.31
241.662	133.31
241.896	136.31
242.13	135.31
242.363	128.31
242.597	120.31
242.83	136.31
243.064	120.31
243.298	130.31
243.531	119.31
243.765	142.31
243.998	148.31
244.232	135.31
244.465	130.31
244.699	165.31
244.932	129.31
245.166	136.31
245.399	138.31
245.633	126.31
245.866	139.31
246.099	146.31
246.333	141.31
246.566	137.31
246.8	155.31
247.033	144.31
247.266	149.31
247.5	151.31
247.733	154.31
247.966	157.31
248.2	165.31
248.433	166.31
248.666	155.31
248.899	183.31
249.133	181.31
249.366	182.31
249.599	183.31
249.832	177.31
250.066	175.31
250.299	165.31
250.532	184.31
250.765	182.31
250.998	200.31
251.231	206.31
251.465	211.31
251.698	175.31
251.931	185.31
252.164	183.31
252.397	173.31
252.63	194.31
252.863	209.31
253.096	208.31
253.329	220.31
253.562	201.31
253.795	202.31
254.028	223.31
254.261	211.31
254.494	216.31
254.727	235.31
254.96	253.31
255.193	253.31
255.426	226.31
255.659	211.31
255.892	214.31
256.124	208.31
256.357	211.31
256.59	197.31
256.823	202.31
257.056	189.31
257.289	192.31
257.521	186.31
257.754	197.31
257.987	197.31
258.22	197.31
258.452	200.31
258.685	199.31
258.918	193.31
259.151	196.31
259.383	205.31
259.616	189.31
259.849	198.31
260.081	226.31
260.314	229.31
260.547	243.31
260.779	231.31
261.012	219.31
261.244	218.31
261.477	206.31
261.71	215.31
261.942	212.31
262.175	215.31
262.407	219.31
262.64	204.31
262.872	196.31
263.105	191.31
263.337	186.31
263.57	199.31
263.802	197.31
264.035	186.31
264.267	201.31
264.499	188.31
264.732	189.31
264.964	185.31
265.197	203.31
265.429	210.31
265.661	189.31
265.894	183.31
266.126	193.31
266.358	202.31
266.591	190.31
266.823	212.31
267.055	215.31
267.287	193.31
267.52	215.31
267.752	199.31
267.984	228.31
268.216	203.31
268.448	225.31
268.681	217.31
268.913	224.31
269.145	233.31
269.377	249.31
269.609	243.31
269.841	239.31
270.073	246.31
270.306	253.31
270.538	287.31
270.77	278.31
271.002	271.31
271.234	254.31
271.466	287.31
271.698	284.31
271.93	281.31
272.162	298.31
272.394	285.31
272.626	259.31
272.858	262.31
273.09	257.31
273.322	247.31
273.553	241.31
273.785	245.31
274.017	232.31
274.249	250.31
274.481	236.31
274.713	234.31
274.945	240.31
275.176	235.31
275.408	243.31
275.64	258.31
275.872	252.31
276.104	242.31
276.335	222.31
276.567	248.31
276.799	250.31
277.031	289.31
277.262	289.31
277.494	275.31
277.726	274.31
277.957	266.31
278.189	246.31
278.421	238.31
278.652	243.31
278.884	239.31
279.115	253.31
279.347	232.31
279.579	247.31
279.81	249.31
280.042	248.31
280.273	249.31
280.505	240.31
280.736	230.31
280.968	228.31
281.199	232.31
281.431	235.31
281.662	238.31
281.894	246.31
282.125	237.31
282.356	247.31
282.588	274.31
282.819	273.31
283.051	259.31
283.282	225.31
283.513	242.31
283.745	239.31
283.976	244.31
284.207	249.31
284.439	225.31
284.67	230.31
284.901	237.31
285.132	261.31
285.364	247.31
285.595	235.31
285.826	251.31
286.057	268.31
286.288	238.31
286.52	237.31
286.751	241.31
286.982	229.31
287.213	240.31
287.444	263.31
287.675	248.31
287.906	268.31
288.138	264.31
288.369	278.31
288.6	283.31
288.831	259.31
289.062	261.31
289.293	259.31
289.524	268.31
289.755	252.31
289.986	246.31
290.217	248.31
290.448	252.31
290.679	263.31
290.91	265.31
291.141	268.31
291.371	271.31
291.602	262.31
291.833	262.31
292.064	250.31
292.295	265.31
292.526	264.31
292.757	269.31
292.987	243.31
293.218	250.31
293.449	270.31
293.68	247.31
293.91	238.31
294.141	246.31
294.372	262.31
294.603	273.31
294.833	269.31
295.064	270.31
295.295	275.31
295.525	267.31
295.756	278.31
295.987	283.31
296.217	290.31
296.448	300.31
296.679	273.31
296.909	268.31
297.14	272.31
297.37	254.31
297.601	269.31
297.831	268.31
298.062	261.31
298.292	265.31
298.523	277.31
298.753	282.31
298.984	263.31
299.214	262.31
299.445	274.31
299.675	282.31
299.905	269.31
300.136	286.31
300.366	279.31
300.597	288.31
300.827	271.31
301.057	290.31
301.288	309.31
301.518	293.31
301.748	290.31
301.979	288.31
302.209	293.31
302.439	283.31
302.669	266.31
302.9	285.31
303.13	294.31
303.36	287.31
303.59	309.31
303.82	307.31
304.051	287.31
304.281	278.31
304.511	283.31
304.741	275.31
304.971	281.31
305.201	288.31
305.431	277.31
305.661	293.31
305.891	294.31
306.121	312.31
306.352	306.31
306.582	306.31
306.812	297.31
307.042	310.31
307.272	300.31
307.502	288.31
307.731	297.31
307.961	293.31
308.191	301.31
308.421	307.31
308.651	304.31
308.881	297.31
309.111	305.31
309.341	300.31
309.571	305.31
309.8	334.31
310.03	334.31
310.26	346.31
310.49	365.31
310.72	349.31
310.949	357.31
311.179	376.31
311.409	338.31
311.639	341.31
311.868	339.31
312.098	328.31
312.328	346.31
312.557	361.31
312.787	383.31
313.017	369.31
313.246	343.31
313.476	343.31
313.706	345.31
313.935	343.31
314.165	362.31
314.394	375.31
314.624	361.31
314.853	340.31
315.083	343.31
315.312	339.31
315.542	342.31
315.771	327.31
316.001	335.31
316.23	342.31
316.46	337.31
316.689	337.31
316.919	334.31
317.148	358.31
317.377	350.31
317.607	352.31
317.836	363.31
318.065	328.31
318.295	339.31
318.524	332.31
318.753	325.31
318.983	337.31
319.212	350.31
319.441	357.31
319.67	350.31
319.9	345.31
320.129	349.31
320.358	342.31
320.587	357.31
320.816	355.31
321.046	349.31
321.275	371.31
321.504	371.31
321.733	361.31
321.962	386.31
322.191	383.31
322.42	398.31
322.649	402.31
322.878	423.31
323.108	430.31
323.337	443.31
323.566	485.31
323.795	521.31
324.024	573.31
324.253	697.31
324.482	1035.31
324.71	1572.31
324.939	2144.31
325.168	1770.31
325.397	946.31
325.626	640.31
325.855	513.31
326.084	505.31
326.313	464.31
326.542	476.31
326.77	533.31
326.999	688.31
327.228	920.31
327.457	1340.31
327.686	1559.31
327.914	1035.31
328.143	722.31
328.372	625.31
328.6	569.31
328.829	542.31
329.058	548.31
329.287	575.31
329.515	511.31
329.744	521.31
329.972	465.31
330.201	507.31
330.43	544.31
330.658	585.31
330.887	599.31
331.115	565.31
331.344	482.31
331.572	449.31
331.801	445.31
332.03	444.31
332.258	433.31
332.486	401.31
332.715	406.31
332.943	387.31
333.172	402.31
333.4	419.31
333.629	418.31
333.857	414.31
334.085	461.31
334.314	455.31
334.542	507.31
334.771	526.31
334.999	449.31
335.227	442.31
335.455	410.31
335.684	386.31
335.912	383.31
336.14	392.31
336.369	404.31
336.597	402.31
336.825	400.31
337.053	403.31
337.281	391.31
337.51	353.31
337.738	391.31
337.966	389.31
338.194	402.31
338.422	401.31
338.65	412.31
338.878	387.31
339.106	364.31
339.334	399.31
339.562	362.31
339.79	373.31
340.018	366.31
340.246	378.31
340.474	385.31
340.702	396.31
340.93	375.31
341.158	371.31
341.386	368.31
341.614	393.31
341.842	404.31
342.07	382.31
342.298	378.31
342.526	374.31
342.754	365.31
342.981	365.31
343.209	359.31
343.437	360.31
343.665	359.31
343.893	366.31
344.12	364.31
344.348	388.31
344.576	385.31
344.804	385.31
345.031	387.31
345.259	416.31
345.487	396.31
345.714	389.31
345.942	405.31
346.17	355.31
346.397	366.31
346.625	379.31
346.853	381.31
347.08	366.31
347.308	382.31
347.535	367.31
347.763	389.31
347.99	369.31
348.218	389.31
348.445	388.31
348.673	380.31
348.9	371.31
349.128	368.31
349.355	367.31
349.583	370.31
349.81	361.31
350.037	348.31
350.265	371.31
350.492	368.31
350.72	366.31
350.947	363.31
351.174	377.31
351.402	387.31
351.629	379.31
351.856	389.31
352.083	379.31
352.311	415.31
352.538	385.31
352.765	400.31
352.992	394.31
353.22	389.31
353.447	377.31
353.674	366.31
353.901	366.31
354.128	352.31
354.355	352.31
354.583	333.31
354.81	352.31
355.037	359.31
355.264	334.31
355.491	336.31
355.718	321.31
355.945	365.31
356.172	330.31
356.399	343.31
356.626	332.31
356.853	357.31
357.08	334.31
357.307	361.31
357.534	332.31
357.761	335.31
357.988	336.31
358.215	337.31
358.441	343.31
358.668	353.31
358.895	354.31
359.122	350.31
359.349	370.31
359.576	373.31
359.802	385.31
360.029	418.31
360.256	440.31
360.483	427.31
360.709	391.31
360.936	374.31
361.163	373.31
361.39	376.31
361.616	378.31
361.843	376.31
362.07	382.31
362.296	361.31
362.523	362.31
362.749	378.31
362.976	389.31
363.203	369.31
363.429	357.31
363.656	363.31
363.882	354.31
364.109	349.31
364.335	351.31
364.562	337.31
364.788	341.31
365.015	357.31
365.241	350.31
365.468	354.31
365.694	361.31
365.92	365.31
366.147	362.31
366.373	359.31
366.599	353.31
366.826	334.31
367.052	332.31
367.278	347.31
367.505	352.31
367.731	369.31
367.957	350.31
368.184	329.31
368.41	363.31
368.636	365.31
368.862	360.31
369.089	372.31
369.315	353.31
369.541	362.31
369.767	352.31
369.993	354.31
370.219	352.31
370.445	336.31
370.672	339.31
370.898	343.31
371.124	362.31
371.35	348.31
371.576	375.31
371.802	349.31
372.028	348.31
372.254	363.31
372.48	336.31
372.706	353.31
372.932	359.31
373.158	323.31
373.384	337.31
373.61	347.31
373.835	336.31
374.061	345.31
374.287	363.31
374.513	342.31
374.739	354.31
374.965	354.31
375.191	354.31
375.416	347.31
375.642	357.31
375.868	344.31
376.094	333.31
376.319	345.31
376.545	338.31
376.771	355.31
376.997	348.31
377.222	341.31
377.448	346.31
377.674	339.31
377.899	361.31
378.125	341.31
378.35	333.31
378.576	337.31
378.802	327.31
379.027	354.31
379.253	343.31
379.478	346.31
379.704	329.31
379.929	345.31
380.155	337.31
380.38	361.31
380.606	340.31
380.831	345.31
381.057	353.31
381.282	351.31
381.507	344.31
381.733	341.31
381.958	335.31
382.184	349.31
382.409	350.31
382.634	329.31
382.86	347.31
383.085	352.31
383.31	357.31
383.535	345.31
383.761	349.31
383.986	359.31
384.211	373.31
384.436	349.31
384.662	361.31
384.887	363.31
385.112	361.31
385.337	379.31
385.562	357.31
385.787	381.31
386.013	383.31
386.238	362.31
386.463	373.31
386.688	361.31
386.913	359.31
387.138	350.31
387.363	371.31
387.588	358.31
387.813	366.31
388.038	367.31
388.263	368.31
388.488	387.31
388.713	363.31
388.938	360.31
389.163	362.31
389.387	378.31
389.612	383.31
389.837	353.31
390.062	353.31
390.287	358.31
390.512	358.31
390.736	367.31
390.961	374.31
391.186	360.31
391.411	353.31
391.636	363.31
391.86	381.31
392.085	370.31
392.31	379.31
392.534	365.31
392.759	375.31
392.984	381.31
393.208	375.31
393.433	374.31
393.658	377.31
393.882	374.31
394.107	383.31
394.331	359.31
394.556	362.31
394.78	362.31
395.005	365.31
395.229	371.31
395.454	362.31
395.678	385.31
395.903	402.31
396.127	406.31
396.352	402.31
396.576	384.31
396.801	377.31
397.025	377.31
397.249	396.31
397.474	398.31
397.698	396.31
397.922	412.31
398.147	407.31
398.371	412.31
398.595	415.31
398.82	413.31
399.044	410.31
399.268	431.31
399.492	440.31
399.717	453.31
399.941	480.31
400.165	500.31
400.389	494.31
400.613	483.31
400.837	452.31
401.062	432.31
401.286	423.31
401.51	418.31
401.734	410.31
401.958	399.31
402.182	424.31
402.406	416.31
402.63	438.31
402.854	424.31
403.078	425.31
403.302	419.31
403.526	433.31
403.75	414.31
403.974	415.31
404.198	406.31
404.422	428.31
404.645	453.31
404.869	438.31
405.093	453.31
405.317	500.31
405.541	531.31
405.765	472.31
405.988	434.31
406.212	477.31
406.436	483.31
406.66	532.31
406.883	501.31
407.107	474.31
407.331	517.31
407.555	551.31
407.778	551.31
408.002	521.31
408.226	477.31
408.449	478.31
408.673	498.31
408.896	518.31
409.12	537.31
409.344	504.31
409.567	445.31
409.791	465.31
410.014	442.31
410.238	445.31
410.461	458.31
410.685	468.31
410.908	450.31
411.132	494.31
411.355	496.31
411.578	475.31
411.802	461.31
412.025	443.31
412.249	430.31
412.472	466.31
412.695	479.31
412.919	478.31
413.142	458.31
413.365	437.31
413.589	425.31
413.812	410.31
414.035	423.31
414.258	417.31
414.482	416.31
414.705	421.31
414.928	421.31
415.151	392.31
415.374	387.31
415.597	410.31
415.821	418.31
416.044	400.31
416.267	415.31
416.49	414.31
416.713	413.31
416.936	408.31
417.159	401.31
417.382	410.31
417.605	401.31
417.828	415.31
418.051	429.31
418.274	401.31
418.497	410.31
418.72	399.31
418.943	407.31
419.166	436.31
419.389	461.31
419.611	434.31
419.834	451.31
420.057	437.31
420.28	435.31
420.503	435.31
420.726	439.31
420.948	441.31
421.171	485.31
421.394	486.31
421.617	446.31
421.839	419.31
422.062	443.31
422.285	425.31
422.507	494.31
422.73	578.31
422.953	537.31
423.175	478.31
423.398	467.31
423.621	447.31
423.843	462.31
424.066	459.31
424.288	464.31
424.511	486.31
424.733	533.31
424.956	589.31
425.178	567.31
425.401	555.31
425.623	595.31
425.846	527.31
426.068	466.31
426.291	465.31
426.513	451.31
426.735	482.31
426.958	517.31
427.18	592.31
427.402	688.31
427.625	742.31
427.847	675.31
428.069	581.31
428.292	504.31
428.514	477.31
428.736	454.31
428.958	461.31
429.181	439.31
429.403	421.31
429.625	439.31
429.847	483.31
430.069	513.31
430.292	518.31
430.514	457.31
430.736	442.31
430.958	418.31
431.18	406.31
431.402	412.31
431.624	422.31
431.846	424.31
432.068	404.31
432.29	402.31
432.512	393.31
432.734	396.31
432.956	423.31
433.178	437.31
433.4	440.31
433.622	407.31
433.844	421.31
434.066	425.31
434.287	415.31
434.509	413.31
434.731	424.31
434.953	437.31
435.175	434.31
435.397	449.31
435.618	469.31
435.84	506.31
436.062	591.31
436.284	635.31
436.505	529.31
436.727	475.31
436.949	458.31
437.17	458.31
437.392	441.31
437.614	442.31
437.835	473.31
438.057	582.31
438.278	645.31
438.5	613.31
438.721	735.31
438.943	669.31
439.165	547.31
439.386	494.31
439.608	495.31
439.829	510.31
440.05	524.31
440.272	549.31
440.493	523.31
440.715	492.31
440.936	457.31
441.158	454.31
441.379	449.31
441.6	445.31
441.822	467.31
442.043	519.31
442.264	582.31
442.486	618.31
442.707	530.31
442.928	506.31
443.149	502.31
443.371	523.31
443.592	534.31
443.813	653.31
444.034	663.31
444.255	564.31
444.476	488.31
444.698	487.31
444.919	474.31
445.14	560.31
445.361	527.31
445.582	506.31
445.803	582.31
446.024	664.31
446.245	659.31
446.466	610.31
446.687	520.31
446.908	479.31
447.129	449.31
447.35	454.31
447.571	429.31
447.792	435.31
448.013	426.31
448.234	471.31
448.455	521.31
448.675	637.31
448.896	678.31
449.117	615.31
449.338	596.31
449.559	649.31
449.779	716.31
450	585.31
450.221	496.31
450.442	461.31
450.662	443.31
450.883	445.31
451.104	475.31
451.324	446.31
451.545	428.31
451.766	400.31
451.986	395.31
452.207	402.31
452.428	410.31
452.648	395.31
452.869	385.31
453.089	399.31
453.31	418.31
453.53	415.31
453.751	425.31
453.971	421.31
454.192	427.31
454.412	415.31
454.633	398.31
454.853	405.31
455.073	407.31
455.294	449.31
455.514	495.31
455.734	496.31
455.955	394.31
456.175	387.31
456.395	386.31
456.616	385.31
456.836	349.31
457.056	376.31
457.276	365.31
457.497	381.31
457.717	377.31
457.937	386.31
458.157	377.31
458.377	416.31
458.598	407.31
458.818	490.31
459.038	537.31
459.258	527.31
459.478	486.31
459.698	414.31
459.918	409.31
460.138	420.31
460.358	419.31
460.578	423.31
460.798	436.31
461.018	411.31
461.238	417.31
461.458	409.31
461.678	408.31
461.898	393.31
462.118	409.31
462.338	427.31
462.558	431.31
462.777	430.31
462.997	415.31
463.217	440.31
463.437	430.31
463.657	429.31
463.876	408.31
464.096	444.31
464.316	418.31
464.536	443.31
464.755	451.31
464.975	465.31
465.195	510.31
465.414	600.31
465.634	497.31
465.854	459.31
466.073	433.31
466.293	437.31
466.512	405.31
466.732	392.31
466.951	417.31
467.171	413.31
467.391	408.31
467.61	435.31
467.829	413.31
468.049	395.31
468.268	425.31
468.488	423.31
468.707	398.31
468.927	392.31
469.146	410.31
469.365	385.31
469.585	385.31
469.804	397.31
470.023	426.31
470.243	414.31
470.462	443.31
470.681	453.31
470.901	428.31
471.12	424.31
471.339	405.31
471.558	409.31
471.777	430.31
471.997	404.31
472.216	437.31
472.435	461.31
472.654	448.31
472.873	429.31
473.092	412.31
473.311	418.31
473.53	416.31
473.749	413.31
473.968	478.31
474.187	549.31
474.406	567.31
474.625	465.31
474.844	434.31
475.063	423.31
475.282	426.31
475.501	411.31
475.72	420.31
475.939	413.31
476.158	420.31
476.377	432.31
476.596	424.31
476.814	425.31
477.033	423.31
477.252	431.31
477.471	433.31
477.69	441.31
477.908	443.31
478.127	466.31
478.346	448.31
478.564	439.31
478.783	456.31
479.002	442.31
479.22	470.31
479.439	479.31
479.658	508.31
479.876	491.31
480.095	509.31
480.313	517.31
480.532	519.31
480.751	501.31
480.969	513.31
481.188	587.31
481.406	638.31
481.624	559.31
481.843	506.31
482.061	493.31
482.28	492.31
482.498	502.31
482.717	488.31
482.935	477.31
483.153	489.31
483.372	496.31
483.59	482.31
483.808	490.31
484.027	486.31
484.245	487.31
484.463	494.31
484.681	497.31
484.9	503.31
485.118	501.31
485.336	497.31
485.554	488.31
485.772	489.31
485.99	515.31
486.209	517.31
486.427	486.31
486.645	489.31
486.863	526.31
487.081	531.31
487.299	527.31
487.517	497.31
487.735	525.31
487.953	531.31
488.171	510.31
488.389	523.31
488.607	525.31
488.825	507.31
489.043	527.31
489.261	537.31
489.479	529.31
489.696	495.31
489.914	526.31
490.132	529.31
490.35	554.31
490.568	554.31
490.786	518.31
491.003	552.31
491.221	552.31
491.439	577.31
491.657	600.31
491.874	601.31
492.092	582.31
492.31	592.31
492.527	573.31
492.745	598.31
492.963	603.31
493.18	625.31
493.398	605.31
493.615	607.31
493.833	618.31
494.05	606.31
494.268	604.31
494.485	619.31
494.703	606.31
494.92	619.31
495.138	634.31
495.355	607.31
495.573	601.31
495.79	618.31
496.008	618.31
496.225	609.31
496.442	624.31
496.66	606.31
496.877	620.31
497.094	630.31
497.312	631.31
497.529	611.31
497.746	651.31
497.963	631.31
498.181	650.31
498.398	664.31
498.615	672.31
498.832	672.31
499.049	682.31
499.267	702.31
499.484	698.31
499.701	730.31
499.918	730.31
500.135	757.31
500.352	773.31
500.569	758.31
500.786	771.31
501.003	764.31
501.22	757.31
501.437	745.31
501.654	734.31
501.871	733.31
