Data from 1965.PennyLincolnUp.Lamp.En5.5.200Scan.071719.P1._HRD10591_14-07-55-911.txt Node
Date: Thu Jul 18 14:07:55 EDT 2019
User: cochatt
Spectrometer: HR+D1059
Trigger mode: 1
Integration Time (sec): 1.000000E-1
Scans to average: 1
Electric dark correction enabled: true
Nonlinearity correction enabled: false
Boxcar width: 0
XAxis mode: Wavelengths
Number of Pixels in Spectrum: 2048
>>>>>Begin Spectral Data<<<<<
223.165	-7.75
223.4	-7.75
223.635	-7.75
223.869	-14.75
224.104	-29.75
224.338	-17.75
224.573	-4.75
224.808	-15.75
225.042	-14.75
225.277	-2.75
225.511	-5.75
225.746	-6.75
225.98	6.25
226.215	26.25
226.449	21.25
226.683	18.25
226.918	23.25
227.152	25.25
227.387	24.25
227.621	44.25
227.856	53.25
228.09	49.25
228.324	66.25
228.559	70.25
228.793	69.25
229.027	76.25
229.262	83.25
229.496	99.25
229.73	111.25
229.964	116.25
230.199	113.25
230.433	105.25
230.667	114.25
230.901	89.25
231.136	88.25
231.37	99.25
231.604	96.25
231.838	110.25
232.072	110.25
232.306	92.25
232.541	110.25
232.775	103.25
233.009	109.25
233.243	110.25
233.477	109.25
233.711	81.25
233.945	98.25
234.179	109.25
234.413	102.25
234.647	110.25
234.881	98.25
235.115	125.25
235.349	108.25
235.583	113.25
235.817	121.25
236.051	102.25
236.285	105.25
236.519	124.25
236.753	120.25
236.987	134.25
237.221	156.25
237.455	184.25
237.689	143.25
237.922	122.25
238.156	108.25
238.39	117.25
238.624	110.25
238.858	118.25
239.091	100.25
239.325	102.25
239.559	117.25
239.793	119.25
240.027	115.25
240.26	121.25
240.494	126.25
240.728	138.25
240.961	128.25
241.195	128.25
241.429	128.25
241.662	122.25
241.896	112.25
242.13	123.25
242.363	106.25
242.597	123.25
242.83	124.25
243.064	127.25
243.298	127.25
243.531	126.25
243.765	126.25
243.998	118.25
244.232	117.25
244.465	116.25
244.699	134.25
244.932	136.25
245.166	122.25
245.399	137.25
245.633	125.25
245.866	126.25
246.099	134.25
246.333	137.25
246.566	137.25
246.8	129.25
247.033	142.25
247.266	140.25
247.5	151.25
247.733	141.25
247.966	138.25
248.2	139.25
248.433	141.25
248.666	153.25
248.899	152.25
249.133	166.25
249.366	170.25
249.599	161.25
249.832	160.25
250.066	145.25
250.299	152.25
250.532	154.25
250.765	157.25
250.998	158.25
251.231	179.25
251.465	160.25
251.698	178.25
251.931	180.25
252.164	171.25
252.397	132.25
252.63	162.25
252.863	172.25
253.096	162.25
253.329	174.25
253.562	181.25
253.795	192.25
254.028	182.25
254.261	180.25
254.494	201.25
254.727	208.25
254.96	202.25
255.193	196.25
255.426	202.25
255.659	199.25
255.892	183.25
256.124	183.25
256.357	189.25
256.59	187.25
256.823	172.25
257.056	168.25
257.289	165.25
257.521	176.25
257.754	180.25
257.987	174.25
258.22	167.25
258.452	174.25
258.685	174.25
258.918	172.25
259.151	176.25
259.383	184.25
259.616	178.25
259.849	189.25
260.081	208.25
260.314	206.25
260.547	221.25
260.779	200.25
261.012	193.25
261.244	200.25
261.477	204.25
261.71	163.25
261.942	187.25
262.175	202.25
262.407	185.25
262.64	176.25
262.872	175.25
263.105	173.25
263.337	181.25
263.57	174.25
263.802	181.25
264.035	184.25
264.267	175.25
264.499	183.25
264.732	180.25
264.964	169.25
265.197	170.25
265.429	170.25
265.661	161.25
265.894	172.25
266.126	187.25
266.358	177.25
266.591	186.25
266.823	200.25
267.055	175.25
267.287	199.25
267.52	195.25
267.752	201.25
267.984	201.25
268.216	189.25
268.448	193.25
268.681	196.25
268.913	205.25
269.145	223.25
269.377	214.25
269.609	213.25
269.841	229.25
270.073	220.25
270.306	207.25
270.538	232.25
270.77	231.25
271.002	231.25
271.234	225.25
271.466	249.25
271.698	243.25
271.93	241.25
272.162	251.25
272.394	247.25
272.626	254.25
272.858	228.25
273.09	229.25
273.322	218.25
273.553	210.25
273.785	217.25
274.017	216.25
274.249	200.25
274.481	212.25
274.713	225.25
274.945	215.25
275.176	225.25
275.408	209.25
275.64	213.25
275.872	220.25
276.104	223.25
276.335	204.25
276.567	218.25
276.799	225.25
277.031	234.25
277.262	258.25
277.494	246.25
277.726	235.25
277.957	224.25
278.189	225.25
278.421	220.25
278.652	203.25
278.884	235.25
279.115	221.25
279.347	230.25
279.579	214.25
279.81	214.25
280.042	215.25
280.273	205.25
280.505	218.25
280.736	218.25
280.968	209.25
281.199	225.25
281.431	217.25
281.662	210.25
281.894	222.25
282.125	209.25
282.356	214.25
282.588	239.25
282.819	240.25
283.051	222.25
283.282	235.25
283.513	239.25
283.745	205.25
283.976	220.25
284.207	240.25
284.439	227.25
284.67	230.25
284.901	222.25
285.132	210.25
285.364	214.25
285.595	222.25
285.826	225.25
286.057	225.25
286.288	227.25
286.52	233.25
286.751	236.25
286.982	216.25
287.213	233.25
287.444	222.25
287.675	230.25
287.906	246.25
288.138	248.25
288.369	242.25
288.6	231.25
288.831	223.25
289.062	227.25
289.293	229.25
289.524	228.25
289.755	236.25
289.986	233.25
290.217	233.25
290.448	229.25
290.679	249.25
290.91	223.25
291.141	234.25
291.371	224.25
291.602	239.25
291.833	221.25
292.064	238.25
292.295	238.25
292.526	213.25
292.757	232.25
292.987	234.25
293.218	232.25
293.449	231.25
293.68	233.25
293.91	238.25
294.141	229.25
294.372	235.25
294.603	230.25
294.833	260.25
295.064	224.25
295.295	233.25
295.525	240.25
295.756	246.25
295.987	233.25
296.217	251.25
296.448	276.25
296.679	232.25
296.909	229.25
297.14	253.25
297.37	255.25
297.601	249.25
297.831	242.25
298.062	222.25
298.292	244.25
298.523	252.25
298.753	259.25
298.984	233.25
299.214	262.25
299.445	242.25
299.675	261.25
299.905	229.25
300.136	230.25
300.366	247.25
300.597	237.25
300.827	264.25
301.057	252.25
301.288	252.25
301.518	260.25
301.748	248.25
301.979	254.25
302.209	268.25
302.439	272.25
302.669	261.25
302.9	265.25
303.13	247.25
303.36	251.25
303.59	251.25
303.82	284.25
304.051	272.25
304.281	255.25
304.511	268.25
304.741	250.25
304.971	265.25
305.201	263.25
305.431	278.25
305.661	257.25
305.891	266.25
306.121	264.25
306.352	286.25
306.582	269.25
306.812	252.25
307.042	266.25
307.272	248.25
307.502	285.25
307.731	261.25
307.961	272.25
308.191	266.25
308.421	271.25
308.651	270.25
308.881	284.25
309.111	280.25
309.341	243.25
309.571	266.25
309.8	280.25
310.03	301.25
310.26	305.25
310.49	297.25
310.72	302.25
310.949	310.25
311.179	322.25
311.409	310.25
311.639	297.25
311.868	312.25
312.098	282.25
312.328	293.25
312.557	330.25
312.787	335.25
313.017	331.25
313.246	299.25
313.476	294.25
313.706	308.25
313.935	306.25
314.165	301.25
314.394	314.25
314.624	311.25
314.853	302.25
315.083	312.25
315.312	308.25
315.542	305.25
315.771	312.25
316.001	301.25
316.23	289.25
316.46	293.25
316.689	306.25
316.919	299.25
317.148	309.25
317.377	318.25
317.607	310.25
317.836	303.25
318.065	301.25
318.295	317.25
318.524	284.25
318.753	296.25
318.983	295.25
319.212	310.25
319.441	314.25
319.67	316.25
319.9	294.25
320.129	297.25
320.358	315.25
320.587	306.25
320.816	320.25
321.046	318.25
321.275	298.25
321.504	307.25
321.733	316.25
321.962	318.25
322.191	343.25
322.42	356.25
322.649	336.25
322.878	337.25
323.108	367.25
323.337	370.25
323.566	400.25
323.795	428.25
324.024	447.25
324.253	525.25
324.482	777.25
324.71	1133.25
324.939	1582.25
325.168	1301.25
325.397	720.25
325.626	495.25
325.855	410.25
326.084	389.25
326.313	410.25
326.542	382.25
326.77	423.25
326.999	517.25
327.228	681.25
327.457	1017.25
327.686	1173.25
327.914	778.25
328.143	564.25
328.372	496.25
328.6	468.25
328.829	430.25
329.058	453.25
329.287	437.25
329.515	427.25
329.744	397.25
329.972	376.25
330.201	405.25
330.43	440.25
330.658	453.25
330.887	465.25
331.115	450.25
331.344	392.25
331.572	374.25
331.801	390.25
332.03	375.25
332.258	374.25
332.486	367.25
332.715	330.25
332.943	347.25
333.172	351.25
333.4	362.25
333.629	363.25
333.857	355.25
334.085	380.25
334.314	372.25
334.542	381.25
334.771	406.25
334.999	376.25
335.227	372.25
335.455	364.25
335.684	361.25
335.912	351.25
336.14	374.25
336.369	363.25
336.597	361.25
336.825	354.25
337.053	330.25
337.281	352.25
337.51	344.25
337.738	346.25
337.966	338.25
338.194	364.25
338.422	362.25
338.65	355.25
338.878	351.25
339.106	338.25
339.334	346.25
339.562	336.25
339.79	340.25
340.018	349.25
340.246	340.25
340.474	340.25
340.702	346.25
340.93	352.25
341.158	346.25
341.386	322.25
341.614	344.25
341.842	323.25
342.07	342.25
342.298	331.25
342.526	326.25
342.754	343.25
342.981	333.25
343.209	314.25
343.437	331.25
343.665	333.25
343.893	349.25
344.12	342.25
344.348	361.25
344.576	337.25
344.804	359.25
345.031	347.25
345.259	352.25
345.487	356.25
345.714	346.25
345.942	325.25
346.17	333.25
346.397	333.25
346.625	331.25
346.853	337.25
347.08	338.25
347.308	346.25
347.535	327.25
347.763	339.25
347.99	342.25
348.218	338.25
348.445	340.25
348.673	338.25
348.9	349.25
349.128	335.25
349.355	320.25
349.583	343.25
349.81	324.25
350.037	326.25
350.265	333.25
350.492	318.25
350.72	314.25
350.947	328.25
351.174	327.25
351.402	340.25
351.629	328.25
351.856	329.25
352.083	337.25
352.311	343.25
352.538	365.25
352.765	331.25
352.992	346.25
353.22	324.25
353.447	320.25
353.674	331.25
353.901	299.25
354.128	315.25
354.355	308.25
354.583	303.25
354.81	314.25
355.037	322.25
355.264	328.25
355.491	316.25
355.718	300.25
355.945	299.25
356.172	301.25
356.399	314.25
356.626	308.25
356.853	318.25
357.08	313.25
357.307	302.25
357.534	303.25
357.761	318.25
357.988	318.25
358.215	316.25
358.441	306.25
358.668	310.25
358.895	312.25
359.122	308.25
359.349	321.25
359.576	330.25
359.802	337.25
360.029	368.25
360.256	376.25
360.483	346.25
360.709	346.25
360.936	329.25
361.163	344.25
361.39	338.25
361.616	348.25
361.843	328.25
362.07	328.25
362.296	356.25
362.523	338.25
362.749	316.25
362.976	329.25
363.203	325.25
363.429	313.25
363.656	328.25
363.882	334.25
364.109	322.25
364.335	319.25
364.562	324.25
364.788	326.25
365.015	319.25
365.241	330.25
365.468	320.25
365.694	330.25
365.92	336.25
366.147	336.25
366.373	319.25
366.599	323.25
366.826	320.25
367.052	321.25
367.278	313.25
367.505	317.25
367.731	326.25
367.957	327.25
368.184	331.25
368.41	330.25
368.636	330.25
368.862	345.25
369.089	340.25
369.315	334.25
369.541	305.25
369.767	318.25
369.993	324.25
370.219	320.25
370.445	342.25
370.672	318.25
370.898	314.25
371.124	326.25
371.35	317.25
371.576	305.25
371.802	322.25
372.028	312.25
372.254	332.25
372.48	324.25
372.706	333.25
372.932	298.25
373.158	340.25
373.384	335.25
373.61	320.25
373.835	339.25
374.061	332.25
374.287	329.25
374.513	332.25
374.739	338.25
374.965	337.25
375.191	332.25
375.416	336.25
375.642	345.25
375.868	328.25
376.094	320.25
376.319	315.25
376.545	317.25
376.771	329.25
376.997	320.25
377.222	324.25
377.448	322.25
377.674	318.25
377.899	309.25
378.125	351.25
378.35	325.25
378.576	305.25
378.802	345.25
379.027	330.25
379.253	325.25
379.478	315.25
379.704	315.25
379.929	323.25
380.155	323.25
380.38	302.25
380.606	335.25
380.831	326.25
381.057	322.25
381.282	320.25
381.507	327.25
381.733	319.25
381.958	323.25
382.184	324.25
382.409	326.25
382.634	324.25
382.86	330.25
383.085	322.25
383.31	325.25
383.535	326.25
383.761	335.25
383.986	338.25
384.211	360.25
384.436	322.25
384.662	342.25
384.887	340.25
385.112	334.25
385.337	332.25
385.562	360.25
385.787	360.25
386.013	347.25
386.238	345.25
386.463	359.25
386.688	325.25
386.913	337.25
387.138	347.25
387.363	361.25
387.588	359.25
387.813	346.25
388.038	361.25
388.263	338.25
388.488	353.25
388.713	357.25
388.938	338.25
389.163	362.25
389.387	363.25
389.612	343.25
389.837	353.25
390.062	330.25
390.287	360.25
390.512	353.25
390.736	368.25
390.961	333.25
391.186	344.25
391.411	346.25
391.636	341.25
391.86	352.25
392.085	364.25
392.31	363.25
392.534	346.25
392.759	346.25
392.984	346.25
393.208	338.25
393.433	374.25
393.658	371.25
393.882	353.25
394.107	343.25
394.331	346.25
394.556	365.25
394.78	358.25
395.005	350.25
395.229	346.25
395.454	360.25
395.678	349.25
395.903	368.25
396.127	386.25
396.352	378.25
396.576	366.25
396.801	349.25
397.025	347.25
397.249	381.25
397.474	378.25
397.698	367.25
397.922	378.25
398.147	400.25
398.371	398.25
398.595	402.25
398.82	393.25
399.044	400.25
399.268	392.25
399.492	417.25
399.717	436.25
399.941	452.25
400.165	491.25
400.389	474.25
400.613	442.25
400.837	433.25
401.062	418.25
401.286	392.25
401.51	399.25
401.734	406.25
401.958	385.25
402.182	387.25
402.406	408.25
402.63	416.25
402.854	411.25
403.078	390.25
403.302	403.25
403.526	425.25
403.75	396.25
403.974	398.25
404.198	401.25
404.422	401.25
404.645	412.25
404.869	400.25
405.093	411.25
405.317	445.25
405.541	462.25
405.765	447.25
405.988	411.25
406.212	440.25
406.436	450.25
406.66	469.25
406.883	429.25
407.107	461.25
407.331	465.25
407.555	502.25
407.778	518.25
408.002	480.25
408.226	464.25
408.449	436.25
408.673	429.25
408.896	470.25
409.12	457.25
409.344	459.25
409.567	430.25
409.791	406.25
410.014	408.25
410.238	409.25
410.461	406.25
410.685	418.25
410.908	405.25
411.132	438.25
411.355	476.25
411.578	463.25
411.802	408.25
412.025	392.25
412.249	422.25
412.472	420.25
412.695	439.25
412.919	444.25
413.142	408.25
413.365	399.25
413.589	385.25
413.812	392.25
414.035	409.25
414.258	384.25
414.482	390.25
414.705	388.25
414.928	384.25
415.151	374.25
415.374	391.25
415.597	385.25
415.821	389.25
416.044	394.25
416.267	385.25
416.49	381.25
416.713	386.25
416.936	382.25
417.159	392.25
417.382	373.25
417.605	369.25
417.828	380.25
418.051	380.25
418.274	399.25
418.497	382.25
418.72	396.25
418.943	395.25
419.166	412.25
419.389	409.25
419.611	412.25
419.834	429.25
420.057	389.25
420.28	409.25
420.503	396.25
420.726	406.25
420.948	418.25
421.171	454.25
421.394	450.25
421.617	411.25
421.839	404.25
422.062	390.25
422.285	417.25
422.507	447.25
422.73	504.25
422.953	490.25
423.175	450.25
423.398	414.25
423.621	411.25
423.843	415.25
424.066	418.25
424.288	427.25
424.511	461.25
424.733	478.25
424.956	506.25
425.178	501.25
425.401	511.25
425.623	527.25
425.846	460.25
426.068	424.25
426.291	427.25
426.513	441.25
426.735	453.25
426.958	458.25
427.18	517.25
427.402	636.25
427.625	656.25
427.847	594.25
428.069	501.25
428.292	471.25
428.514	438.25
428.736	433.25
428.958	402.25
429.181	396.25
429.403	405.25
429.625	434.25
429.847	419.25
430.069	462.25
430.292	468.25
430.514	410.25
430.736	413.25
430.958	408.25
431.18	383.25
431.402	374.25
431.624	385.25
431.846	378.25
432.068	367.25
432.29	379.25
432.512	400.25
432.734	384.25
432.956	404.25
433.178	391.25
433.4	384.25
433.622	400.25
433.844	381.25
434.066	410.25
434.287	368.25
434.509	378.25
434.731	396.25
434.953	397.25
435.175	433.25
435.397	426.25
435.618	434.25
435.84	474.25
436.062	538.25
436.284	564.25
436.505	473.25
436.727	442.25
436.949	418.25
437.17	422.25
437.392	394.25
437.614	414.25
437.835	440.25
438.057	525.25
438.278	568.25
438.5	580.25
438.721	622.25
438.943	593.25
439.165	492.25
439.386	454.25
439.608	420.25
439.829	449.25
440.05	476.25
440.272	480.25
440.493	429.25
440.715	433.25
440.936	412.25
441.158	410.25
441.379	397.25
441.6	415.25
441.822	428.25
442.043	433.25
442.264	513.25
442.486	557.25
442.707	480.25
442.928	424.25
443.149	462.25
443.371	445.25
443.592	512.25
443.813	561.25
444.034	603.25
444.255	504.25
444.476	454.25
444.698	445.25
444.919	429.25
445.14	521.25
445.361	476.25
445.582	502.25
445.803	512.25
446.024	573.25
446.245	572.25
446.466	503.25
446.687	476.25
446.908	428.25
447.129	413.25
447.35	398.25
447.571	420.25
447.792	391.25
448.013	414.25
448.234	419.25
448.455	458.25
448.675	530.25
448.896	609.25
449.117	516.25
449.338	494.25
449.559	589.25
449.779	636.25
450	516.25
450.221	440.25
450.442	400.25
450.662	410.25
450.883	405.25
451.104	413.25
451.324	413.25
451.545	379.25
451.766	369.25
451.986	385.25
452.207	369.25
452.428	362.25
452.648	351.25
452.869	368.25
453.089	361.25
453.31	375.25
453.53	378.25
453.751	374.25
453.971	369.25
454.192	372.25
454.412	381.25
454.633	357.25
454.853	360.25
455.073	376.25
455.294	382.25
455.514	432.25
455.734	386.25
455.955	381.25
456.175	354.25
456.395	342.25
456.616	348.25
456.836	331.25
457.056	349.25
457.276	357.25
457.497	343.25
457.717	355.25
457.937	345.25
458.157	349.25
458.377	358.25
458.598	384.25
458.818	396.25
459.038	477.25
459.258	488.25
459.478	401.25
459.698	403.25
459.918	368.25
460.138	392.25
460.358	393.25
460.578	402.25
460.798	382.25
461.018	374.25
461.238	370.25
461.458	390.25
461.678	395.25
461.898	388.25
462.118	388.25
462.338	399.25
462.558	380.25
462.777	407.25
462.997	404.25
463.217	411.25
463.437	409.25
463.657	402.25
463.876	381.25
464.096	427.25
464.316	431.25
464.536	429.25
464.755	408.25
464.975	422.25
465.195	442.25
465.414	510.25
465.634	430.25
465.854	436.25
466.073	402.25
466.293	399.25
466.512	384.25
466.732	377.25
466.951	365.25
467.171	387.25
467.391	384.25
467.61	380.25
467.829	378.25
468.049	385.25
468.268	382.25
468.488	375.25
468.707	373.25
468.927	370.25
469.146	356.25
469.365	379.25
469.585	364.25
469.804	374.25
470.023	376.25
470.243	378.25
470.462	378.25
470.681	394.25
470.901	391.25
471.12	392.25
471.339	376.25
471.558	383.25
471.777	369.25
471.997	396.25
472.216	404.25
472.435	422.25
472.654	398.25
472.873	360.25
473.092	349.25
473.311	377.25
473.53	382.25
473.749	390.25
473.968	429.25
474.187	490.25
474.406	480.25
474.625	414.25
474.844	405.25
475.063	369.25
475.282	378.25
475.501	373.25
475.72	396.25
475.939	383.25
476.158	403.25
476.377	404.25
476.596	397.25
476.814	393.25
477.033	396.25
477.252	386.25
477.471	413.25
477.69	412.25
477.908	400.25
478.127	432.25
478.346	399.25
478.564	409.25
478.783	400.25
479.002	431.25
479.22	407.25
479.439	429.25
479.658	459.25
479.876	472.25
480.095	456.25
480.313	490.25
480.532	466.25
480.751	451.25
480.969	474.25
481.188	501.25
481.406	539.25
481.624	490.25
481.843	453.25
482.061	479.25
482.28	436.25
482.498	460.25
482.717	459.25
482.935	442.25
483.153	450.25
483.372	448.25
483.59	435.25
483.808	454.25
484.027	452.25
484.245	453.25
484.463	450.25
484.681	465.25
484.9	455.25
485.118	463.25
485.336	458.25
485.554	473.25
485.772	489.25
485.99	456.25
486.209	454.25
486.427	470.25
486.645	464.25
486.863	474.25
487.081	474.25
487.299	491.25
487.517	470.25
487.735	470.25
487.953	468.25
488.171	477.25
488.389	467.25
488.607	474.25
488.825	484.25
489.043	487.25
489.261	489.25
489.479	475.25
489.696	472.25
489.914	492.25
490.132	513.25
490.35	494.25
490.568	487.25
490.786	497.25
491.003	513.25
491.221	518.25
491.439	524.25
491.657	522.25
491.874	511.25
492.092	539.25
492.31	530.25
492.527	541.25
492.745	538.25
492.963	538.25
493.18	544.25
493.398	539.25
493.615	523.25
493.833	542.25
494.05	534.25
494.268	567.25
494.485	560.25
494.703	564.25
494.92	565.25
495.138	549.25
495.355	554.25
495.573	540.25
495.79	551.25
496.008	559.25
496.225	536.25
496.442	548.25
496.66	545.25
496.877	553.25
497.094	567.25
497.312	588.25
497.529	564.25
497.746	564.25
497.963	591.25
498.181	593.25
498.398	630.25
498.615	620.25
498.832	631.25
499.049	620.25
499.267	637.25
499.484	640.25
499.701	693.25
499.918	698.25
500.135	725.25
500.352	745.25
500.569	729.25
500.786	721.25
501.003	715.25
501.22	717.25
501.437	721.25
501.654	700.25
501.871	684.25
502.088	656.25
