Data from 1965.PennyLincolnUp.Lamp.En5.5.200Scan.071719.P1._HRD10591_14-08-02-911.txt Node
Date: Thu Jul 18 14:08:02 EDT 2019
User: cochatt
Spectrometer: HR+D1059
Trigger mode: 1
Integration Time (sec): 1.000000E-1
Scans to average: 1
Electric dark correction enabled: true
Nonlinearity correction enabled: false
Boxcar width: 0
XAxis mode: Wavelengths
Number of Pixels in Spectrum: 2048
>>>>>Begin Spectral Data<<<<<
223.165	-13.81
223.4	-13.81
223.635	-13.81
223.869	-16.81
224.104	-20.81
224.338	-25.81
224.573	-13.81
224.808	-13.81
225.042	-6.81
225.277	-7.81
225.511	5.19
225.746	8.19
225.98	6.19
226.215	0.19
226.449	22.19
226.683	20.19
226.918	23.19
227.152	34.19
227.387	34.19
227.621	31.19
227.856	44.19
228.09	32.19
228.324	51.19
228.559	37.19
228.793	69.19
229.027	98.19
229.262	92.19
229.496	104.19
229.73	96.19
229.964	122.19
230.199	126.19
230.433	116.19
230.667	109.19
230.901	106.19
231.136	108.19
231.37	97.19
231.604	111.19
231.838	105.19
232.072	91.19
232.306	104.19
232.541	102.19
232.775	90.19
233.009	96.19
233.243	111.19
233.477	96.19
233.711	102.19
233.945	116.19
234.179	113.19
234.413	111.19
234.647	126.19
234.881	102.19
235.115	109.19
235.349	107.19
235.583	115.19
235.817	105.19
236.051	114.19
236.285	100.19
236.519	123.19
236.753	104.19
236.987	132.19
237.221	154.19
237.455	169.19
237.689	174.19
237.922	123.19
238.156	110.19
238.39	115.19
238.624	114.19
238.858	122.19
239.091	117.19
239.325	111.19
239.559	107.19
239.793	122.19
240.027	126.19
240.26	126.19
240.494	118.19
240.728	135.19
240.961	148.19
241.195	137.19
241.429	117.19
241.662	119.19
241.896	107.19
242.13	119.19
242.363	117.19
242.597	127.19
242.83	117.19
243.064	116.19
243.298	111.19
243.531	113.19
243.765	121.19
243.998	144.19
244.232	126.19
244.465	125.19
244.699	122.19
244.932	123.19
245.166	124.19
245.399	129.19
245.633	141.19
245.866	138.19
246.099	139.19
246.333	131.19
246.566	135.19
246.8	128.19
247.033	130.19
247.266	119.19
247.5	130.19
247.733	139.19
247.966	141.19
248.2	153.19
248.433	145.19
248.666	142.19
248.899	172.19
249.133	166.19
249.366	172.19
249.599	185.19
249.832	174.19
250.066	154.19
250.299	156.19
250.532	161.19
250.765	159.19
250.998	173.19
251.231	180.19
251.465	161.19
251.698	158.19
251.931	174.19
252.164	176.19
252.397	191.19
252.63	170.19
252.863	162.19
253.096	166.19
253.329	173.19
253.562	187.19
253.795	192.19
254.028	182.19
254.261	167.19
254.494	198.19
254.727	198.19
254.96	207.19
255.193	223.19
255.426	196.19
255.659	192.19
255.892	192.19
256.124	189.19
256.357	195.19
256.59	195.19
256.823	176.19
257.056	188.19
257.289	161.19
257.521	190.19
257.754	190.19
257.987	157.19
258.22	169.19
258.452	163.19
258.685	171.19
258.918	181.19
259.151	169.19
259.383	191.19
259.616	188.19
259.849	173.19
260.081	214.19
260.314	201.19
260.547	204.19
260.779	181.19
261.012	191.19
261.244	186.19
261.477	191.19
261.71	198.19
261.942	180.19
262.175	215.19
262.407	197.19
262.64	186.19
262.872	178.19
263.105	185.19
263.337	185.19
263.57	174.19
263.802	186.19
264.035	175.19
264.267	178.19
264.499	171.19
264.732	188.19
264.964	188.19
265.197	179.19
265.429	182.19
265.661	188.19
265.894	180.19
266.126	186.19
266.358	178.19
266.591	191.19
266.823	183.19
267.055	187.19
267.287	184.19
267.52	195.19
267.752	199.19
267.984	188.19
268.216	186.19
268.448	194.19
268.681	188.19
268.913	196.19
269.145	214.19
269.377	215.19
269.609	222.19
269.841	202.19
270.073	210.19
270.306	218.19
270.538	251.19
270.77	238.19
271.002	224.19
271.234	226.19
271.466	235.19
271.698	249.19
271.93	262.19
272.162	229.19
272.394	239.19
272.626	236.19
272.858	238.19
273.09	220.19
273.322	231.19
273.553	224.19
273.785	214.19
274.017	219.19
274.249	228.19
274.481	215.19
274.713	212.19
274.945	229.19
275.176	208.19
275.408	224.19
275.64	204.19
275.872	226.19
276.104	217.19
276.335	222.19
276.567	232.19
276.799	218.19
277.031	248.19
277.262	274.19
277.494	253.19
277.726	229.19
277.957	220.19
278.189	226.19
278.421	226.19
278.652	215.19
278.884	227.19
279.115	207.19
279.347	238.19
279.579	234.19
279.81	215.19
280.042	218.19
280.273	226.19
280.505	230.19
280.736	215.19
280.968	211.19
281.199	203.19
281.431	222.19
281.662	211.19
281.894	237.19
282.125	218.19
282.356	236.19
282.588	271.19
282.819	256.19
283.051	230.19
283.282	236.19
283.513	246.19
283.745	242.19
283.976	221.19
284.207	250.19
284.439	233.19
284.67	232.19
284.901	233.19
285.132	225.19
285.364	231.19
285.595	214.19
285.826	223.19
286.057	224.19
286.288	242.19
286.52	217.19
286.751	231.19
286.982	223.19
287.213	239.19
287.444	230.19
287.675	238.19
287.906	248.19
288.138	228.19
288.369	248.19
288.6	269.19
288.831	248.19
289.062	250.19
289.293	235.19
289.524	233.19
289.755	225.19
289.986	220.19
290.217	220.19
290.448	224.19
290.679	237.19
290.91	245.19
291.141	232.19
291.371	226.19
291.602	242.19
291.833	237.19
292.064	215.19
292.295	236.19
292.526	226.19
292.757	217.19
292.987	250.19
293.218	215.19
293.449	227.19
293.68	224.19
293.91	232.19
294.141	244.19
294.372	267.19
294.603	241.19
294.833	238.19
295.064	234.19
295.295	213.19
295.525	248.19
295.756	239.19
295.987	250.19
296.217	282.19
296.448	260.19
296.679	234.19
296.909	233.19
297.14	246.19
297.37	236.19
297.601	234.19
297.831	239.19
298.062	252.19
298.292	242.19
298.523	245.19
298.753	242.19
298.984	234.19
299.214	232.19
299.445	242.19
299.675	260.19
299.905	253.19
300.136	247.19
300.366	238.19
300.597	254.19
300.827	273.19
301.057	264.19
301.288	254.19
301.518	267.19
301.748	265.19
301.979	250.19
302.209	254.19
302.439	268.19
302.669	253.19
302.9	260.19
303.13	250.19
303.36	251.19
303.59	277.19
303.82	269.19
304.051	298.19
304.281	290.19
304.511	246.19
304.741	273.19
304.971	259.19
305.201	272.19
305.431	266.19
305.661	261.19
305.891	249.19
306.121	263.19
306.352	294.19
306.582	277.19
306.812	262.19
307.042	272.19
307.272	281.19
307.502	270.19
307.731	285.19
307.961	272.19
308.191	271.19
308.421	280.19
308.651	276.19
308.881	278.19
309.111	282.19
309.341	287.19
309.571	287.19
309.8	282.19
310.03	312.19
310.26	303.19
310.49	286.19
310.72	291.19
310.949	325.19
311.179	311.19
311.409	288.19
311.639	324.19
311.868	294.19
312.098	319.19
312.328	324.19
312.557	326.19
312.787	330.19
313.017	344.19
313.246	314.19
313.476	300.19
313.706	303.19
313.935	314.19
314.165	311.19
314.394	316.19
314.624	313.19
314.853	310.19
315.083	310.19
315.312	294.19
315.542	294.19
315.771	298.19
316.001	309.19
316.23	301.19
316.46	310.19
316.689	312.19
316.919	311.19
317.148	328.19
317.377	316.19
317.607	324.19
317.836	301.19
318.065	294.19
318.295	317.19
318.524	300.19
318.753	306.19
318.983	310.19
319.212	317.19
319.441	319.19
319.67	313.19
319.9	319.19
320.129	305.19
320.358	309.19
320.587	326.19
320.816	315.19
321.046	321.19
321.275	336.19
321.504	319.19
321.733	333.19
321.962	331.19
322.191	354.19
322.42	355.19
322.649	373.19
322.878	374.19
323.108	374.19
323.337	384.19
323.566	396.19
323.795	424.19
324.024	474.19
324.253	580.19
324.482	812.19
324.71	1254.19
324.939	1692.19
325.168	1388.19
325.397	751.19
325.626	526.19
325.855	420.19
326.084	419.19
326.313	406.19
326.542	390.19
326.77	446.19
326.999	520.19
327.228	717.19
327.457	1071.19
327.686	1261.19
327.914	840.19
328.143	589.19
328.372	508.19
328.6	481.19
328.829	449.19
329.058	451.19
329.287	469.19
329.515	447.19
329.744	402.19
329.972	420.19
330.201	409.19
330.43	480.19
330.658	460.19
330.887	488.19
331.115	493.19
331.344	420.19
331.572	398.19
331.801	408.19
332.03	394.19
332.258	365.19
332.486	343.19
332.715	356.19
332.943	360.19
333.172	373.19
333.4	370.19
333.629	379.19
333.857	371.19
334.085	394.19
334.314	406.19
334.542	419.19
334.771	426.19
334.999	396.19
335.227	378.19
335.455	378.19
335.684	359.19
335.912	353.19
336.14	349.19
336.369	355.19
336.597	365.19
336.825	355.19
337.053	376.19
337.281	363.19
337.51	356.19
337.738	354.19
337.966	365.19
338.194	345.19
338.422	360.19
338.65	336.19
338.878	343.19
339.106	347.19
339.334	354.19
339.562	351.19
339.79	364.19
340.018	340.19
340.246	352.19
340.474	352.19
340.702	319.19
340.93	346.19
341.158	350.19
341.386	340.19
341.614	340.19
341.842	343.19
342.07	352.19
342.298	349.19
342.526	347.19
342.754	341.19
342.981	357.19
343.209	339.19
343.437	347.19
343.665	346.19
343.893	349.19
344.12	352.19
344.348	350.19
344.576	362.19
344.804	369.19
345.031	373.19
345.259	372.19
345.487	360.19
345.714	346.19
345.942	345.19
346.17	335.19
346.397	332.19
346.625	354.19
346.853	340.19
347.08	360.19
347.308	337.19
347.535	361.19
347.763	342.19
347.99	351.19
348.218	358.19
348.445	376.19
348.673	354.19
348.9	326.19
349.128	342.19
349.355	340.19
349.583	321.19
349.81	340.19
350.037	333.19
350.265	330.19
350.492	322.19
350.72	342.19
350.947	335.19
351.174	327.19
351.402	340.19
351.629	331.19
351.856	332.19
352.083	347.19
352.311	346.19
352.538	355.19
352.765	357.19
352.992	370.19
353.22	332.19
353.447	321.19
353.674	340.19
353.901	335.19
354.128	330.19
354.355	318.19
354.583	336.19
354.81	318.19
355.037	326.19
355.264	323.19
355.491	325.19
355.718	317.19
355.945	324.19
356.172	333.19
356.399	309.19
356.626	333.19
356.853	344.19
357.08	324.19
357.307	324.19
357.534	330.19
357.761	313.19
357.988	309.19
358.215	317.19
358.441	330.19
358.668	314.19
358.895	314.19
359.122	325.19
359.349	361.19
359.576	344.19
359.802	361.19
360.029	387.19
360.256	401.19
360.483	373.19
360.709	347.19
360.936	337.19
361.163	342.19
361.39	344.19
361.616	370.19
361.843	338.19
362.07	325.19
362.296	355.19
362.523	350.19
362.749	332.19
362.976	329.19
363.203	351.19
363.429	317.19
363.656	331.19
363.882	326.19
364.109	329.19
364.335	323.19
364.562	326.19
364.788	324.19
365.015	346.19
365.241	335.19
365.468	334.19
365.694	350.19
365.92	346.19
366.147	316.19
366.373	330.19
366.599	329.19
366.826	339.19
367.052	329.19
367.278	342.19
367.505	332.19
367.731	346.19
367.957	333.19
368.184	325.19
368.41	322.19
368.636	329.19
368.862	336.19
369.089	322.19
369.315	326.19
369.541	317.19
369.767	312.19
369.993	309.19
370.219	307.19
370.445	342.19
370.672	330.19
370.898	325.19
371.124	319.19
371.35	321.19
371.576	327.19
371.802	329.19
372.028	321.19
372.254	331.19
372.48	344.19
372.706	329.19
372.932	336.19
373.158	317.19
373.384	331.19
373.61	327.19
373.835	320.19
374.061	320.19
374.287	348.19
374.513	323.19
374.739	325.19
374.965	330.19
375.191	335.19
375.416	336.19
375.642	340.19
375.868	350.19
376.094	327.19
376.319	318.19
376.545	324.19
376.771	328.19
376.997	333.19
377.222	319.19
377.448	333.19
377.674	321.19
377.899	315.19
378.125	334.19
378.35	318.19
378.576	334.19
378.802	318.19
379.027	326.19
379.253	323.19
379.478	315.19
379.704	331.19
379.929	332.19
380.155	331.19
380.38	317.19
380.606	334.19
380.831	315.19
381.057	325.19
381.282	324.19
381.507	347.19
381.733	330.19
381.958	320.19
382.184	351.19
382.409	334.19
382.634	322.19
382.86	335.19
383.085	330.19
383.31	354.19
383.535	338.19
383.761	333.19
383.986	348.19
384.211	346.19
384.436	345.19
384.662	359.19
384.887	348.19
385.112	350.19
385.337	331.19
385.562	346.19
385.787	359.19
386.013	372.19
386.238	384.19
386.463	345.19
386.688	352.19
386.913	339.19
387.138	362.19
387.363	344.19
387.588	343.19
387.813	352.19
388.038	333.19
388.263	346.19
388.488	336.19
388.713	336.19
388.938	350.19
389.163	369.19
389.387	357.19
389.612	356.19
389.837	360.19
390.062	343.19
390.287	341.19
390.512	361.19
390.736	356.19
390.961	353.19
391.186	343.19
391.411	353.19
391.636	364.19
391.86	370.19
392.085	338.19
392.31	360.19
392.534	360.19
392.759	359.19
392.984	364.19
393.208	345.19
393.433	356.19
393.658	365.19
393.882	364.19
394.107	351.19
394.331	356.19
394.556	360.19
394.78	355.19
395.005	356.19
395.229	368.19
395.454	354.19
395.678	361.19
395.903	378.19
396.127	392.19
396.352	366.19
396.576	360.19
396.801	391.19
397.025	367.19
397.249	346.19
397.474	376.19
397.698	373.19
397.922	381.19
398.147	383.19
398.371	386.19
398.595	400.19
398.82	395.19
399.044	403.19
399.268	416.19
399.492	442.19
399.717	434.19
399.941	457.19
400.165	472.19
400.389	502.19
400.613	422.19
400.837	419.19
401.062	412.19
401.286	408.19
401.51	398.19
401.734	390.19
401.958	375.19
402.182	410.19
402.406	399.19
402.63	418.19
402.854	421.19
403.078	410.19
403.302	401.19
403.526	404.19
403.75	413.19
403.974	413.19
404.198	412.19
404.422	431.19
404.645	414.19
404.869	427.19
405.093	436.19
405.317	470.19
405.541	506.19
405.765	446.19
405.988	423.19
406.212	442.19
406.436	453.19
406.66	459.19
406.883	455.19
407.107	481.19
407.331	509.19
407.555	548.19
407.778	514.19
408.002	478.19
408.226	456.19
408.449	456.19
408.673	446.19
408.896	463.19
409.12	504.19
409.344	476.19
409.567	423.19
409.791	438.19
410.014	407.19
410.238	407.19
410.461	415.19
410.685	408.19
410.908	437.19
411.132	452.19
411.355	476.19
411.578	448.19
411.802	425.19
412.025	395.19
412.249	417.19
412.472	437.19
412.695	470.19
412.919	453.19
413.142	414.19
413.365	404.19
413.589	388.19
413.812	396.19
414.035	402.19
414.258	392.19
414.482	401.19
414.705	386.19
414.928	395.19
415.151	408.19
415.374	398.19
415.597	388.19
415.821	391.19
416.044	392.19
416.267	404.19
416.49	393.19
416.713	381.19
416.936	388.19
417.159	380.19
417.382	410.19
417.605	385.19
417.828	414.19
418.051	421.19
418.274	420.19
418.497	384.19
418.72	408.19
418.943	403.19
419.166	384.19
419.389	409.19
419.611	411.19
419.834	410.19
420.057	420.19
420.28	403.19
420.503	405.19
420.726	409.19
420.948	427.19
421.171	451.19
421.394	469.19
421.617	426.19
421.839	410.19
422.062	396.19
422.285	427.19
422.507	464.19
422.73	520.19
422.953	489.19
423.175	450.19
423.398	426.19
423.621	424.19
423.843	443.19
424.066	430.19
424.288	422.19
424.511	455.19
424.733	479.19
424.956	528.19
425.178	521.19
425.401	518.19
425.623	536.19
425.846	484.19
426.068	445.19
426.291	438.19
426.513	409.19
426.735	451.19
426.958	480.19
427.18	552.19
427.402	640.19
427.625	700.19
427.847	601.19
428.069	516.19
428.292	486.19
428.514	420.19
428.736	423.19
428.958	432.19
429.181	405.19
429.403	392.19
429.625	419.19
429.847	440.19
430.069	488.19
430.292	475.19
430.514	421.19
430.736	406.19
430.958	420.19
431.18	384.19
431.402	379.19
431.624	367.19
431.846	366.19
432.068	379.19
432.29	377.19
432.512	394.19
432.734	373.19
432.956	380.19
433.178	399.19
433.4	417.19
433.622	414.19
433.844	379.19
434.066	384.19
434.287	376.19
434.509	388.19
434.731	386.19
434.953	405.19
435.175	407.19
435.397	427.19
435.618	430.19
435.84	475.19
436.062	539.19
436.284	572.19
436.505	510.19
436.727	440.19
436.949	410.19
437.17	400.19
437.392	433.19
437.614	413.19
437.835	465.19
438.057	530.19
438.278	599.19
438.5	592.19
438.721	640.19
438.943	586.19
439.165	500.19
439.386	460.19
439.608	450.19
439.829	463.19
440.05	473.19
440.272	489.19
440.493	475.19
440.715	423.19
440.936	412.19
441.158	418.19
441.379	418.19
441.6	423.19
441.822	426.19
442.043	464.19
442.264	527.19
442.486	566.19
442.707	483.19
442.928	466.19
443.149	455.19
443.371	464.19
443.592	490.19
443.813	570.19
444.034	607.19
444.255	504.19
444.476	442.19
444.698	444.19
444.919	446.19
445.14	526.19
445.361	494.19
445.582	482.19
445.803	536.19
446.024	614.19
446.245	588.19
446.466	547.19
446.687	467.19
446.908	442.19
447.129	396.19
447.35	411.19
447.571	413.19
447.792	395.19
448.013	418.19
448.234	440.19
448.455	463.19
448.675	569.19
448.896	610.19
449.117	565.19
449.338	510.19
449.559	589.19
449.779	631.19
450	526.19
450.221	449.19
450.442	411.19
450.662	398.19
450.883	412.19
451.104	419.19
451.324	402.19
451.545	387.19
451.766	384.19
451.986	365.19
452.207	337.19
452.428	375.19
452.648	379.19
452.869	372.19
453.089	379.19
453.31	395.19
453.53	359.19
453.751	368.19
453.971	388.19
454.192	366.19
454.412	376.19
454.633	362.19
454.853	382.19
455.073	364.19
455.294	420.19
455.514	436.19
455.734	426.19
455.955	374.19
456.175	364.19
456.395	343.19
456.616	343.19
456.836	338.19
457.056	372.19
457.276	366.19
457.497	366.19
457.717	345.19
457.937	365.19
458.157	364.19
458.377	372.19
458.598	378.19
458.818	429.19
459.038	485.19
459.258	496.19
459.478	423.19
459.698	385.19
459.918	409.19
460.138	393.19
460.358	409.19
460.578	384.19
460.798	416.19
461.018	395.19
461.238	408.19
461.458	380.19
461.678	373.19
461.898	384.19
462.118	410.19
462.338	399.19
462.558	392.19
462.777	400.19
462.997	407.19
463.217	417.19
463.437	415.19
463.657	410.19
463.876	428.19
464.096	444.19
464.316	405.19
464.536	437.19
464.755	396.19
464.975	434.19
465.195	460.19
465.414	528.19
465.634	453.19
465.854	422.19
466.073	396.19
466.293	404.19
466.512	389.19
466.732	378.19
466.951	381.19
467.171	379.19
467.391	382.19
467.61	394.19
467.829	415.19
468.049	392.19
468.268	365.19
468.488	384.19
468.707	368.19
468.927	384.19
469.146	381.19
469.365	376.19
469.585	384.19
469.804	396.19
470.023	379.19
470.243	392.19
470.462	373.19
470.681	398.19
470.901	397.19
471.12	371.19
471.339	382.19
471.558	384.19
471.777	371.19
471.997	384.19
472.216	404.19
472.435	418.19
472.654	398.19
472.873	375.19
473.092	392.19
473.311	371.19
473.53	419.19
473.749	391.19
473.968	442.19
474.187	525.19
474.406	518.19
474.625	444.19
474.844	426.19
475.063	388.19
475.282	404.19
475.501	396.19
475.72	397.19
475.939	387.19
476.158	384.19
476.377	407.19
476.596	394.19
476.814	413.19
477.033	427.19
477.252	410.19
477.471	405.19
477.69	419.19
477.908	404.19
478.127	434.19
478.346	412.19
478.564	418.19
478.783	428.19
479.002	434.19
479.22	456.19
479.439	440.19
479.658	448.19
479.876	451.19
480.095	475.19
480.313	482.19
480.532	449.19
480.751	473.19
480.969	487.19
481.188	540.19
481.406	548.19
481.624	502.19
481.843	475.19
482.061	463.19
482.28	451.19
482.498	483.19
482.717	452.19
482.935	464.19
483.153	450.19
483.372	452.19
483.59	472.19
483.808	447.19
484.027	442.19
484.245	461.19
484.463	464.19
484.681	454.19
484.9	478.19
485.118	479.19
485.336	463.19
485.554	483.19
485.772	476.19
485.99	464.19
486.209	493.19
486.427	460.19
486.645	486.19
486.863	495.19
487.081	489.19
487.299	489.19
487.517	496.19
487.735	483.19
487.953	494.19
488.171	489.19
488.389	504.19
488.607	514.19
488.825	472.19
489.043	484.19
489.261	477.19
489.479	498.19
489.696	489.19
489.914	495.19
490.132	513.19
490.35	526.19
490.568	522.19
490.786	504.19
491.003	522.19
491.221	552.19
491.439	520.19
491.657	545.19
491.874	523.19
492.092	539.19
492.31	535.19
492.527	563.19
492.745	545.19
492.963	539.19
493.18	538.19
493.398	547.19
493.615	558.19
493.833	568.19
494.05	559.19
494.268	547.19
494.485	543.19
494.703	565.19
494.92	541.19
495.138	554.19
495.355	570.19
495.573	571.19
495.79	580.19
496.008	583.19
496.225	541.19
496.442	555.19
496.66	592.19
496.877	600.19
497.094	599.19
497.312	585.19
497.529	576.19
497.746	609.19
497.963	590.19
498.181	619.19
498.398	630.19
498.615	639.19
498.832	647.19
499.049	652.19
499.267	649.19
499.484	695.19
499.701	666.19
499.918	680.19
500.135	716.19
500.352	743.19
500.569	752.19
500.786	760.19
501.003	732.19
501.22	740.19
501.437	709.19
501.654	708.19
501.871	682.19
502.088	668.19
