Data from 1965.PennyLincolnUp.Lamp.En5.5.200Scan.071719.P1._HRD10591_14-08-35-911.txt Node
Date: Thu Jul 18 14:08:35 EDT 2019
User: cochatt
Spectrometer: HR+D1059
Trigger mode: 1
Integration Time (sec): 1.000000E-1
Scans to average: 1
Electric dark correction enabled: true
Nonlinearity correction enabled: false
Boxcar width: 0
XAxis mode: Wavelengths
Number of Pixels in Spectrum: 2048
>>>>>Begin Spectral Data<<<<<
223.165	-7.69
223.4	-7.69
223.635	-7.69
223.869	-24.69
224.104	-8.69
224.338	-8.69
224.573	-3.69
224.808	-18.69
225.042	-5.69
225.277	3.31
225.511	-3.69
225.746	11.31
225.98	-14.69
226.215	5.31
226.449	31.31
226.683	12.31
226.918	10.31
227.152	22.31
227.387	49.31
227.621	37.31
227.856	43.31
228.09	37.31
228.324	42.31
228.559	42.31
228.793	57.31
229.027	76.31
229.262	95.31
229.496	105.31
229.73	133.31
229.964	149.31
230.199	107.31
230.433	97.31
230.667	101.31
230.901	101.31
231.136	93.31
231.37	114.31
231.604	106.31
231.838	99.31
232.072	99.31
232.306	97.31
232.541	104.31
232.775	94.31
233.009	109.31
233.243	98.31
233.477	105.31
233.711	97.31
233.945	114.31
234.179	97.31
234.413	113.31
234.647	105.31
234.881	104.31
235.115	94.31
235.349	99.31
235.583	94.31
235.817	102.31
236.051	116.31
236.285	116.31
236.519	115.31
236.753	111.31
236.987	137.31
237.221	160.31
237.455	204.31
237.689	153.31
237.922	133.31
238.156	112.31
238.39	115.31
238.624	103.31
238.858	105.31
239.091	119.31
239.325	112.31
239.559	113.31
239.793	105.31
240.027	106.31
240.26	121.31
240.494	129.31
240.728	125.31
240.961	131.31
241.195	123.31
241.429	121.31
241.662	111.31
241.896	107.31
242.13	111.31
242.363	115.31
242.597	115.31
242.83	124.31
243.064	118.31
243.298	121.31
243.531	110.31
243.765	121.31
243.998	123.31
244.232	130.31
244.465	125.31
244.699	126.31
244.932	129.31
245.166	121.31
245.399	124.31
245.633	126.31
245.866	126.31
246.099	137.31
246.333	124.31
246.566	125.31
246.8	128.31
247.033	154.31
247.266	129.31
247.5	133.31
247.733	153.31
247.966	149.31
248.2	143.31
248.433	147.31
248.666	161.31
248.899	146.31
249.133	145.31
249.366	163.31
249.599	167.31
249.832	162.31
250.066	149.31
250.299	146.31
250.532	165.31
250.765	189.31
250.998	185.31
251.231	181.31
251.465	164.31
251.698	177.31
251.931	173.31
252.164	164.31
252.397	170.31
252.63	170.31
252.863	178.31
253.096	173.31
253.329	189.31
253.562	197.31
253.795	167.31
254.028	181.31
254.261	169.31
254.494	179.31
254.727	219.31
254.96	239.31
255.193	218.31
255.426	196.31
255.659	190.31
255.892	197.31
256.124	184.31
256.357	195.31
256.59	185.31
256.823	172.31
257.056	175.31
257.289	174.31
257.521	162.31
257.754	175.31
257.987	173.31
258.22	167.31
258.452	179.31
258.685	168.31
258.918	158.31
259.151	174.31
259.383	194.31
259.616	191.31
259.849	192.31
260.081	210.31
260.314	201.31
260.547	218.31
260.779	212.31
261.012	190.31
261.244	198.31
261.477	198.31
261.71	186.31
261.942	203.31
262.175	191.31
262.407	214.31
262.64	182.31
262.872	165.31
263.105	169.31
263.337	173.31
263.57	166.31
263.802	180.31
264.035	182.31
264.267	181.31
264.499	193.31
264.732	170.31
264.964	179.31
265.197	197.31
265.429	192.31
265.661	182.31
265.894	196.31
266.126	174.31
266.358	168.31
266.591	186.31
266.823	197.31
267.055	197.31
267.287	181.31
267.52	173.31
267.752	182.31
267.984	195.31
268.216	196.31
268.448	207.31
268.681	187.31
268.913	206.31
269.145	222.31
269.377	227.31
269.609	231.31
269.841	222.31
270.073	225.31
270.306	226.31
270.538	235.31
270.77	246.31
271.002	235.31
271.234	227.31
271.466	226.31
271.698	242.31
271.93	254.31
272.162	246.31
272.394	248.31
272.626	231.31
272.858	232.31
273.09	238.31
273.322	234.31
273.553	243.31
273.785	224.31
274.017	215.31
274.249	220.31
274.481	219.31
274.713	234.31
274.945	237.31
275.176	219.31
275.408	232.31
275.64	239.31
275.872	228.31
276.104	220.31
276.335	212.31
276.567	215.31
276.799	210.31
277.031	249.31
277.262	259.31
277.494	268.31
277.726	242.31
277.957	234.31
278.189	229.31
278.421	238.31
278.652	230.31
278.884	204.31
279.115	208.31
279.347	214.31
279.579	212.31
279.81	199.31
280.042	214.31
280.273	227.31
280.505	217.31
280.736	210.31
280.968	220.31
281.199	215.31
281.431	215.31
281.662	229.31
281.894	231.31
282.125	237.31
282.356	243.31
282.588	246.31
282.819	258.31
283.051	233.31
283.282	209.31
283.513	223.31
283.745	222.31
283.976	217.31
284.207	225.31
284.439	227.31
284.67	198.31
284.901	220.31
285.132	212.31
285.364	231.31
285.595	237.31
285.826	228.31
286.057	229.31
286.288	224.31
286.52	223.31
286.751	226.31
286.982	245.31
287.213	225.31
287.444	234.31
287.675	251.31
287.906	241.31
288.138	241.31
288.369	233.31
288.6	245.31
288.831	225.31
289.062	236.31
289.293	237.31
289.524	222.31
289.755	246.31
289.986	238.31
290.217	251.31
290.448	237.31
290.679	241.31
290.91	249.31
291.141	229.31
291.371	214.31
291.602	222.31
291.833	238.31
292.064	228.31
292.295	251.31
292.526	236.31
292.757	207.31
292.987	243.31
293.218	229.31
293.449	243.31
293.68	257.31
293.91	218.31
294.141	227.31
294.372	231.31
294.603	237.31
294.833	245.31
295.064	230.31
295.295	234.31
295.525	234.31
295.756	246.31
295.987	223.31
296.217	267.31
296.448	267.31
296.679	238.31
296.909	235.31
297.14	249.31
297.37	234.31
297.601	231.31
297.831	252.31
298.062	249.31
298.292	256.31
298.523	238.31
298.753	248.31
298.984	241.31
299.214	242.31
299.445	251.31
299.675	251.31
299.905	262.31
300.136	250.31
300.366	242.31
300.597	258.31
300.827	258.31
301.057	257.31
301.288	266.31
301.518	269.31
301.748	232.31
301.979	236.31
302.209	248.31
302.439	256.31
302.669	271.31
302.9	267.31
303.13	255.31
303.36	276.31
303.59	276.31
303.82	267.31
304.051	256.31
304.281	252.31
304.511	253.31
304.741	270.31
304.971	251.31
305.201	283.31
305.431	262.31
305.661	269.31
305.891	258.31
306.121	259.31
306.352	268.31
306.582	270.31
306.812	283.31
307.042	263.31
307.272	255.31
307.502	270.31
307.731	263.31
307.961	281.31
308.191	286.31
308.421	264.31
308.651	277.31
308.881	279.31
309.111	280.31
309.341	279.31
309.571	289.31
309.8	295.31
310.03	309.31
310.26	287.31
310.49	315.31
310.72	297.31
310.949	313.31
311.179	322.31
311.409	290.31
311.639	303.31
311.868	312.31
312.098	307.31
312.328	319.31
312.557	324.31
312.787	339.31
313.017	322.31
313.246	313.31
313.476	308.31
313.706	308.31
313.935	322.31
314.165	329.31
314.394	322.31
314.624	326.31
314.853	310.31
315.083	308.31
315.312	298.31
315.542	309.31
315.771	309.31
316.001	313.31
316.23	327.31
316.46	289.31
316.689	298.31
316.919	311.31
317.148	305.31
317.377	321.31
317.607	308.31
317.836	293.31
318.065	309.31
318.295	310.31
318.524	307.31
318.753	315.31
318.983	310.31
319.212	322.31
319.441	333.31
319.67	323.31
319.9	318.31
320.129	326.31
320.358	325.31
320.587	321.31
320.816	319.31
321.046	340.31
321.275	339.31
321.504	330.31
321.733	328.31
321.962	339.31
322.191	349.31
322.42	371.31
322.649	376.31
322.878	370.31
323.108	382.31
323.337	406.31
323.566	438.31
323.795	444.31
324.024	501.31
324.253	597.31
324.482	881.31
324.71	1330.31
324.939	1764.31
325.168	1504.31
325.397	801.31
325.626	567.31
325.855	468.31
326.084	445.31
326.313	415.31
326.542	436.31
326.77	476.31
326.999	553.31
327.228	777.31
327.457	1149.31
327.686	1343.31
327.914	898.31
328.143	594.31
328.372	504.31
328.6	486.31
328.829	464.31
329.058	487.31
329.287	484.31
329.515	460.31
329.744	415.31
329.972	415.31
330.201	445.31
330.43	455.31
330.658	502.31
330.887	528.31
331.115	488.31
331.344	419.31
331.572	412.31
331.801	423.31
332.03	405.31
332.258	375.31
332.486	353.31
332.715	357.31
332.943	359.31
333.172	373.31
333.4	349.31
333.629	361.31
333.857	362.31
334.085	384.31
334.314	408.31
334.542	437.31
334.771	419.31
334.999	396.31
335.227	384.31
335.455	377.31
335.684	361.31
335.912	365.31
336.14	331.31
336.369	342.31
336.597	363.31
336.825	357.31
337.053	341.31
337.281	346.31
337.51	358.31
337.738	347.31
337.966	358.31
338.194	355.31
338.422	346.31
338.65	345.31
338.878	334.31
339.106	354.31
339.334	364.31
339.562	347.31
339.79	340.31
340.018	340.31
340.246	341.31
340.474	350.31
340.702	358.31
340.93	343.31
341.158	345.31
341.386	346.31
341.614	361.31
341.842	341.31
342.07	345.31
342.298	347.31
342.526	318.31
342.754	319.31
342.981	313.31
343.209	341.31
343.437	335.31
343.665	323.31
343.893	347.31
344.12	351.31
344.348	342.31
344.576	333.31
344.804	357.31
345.031	354.31
345.259	371.31
345.487	353.31
345.714	350.31
345.942	364.31
346.17	341.31
346.397	337.31
346.625	343.31
346.853	338.31
347.08	338.31
347.308	335.31
347.535	362.31
347.763	351.31
347.99	341.31
348.218	343.31
348.445	356.31
348.673	357.31
348.9	329.31
349.128	330.31
349.355	323.31
349.583	338.31
349.81	334.31
350.037	309.31
350.265	343.31
350.492	319.31
350.72	327.31
350.947	321.31
351.174	354.31
351.402	357.31
351.629	326.31
351.856	343.31
352.083	349.31
352.311	357.31
352.538	357.31
352.765	374.31
352.992	355.31
353.22	337.31
353.447	339.31
353.674	333.31
353.901	324.31
354.128	322.31
354.355	318.31
354.583	315.31
354.81	331.31
355.037	326.31
355.264	327.31
355.491	310.31
355.718	321.31
355.945	309.31
356.172	316.31
356.399	310.31
356.626	319.31
356.853	341.31
357.08	297.31
357.307	331.31
357.534	317.31
357.761	332.31
357.988	309.31
358.215	304.31
358.441	301.31
358.668	309.31
358.895	326.31
359.122	315.31
359.349	358.31
359.576	350.31
359.802	364.31
360.029	382.31
360.256	401.31
360.483	369.31
360.709	367.31
360.936	362.31
361.163	332.31
361.39	331.31
361.616	338.31
361.843	339.31
362.07	326.31
362.296	359.31
362.523	333.31
362.749	338.31
362.976	345.31
363.203	333.31
363.429	329.31
363.656	334.31
363.882	323.31
364.109	326.31
364.335	340.31
364.562	339.31
364.788	326.31
365.015	322.31
365.241	333.31
365.468	331.31
365.694	336.31
365.92	347.31
366.147	325.31
366.373	343.31
366.599	318.31
366.826	315.31
367.052	335.31
367.278	321.31
367.505	316.31
367.731	310.31
367.957	316.31
368.184	333.31
368.41	352.31
368.636	345.31
368.862	318.31
369.089	338.31
369.315	333.31
369.541	294.31
369.767	333.31
369.993	308.31
370.219	332.31
370.445	315.31
370.672	322.31
370.898	322.31
371.124	329.31
371.35	309.31
371.576	334.31
371.802	328.31
372.028	346.31
372.254	336.31
372.48	300.31
372.706	307.31
372.932	324.31
373.158	318.31
373.384	333.31
373.61	324.31
373.835	328.31
374.061	317.31
374.287	343.31
374.513	329.31
374.739	319.31
374.965	318.31
375.191	327.31
375.416	336.31
375.642	321.31
375.868	333.31
376.094	329.31
376.319	311.31
376.545	330.31
376.771	311.31
376.997	313.31
377.222	315.31
377.448	316.31
377.674	302.31
377.899	332.31
378.125	301.31
378.35	331.31
378.576	315.31
378.802	313.31
379.027	314.31
379.253	339.31
379.478	315.31
379.704	312.31
379.929	309.31
380.155	333.31
380.38	322.31
380.606	323.31
380.831	301.31
381.057	312.31
381.282	324.31
381.507	303.31
381.733	315.31
381.958	333.31
382.184	327.31
382.409	313.31
382.634	325.31
382.86	339.31
383.085	321.31
383.31	324.31
383.535	337.31
383.761	341.31
383.986	337.31
384.211	340.31
384.436	329.31
384.662	335.31
384.887	318.31
385.112	357.31
385.337	324.31
385.562	331.31
385.787	335.31
386.013	356.31
386.238	347.31
386.463	349.31
386.688	317.31
386.913	338.31
387.138	337.31
387.363	356.31
387.588	338.31
387.813	342.31
388.038	364.31
388.263	359.31
388.488	350.31
388.713	344.31
388.938	348.31
389.163	335.31
389.387	345.31
389.612	333.31
389.837	329.31
390.062	332.31
390.287	358.31
390.512	339.31
390.736	344.31
390.961	365.31
391.186	354.31
391.411	343.31
391.636	353.31
391.86	361.31
392.085	358.31
392.31	353.31
392.534	349.31
392.759	355.31
392.984	331.31
393.208	344.31
393.433	345.31
393.658	337.31
393.882	318.31
394.107	334.31
394.331	344.31
394.556	327.31
394.78	329.31
395.005	330.31
395.229	358.31
395.454	351.31
395.678	355.31
395.903	365.31
396.127	377.31
396.352	393.31
396.576	354.31
396.801	365.31
397.025	348.31
397.249	355.31
397.474	369.31
397.698	383.31
397.922	379.31
398.147	389.31
398.371	379.31
398.595	367.31
398.82	369.31
399.044	363.31
399.268	401.31
399.492	428.31
399.717	425.31
399.941	442.31
400.165	450.31
400.389	467.31
400.613	434.31
400.837	427.31
401.062	397.31
401.286	391.31
401.51	371.31
401.734	386.31
401.958	412.31
402.182	411.31
402.406	398.31
402.63	391.31
402.854	407.31
403.078	395.31
403.302	394.31
403.526	402.31
403.75	404.31
403.974	396.31
404.198	404.31
404.422	405.31
404.645	409.31
404.869	391.31
405.093	413.31
405.317	433.31
405.541	483.31
405.765	454.31
405.988	448.31
406.212	435.31
406.436	444.31
406.66	453.31
406.883	435.31
407.107	461.31
407.331	479.31
407.555	524.31
407.778	504.31
408.002	510.31
408.226	450.31
408.449	465.31
408.673	466.31
408.896	448.31
409.12	474.31
409.344	461.31
409.567	411.31
409.791	395.31
410.014	420.31
410.238	411.31
410.461	415.31
410.685	409.31
410.908	408.31
411.132	463.31
411.355	460.31
411.578	448.31
411.802	415.31
412.025	393.31
412.249	414.31
412.472	435.31
412.695	457.31
412.919	453.31
413.142	415.31
413.365	389.31
413.589	396.31
413.812	379.31
414.035	367.31
414.258	382.31
414.482	391.31
414.705	378.31
414.928	381.31
415.151	372.31
415.374	380.31
415.597	378.31
415.821	372.31
416.044	386.31
416.267	395.31
416.49	385.31
416.713	364.31
416.936	382.31
417.159	357.31
417.382	388.31
417.605	375.31
417.828	396.31
418.051	387.31
418.274	391.31
418.497	368.31
418.72	377.31
418.943	375.31
419.166	387.31
419.389	399.31
419.611	413.31
419.834	397.31
420.057	404.31
420.28	383.31
420.503	409.31
420.726	385.31
420.948	412.31
421.171	438.31
421.394	436.31
421.617	410.31
421.839	402.31
422.062	399.31
422.285	413.31
422.507	471.31
422.73	513.31
422.953	485.31
423.175	438.31
423.398	429.31
423.621	426.31
423.843	414.31
424.066	411.31
424.288	408.31
424.511	430.31
424.733	461.31
424.956	536.31
425.178	516.31
425.401	503.31
425.623	537.31
425.846	469.31
426.068	433.31
426.291	426.31
426.513	418.31
426.735	450.31
426.958	471.31
427.18	546.31
427.402	627.31
427.625	674.31
427.847	603.31
428.069	510.31
428.292	483.31
428.514	442.31
428.736	405.31
428.958	425.31
429.181	399.31
429.403	419.31
429.625	415.31
429.847	429.31
430.069	480.31
430.292	473.31
430.514	428.31
430.736	405.31
430.958	409.31
431.18	385.31
431.402	385.31
431.624	381.31
431.846	389.31
432.068	376.31
432.29	389.31
432.512	383.31
432.734	386.31
432.956	386.31
433.178	411.31
433.4	394.31
433.622	407.31
433.844	368.31
434.066	395.31
434.287	370.31
434.509	396.31
434.731	391.31
434.953	404.31
435.175	393.31
435.397	419.31
435.618	432.31
435.84	478.31
436.062	523.31
436.284	573.31
436.505	478.31
436.727	434.31
436.949	406.31
437.17	407.31
437.392	415.31
437.614	438.31
437.835	430.31
438.057	524.31
438.278	586.31
438.5	590.31
438.721	646.31
438.943	602.31
439.165	490.31
439.386	445.31
439.608	445.31
439.829	454.31
440.05	458.31
440.272	509.31
440.493	473.31
440.715	430.31
440.936	411.31
441.158	409.31
441.379	402.31
441.6	425.31
441.822	421.31
442.043	450.31
442.264	524.31
442.486	533.31
442.707	473.31
442.928	452.31
443.149	463.31
443.371	468.31
443.592	509.31
443.813	562.31
444.034	581.31
444.255	492.31
444.476	443.31
444.698	444.31
444.919	437.31
445.14	520.31
445.361	486.31
445.582	466.31
445.803	532.31
446.024	569.31
446.245	590.31
446.466	542.31
446.687	473.31
446.908	434.31
447.129	411.31
447.35	411.31
447.571	391.31
447.792	394.31
448.013	408.31
448.234	424.31
448.455	478.31
448.675	521.31
448.896	618.31
449.117	537.31
449.338	500.31
449.559	583.31
449.779	621.31
450	547.31
450.221	464.31
450.442	419.31
450.662	409.31
450.883	424.31
451.104	428.31
451.324	421.31
451.545	404.31
451.766	379.31
451.986	367.31
452.207	369.31
452.428	381.31
452.648	358.31
452.869	385.31
453.089	372.31
453.31	379.31
453.53	389.31
453.751	366.31
453.971	373.31
454.192	381.31
454.412	376.31
454.633	383.31
454.853	388.31
455.073	355.31
455.294	398.31
455.514	449.31
455.734	400.31
455.955	381.31
456.175	361.31
456.395	363.31
456.616	347.31
456.836	348.31
457.056	357.31
457.276	337.31
457.497	349.31
457.717	331.31
457.937	340.31
458.157	349.31
458.377	355.31
458.598	391.31
458.818	423.31
459.038	522.31
459.258	501.31
459.478	429.31
459.698	392.31
459.918	380.31
460.138	405.31
460.358	392.31
460.578	377.31
460.798	395.31
461.018	401.31
461.238	407.31
461.458	389.31
461.678	380.31
461.898	377.31
462.118	380.31
462.338	384.31
462.558	389.31
462.777	397.31
462.997	416.31
463.217	421.31
463.437	416.31
463.657	412.31
463.876	416.31
464.096	414.31
464.316	419.31
464.536	410.31
464.755	424.31
464.975	413.31
465.195	460.31
465.414	527.31
465.634	480.31
465.854	426.31
466.073	403.31
466.293	399.31
466.512	395.31
466.732	369.31
466.951	377.31
467.171	373.31
467.391	396.31
467.61	393.31
467.829	378.31
468.049	371.31
468.268	408.31
468.488	355.31
468.707	385.31
468.927	375.31
469.146	371.31
469.365	358.31
469.585	361.31
469.804	366.31
470.023	387.31
470.243	391.31
470.462	397.31
470.681	403.31
470.901	413.31
471.12	380.31
471.339	389.31
471.558	394.31
471.777	372.31
471.997	409.31
472.216	386.31
472.435	421.31
472.654	403.31
472.873	394.31
473.092	379.31
473.311	365.31
473.53	381.31
473.749	383.31
473.968	440.31
474.187	528.31
474.406	513.31
474.625	450.31
474.844	387.31
475.063	399.31
475.282	374.31
475.501	364.31
475.72	388.31
475.939	377.31
476.158	383.31
476.377	386.31
476.596	385.31
476.814	407.31
477.033	405.31
477.252	406.31
477.471	411.31
477.69	426.31
477.908	398.31
478.127	399.31
478.346	400.31
478.564	433.31
478.783	413.31
479.002	424.31
479.22	412.31
479.439	423.31
479.658	445.31
479.876	455.31
480.095	465.31
480.313	494.31
480.532	467.31
480.751	471.31
480.969	478.31
481.188	518.31
481.406	575.31
481.624	486.31
481.843	477.31
482.061	457.31
482.28	454.31
482.498	445.31
482.717	446.31
482.935	443.31
483.153	451.31
483.372	440.31
483.59	440.31
483.808	429.31
484.027	436.31
484.245	457.31
484.463	453.31
484.681	449.31
484.9	460.31
485.118	445.31
485.336	465.31
485.554	450.31
485.772	472.31
485.99	459.31
486.209	461.31
486.427	476.31
486.645	460.31
486.863	494.31
487.081	477.31
487.299	471.31
487.517	475.31
487.735	469.31
487.953	482.31
488.171	491.31
488.389	482.31
488.607	469.31
488.825	507.31
489.043	473.31
489.261	483.31
489.479	470.31
489.696	485.31
489.914	485.31
490.132	488.31
490.35	507.31
490.568	516.31
490.786	518.31
491.003	514.31
491.221	517.31
491.439	525.31
491.657	544.31
491.874	537.31
492.092	555.31
492.31	537.31
492.527	563.31
492.745	544.31
492.963	539.31
493.18	543.31
493.398	554.31
493.615	577.31
493.833	547.31
494.05	559.31
494.268	541.31
494.485	562.31
494.703	565.31
494.92	561.31
495.138	595.31
495.355	541.31
495.573	559.31
495.79	572.31
496.008	558.31
496.225	556.31
496.442	569.31
496.66	571.31
496.877	563.31
497.094	561.31
497.312	583.31
497.529	593.31
497.746	583.31
497.963	592.31
498.181	623.31
498.398	580.31
498.615	622.31
498.832	587.31
499.049	636.31
499.267	622.31
499.484	633.31
499.701	645.31
499.918	686.31
500.135	713.31
500.352	697.31
500.569	720.31
500.786	719.31
501.003	713.31
501.22	696.31
501.437	679.31
501.654	682.31
501.871	699.31
502.088	680.31
