Data from 1965.PennyLincolnUp.Lamp.En5.5.200Scan.071719.P1._HRD10591_14-09-39-912.txt Node
Date: Thu Jul 18 14:09:39 EDT 2019
User: cochatt
Spectrometer: HR+D1059
Trigger mode: 1
Integration Time (sec): 1.000000E-1
Scans to average: 1
Electric dark correction enabled: true
Nonlinearity correction enabled: false
Boxcar width: 0
XAxis mode: Wavelengths
Number of Pixels in Spectrum: 2048
>>>>>Begin Spectral Data<<<<<
223.165	-27.88
223.4	-27.88
223.635	-27.88
223.869	-15.88
224.104	-18.88
224.338	-16.88
224.573	-23.88
224.808	-10.88
225.042	-14.88
225.277	2.12
225.511	6.12
225.746	3.12
225.98	17.12
226.215	6.12
226.449	20.12
226.683	31.12
226.918	14.12
227.152	29.12
227.387	40.12
227.621	49.12
227.856	55.12
228.09	47.12
228.324	55.12
228.559	48.12
228.793	66.12
229.027	102.12
229.262	108.12
229.496	100.12
229.73	125.12
229.964	139.12
230.199	120.12
230.433	97.12
230.667	117.12
230.901	114.12
231.136	107.12
231.37	118.12
231.604	93.12
231.838	97.12
232.072	106.12
232.306	107.12
232.541	105.12
232.775	96.12
233.009	108.12
233.243	103.12
233.477	104.12
233.711	101.12
233.945	111.12
234.179	109.12
234.413	121.12
234.647	119.12
234.881	125.12
235.115	120.12
235.349	109.12
235.583	125.12
235.817	122.12
236.051	122.12
236.285	122.12
236.519	122.12
236.753	129.12
236.987	107.12
237.221	177.12
237.455	211.12
237.689	186.12
237.922	129.12
238.156	125.12
238.39	129.12
238.624	113.12
238.858	119.12
239.091	108.12
239.325	119.12
239.559	119.12
239.793	123.12
240.027	120.12
240.26	120.12
240.494	153.12
240.728	137.12
240.961	143.12
241.195	123.12
241.429	137.12
241.662	133.12
241.896	124.12
242.13	122.12
242.363	126.12
242.597	122.12
242.83	139.12
243.064	132.12
243.298	137.12
243.531	119.12
243.765	130.12
243.998	137.12
244.232	147.12
244.465	140.12
244.699	135.12
244.932	143.12
245.166	138.12
245.399	134.12
245.633	121.12
245.866	139.12
246.099	133.12
246.333	141.12
246.566	149.12
246.8	156.12
247.033	149.12
247.266	158.12
247.5	149.12
247.733	154.12
247.966	177.12
248.2	151.12
248.433	165.12
248.666	151.12
248.899	169.12
249.133	178.12
249.366	188.12
249.599	184.12
249.832	173.12
250.066	159.12
250.299	171.12
250.532	191.12
250.765	190.12
250.998	209.12
251.231	195.12
251.465	202.12
251.698	201.12
251.931	197.12
252.164	193.12
252.397	174.12
252.63	185.12
252.863	199.12
253.096	193.12
253.329	211.12
253.562	198.12
253.795	203.12
254.028	191.12
254.261	209.12
254.494	202.12
254.727	218.12
254.96	261.12
255.193	246.12
255.426	224.12
255.659	214.12
255.892	210.12
256.124	216.12
256.357	225.12
256.59	207.12
256.823	203.12
257.056	206.12
257.289	201.12
257.521	179.12
257.754	186.12
257.987	191.12
258.22	204.12
258.452	189.12
258.685	197.12
258.918	191.12
259.151	194.12
259.383	186.12
259.616	187.12
259.849	211.12
260.081	211.12
260.314	241.12
260.547	221.12
260.779	218.12
261.012	223.12
261.244	224.12
261.477	220.12
261.71	206.12
261.942	213.12
262.175	214.12
262.407	212.12
262.64	206.12
262.872	199.12
263.105	180.12
263.337	189.12
263.57	191.12
263.802	190.12
264.035	209.12
264.267	213.12
264.499	200.12
264.732	191.12
264.964	209.12
265.197	199.12
265.429	200.12
265.661	195.12
265.894	194.12
266.126	204.12
266.358	189.12
266.591	211.12
266.823	179.12
267.055	193.12
267.287	203.12
267.52	215.12
267.752	201.12
267.984	211.12
268.216	218.12
268.448	211.12
268.681	208.12
268.913	227.12
269.145	242.12
269.377	248.12
269.609	234.12
269.841	235.12
270.073	239.12
270.306	247.12
270.538	283.12
270.77	285.12
271.002	285.12
271.234	268.12
271.466	271.12
271.698	290.12
271.93	281.12
272.162	287.12
272.394	290.12
272.626	271.12
272.858	254.12
273.09	248.12
273.322	241.12
273.553	236.12
273.785	261.12
274.017	253.12
274.249	247.12
274.481	234.12
274.713	235.12
274.945	235.12
275.176	242.12
275.408	232.12
275.64	244.12
275.872	233.12
276.104	247.12
276.335	238.12
276.567	261.12
276.799	270.12
277.031	273.12
277.262	285.12
277.494	289.12
277.726	278.12
277.957	271.12
278.189	263.12
278.421	242.12
278.652	249.12
278.884	238.12
279.115	245.12
279.347	241.12
279.579	230.12
279.81	240.12
280.042	257.12
280.273	247.12
280.505	245.12
280.736	232.12
280.968	233.12
281.199	223.12
281.431	238.12
281.662	245.12
281.894	255.12
282.125	233.12
282.356	265.12
282.588	287.12
282.819	279.12
283.051	246.12
283.282	253.12
283.513	240.12
283.745	254.12
283.976	253.12
284.207	263.12
284.439	247.12
284.67	252.12
284.901	254.12
285.132	259.12
285.364	258.12
285.595	265.12
285.826	249.12
286.057	267.12
286.288	241.12
286.52	252.12
286.751	259.12
286.982	248.12
287.213	234.12
287.444	241.12
287.675	265.12
287.906	269.12
288.138	257.12
288.369	280.12
288.6	274.12
288.831	266.12
289.062	265.12
289.293	259.12
289.524	277.12
289.755	232.12
289.986	240.12
290.217	251.12
290.448	251.12
290.679	260.12
290.91	263.12
291.141	242.12
291.371	260.12
291.602	265.12
291.833	248.12
292.064	265.12
292.295	263.12
292.526	241.12
292.757	260.12
292.987	247.12
293.218	258.12
293.449	277.12
293.68	255.12
293.91	265.12
294.141	247.12
294.372	250.12
294.603	272.12
294.833	263.12
295.064	258.12
295.295	261.12
295.525	270.12
295.756	273.12
295.987	282.12
296.217	298.12
296.448	306.12
296.679	286.12
296.909	270.12
297.14	265.12
297.37	259.12
297.601	261.12
297.831	286.12
298.062	293.12
298.292	285.12
298.523	270.12
298.753	272.12
298.984	271.12
299.214	265.12
299.445	269.12
299.675	267.12
299.905	292.12
300.136	266.12
300.366	268.12
300.597	282.12
300.827	279.12
301.057	311.12
301.288	297.12
301.518	293.12
301.748	285.12
301.979	289.12
302.209	297.12
302.439	298.12
302.669	274.12
302.9	302.12
303.13	297.12
303.36	288.12
303.59	297.12
303.82	289.12
304.051	298.12
304.281	311.12
304.511	306.12
304.741	295.12
304.971	274.12
305.201	282.12
305.431	286.12
305.661	294.12
305.891	268.12
306.121	306.12
306.352	314.12
306.582	301.12
306.812	300.12
307.042	300.12
307.272	281.12
307.502	301.12
307.731	279.12
307.961	307.12
308.191	289.12
308.421	318.12
308.651	300.12
308.881	298.12
309.111	324.12
309.341	313.12
309.571	323.12
309.8	322.12
310.03	319.12
310.26	329.12
310.49	343.12
310.72	359.12
310.949	354.12
311.179	349.12
311.409	337.12
311.639	341.12
311.868	342.12
312.098	335.12
312.328	342.12
312.557	359.12
312.787	366.12
313.017	367.12
313.246	347.12
313.476	344.12
313.706	368.12
313.935	350.12
314.165	368.12
314.394	348.12
314.624	361.12
314.853	350.12
315.083	350.12
315.312	338.12
315.542	329.12
315.771	349.12
316.001	336.12
316.23	337.12
316.46	324.12
316.689	339.12
316.919	354.12
317.148	342.12
317.377	326.12
317.607	358.12
317.836	375.12
318.065	355.12
318.295	343.12
318.524	339.12
318.753	317.12
318.983	325.12
319.212	354.12
319.441	348.12
319.67	345.12
319.9	354.12
320.129	322.12
320.358	357.12
320.587	363.12
320.816	354.12
321.046	373.12
321.275	348.12
321.504	368.12
321.733	392.12
321.962	368.12
322.191	399.12
322.42	416.12
322.649	426.12
322.878	426.12
323.108	430.12
323.337	446.12
323.566	477.12
323.795	513.12
324.024	563.12
324.253	687.12
324.482	991.12
324.71	1545.12
324.939	2141.12
325.168	1797.12
325.397	937.12
325.626	613.12
325.855	539.12
326.084	487.12
326.313	477.12
326.542	499.12
326.77	550.12
326.999	651.12
327.228	907.12
327.457	1345.12
327.686	1542.12
327.914	1020.12
328.143	703.12
328.372	594.12
328.6	567.12
328.829	551.12
329.058	578.12
329.287	567.12
329.515	521.12
329.744	454.12
329.972	493.12
330.201	524.12
330.43	540.12
330.658	564.12
330.887	568.12
331.115	552.12
331.344	482.12
331.572	427.12
331.801	439.12
332.03	432.12
332.258	423.12
332.486	425.12
332.715	416.12
332.943	428.12
333.172	404.12
333.4	410.12
333.629	426.12
333.857	414.12
334.085	448.12
334.314	476.12
334.542	482.12
334.771	506.12
334.999	448.12
335.227	407.12
335.455	402.12
335.684	397.12
335.912	393.12
336.14	413.12
336.369	406.12
336.597	402.12
336.825	409.12
337.053	393.12
337.281	389.12
337.51	385.12
337.738	399.12
337.966	404.12
338.194	403.12
338.422	392.12
338.65	381.12
338.878	385.12
339.106	395.12
339.334	373.12
339.562	377.12
339.79	377.12
340.018	371.12
340.246	383.12
340.474	391.12
340.702	386.12
340.93	379.12
341.158	376.12
341.386	376.12
341.614	381.12
341.842	379.12
342.07	378.12
342.298	368.12
342.526	354.12
342.754	367.12
342.981	346.12
343.209	383.12
343.437	352.12
343.665	395.12
343.893	374.12
344.12	377.12
344.348	367.12
344.576	385.12
344.804	393.12
345.031	379.12
345.259	400.12
345.487	409.12
345.714	397.12
345.942	374.12
346.17	375.12
346.397	366.12
346.625	373.12
346.853	373.12
347.08	377.12
347.308	381.12
347.535	402.12
347.763	383.12
347.99	383.12
348.218	392.12
348.445	429.12
348.673	404.12
348.9	369.12
349.128	377.12
349.355	346.12
349.583	360.12
349.81	369.12
350.037	356.12
350.265	362.12
350.492	360.12
350.72	358.12
350.947	369.12
351.174	376.12
351.402	385.12
351.629	366.12
351.856	382.12
352.083	397.12
352.311	398.12
352.538	384.12
352.765	407.12
352.992	401.12
353.22	382.12
353.447	382.12
353.674	379.12
353.901	371.12
354.128	362.12
354.355	346.12
354.583	357.12
354.81	367.12
355.037	350.12
355.264	347.12
355.491	363.12
355.718	341.12
355.945	346.12
356.172	343.12
356.399	333.12
356.626	330.12
356.853	347.12
357.08	341.12
357.307	332.12
357.534	339.12
357.761	350.12
357.988	341.12
358.215	335.12
358.441	345.12
358.668	361.12
358.895	354.12
359.122	350.12
359.349	366.12
359.576	376.12
359.802	409.12
360.029	426.12
360.256	437.12
360.483	409.12
360.709	393.12
360.936	383.12
361.163	372.12
361.39	372.12
361.616	371.12
361.843	376.12
362.07	375.12
362.296	377.12
362.523	376.12
362.749	383.12
362.976	366.12
363.203	381.12
363.429	368.12
363.656	359.12
363.882	340.12
364.109	355.12
364.335	354.12
364.562	344.12
364.788	373.12
365.015	343.12
365.241	353.12
365.468	371.12
365.694	368.12
365.92	368.12
366.147	353.12
366.373	351.12
366.599	365.12
366.826	356.12
367.052	356.12
367.278	347.12
367.505	356.12
367.731	377.12
367.957	365.12
368.184	361.12
368.41	345.12
368.636	385.12
368.862	358.12
369.089	357.12
369.315	359.12
369.541	348.12
369.767	352.12
369.993	346.12
370.219	341.12
370.445	364.12
370.672	338.12
370.898	349.12
371.124	336.12
371.35	328.12
371.576	353.12
371.802	329.12
372.028	355.12
372.254	345.12
372.48	348.12
372.706	338.12
372.932	348.12
373.158	346.12
373.384	353.12
373.61	333.12
373.835	348.12
374.061	344.12
374.287	351.12
374.513	367.12
374.739	341.12
374.965	346.12
375.191	360.12
375.416	351.12
375.642	345.12
375.868	351.12
376.094	342.12
376.319	338.12
376.545	361.12
376.771	359.12
376.997	342.12
377.222	353.12
377.448	343.12
377.674	349.12
377.899	333.12
378.125	333.12
378.35	349.12
378.576	333.12
378.802	325.12
379.027	345.12
379.253	339.12
379.478	336.12
379.704	340.12
379.929	348.12
380.155	343.12
380.38	342.12
380.606	332.12
380.831	355.12
381.057	354.12
381.282	334.12
381.507	345.12
381.733	352.12
381.958	345.12
382.184	340.12
382.409	355.12
382.634	345.12
382.86	348.12
383.085	352.12
383.31	343.12
383.535	342.12
383.761	353.12
383.986	348.12
384.211	350.12
384.436	337.12
384.662	346.12
384.887	367.12
385.112	367.12
385.337	389.12
385.562	373.12
385.787	380.12
386.013	362.12
386.238	380.12
386.463	374.12
386.688	361.12
386.913	368.12
387.138	366.12
387.363	368.12
387.588	378.12
387.813	378.12
388.038	370.12
388.263	377.12
388.488	367.12
388.713	361.12
388.938	350.12
389.163	360.12
389.387	355.12
389.612	368.12
389.837	362.12
390.062	373.12
390.287	377.12
390.512	364.12
390.736	375.12
390.961	370.12
391.186	364.12
391.411	381.12
391.636	361.12
391.86	361.12
392.085	377.12
392.31	353.12
392.534	369.12
392.759	378.12
392.984	364.12
393.208	369.12
393.433	373.12
393.658	379.12
393.882	368.12
394.107	385.12
394.331	386.12
394.556	379.12
394.78	386.12
395.005	364.12
395.229	354.12
395.454	369.12
395.678	375.12
395.903	393.12
396.127	395.12
396.352	425.12
396.576	397.12
396.801	383.12
397.025	374.12
397.249	387.12
397.474	378.12
397.698	403.12
397.922	409.12
398.147	409.12
398.371	414.12
398.595	429.12
398.82	394.12
399.044	403.12
399.268	417.12
399.492	433.12
399.717	464.12
399.941	476.12
400.165	498.12
400.389	502.12
400.613	485.12
400.837	437.12
401.062	445.12
401.286	433.12
401.51	426.12
401.734	412.12
401.958	432.12
402.182	426.12
402.406	425.12
402.63	435.12
402.854	443.12
403.078	433.12
403.302	427.12
403.526	438.12
403.75	446.12
403.974	438.12
404.198	433.12
404.422	440.12
404.645	434.12
404.869	449.12
405.093	482.12
405.317	505.12
405.541	537.12
405.765	468.12
405.988	471.12
406.212	484.12
406.436	506.12
406.66	501.12
406.883	474.12
407.107	494.12
407.331	498.12
407.555	569.12
407.778	561.12
408.002	525.12
408.226	453.12
408.449	465.12
408.673	467.12
408.896	509.12
409.12	536.12
409.344	525.12
409.567	459.12
409.791	430.12
410.014	411.12
410.238	457.12
410.461	462.12
410.685	448.12
410.908	464.12
411.132	477.12
411.355	523.12
411.578	492.12
411.802	443.12
412.025	453.12
412.249	453.12
412.472	448.12
412.695	499.12
412.919	468.12
413.142	449.12
413.365	443.12
413.589	425.12
413.812	417.12
414.035	397.12
414.258	412.12
414.482	422.12
414.705	410.12
414.928	406.12
415.151	416.12
415.374	394.12
415.597	411.12
415.821	406.12
416.044	406.12
416.267	401.12
416.49	403.12
416.713	409.12
416.936	416.12
417.159	394.12
417.382	418.12
417.605	413.12
417.828	437.12
418.051	422.12
418.274	421.12
418.497	417.12
418.72	409.12
418.943	398.12
419.166	403.12
419.389	437.12
419.611	423.12
419.834	434.12
420.057	425.12
420.28	439.12
420.503	428.12
420.726	417.12
420.948	442.12
421.171	493.12
421.394	504.12
421.617	473.12
421.839	437.12
422.062	443.12
422.285	449.12
422.507	506.12
422.73	562.12
422.953	533.12
423.175	474.12
423.398	459.12
423.621	442.12
423.843	457.12
424.066	462.12
424.288	451.12
424.511	479.12
424.733	517.12
424.956	601.12
425.178	567.12
425.401	575.12
425.623	582.12
425.846	483.12
426.068	471.12
426.291	447.12
426.513	464.12
426.735	489.12
426.958	518.12
427.18	600.12
427.402	676.12
427.625	725.12
427.847	682.12
428.069	608.12
428.292	548.12
428.514	483.12
428.736	469.12
428.958	470.12
429.181	440.12
429.403	439.12
429.625	446.12
429.847	502.12
430.069	547.12
430.292	534.12
430.514	461.12
430.736	427.12
430.958	443.12
431.18	409.12
431.402	425.12
431.624	400.12
431.846	412.12
432.068	417.12
432.29	426.12
432.512	403.12
432.734	414.12
432.956	411.12
433.178	423.12
433.4	449.12
433.622	405.12
433.844	424.12
434.066	406.12
434.287	414.12
434.509	434.12
434.731	414.12
434.953	425.12
435.175	456.12
435.397	454.12
435.618	456.12
435.84	519.12
436.062	601.12
436.284	654.12
436.505	535.12
436.727	469.12
436.949	458.12
437.17	433.12
437.392	426.12
437.614	455.12
437.835	490.12
438.057	567.12
438.278	651.12
438.5	646.12
438.721	697.12
438.943	661.12
439.165	549.12
439.386	505.12
439.608	491.12
439.829	476.12
440.05	513.12
440.272	562.12
440.493	515.12
440.715	469.12
440.936	464.12
441.158	447.12
441.379	441.12
441.6	432.12
441.822	472.12
442.043	505.12
442.264	585.12
442.486	608.12
442.707	506.12
442.928	498.12
443.149	502.12
443.371	517.12
443.592	576.12
443.813	632.12
444.034	665.12
444.255	545.12
444.476	486.12
444.698	484.12
444.919	465.12
445.14	588.12
445.361	543.12
445.582	518.12
445.803	583.12
446.024	667.12
446.245	665.12
446.466	592.12
446.687	523.12
446.908	473.12
447.129	462.12
447.35	450.12
447.571	461.12
447.792	455.12
448.013	466.12
448.234	454.12
448.455	525.12
448.675	601.12
448.896	677.12
449.117	607.12
449.338	554.12
449.559	665.12
449.779	725.12
450	582.12
450.221	494.12
450.442	463.12
450.662	449.12
450.883	452.12
451.104	460.12
451.324	444.12
451.545	412.12
451.766	409.12
451.986	409.12
452.207	397.12
452.428	397.12
452.648	417.12
452.869	409.12
453.089	414.12
453.31	425.12
453.53	399.12
453.751	425.12
453.971	395.12
454.192	419.12
454.412	412.12
454.633	410.12
454.853	411.12
455.073	393.12
455.294	418.12
455.514	477.12
455.734	461.12
455.955	406.12
456.175	381.12
456.395	386.12
456.616	384.12
456.836	366.12
457.056	369.12
457.276	362.12
457.497	385.12
457.717	382.12
457.937	370.12
458.157	395.12
458.377	396.12
458.598	402.12
458.818	484.12
459.038	570.12
459.258	547.12
459.478	471.12
459.698	409.12
459.918	419.12
460.138	402.12
460.358	415.12
460.578	403.12
460.798	429.12
461.018	425.12
461.238	425.12
461.458	423.12
461.678	401.12
461.898	416.12
462.118	419.12
462.338	417.12
462.558	456.12
462.777	431.12
462.997	448.12
463.217	432.12
463.437	445.12
463.657	430.12
463.876	433.12
464.096	443.12
464.316	433.12
464.536	444.12
464.755	455.12
464.975	467.12
465.195	517.12
465.414	582.12
465.634	504.12
465.854	476.12
466.073	448.12
466.293	415.12
466.512	403.12
466.732	407.12
466.951	411.12
467.171	393.12
467.391	409.12
467.61	419.12
467.829	448.12
468.049	425.12
468.268	404.12
468.488	392.12
468.707	389.12
468.927	401.12
469.146	399.12
469.365	392.12
469.585	400.12
469.804	406.12
470.023	428.12
470.243	415.12
470.462	431.12
470.681	447.12
470.901	433.12
471.12	415.12
471.339	415.12
471.558	418.12
471.777	418.12
471.997	412.12
472.216	440.12
472.435	474.12
472.654	447.12
472.873	413.12
473.092	423.12
473.311	419.12
473.53	420.12
473.749	449.12
473.968	467.12
474.187	542.12
474.406	559.12
474.625	456.12
474.844	434.12
475.063	393.12
475.282	413.12
475.501	434.12
475.72	431.12
475.939	437.12
476.158	435.12
476.377	439.12
476.596	446.12
476.814	462.12
477.033	442.12
477.252	445.12
477.471	434.12
477.69	452.12
477.908	431.12
478.127	429.12
478.346	439.12
478.564	463.12
478.783	465.12
479.002	456.12
479.22	464.12
479.439	495.12
479.658	493.12
479.876	485.12
480.095	515.12
480.313	522.12
480.532	501.12
480.751	489.12
480.969	505.12
481.188	589.12
481.406	636.12
481.624	569.12
481.843	505.12
482.061	497.12
482.28	491.12
482.498	474.12
482.717	487.12
482.935	494.12
483.153	495.12
483.372	475.12
483.59	495.12
483.808	481.12
484.027	482.12
484.245	482.12
484.463	490.12
484.681	486.12
484.9	502.12
485.118	490.12
485.336	496.12
485.554	504.12
485.772	514.12
485.99	526.12
486.209	525.12
486.427	522.12
486.645	528.12
486.863	529.12
487.081	531.12
487.299	550.12
487.517	505.12
487.735	527.12
487.953	521.12
488.171	499.12
488.389	510.12
488.607	517.12
488.825	519.12
489.043	520.12
489.261	526.12
489.479	535.12
489.696	537.12
489.914	542.12
490.132	549.12
490.35	543.12
490.568	570.12
490.786	562.12
491.003	556.12
491.221	578.12
491.439	594.12
491.657	579.12
491.874	586.12
492.092	614.12
492.31	595.12
492.527	593.12
492.745	615.12
492.963	614.12
493.18	607.12
493.398	616.12
493.615	599.12
493.833	620.12
494.05	610.12
494.268	622.12
494.485	609.12
494.703	609.12
494.92	613.12
495.138	610.12
495.355	601.12
495.573	589.12
495.79	611.12
496.008	606.12
496.225	618.12
496.442	610.12
496.66	633.12
496.877	618.12
497.094	601.12
497.312	631.12
497.529	639.12
497.746	623.12
497.963	645.12
498.181	651.12
498.398	642.12
498.615	674.12
498.832	695.12
499.049	665.12
499.267	689.12
499.484	698.12
499.701	715.12
499.918	737.12
500.135	730.12
500.352	760.12
500.569	773.12
500.786	783.12
501.003	768.12
501.22	787.12
501.437	753.12
501.654	738.12
501.871	773.12
