Data from 1965.PennyLincolnUp.Lamp.En5.5.200Scan.071719.P1._HRD10591_14-08-48-911.txt Node
Date: Thu Jul 18 14:08:48 EDT 2019
User: cochatt
Spectrometer: HR+D1059
Trigger mode: 1
Integration Time (sec): 1.000000E-1
Scans to average: 1
Electric dark correction enabled: true
Nonlinearity correction enabled: false
Boxcar width: 0
XAxis mode: Wavelengths
Number of Pixels in Spectrum: 2048
>>>>>Begin Spectral Data<<<<<
223.165	-11.06
223.4	-11.06
223.635	-11.06
223.869	-15.06
224.104	-17.06
224.338	-25.06
224.573	-18.06
224.808	-18.06
225.042	3.94
225.277	-9.06
225.511	11.94
225.746	-7.06
225.98	-3.06
226.215	10.94
226.449	9.94
226.683	27.94
226.918	29.94
227.152	28.94
227.387	29.94
227.621	26.94
227.856	47.94
228.09	43.94
228.324	39.94
228.559	56.94
228.793	70.94
229.027	93.94
229.262	101.94
229.496	98.94
229.73	125.94
229.964	134.94
230.199	132.94
230.433	96.94
230.667	104.94
230.901	112.94
231.136	99.94
231.37	108.94
231.604	107.94
231.838	125.94
232.072	98.94
232.306	94.94
232.541	95.94
232.775	104.94
233.009	97.94
233.243	94.94
233.477	91.94
233.711	89.94
233.945	111.94
234.179	119.94
234.413	113.94
234.647	116.94
234.881	99.94
235.115	104.94
235.349	109.94
235.583	99.94
235.817	113.94
236.051	118.94
236.285	111.94
236.519	103.94
236.753	123.94
236.987	122.94
237.221	156.94
237.455	209.94
237.689	159.94
237.922	148.94
238.156	128.94
238.39	122.94
238.624	114.94
238.858	90.94
239.091	119.94
239.325	105.94
239.559	116.94
239.793	138.94
240.027	120.94
240.26	136.94
240.494	147.94
240.728	123.94
240.961	140.94
241.195	127.94
241.429	138.94
241.662	117.94
241.896	116.94
242.13	116.94
242.363	122.94
242.597	114.94
242.83	118.94
243.064	113.94
243.298	138.94
243.531	118.94
243.765	132.94
243.998	129.94
244.232	132.94
244.465	133.94
244.699	126.94
244.932	115.94
245.166	133.94
245.399	131.94
245.633	123.94
245.866	140.94
246.099	138.94
246.333	142.94
246.566	122.94
246.8	147.94
247.033	134.94
247.266	142.94
247.5	149.94
247.733	142.94
247.966	162.94
248.2	160.94
248.433	157.94
248.666	151.94
248.899	165.94
249.133	179.94
249.366	174.94
249.599	187.94
249.832	162.94
250.066	165.94
250.299	176.94
250.532	158.94
250.765	185.94
250.998	198.94
251.231	204.94
251.465	171.94
251.698	188.94
251.931	172.94
252.164	173.94
252.397	159.94
252.63	191.94
252.863	171.94
253.096	183.94
253.329	195.94
253.562	193.94
253.795	199.94
254.028	182.94
254.261	195.94
254.494	204.94
254.727	209.94
254.96	229.94
255.193	232.94
255.426	210.94
255.659	203.94
255.892	216.94
256.124	206.94
256.357	182.94
256.59	197.94
256.823	186.94
257.056	189.94
257.289	189.94
257.521	194.94
257.754	184.94
257.987	182.94
258.22	178.94
258.452	158.94
258.685	170.94
258.918	178.94
259.151	188.94
259.383	190.94
259.616	188.94
259.849	189.94
260.081	199.94
260.314	217.94
260.547	213.94
260.779	213.94
261.012	206.94
261.244	208.94
261.477	204.94
261.71	202.94
261.942	207.94
262.175	211.94
262.407	206.94
262.64	185.94
262.872	207.94
263.105	200.94
263.337	175.94
263.57	197.94
263.802	186.94
264.035	185.94
264.267	186.94
264.499	192.94
264.732	187.94
264.964	179.94
265.197	185.94
265.429	179.94
265.661	190.94
265.894	185.94
266.126	202.94
266.358	175.94
266.591	187.94
266.823	196.94
267.055	183.94
267.287	196.94
267.52	192.94
267.752	191.94
267.984	186.94
268.216	202.94
268.448	217.94
268.681	196.94
268.913	207.94
269.145	231.94
269.377	232.94
269.609	235.94
269.841	220.94
270.073	216.94
270.306	239.94
270.538	266.94
270.77	266.94
271.002	272.94
271.234	261.94
271.466	247.94
271.698	263.94
271.93	248.94
272.162	256.94
272.394	282.94
272.626	263.94
272.858	249.94
273.09	255.94
273.322	241.94
273.553	225.94
273.785	230.94
274.017	219.94
274.249	232.94
274.481	232.94
274.713	227.94
274.945	233.94
275.176	240.94
275.408	221.94
275.64	219.94
275.872	220.94
276.104	230.94
276.335	228.94
276.567	230.94
276.799	261.94
277.031	272.94
277.262	277.94
277.494	275.94
277.726	249.94
277.957	251.94
278.189	260.94
278.421	224.94
278.652	227.94
278.884	218.94
279.115	242.94
279.347	232.94
279.579	228.94
279.81	228.94
280.042	229.94
280.273	234.94
280.505	228.94
280.736	221.94
280.968	235.94
281.199	213.94
281.431	217.94
281.662	238.94
281.894	223.94
282.125	230.94
282.356	238.94
282.588	256.94
282.819	259.94
283.051	240.94
283.282	244.94
283.513	226.94
283.745	219.94
283.976	250.94
284.207	245.94
284.439	234.94
284.67	242.94
284.901	242.94
285.132	227.94
285.364	234.94
285.595	227.94
285.826	213.94
286.057	233.94
286.288	232.94
286.52	226.94
286.751	239.94
286.982	233.94
287.213	238.94
287.444	241.94
287.675	234.94
287.906	253.94
288.138	263.94
288.369	243.94
288.6	256.94
288.831	246.94
289.062	250.94
289.293	247.94
289.524	255.94
289.755	265.94
289.986	244.94
290.217	237.94
290.448	239.94
290.679	251.94
290.91	250.94
291.141	234.94
291.371	248.94
291.602	247.94
291.833	250.94
292.064	251.94
292.295	251.94
292.526	237.94
292.757	240.94
292.987	247.94
293.218	244.94
293.449	234.94
293.68	252.94
293.91	256.94
294.141	244.94
294.372	250.94
294.603	265.94
294.833	265.94
295.064	234.94
295.295	211.94
295.525	242.94
295.756	236.94
295.987	248.94
296.217	274.94
296.448	289.94
296.679	260.94
296.909	260.94
297.14	264.94
297.37	250.94
297.601	262.94
297.831	237.94
298.062	244.94
298.292	242.94
298.523	261.94
298.753	258.94
298.984	238.94
299.214	242.94
299.445	250.94
299.675	268.94
299.905	267.94
300.136	265.94
300.366	263.94
300.597	274.94
300.827	266.94
301.057	263.94
301.288	283.94
301.518	258.94
301.748	247.94
301.979	272.94
302.209	271.94
302.439	268.94
302.669	272.94
302.9	288.94
303.13	266.94
303.36	282.94
303.59	284.94
303.82	285.94
304.051	297.94
304.281	275.94
304.511	284.94
304.741	265.94
304.971	277.94
305.201	280.94
305.431	279.94
305.661	276.94
305.891	274.94
306.121	281.94
306.352	283.94
306.582	295.94
306.812	284.94
307.042	282.94
307.272	294.94
307.502	289.94
307.731	276.94
307.961	290.94
308.191	262.94
308.421	270.94
308.651	279.94
308.881	267.94
309.111	284.94
309.341	295.94
309.571	296.94
309.8	317.94
310.03	323.94
310.26	333.94
310.49	334.94
310.72	342.94
310.949	342.94
311.179	345.94
311.409	324.94
311.639	317.94
311.868	320.94
312.098	336.94
312.328	326.94
312.557	360.94
312.787	345.94
313.017	346.94
313.246	339.94
313.476	306.94
313.706	313.94
313.935	334.94
314.165	339.94
314.394	351.94
314.624	367.94
314.853	343.94
315.083	325.94
315.312	328.94
315.542	325.94
315.771	317.94
316.001	310.94
316.23	308.94
316.46	329.94
316.689	335.94
316.919	340.94
317.148	347.94
317.377	334.94
317.607	336.94
317.836	341.94
318.065	337.94
318.295	316.94
318.524	329.94
318.753	311.94
318.983	336.94
319.212	304.94
319.441	330.94
319.67	327.94
319.9	333.94
320.129	328.94
320.358	336.94
320.587	328.94
320.816	355.94
321.046	349.94
321.275	342.94
321.504	352.94
321.733	361.94
321.962	349.94
322.191	359.94
322.42	365.94
322.649	381.94
322.878	388.94
323.108	411.94
323.337	434.94
323.566	446.94
323.795	474.94
324.024	526.94
324.253	621.94
324.482	957.94
324.71	1468.94
324.939	1952.94
325.168	1614.94
325.397	862.94
325.626	611.94
325.855	515.94
326.084	452.94
326.313	467.94
326.542	449.94
326.77	479.94
326.999	597.94
327.228	833.94
327.457	1237.94
327.686	1467.94
327.914	972.94
328.143	655.94
328.372	580.94
328.6	525.94
328.829	507.94
329.058	505.94
329.287	517.94
329.515	500.94
329.744	450.94
329.972	450.94
330.201	460.94
330.43	518.94
330.658	527.94
330.887	555.94
331.115	536.94
331.344	469.94
331.572	441.94
331.801	457.94
332.03	435.94
332.258	400.94
332.486	380.94
332.715	386.94
332.943	380.94
333.172	387.94
333.4	375.94
333.629	413.94
333.857	403.94
334.085	398.94
334.314	411.94
334.542	457.94
334.771	494.94
334.999	418.94
335.227	398.94
335.455	391.94
335.684	392.94
335.912	403.94
336.14	379.94
336.369	375.94
336.597	384.94
336.825	384.94
337.053	390.94
337.281	363.94
337.51	368.94
337.738	375.94
337.966	364.94
338.194	362.94
338.422	363.94
338.65	378.94
338.878	368.94
339.106	361.94
339.334	358.94
339.562	351.94
339.79	355.94
340.018	347.94
340.246	367.94
340.474	377.94
340.702	380.94
340.93	354.94
341.158	372.94
341.386	362.94
341.614	365.94
341.842	365.94
342.07	367.94
342.298	359.94
342.526	326.94
342.754	332.94
342.981	347.94
343.209	365.94
343.437	352.94
343.665	359.94
343.893	365.94
344.12	381.94
344.348	380.94
344.576	363.94
344.804	376.94
345.031	382.94
345.259	377.94
345.487	380.94
345.714	386.94
345.942	354.94
346.17	356.94
346.397	347.94
346.625	363.94
346.853	349.94
347.08	370.94
347.308	362.94
347.535	370.94
347.763	374.94
347.99	378.94
348.218	377.94
348.445	386.94
348.673	366.94
348.9	353.94
349.128	346.94
349.355	336.94
349.583	331.94
349.81	349.94
350.037	351.94
350.265	339.94
350.492	342.94
350.72	335.94
350.947	361.94
351.174	374.94
351.402	380.94
351.629	347.94
351.856	364.94
352.083	377.94
352.311	370.94
352.538	380.94
352.765	391.94
352.992	381.94
353.22	377.94
353.447	362.94
353.674	360.94
353.901	362.94
354.128	332.94
354.355	337.94
354.583	330.94
354.81	345.94
355.037	331.94
355.264	342.94
355.491	333.94
355.718	323.94
355.945	324.94
356.172	304.94
356.399	331.94
356.626	325.94
356.853	345.94
357.08	332.94
357.307	322.94
357.534	339.94
357.761	328.94
357.988	323.94
358.215	335.94
358.441	338.94
358.668	322.94
358.895	324.94
359.122	344.94
359.349	336.94
359.576	350.94
359.802	388.94
360.029	417.94
360.256	412.94
360.483	411.94
360.709	354.94
360.936	363.94
361.163	364.94
361.39	357.94
361.616	370.94
361.843	359.94
362.07	360.94
362.296	380.94
362.523	356.94
362.749	342.94
362.976	328.94
363.203	351.94
363.429	346.94
363.656	358.94
363.882	352.94
364.109	346.94
364.335	338.94
364.562	344.94
364.788	335.94
365.015	322.94
365.241	327.94
365.468	340.94
365.694	345.94
365.92	355.94
366.147	344.94
366.373	334.94
366.599	335.94
366.826	354.94
367.052	330.94
367.278	323.94
367.505	334.94
367.731	369.94
367.957	329.94
368.184	344.94
368.41	335.94
368.636	353.94
368.862	361.94
369.089	346.94
369.315	320.94
369.541	325.94
369.767	347.94
369.993	330.94
370.219	333.94
370.445	340.94
370.672	331.94
370.898	332.94
371.124	327.94
371.35	334.94
371.576	334.94
371.802	336.94
372.028	343.94
372.254	331.94
372.48	326.94
372.706	325.94
372.932	308.94
373.158	320.94
373.384	325.94
373.61	342.94
373.835	339.94
374.061	324.94
374.287	314.94
374.513	322.94
374.739	327.94
374.965	349.94
375.191	329.94
375.416	341.94
375.642	351.94
375.868	340.94
376.094	350.94
376.319	310.94
376.545	347.94
376.771	329.94
376.997	329.94
377.222	331.94
377.448	354.94
377.674	338.94
377.899	328.94
378.125	336.94
378.35	321.94
378.576	327.94
378.802	325.94
379.027	320.94
379.253	342.94
379.478	331.94
379.704	361.94
379.929	340.94
380.155	320.94
380.38	343.94
380.606	331.94
380.831	326.94
381.057	344.94
381.282	348.94
381.507	326.94
381.733	336.94
381.958	343.94
382.184	352.94
382.409	359.94
382.634	355.94
382.86	328.94
383.085	344.94
383.31	346.94
383.535	340.94
383.761	336.94
383.986	346.94
384.211	344.94
384.436	344.94
384.662	343.94
384.887	356.94
385.112	354.94
385.337	333.94
385.562	346.94
385.787	349.94
386.013	371.94
386.238	358.94
386.463	351.94
386.688	343.94
386.913	376.94
387.138	361.94
387.363	352.94
387.588	358.94
387.813	370.94
388.038	362.94
388.263	366.94
388.488	354.94
388.713	339.94
388.938	364.94
389.163	370.94
389.387	354.94
389.612	351.94
389.837	343.94
390.062	352.94
390.287	347.94
390.512	346.94
390.736	362.94
390.961	359.94
391.186	373.94
391.411	354.94
391.636	378.94
391.86	365.94
392.085	354.94
392.31	364.94
392.534	366.94
392.759	335.94
392.984	359.94
393.208	357.94
393.433	349.94
393.658	370.94
393.882	340.94
394.107	362.94
394.331	363.94
394.556	351.94
394.78	365.94
395.005	376.94
395.229	386.94
395.454	363.94
395.678	361.94
395.903	375.94
396.127	396.94
396.352	389.94
396.576	384.94
396.801	387.94
397.025	365.94
397.249	374.94
397.474	363.94
397.698	374.94
397.922	394.94
398.147	380.94
398.371	400.94
398.595	414.94
398.82	392.94
399.044	395.94
399.268	410.94
399.492	419.94
399.717	433.94
399.941	468.94
400.165	485.94
400.389	493.94
400.613	469.94
400.837	437.94
401.062	426.94
401.286	410.94
401.51	410.94
401.734	405.94
401.958	398.94
402.182	407.94
402.406	422.94
402.63	400.94
402.854	407.94
403.078	414.94
403.302	419.94
403.526	418.94
403.75	430.94
403.974	421.94
404.198	420.94
404.422	445.94
404.645	426.94
404.869	443.94
405.093	450.94
405.317	481.94
405.541	500.94
405.765	470.94
405.988	444.94
406.212	473.94
406.436	489.94
406.66	474.94
406.883	478.94
407.107	488.94
407.331	523.94
407.555	529.94
407.778	540.94
408.002	491.94
408.226	463.94
408.449	466.94
408.673	454.94
408.896	480.94
409.12	516.94
409.344	482.94
409.567	436.94
409.791	450.94
410.014	423.94
410.238	429.94
410.461	423.94
410.685	430.94
410.908	459.94
411.132	459.94
411.355	488.94
411.578	456.94
411.802	439.94
412.025	438.94
412.249	428.94
412.472	442.94
412.695	462.94
412.919	462.94
413.142	454.94
413.365	430.94
413.589	420.94
413.812	407.94
414.035	398.94
414.258	384.94
414.482	416.94
414.705	411.94
414.928	398.94
415.151	401.94
415.374	400.94
415.597	382.94
415.821	383.94
416.044	404.94
416.267	404.94
416.49	387.94
416.713	376.94
416.936	404.94
417.159	389.94
417.382	392.94
417.605	396.94
417.828	405.94
418.051	422.94
418.274	412.94
418.497	396.94
418.72	395.94
418.943	396.94
419.166	406.94
419.389	426.94
419.611	422.94
419.834	423.94
420.057	413.94
420.28	419.94
420.503	419.94
420.726	430.94
420.948	443.94
421.171	454.94
421.394	516.94
421.617	426.94
421.839	419.94
422.062	400.94
422.285	445.94
422.507	466.94
422.73	528.94
422.953	524.94
423.175	455.94
423.398	419.94
423.621	460.94
423.843	448.94
424.066	426.94
424.288	440.94
424.511	475.94
424.733	488.94
424.956	570.94
425.178	548.94
425.401	550.94
425.623	551.94
425.846	482.94
426.068	463.94
426.291	452.94
426.513	451.94
426.735	481.94
426.958	509.94
427.18	547.94
427.402	670.94
427.625	738.94
427.847	641.94
428.069	596.94
428.292	514.94
428.514	469.94
428.736	436.94
428.958	421.94
429.181	430.94
429.403	423.94
429.625	446.94
429.847	454.94
430.069	524.94
430.292	512.94
430.514	446.94
430.736	428.94
430.958	418.94
431.18	424.94
431.402	398.94
431.624	376.94
431.846	400.94
432.068	386.94
432.29	389.94
432.512	394.94
432.734	415.94
432.956	400.94
433.178	421.94
433.4	398.94
433.622	383.94
433.844	388.94
434.066	414.94
434.287	404.94
434.509	392.94
434.731	415.94
434.953	404.94
435.175	416.94
435.397	445.94
435.618	458.94
435.84	503.94
436.062	548.94
436.284	621.94
436.505	528.94
436.727	477.94
436.949	410.94
437.17	418.94
437.392	427.94
437.614	433.94
437.835	466.94
438.057	543.94
438.278	619.94
438.5	611.94
438.721	680.94
438.943	637.94
439.165	496.94
439.386	477.94
439.608	458.94
439.829	489.94
440.05	488.94
440.272	536.94
440.493	482.94
440.715	463.94
440.936	454.94
441.158	412.94
441.379	422.94
441.6	432.94
441.822	460.94
442.043	493.94
442.264	573.94
442.486	604.94
442.707	514.94
442.928	503.94
443.149	486.94
443.371	480.94
443.592	521.94
443.813	582.94
444.034	615.94
444.255	526.94
444.476	480.94
444.698	461.94
444.919	463.94
445.14	552.94
445.361	509.94
445.582	490.94
445.803	544.94
446.024	630.94
446.245	657.94
446.466	576.94
446.687	482.94
446.908	451.94
447.129	415.94
447.35	439.94
447.571	434.94
447.792	423.94
448.013	439.94
448.234	451.94
448.455	484.94
448.675	588.94
448.896	660.94
449.117	562.94
449.338	538.94
449.559	635.94
449.779	678.94
450	548.94
450.221	478.94
450.442	444.94
450.662	424.94
450.883	426.94
451.104	454.94
451.324	452.94
451.545	431.94
451.766	395.94
451.986	389.94
452.207	390.94
452.428	382.94
452.648	387.94
452.869	386.94
453.089	393.94
453.31	403.94
453.53	394.94
453.751	383.94
453.971	386.94
454.192	398.94
454.412	390.94
454.633	380.94
454.853	396.94
455.073	368.94
455.294	402.94
455.514	468.94
455.734	444.94
455.955	400.94
456.175	371.94
456.395	361.94
456.616	349.94
456.836	367.94
457.056	365.94
457.276	376.94
457.497	370.94
457.717	358.94
457.937	370.94
458.157	367.94
458.377	364.94
458.598	415.94
458.818	458.94
459.038	512.94
459.258	516.94
459.478	431.94
459.698	420.94
459.918	394.94
460.138	390.94
460.358	412.94
460.578	395.94
460.798	405.94
461.018	426.94
461.238	378.94
461.458	370.94
461.678	399.94
461.898	391.94
462.118	399.94
462.338	401.94
462.558	428.94
462.777	410.94
462.997	418.94
463.217	444.94
463.437	442.94
463.657	426.94
463.876	402.94
464.096	431.94
464.316	431.94
464.536	435.94
464.755	423.94
464.975	452.94
465.195	477.94
465.414	574.94
465.634	501.94
465.854	438.94
466.073	432.94
466.293	406.94
466.512	403.94
466.732	388.94
466.951	401.94
467.171	375.94
467.391	405.94
467.61	422.94
467.829	418.94
468.049	426.94
468.268	391.94
468.488	408.94
468.707	366.94
468.927	383.94
469.146	372.94
469.365	388.94
469.585	388.94
469.804	374.94
470.023	374.94
470.243	399.94
470.462	408.94
470.681	422.94
470.901	415.94
471.12	394.94
471.339	394.94
471.558	422.94
471.777	426.94
471.997	408.94
472.216	408.94
472.435	431.94
472.654	426.94
472.873	423.94
473.092	392.94
473.311	384.94
473.53	392.94
473.749	408.94
473.968	458.94
474.187	548.94
474.406	530.94
474.625	421.94
474.844	404.94
475.063	405.94
475.282	429.94
475.501	421.94
475.72	405.94
475.939	396.94
476.158	399.94
476.377	413.94
476.596	403.94
476.814	408.94
477.033	410.94
477.252	429.94
477.471	416.94
477.69	413.94
477.908	428.94
478.127	434.94
478.346	427.94
478.564	441.94
478.783	443.94
479.002	468.94
479.22	462.94
479.439	458.94
479.658	487.94
479.876	471.94
480.095	482.94
480.313	495.94
480.532	471.94
480.751	467.94
480.969	491.94
481.188	560.94
481.406	587.94
481.624	534.94
481.843	480.94
482.061	468.94
482.28	478.94
482.498	480.94
482.717	471.94
482.935	462.94
483.153	470.94
483.372	455.94
483.59	454.94
483.808	468.94
484.027	459.94
484.245	489.94
484.463	447.94
484.681	489.94
484.9	463.94
485.118	469.94
485.336	497.94
485.554	491.94
485.772	450.94
485.99	467.94
486.209	483.94
486.427	467.94
486.645	499.94
486.863	504.94
487.081	487.94
487.299	503.94
487.517	496.94
487.735	522.94
487.953	482.94
488.171	505.94
488.389	488.94
488.607	510.94
488.825	514.94
489.043	502.94
489.261	524.94
489.479	502.94
489.696	503.94
489.914	497.94
490.132	529.94
490.35	516.94
490.568	538.94
490.786	522.94
491.003	548.94
491.221	579.94
491.439	559.94
491.657	542.94
491.874	564.94
492.092	544.94
492.31	589.94
492.527	570.94
492.745	567.94
492.963	557.94
493.18	574.94
493.398	605.94
493.615	584.94
493.833	601.94
494.05	600.94
494.268	590.94
494.485	588.94
494.703	581.94
494.92	596.94
495.138	583.94
495.355	588.94
495.573	610.94
495.79	586.94
496.008	601.94
496.225	596.94
496.442	585.94
496.66	580.94
496.877	587.94
497.094	593.94
497.312	608.94
497.529	638.94
497.746	630.94
497.963	637.94
498.181	640.94
498.398	656.94
498.615	632.94
498.832	673.94
499.049	675.94
499.267	656.94
499.484	668.94
499.701	683.94
499.918	729.94
500.135	745.94
500.352	725.94
500.569	755.94
500.786	774.94
501.003	747.94
501.22	756.94
501.437	745.94
501.654	726.94
501.871	741.94
502.088	703.94
