Data from 1965.PennyLincolnUp.Lamp.En5.5.200Scan.071719.P1._HRD10591_14-10-44-912.txt Node
Date: Thu Jul 18 14:10:44 EDT 2019
User: cochatt
Spectrometer: HR+D1059
Trigger mode: 1
Integration Time (sec): 1.000000E-1
Scans to average: 1
Electric dark correction enabled: true
Nonlinearity correction enabled: false
Boxcar width: 0
XAxis mode: Wavelengths
Number of Pixels in Spectrum: 2048
>>>>>Begin Spectral Data<<<<<
223.165	-13.06
223.4	-13.06
223.635	-13.06
223.869	-11.06
224.104	-23.06
224.338	-13.06
224.573	-12.06
224.808	-7.06
225.042	-7.06
225.277	-7.06
225.511	-7.06
225.746	-5.06
225.98	7.94
226.215	16.94
226.449	13.94
226.683	25.94
226.918	16.94
227.152	23.94
227.387	25.94
227.621	30.94
227.856	55.94
228.09	60.94
228.324	47.94
228.559	54.94
228.793	70.94
229.027	92.94
229.262	112.94
229.496	118.94
229.73	123.94
229.964	143.94
230.199	122.94
230.433	115.94
230.667	110.94
230.901	108.94
231.136	98.94
231.37	110.94
231.604	112.94
231.838	98.94
232.072	104.94
232.306	112.94
232.541	117.94
232.775	103.94
233.009	114.94
233.243	101.94
233.477	102.94
233.711	109.94
233.945	108.94
234.179	104.94
234.413	120.94
234.647	118.94
234.881	122.94
235.115	106.94
235.349	111.94
235.583	110.94
235.817	109.94
236.051	133.94
236.285	127.94
236.519	114.94
236.753	117.94
236.987	151.94
237.221	175.94
237.455	227.94
237.689	178.94
237.922	127.94
238.156	132.94
238.39	118.94
238.624	121.94
238.858	125.94
239.091	99.94
239.325	102.94
239.559	127.94
239.793	123.94
240.027	126.94
240.26	137.94
240.494	138.94
240.728	147.94
240.961	140.94
241.195	129.94
241.429	124.94
241.662	136.94
241.896	118.94
242.13	128.94
242.363	133.94
242.597	126.94
242.83	130.94
243.064	119.94
243.298	114.94
243.531	126.94
243.765	123.94
243.998	129.94
244.232	146.94
244.465	125.94
244.699	155.94
244.932	139.94
245.166	132.94
245.399	128.94
245.633	136.94
245.866	143.94
246.099	122.94
246.333	124.94
246.566	140.94
246.8	140.94
247.033	157.94
247.266	148.94
247.5	143.94
247.733	155.94
247.966	163.94
248.2	150.94
248.433	151.94
248.666	165.94
248.899	166.94
249.133	180.94
249.366	196.94
249.599	198.94
249.832	166.94
250.066	174.94
250.299	173.94
250.532	163.94
250.765	186.94
250.998	214.94
251.231	191.94
251.465	214.94
251.698	186.94
251.931	166.94
252.164	186.94
252.397	182.94
252.63	180.94
252.863	194.94
253.096	194.94
253.329	208.94
253.562	217.94
253.795	201.94
254.028	194.94
254.261	202.94
254.494	218.94
254.727	247.94
254.96	269.94
255.193	246.94
255.426	231.94
255.659	235.94
255.892	219.94
256.124	227.94
256.357	223.94
256.59	210.94
256.823	197.94
257.056	203.94
257.289	191.94
257.521	191.94
257.754	188.94
257.987	187.94
258.22	200.94
258.452	172.94
258.685	188.94
258.918	216.94
259.151	192.94
259.383	202.94
259.616	202.94
259.849	200.94
260.081	226.94
260.314	232.94
260.547	236.94
260.779	218.94
261.012	218.94
261.244	199.94
261.477	199.94
261.71	211.94
261.942	216.94
262.175	229.94
262.407	214.94
262.64	191.94
262.872	190.94
263.105	215.94
263.337	186.94
263.57	195.94
263.802	182.94
264.035	202.94
264.267	191.94
264.499	175.94
264.732	189.94
264.964	202.94
265.197	184.94
265.429	194.94
265.661	176.94
265.894	182.94
266.126	201.94
266.358	192.94
266.591	188.94
266.823	204.94
267.055	197.94
267.287	202.94
267.52	199.94
267.752	211.94
267.984	211.94
268.216	223.94
268.448	212.94
268.681	218.94
268.913	211.94
269.145	234.94
269.377	271.94
269.609	244.94
269.841	244.94
270.073	259.94
270.306	269.94
270.538	285.94
270.77	276.94
271.002	280.94
271.234	246.94
271.466	267.94
271.698	289.94
271.93	278.94
272.162	281.94
272.394	279.94
272.626	282.94
272.858	250.94
273.09	257.94
273.322	249.94
273.553	233.94
273.785	227.94
274.017	247.94
274.249	233.94
274.481	240.94
274.713	229.94
274.945	251.94
275.176	244.94
275.408	247.94
275.64	257.94
275.872	235.94
276.104	216.94
276.335	239.94
276.567	257.94
276.799	251.94
277.031	266.94
277.262	282.94
277.494	298.94
277.726	264.94
277.957	264.94
278.189	237.94
278.421	232.94
278.652	252.94
278.884	235.94
279.115	225.94
279.347	232.94
279.579	238.94
279.81	219.94
280.042	225.94
280.273	225.94
280.505	239.94
280.736	241.94
280.968	234.94
281.199	238.94
281.431	240.94
281.662	255.94
281.894	253.94
282.125	238.94
282.356	266.94
282.588	291.94
282.819	276.94
283.051	246.94
283.282	236.94
283.513	235.94
283.745	246.94
283.976	248.94
284.207	254.94
284.439	250.94
284.67	274.94
284.901	236.94
285.132	253.94
285.364	245.94
285.595	247.94
285.826	231.94
286.057	228.94
286.288	244.94
286.52	250.94
286.751	255.94
286.982	249.94
287.213	245.94
287.444	251.94
287.675	259.94
287.906	277.94
288.138	261.94
288.369	265.94
288.6	251.94
288.831	264.94
289.062	261.94
289.293	251.94
289.524	250.94
289.755	259.94
289.986	269.94
290.217	261.94
290.448	233.94
290.679	262.94
290.91	245.94
291.141	248.94
291.371	260.94
291.602	236.94
291.833	256.94
292.064	254.94
292.295	243.94
292.526	267.94
292.757	252.94
292.987	249.94
293.218	250.94
293.449	262.94
293.68	260.94
293.91	260.94
294.141	250.94
294.372	263.94
294.603	253.94
294.833	266.94
295.064	267.94
295.295	235.94
295.525	253.94
295.756	273.94
295.987	280.94
296.217	290.94
296.448	306.94
296.679	274.94
296.909	264.94
297.14	261.94
297.37	279.94
297.601	270.94
297.831	255.94
298.062	264.94
298.292	265.94
298.523	254.94
298.753	262.94
298.984	257.94
299.214	272.94
299.445	276.94
299.675	276.94
299.905	277.94
300.136	279.94
300.366	278.94
300.597	281.94
300.827	278.94
301.057	270.94
301.288	280.94
301.518	308.94
301.748	270.94
301.979	286.94
302.209	278.94
302.439	278.94
302.669	286.94
302.9	284.94
303.13	282.94
303.36	302.94
303.59	282.94
303.82	277.94
304.051	292.94
304.281	296.94
304.511	307.94
304.741	299.94
304.971	274.94
305.201	287.94
305.431	286.94
305.661	296.94
305.891	296.94
306.121	290.94
306.352	303.94
306.582	300.94
306.812	309.94
307.042	272.94
307.272	307.94
307.502	312.94
307.731	291.94
307.961	278.94
308.191	293.94
308.421	296.94
308.651	299.94
308.881	291.94
309.111	290.94
309.341	302.94
309.571	301.94
309.8	346.94
310.03	324.94
310.26	337.94
310.49	317.94
310.72	354.94
310.949	356.94
311.179	373.94
311.409	355.94
311.639	351.94
311.868	340.94
312.098	336.94
312.328	339.94
312.557	378.94
312.787	372.94
313.017	390.94
313.246	354.94
313.476	343.94
313.706	340.94
313.935	317.94
314.165	378.94
314.394	364.94
314.624	358.94
314.853	361.94
315.083	320.94
315.312	315.94
315.542	343.94
315.771	326.94
316.001	322.94
316.23	334.94
316.46	339.94
316.689	339.94
316.919	335.94
317.148	338.94
317.377	372.94
317.607	352.94
317.836	345.94
318.065	334.94
318.295	342.94
318.524	348.94
318.753	336.94
318.983	325.94
319.212	328.94
319.441	367.94
319.67	365.94
319.9	356.94
320.129	338.94
320.358	336.94
320.587	355.94
320.816	376.94
321.046	360.94
321.275	383.94
321.504	386.94
321.733	376.94
321.962	376.94
322.191	372.94
322.42	417.94
322.649	441.94
322.878	424.94
323.108	442.94
323.337	446.94
323.566	484.94
323.795	518.94
324.024	566.94
324.253	702.94
324.482	1048.94
324.71	1592.94
324.939	2186.94
325.168	1847.94
325.397	973.94
325.626	664.94
325.855	540.94
326.084	494.94
326.313	487.94
326.542	505.94
326.77	564.94
326.999	642.94
327.228	932.94
327.457	1406.94
327.686	1627.94
327.914	1085.94
328.143	728.94
328.372	639.94
328.6	606.94
328.829	546.94
329.058	557.94
329.287	595.94
329.515	533.94
329.744	462.94
329.972	471.94
330.201	520.94
330.43	577.94
330.658	548.94
330.887	592.94
331.115	555.94
331.344	486.94
331.572	454.94
331.801	460.94
332.03	474.94
332.258	431.94
332.486	408.94
332.715	413.94
332.943	408.94
333.172	388.94
333.4	412.94
333.629	406.94
333.857	429.94
334.085	443.94
334.314	445.94
334.542	480.94
334.771	510.94
334.999	457.94
335.227	420.94
335.455	425.94
335.684	429.94
335.912	414.94
336.14	399.94
336.369	402.94
336.597	416.94
336.825	398.94
337.053	392.94
337.281	379.94
337.51	373.94
337.738	401.94
337.966	390.94
338.194	397.94
338.422	393.94
338.65	397.94
338.878	370.94
339.106	395.94
339.334	371.94
339.562	375.94
339.79	376.94
340.018	376.94
340.246	378.94
340.474	389.94
340.702	388.94
340.93	399.94
341.158	365.94
341.386	374.94
341.614	391.94
341.842	386.94
342.07	368.94
342.298	361.94
342.526	368.94
342.754	366.94
342.981	353.94
343.209	357.94
343.437	380.94
343.665	366.94
343.893	358.94
344.12	380.94
344.348	368.94
344.576	378.94
344.804	384.94
345.031	388.94
345.259	404.94
345.487	399.94
345.714	372.94
345.942	386.94
346.17	359.94
346.397	372.94
346.625	374.94
346.853	378.94
347.08	362.94
347.308	392.94
347.535	370.94
347.763	384.94
347.99	383.94
348.218	381.94
348.445	371.94
348.673	383.94
348.9	352.94
349.128	382.94
349.355	372.94
349.583	358.94
349.81	352.94
350.037	366.94
350.265	348.94
350.492	380.94
350.72	342.94
350.947	372.94
351.174	367.94
351.402	389.94
351.629	383.94
351.856	380.94
352.083	399.94
352.311	398.94
352.538	393.94
352.765	386.94
352.992	360.94
353.22	381.94
353.447	358.94
353.674	347.94
353.901	356.94
354.128	347.94
354.355	344.94
354.583	348.94
354.81	345.94
355.037	332.94
355.264	331.94
355.491	346.94
355.718	347.94
355.945	337.94
356.172	322.94
356.399	330.94
356.626	332.94
356.853	347.94
357.08	342.94
357.307	339.94
357.534	339.94
357.761	352.94
357.988	342.94
358.215	331.94
358.441	359.94
358.668	329.94
358.895	353.94
359.122	353.94
359.349	370.94
359.576	356.94
359.802	389.94
360.029	430.94
360.256	426.94
360.483	410.94
360.709	379.94
360.936	383.94
361.163	367.94
361.39	383.94
361.616	376.94
361.843	370.94
362.07	363.94
362.296	370.94
362.523	360.94
362.749	386.94
362.976	365.94
363.203	365.94
363.429	375.94
363.656	370.94
363.882	359.94
364.109	349.94
364.335	356.94
364.562	348.94
364.788	338.94
365.015	341.94
365.241	356.94
365.468	358.94
365.694	357.94
365.92	344.94
366.147	355.94
366.373	335.94
366.599	336.94
366.826	326.94
367.052	357.94
367.278	335.94
367.505	342.94
367.731	352.94
367.957	340.94
368.184	361.94
368.41	351.94
368.636	360.94
368.862	365.94
369.089	350.94
369.315	341.94
369.541	344.94
369.767	348.94
369.993	349.94
370.219	352.94
370.445	361.94
370.672	352.94
370.898	341.94
371.124	355.94
371.35	334.94
371.576	347.94
371.802	346.94
372.028	340.94
372.254	342.94
372.48	355.94
372.706	344.94
372.932	355.94
373.158	327.94
373.384	347.94
373.61	340.94
373.835	333.94
374.061	364.94
374.287	324.94
374.513	354.94
374.739	365.94
374.965	320.94
375.191	343.94
375.416	352.94
375.642	353.94
375.868	339.94
376.094	337.94
376.319	347.94
376.545	336.94
376.771	347.94
376.997	343.94
377.222	334.94
377.448	340.94
377.674	348.94
377.899	326.94
378.125	336.94
378.35	324.94
378.576	327.94
378.802	337.94
379.027	330.94
379.253	327.94
379.478	344.94
379.704	318.94
379.929	318.94
380.155	338.94
380.38	342.94
380.606	347.94
380.831	361.94
381.057	349.94
381.282	341.94
381.507	341.94
381.733	331.94
381.958	346.94
382.184	341.94
382.409	351.94
382.634	332.94
382.86	331.94
383.085	343.94
383.31	340.94
383.535	355.94
383.761	342.94
383.986	355.94
384.211	354.94
384.436	363.94
384.662	347.94
384.887	355.94
385.112	358.94
385.337	358.94
385.562	365.94
385.787	355.94
386.013	377.94
386.238	378.94
386.463	372.94
386.688	347.94
386.913	342.94
387.138	358.94
387.363	359.94
387.588	366.94
387.813	355.94
388.038	354.94
388.263	375.94
388.488	370.94
388.713	379.94
388.938	370.94
389.163	366.94
389.387	370.94
389.612	362.94
389.837	365.94
390.062	351.94
390.287	365.94
390.512	369.94
390.736	354.94
390.961	370.94
391.186	361.94
391.411	336.94
391.636	346.94
391.86	363.94
392.085	351.94
392.31	362.94
392.534	372.94
392.759	365.94
392.984	340.94
393.208	364.94
393.433	366.94
393.658	360.94
393.882	367.94
394.107	356.94
394.331	348.94
394.556	357.94
394.78	364.94
395.005	354.94
395.229	373.94
395.454	386.94
395.678	370.94
395.903	374.94
396.127	397.94
396.352	408.94
396.576	374.94
396.801	377.94
397.025	382.94
397.249	389.94
397.474	394.94
397.698	366.94
397.922	394.94
398.147	408.94
398.371	421.94
398.595	391.94
398.82	392.94
399.044	398.94
399.268	429.94
399.492	418.94
399.717	457.94
399.941	451.94
400.165	487.94
400.389	513.94
400.613	479.94
400.837	430.94
401.062	421.94
401.286	430.94
401.51	416.94
401.734	404.94
401.958	391.94
402.182	429.94
402.406	436.94
402.63	432.94
402.854	428.94
403.078	428.94
403.302	410.94
403.526	431.94
403.75	440.94
403.974	427.94
404.198	429.94
404.422	438.94
404.645	428.94
404.869	432.94
405.093	462.94
405.317	488.94
405.541	528.94
405.765	474.94
405.988	454.94
406.212	464.94
406.436	476.94
406.66	481.94
406.883	458.94
407.107	471.94
407.331	514.94
407.555	552.94
407.778	546.94
408.002	498.94
408.226	456.94
408.449	479.94
408.673	474.94
408.896	488.94
409.12	540.94
409.344	498.94
409.567	466.94
409.791	452.94
410.014	438.94
410.238	454.94
410.461	441.94
410.685	422.94
410.908	450.94
411.132	456.94
411.355	484.94
411.578	460.94
411.802	430.94
412.025	444.94
412.249	438.94
412.472	442.94
412.695	478.94
412.919	473.94
413.142	435.94
413.365	412.94
413.589	422.94
413.812	430.94
414.035	420.94
414.258	408.94
414.482	382.94
414.705	411.94
414.928	404.94
415.151	410.94
415.374	399.94
415.597	391.94
415.821	407.94
416.044	421.94
416.267	418.94
416.49	387.94
416.713	399.94
416.936	418.94
417.159	388.94
417.382	408.94
417.605	411.94
417.828	416.94
418.051	430.94
418.274	424.94
418.497	398.94
418.72	403.94
418.943	409.94
419.166	422.94
419.389	426.94
419.611	429.94
419.834	424.94
420.057	415.94
420.28	406.94
420.503	442.94
420.726	420.94
420.948	438.94
421.171	470.94
421.394	487.94
421.617	463.94
421.839	438.94
422.062	414.94
422.285	438.94
422.507	488.94
422.73	518.94
422.953	539.94
423.175	456.94
423.398	448.94
423.621	451.94
423.843	462.94
424.066	459.94
424.288	459.94
424.511	471.94
424.733	528.94
424.956	593.94
425.178	558.94
425.401	536.94
425.623	600.94
425.846	512.94
426.068	479.94
426.291	470.94
426.513	440.94
426.735	463.94
426.958	504.94
427.18	586.94
427.402	688.94
427.625	754.94
427.847	679.94
428.069	598.94
428.292	532.94
428.514	478.94
428.736	457.94
428.958	455.94
429.181	450.94
429.403	446.94
429.625	450.94
429.847	477.94
430.069	555.94
430.292	506.94
430.514	438.94
430.736	458.94
430.958	410.94
431.18	405.94
431.402	410.94
431.624	425.94
431.846	396.94
432.068	399.94
432.29	411.94
432.512	398.94
432.734	420.94
432.956	427.94
433.178	428.94
433.4	415.94
433.622	412.94
433.844	419.94
434.066	406.94
434.287	404.94
434.509	414.94
434.731	422.94
434.953	426.94
435.175	435.94
435.397	462.94
435.618	452.94
435.84	496.94
436.062	600.94
436.284	624.94
436.505	536.94
436.727	468.94
436.949	434.94
437.17	453.94
437.392	440.94
437.614	475.94
437.835	495.94
438.057	607.94
438.278	656.94
438.5	644.94
438.721	712.94
438.943	662.94
439.165	539.94
439.386	516.94
439.608	502.94
439.829	478.94
440.05	513.94
440.272	543.94
440.493	534.94
440.715	486.94
440.936	440.94
441.158	426.94
441.379	452.94
441.6	460.94
441.822	462.94
442.043	539.94
442.264	578.94
442.486	597.94
442.707	532.94
442.928	487.94
443.149	496.94
443.371	523.94
443.592	532.94
443.813	638.94
444.034	682.94
444.255	551.94
444.476	486.94
444.698	464.94
444.919	474.94
445.14	542.94
445.361	528.94
445.582	524.94
445.803	599.94
446.024	695.94
446.245	665.94
446.466	600.94
446.687	516.94
446.908	475.94
447.129	456.94
447.35	444.94
447.571	437.94
447.792	452.94
448.013	437.94
448.234	460.94
448.455	500.94
448.675	606.94
448.896	698.94
449.117	593.94
449.338	556.94
449.559	655.94
449.779	731.94
450	590.94
450.221	510.94
450.442	464.94
450.662	425.94
450.883	447.94
451.104	472.94
451.324	469.94
451.545	436.94
451.766	431.94
451.986	390.94
452.207	386.94
452.428	390.94
452.648	392.94
452.869	403.94
453.089	380.94
453.31	426.94
453.53	404.94
453.751	411.94
453.971	390.94
454.192	412.94
454.412	411.94
454.633	392.94
454.853	388.94
455.073	402.94
455.294	413.94
455.514	495.94
455.734	440.94
455.955	406.94
456.175	378.94
456.395	367.94
456.616	384.94
456.836	370.94
457.056	374.94
457.276	367.94
457.497	363.94
457.717	380.94
457.937	380.94
458.157	356.94
458.377	386.94
458.598	408.94
458.818	477.94
459.038	540.94
459.258	557.94
459.478	467.94
459.698	468.94
459.918	435.94
460.138	405.94
460.358	399.94
460.578	432.94
460.798	415.94
461.018	414.94
461.238	416.94
461.458	405.94
461.678	411.94
461.898	399.94
462.118	411.94
462.338	425.94
462.558	426.94
462.777	406.94
462.997	444.94
463.217	419.94
463.437	440.94
463.657	445.94
463.876	413.94
464.096	419.94
464.316	425.94
464.536	452.94
464.755	446.94
464.975	445.94
465.195	498.94
465.414	570.94
465.634	507.94
465.854	436.94
466.073	435.94
466.293	399.94
466.512	392.94
466.732	405.94
466.951	398.94
467.171	407.94
467.391	411.94
467.61	388.94
467.829	422.94
468.049	422.94
468.268	420.94
468.488	405.94
468.707	408.94
468.927	388.94
469.146	398.94
469.365	380.94
469.585	389.94
469.804	385.94
470.023	398.94
470.243	400.94
470.462	416.94
470.681	442.94
470.901	430.94
471.12	417.94
471.339	403.94
471.558	418.94
471.777	412.94
471.997	420.94
472.216	427.94
472.435	472.94
472.654	438.94
472.873	416.94
473.092	428.94
473.311	409.94
473.53	400.94
473.749	421.94
473.968	474.94
474.187	550.94
474.406	564.94
474.625	470.94
474.844	411.94
475.063	406.94
475.282	396.94
475.501	405.94
475.72	411.94
475.939	420.94
476.158	401.94
476.377	408.94
476.596	422.94
476.814	443.94
477.033	418.94
477.252	442.94
477.471	424.94
477.69	440.94
477.908	435.94
478.127	428.94
478.346	436.94
478.564	436.94
478.783	449.94
479.002	447.94
479.22	445.94
479.439	474.94
479.658	489.94
479.876	497.94
480.095	505.94
480.313	538.94
480.532	508.94
480.751	480.94
480.969	529.94
481.188	583.94
481.406	606.94
481.624	550.94
481.843	518.94
482.061	509.94
482.28	483.94
482.498	495.94
482.717	490.94
482.935	459.94
483.153	484.94
483.372	474.94
483.59	483.94
483.808	500.94
484.027	478.94
484.245	468.94
484.463	474.94
484.681	470.94
484.9	486.94
485.118	506.94
485.336	484.94
485.554	500.94
485.772	520.94
485.99	490.94
486.209	503.94
486.427	504.94
486.645	518.94
486.863	526.94
487.081	521.94
487.299	505.94
487.517	515.94
487.735	495.94
487.953	520.94
488.171	500.94
488.389	522.94
488.607	513.94
488.825	528.94
489.043	512.94
489.261	527.94
489.479	532.94
489.696	520.94
489.914	555.94
490.132	546.94
490.35	554.94
490.568	550.94
490.786	552.94
491.003	543.94
491.221	585.94
491.439	586.94
491.657	574.94
491.874	586.94
492.092	589.94
492.31	593.94
492.527	600.94
492.745	598.94
492.963	606.94
493.18	594.94
493.398	601.94
493.615	623.94
493.833	618.94
494.05	623.94
494.268	624.94
494.485	605.94
494.703	592.94
494.92	611.94
495.138	604.94
495.355	626.94
495.573	621.94
495.79	616.94
496.008	628.94
496.225	600.94
496.442	612.94
496.66	615.94
496.877	631.94
497.094	615.94
497.312	616.94
497.529	633.94
497.746	623.94
497.963	629.94
498.181	656.94
498.398	650.94
498.615	663.94
498.832	690.94
499.049	674.94
499.267	698.94
499.484	683.94
499.701	699.94
499.918	744.94
500.135	724.94
500.352	724.94
500.569	790.94
500.786	778.94
501.003	782.94
501.22	740.94
501.437	739.94
501.654	724.94
501.871	709.94
