Data from 1965.PennyLincolnUp.Lamp.En5.5.200Scan.071719.P1._HRD10591_14-09-40-912.txt Node
Date: Thu Jul 18 14:09:40 EDT 2019
User: cochatt
Spectrometer: HR+D1059
Trigger mode: 1
Integration Time (sec): 1.000000E-1
Scans to average: 1
Electric dark correction enabled: true
Nonlinearity correction enabled: false
Boxcar width: 0
XAxis mode: Wavelengths
Number of Pixels in Spectrum: 2048
>>>>>Begin Spectral Data<<<<<
223.165	-10.25
223.4	-10.25
223.635	-10.25
223.869	-28.25
224.104	-12.25
224.338	-26.25
224.573	-18.25
224.808	-20.25
225.042	-7.25
225.277	-0.25
225.511	1.75
225.746	-6.25
225.98	5.75
226.215	13.75
226.449	16.75
226.683	16.75
226.918	36.75
227.152	37.75
227.387	34.75
227.621	37.75
227.856	38.75
228.09	42.75
228.324	44.75
228.559	59.75
228.793	54.75
229.027	101.75
229.262	96.75
229.496	119.75
229.73	125.75
229.964	145.75
230.199	131.75
230.433	116.75
230.667	114.75
230.901	108.75
231.136	105.75
231.37	102.75
231.604	98.75
231.838	104.75
232.072	111.75
232.306	117.75
232.541	98.75
232.775	103.75
233.009	98.75
233.243	119.75
233.477	114.75
233.711	114.75
233.945	122.75
234.179	94.75
234.413	110.75
234.647	123.75
234.881	114.75
235.115	125.75
235.349	110.75
235.583	100.75
235.817	113.75
236.051	127.75
236.285	122.75
236.519	112.75
236.753	119.75
236.987	135.75
237.221	191.75
237.455	203.75
237.689	165.75
237.922	149.75
238.156	111.75
238.39	122.75
238.624	116.75
238.858	105.75
239.091	122.75
239.325	114.75
239.559	115.75
239.793	129.75
240.027	135.75
240.26	135.75
240.494	159.75
240.728	134.75
240.961	140.75
241.195	132.75
241.429	129.75
241.662	149.75
241.896	125.75
242.13	130.75
242.363	121.75
242.597	122.75
242.83	115.75
243.064	124.75
243.298	133.75
243.531	130.75
243.765	118.75
243.998	122.75
244.232	138.75
244.465	134.75
244.699	140.75
244.932	142.75
245.166	127.75
245.399	133.75
245.633	134.75
245.866	140.75
246.099	126.75
246.333	138.75
246.566	158.75
246.8	144.75
247.033	142.75
247.266	144.75
247.5	154.75
247.733	144.75
247.966	142.75
248.2	153.75
248.433	145.75
248.666	142.75
248.899	170.75
249.133	180.75
249.366	202.75
249.599	184.75
249.832	169.75
250.066	159.75
250.299	167.75
250.532	177.75
250.765	177.75
250.998	213.75
251.231	210.75
251.465	212.75
251.698	183.75
251.931	200.75
252.164	184.75
252.397	178.75
252.63	186.75
252.863	169.75
253.096	203.75
253.329	198.75
253.562	214.75
253.795	208.75
254.028	185.75
254.261	206.75
254.494	198.75
254.727	256.75
254.96	238.75
255.193	243.75
255.426	223.75
255.659	209.75
255.892	210.75
256.124	212.75
256.357	231.75
256.59	206.75
256.823	194.75
257.056	210.75
257.289	182.75
257.521	190.75
257.754	205.75
257.987	184.75
258.22	192.75
258.452	189.75
258.685	191.75
258.918	173.75
259.151	186.75
259.383	191.75
259.616	210.75
259.849	212.75
260.081	195.75
260.314	237.75
260.547	234.75
260.779	217.75
261.012	201.75
261.244	205.75
261.477	199.75
261.71	185.75
261.942	190.75
262.175	221.75
262.407	204.75
262.64	196.75
262.872	201.75
263.105	196.75
263.337	192.75
263.57	205.75
263.802	199.75
264.035	198.75
264.267	191.75
264.499	199.75
264.732	202.75
264.964	203.75
265.197	182.75
265.429	185.75
265.661	188.75
265.894	201.75
266.126	183.75
266.358	183.75
266.591	184.75
266.823	207.75
267.055	205.75
267.287	217.75
267.52	188.75
267.752	206.75
267.984	210.75
268.216	221.75
268.448	181.75
268.681	217.75
268.913	217.75
269.145	214.75
269.377	260.75
269.609	245.75
269.841	254.75
270.073	238.75
270.306	258.75
270.538	281.75
270.77	273.75
271.002	264.75
271.234	264.75
271.466	256.75
271.698	270.75
271.93	297.75
272.162	288.75
272.394	286.75
272.626	295.75
272.858	256.75
273.09	265.75
273.322	243.75
273.553	236.75
273.785	244.75
274.017	223.75
274.249	248.75
274.481	229.75
274.713	235.75
274.945	247.75
275.176	232.75
275.408	246.75
275.64	246.75
275.872	246.75
276.104	266.75
276.335	257.75
276.567	246.75
276.799	250.75
277.031	266.75
277.262	291.75
277.494	282.75
277.726	278.75
277.957	262.75
278.189	268.75
278.421	250.75
278.652	252.75
278.884	236.75
279.115	232.75
279.347	234.75
279.579	236.75
279.81	231.75
280.042	240.75
280.273	230.75
280.505	224.75
280.736	226.75
280.968	212.75
281.199	236.75
281.431	216.75
281.662	239.75
281.894	220.75
282.125	238.75
282.356	261.75
282.588	276.75
282.819	274.75
283.051	246.75
283.282	244.75
283.513	235.75
283.745	224.75
283.976	237.75
284.207	256.75
284.439	258.75
284.67	234.75
284.901	242.75
285.132	244.75
285.364	234.75
285.595	238.75
285.826	262.75
286.057	237.75
286.288	238.75
286.52	233.75
286.751	231.75
286.982	235.75
287.213	265.75
287.444	242.75
287.675	263.75
287.906	262.75
288.138	261.75
288.369	276.75
288.6	261.75
288.831	238.75
289.062	253.75
289.293	270.75
289.524	252.75
289.755	245.75
289.986	233.75
290.217	247.75
290.448	256.75
290.679	258.75
290.91	250.75
291.141	237.75
291.371	260.75
291.602	261.75
291.833	246.75
292.064	259.75
292.295	237.75
292.526	268.75
292.757	254.75
292.987	245.75
293.218	244.75
293.449	236.75
293.68	245.75
293.91	248.75
294.141	239.75
294.372	260.75
294.603	243.75
294.833	247.75
295.064	271.75
295.295	252.75
295.525	247.75
295.756	263.75
295.987	246.75
296.217	286.75
296.448	291.75
296.679	271.75
296.909	254.75
297.14	258.75
297.37	245.75
297.601	251.75
297.831	271.75
298.062	266.75
298.292	270.75
298.523	259.75
298.753	272.75
298.984	254.75
299.214	269.75
299.445	261.75
299.675	289.75
299.905	285.75
300.136	277.75
300.366	268.75
300.597	249.75
300.827	270.75
301.057	286.75
301.288	299.75
301.518	281.75
301.748	272.75
301.979	281.75
302.209	284.75
302.439	280.75
302.669	272.75
302.9	266.75
303.13	280.75
303.36	290.75
303.59	293.75
303.82	304.75
304.051	292.75
304.281	284.75
304.511	284.75
304.741	276.75
304.971	270.75
305.201	280.75
305.431	276.75
305.661	299.75
305.891	279.75
306.121	283.75
306.352	315.75
306.582	306.75
306.812	296.75
307.042	288.75
307.272	295.75
307.502	272.75
307.731	280.75
307.961	298.75
308.191	300.75
308.421	300.75
308.651	308.75
308.881	294.75
309.111	318.75
309.341	312.75
309.571	309.75
309.8	319.75
310.03	333.75
310.26	321.75
310.49	339.75
310.72	327.75
310.949	361.75
311.179	370.75
311.409	357.75
311.639	345.75
311.868	337.75
312.098	336.75
312.328	356.75
312.557	366.75
312.787	377.75
313.017	370.75
313.246	353.75
313.476	332.75
313.706	340.75
313.935	358.75
314.165	346.75
314.394	343.75
314.624	335.75
314.853	344.75
315.083	359.75
315.312	324.75
315.542	322.75
315.771	327.75
316.001	330.75
316.23	326.75
316.46	326.75
316.689	329.75
316.919	343.75
317.148	332.75
317.377	344.75
317.607	340.75
317.836	335.75
318.065	334.75
318.295	344.75
318.524	340.75
318.753	370.75
318.983	332.75
319.212	336.75
319.441	350.75
319.67	357.75
319.9	345.75
320.129	352.75
320.358	339.75
320.587	346.75
320.816	358.75
321.046	353.75
321.275	326.75
321.504	357.75
321.733	381.75
321.962	356.75
322.191	380.75
322.42	406.75
322.649	403.75
322.878	407.75
323.108	415.75
323.337	458.75
323.566	466.75
323.795	506.75
324.024	542.75
324.253	716.75
324.482	1003.75
324.71	1546.75
324.939	2099.75
325.168	1745.75
325.397	926.75
325.626	644.75
325.855	532.75
326.084	506.75
326.313	474.75
326.542	490.75
326.77	544.75
326.999	646.75
327.228	909.75
327.457	1347.75
327.686	1552.75
327.914	1062.75
328.143	692.75
328.372	606.75
328.6	592.75
328.829	548.75
329.058	543.75
329.287	558.75
329.515	495.75
329.744	491.75
329.972	486.75
330.201	520.75
330.43	544.75
330.658	605.75
330.887	602.75
331.115	578.75
331.344	498.75
331.572	458.75
331.801	465.75
332.03	461.75
332.258	416.75
332.486	406.75
332.715	393.75
332.943	403.75
333.172	417.75
333.4	400.75
333.629	408.75
333.857	437.75
334.085	450.75
334.314	445.75
334.542	495.75
334.771	494.75
334.999	450.75
335.227	434.75
335.455	412.75
335.684	406.75
335.912	409.75
336.14	384.75
336.369	410.75
336.597	423.75
336.825	429.75
337.053	394.75
337.281	381.75
337.51	389.75
337.738	380.75
337.966	368.75
338.194	378.75
338.422	394.75
338.65	385.75
338.878	371.75
339.106	382.75
339.334	368.75
339.562	364.75
339.79	381.75
340.018	392.75
340.246	378.75
340.474	395.75
340.702	400.75
340.93	371.75
341.158	375.75
341.386	372.75
341.614	390.75
341.842	385.75
342.07	386.75
342.298	359.75
342.526	378.75
342.754	368.75
342.981	366.75
343.209	366.75
343.437	362.75
343.665	356.75
343.893	365.75
344.12	412.75
344.348	386.75
344.576	379.75
344.804	398.75
345.031	418.75
345.259	422.75
345.487	409.75
345.714	382.75
345.942	360.75
346.17	371.75
346.397	373.75
346.625	366.75
346.853	386.75
347.08	365.75
347.308	358.75
347.535	392.75
347.763	386.75
347.99	390.75
348.218	378.75
348.445	372.75
348.673	381.75
348.9	372.75
349.128	365.75
349.355	373.75
349.583	357.75
349.81	360.75
350.037	353.75
350.265	358.75
350.492	335.75
350.72	344.75
350.947	370.75
351.174	368.75
351.402	377.75
351.629	392.75
351.856	383.75
352.083	380.75
352.311	379.75
352.538	390.75
352.765	392.75
352.992	348.75
353.22	372.75
353.447	365.75
353.674	354.75
353.901	359.75
354.128	360.75
354.355	351.75
354.583	347.75
354.81	339.75
355.037	330.75
355.264	343.75
355.491	325.75
355.718	328.75
355.945	327.75
356.172	331.75
356.399	334.75
356.626	356.75
356.853	339.75
357.08	319.75
357.307	325.75
357.534	340.75
357.761	342.75
357.988	350.75
358.215	339.75
358.441	337.75
358.668	344.75
358.895	335.75
359.122	372.75
359.349	364.75
359.576	382.75
359.802	388.75
360.029	416.75
360.256	415.75
360.483	406.75
360.709	369.75
360.936	374.75
361.163	377.75
361.39	382.75
361.616	387.75
361.843	358.75
362.07	367.75
362.296	346.75
362.523	354.75
362.749	370.75
362.976	355.75
363.203	357.75
363.429	349.75
363.656	360.75
363.882	366.75
364.109	352.75
364.335	361.75
364.562	365.75
364.788	354.75
365.015	355.75
365.241	365.75
365.468	349.75
365.694	361.75
365.92	368.75
366.147	337.75
366.373	347.75
366.599	358.75
366.826	352.75
367.052	350.75
367.278	348.75
367.505	352.75
367.731	350.75
367.957	360.75
368.184	362.75
368.41	346.75
368.636	356.75
368.862	371.75
369.089	349.75
369.315	345.75
369.541	356.75
369.767	346.75
369.993	347.75
370.219	343.75
370.445	353.75
370.672	326.75
370.898	345.75
371.124	350.75
371.35	343.75
371.576	333.75
371.802	347.75
372.028	339.75
372.254	353.75
372.48	352.75
372.706	350.75
372.932	336.75
373.158	353.75
373.384	348.75
373.61	351.75
373.835	335.75
374.061	339.75
374.287	364.75
374.513	335.75
374.739	337.75
374.965	354.75
375.191	354.75
375.416	347.75
375.642	326.75
375.868	342.75
376.094	353.75
376.319	357.75
376.545	319.75
376.771	333.75
376.997	346.75
377.222	349.75
377.448	355.75
377.674	342.75
377.899	329.75
378.125	342.75
378.35	348.75
378.576	336.75
378.802	353.75
379.027	327.75
379.253	334.75
379.478	320.75
379.704	328.75
379.929	355.75
380.155	333.75
380.38	337.75
380.606	321.75
380.831	334.75
381.057	350.75
381.282	339.75
381.507	315.75
381.733	340.75
381.958	342.75
382.184	342.75
382.409	356.75
382.634	358.75
382.86	350.75
383.085	358.75
383.31	362.75
383.535	349.75
383.761	358.75
383.986	340.75
384.211	361.75
384.436	363.75
384.662	370.75
384.887	352.75
385.112	350.75
385.337	350.75
385.562	355.75
385.787	339.75
386.013	387.75
386.238	382.75
386.463	386.75
386.688	373.75
386.913	365.75
387.138	349.75
387.363	370.75
387.588	358.75
387.813	376.75
388.038	382.75
388.263	368.75
388.488	362.75
388.713	349.75
388.938	368.75
389.163	360.75
389.387	367.75
389.612	353.75
389.837	392.75
390.062	359.75
390.287	370.75
390.512	349.75
390.736	358.75
390.961	358.75
391.186	349.75
391.411	364.75
391.636	375.75
391.86	362.75
392.085	382.75
392.31	370.75
392.534	374.75
392.759	382.75
392.984	378.75
393.208	385.75
393.433	359.75
393.658	380.75
393.882	361.75
394.107	372.75
394.331	388.75
394.556	380.75
394.78	374.75
395.005	375.75
395.229	360.75
395.454	378.75
395.678	394.75
395.903	383.75
396.127	407.75
396.352	428.75
396.576	393.75
396.801	380.75
397.025	386.75
397.249	383.75
397.474	368.75
397.698	398.75
397.922	394.75
398.147	410.75
398.371	416.75
398.595	407.75
398.82	404.75
399.044	396.75
399.268	409.75
399.492	430.75
399.717	448.75
399.941	487.75
400.165	515.75
400.389	502.75
400.613	470.75
400.837	442.75
401.062	437.75
401.286	423.75
401.51	422.75
401.734	418.75
401.958	433.75
402.182	430.75
402.406	422.75
402.63	454.75
402.854	436.75
403.078	438.75
403.302	420.75
403.526	436.75
403.75	454.75
403.974	436.75
404.198	429.75
404.422	445.75
404.645	438.75
404.869	440.75
405.093	489.75
405.317	522.75
405.541	530.75
405.765	487.75
405.988	469.75
406.212	457.75
406.436	468.75
406.66	515.75
406.883	490.75
407.107	479.75
407.331	524.75
407.555	586.75
407.778	567.75
408.002	502.75
408.226	492.75
408.449	465.75
408.673	465.75
408.896	507.75
409.12	524.75
409.344	489.75
409.567	449.75
409.791	472.75
410.014	437.75
410.238	453.75
410.461	449.75
410.685	441.75
410.908	452.75
411.132	446.75
411.355	492.75
411.578	488.75
411.802	448.75
412.025	435.75
412.249	447.75
412.472	451.75
412.695	499.75
412.919	487.75
413.142	463.75
413.365	406.75
413.589	426.75
413.812	418.75
414.035	390.75
414.258	414.75
414.482	421.75
414.705	410.75
414.928	421.75
415.151	388.75
415.374	425.75
415.597	396.75
415.821	406.75
416.044	391.75
416.267	400.75
416.49	393.75
416.713	427.75
416.936	409.75
417.159	418.75
417.382	421.75
417.605	413.75
417.828	438.75
418.051	426.75
418.274	433.75
418.497	414.75
418.72	408.75
418.943	378.75
419.166	410.75
419.389	435.75
419.611	447.75
419.834	443.75
420.057	431.75
420.28	442.75
420.503	419.75
420.726	434.75
420.948	442.75
421.171	484.75
421.394	508.75
421.617	443.75
421.839	423.75
422.062	436.75
422.285	441.75
422.507	488.75
422.73	524.75
422.953	532.75
423.175	473.75
423.398	468.75
423.621	441.75
423.843	445.75
424.066	470.75
424.288	475.75
424.511	484.75
424.733	540.75
424.956	593.75
425.178	576.75
425.401	552.75
425.623	604.75
425.846	518.75
426.068	480.75
426.291	457.75
426.513	461.75
426.735	488.75
426.958	530.75
427.18	587.75
427.402	714.75
427.625	759.75
427.847	685.75
428.069	608.75
428.292	522.75
428.514	482.75
428.736	458.75
428.958	460.75
429.181	441.75
429.403	432.75
429.625	450.75
429.847	475.75
430.069	540.75
430.292	519.75
430.514	465.75
430.736	456.75
430.958	434.75
431.18	438.75
431.402	408.75
431.624	414.75
431.846	405.75
432.068	419.75
432.29	416.75
432.512	413.75
432.734	432.75
432.956	442.75
433.178	438.75
433.4	420.75
433.622	418.75
433.844	411.75
434.066	425.75
434.287	399.75
434.509	426.75
434.731	436.75
434.953	422.75
435.175	445.75
435.397	436.75
435.618	468.75
435.84	507.75
436.062	586.75
436.284	634.75
436.505	532.75
436.727	516.75
436.949	443.75
437.17	456.75
437.392	467.75
437.614	462.75
437.835	506.75
438.057	590.75
438.278	642.75
438.5	637.75
438.721	681.75
438.943	660.75
439.165	514.75
439.386	506.75
439.608	486.75
439.829	504.75
440.05	522.75
440.272	541.75
440.493	517.75
440.715	483.75
440.936	442.75
441.158	461.75
441.379	452.75
441.6	441.75
441.822	460.75
442.043	493.75
442.264	584.75
442.486	623.75
442.707	527.75
442.928	483.75
443.149	491.75
443.371	490.75
443.592	547.75
443.813	624.75
444.034	650.75
444.255	558.75
444.476	495.75
444.698	478.75
444.919	487.75
445.14	594.75
445.361	543.75
445.582	520.75
445.803	592.75
446.024	663.75
446.245	680.75
446.466	605.75
446.687	515.75
446.908	489.75
447.129	444.75
447.35	468.75
447.571	438.75
447.792	434.75
448.013	448.75
448.234	463.75
448.455	515.75
448.675	605.75
448.896	702.75
449.117	594.75
449.338	561.75
449.559	638.75
449.779	683.75
450	582.75
450.221	471.75
450.442	443.75
450.662	436.75
450.883	462.75
451.104	478.75
451.324	456.75
451.545	434.75
451.766	437.75
451.986	410.75
452.207	398.75
452.428	392.75
452.648	385.75
452.869	397.75
453.089	412.75
453.31	416.75
453.53	403.75
453.751	416.75
453.971	413.75
454.192	433.75
454.412	412.75
454.633	394.75
454.853	388.75
455.073	395.75
455.294	419.75
455.514	485.75
455.734	460.75
455.955	410.75
456.175	389.75
456.395	382.75
456.616	365.75
456.836	384.75
457.056	366.75
457.276	362.75
457.497	388.75
457.717	391.75
457.937	379.75
458.157	375.75
458.377	379.75
458.598	410.75
458.818	475.75
459.038	528.75
459.258	548.75
459.478	469.75
459.698	414.75
459.918	429.75
460.138	425.75
460.358	403.75
460.578	396.75
460.798	417.75
461.018	413.75
461.238	422.75
461.458	412.75
461.678	404.75
461.898	399.75
462.118	411.75
462.338	396.75
462.558	421.75
462.777	425.75
462.997	412.75
463.217	430.75
463.437	439.75
463.657	420.75
463.876	450.75
464.096	444.75
464.316	441.75
464.536	444.75
464.755	450.75
464.975	458.75
465.195	517.75
465.414	576.75
465.634	494.75
465.854	446.75
466.073	452.75
466.293	426.75
466.512	412.75
466.732	434.75
466.951	420.75
467.171	399.75
467.391	417.75
467.61	428.75
467.829	411.75
468.049	413.75
468.268	429.75
468.488	405.75
468.707	390.75
468.927	413.75
469.146	405.75
469.365	382.75
469.585	395.75
469.804	398.75
470.023	424.75
470.243	408.75
470.462	422.75
470.681	434.75
470.901	426.75
471.12	391.75
471.339	419.75
471.558	408.75
471.777	411.75
471.997	427.75
472.216	422.75
472.435	456.75
472.654	434.75
472.873	418.75
473.092	406.75
473.311	421.75
473.53	396.75
473.749	424.75
473.968	468.75
474.187	556.75
474.406	577.75
474.625	458.75
474.844	411.75
475.063	430.75
475.282	405.75
475.501	394.75
475.72	421.75
475.939	403.75
476.158	407.75
476.377	423.75
476.596	425.75
476.814	441.75
477.033	425.75
477.252	442.75
477.471	435.75
477.69	439.75
477.908	439.75
478.127	440.75
478.346	454.75
478.564	446.75
478.783	458.75
479.002	463.75
479.22	452.75
479.439	483.75
479.658	505.75
479.876	500.75
480.095	499.75
480.313	495.75
480.532	519.75
480.751	516.75
480.969	500.75
481.188	590.75
481.406	619.75
481.624	567.75
481.843	533.75
482.061	518.75
482.28	498.75
482.498	493.75
482.717	506.75
482.935	500.75
483.153	489.75
483.372	483.75
483.59	504.75
483.808	484.75
484.027	492.75
484.245	471.75
484.463	473.75
484.681	471.75
484.9	491.75
485.118	485.75
485.336	500.75
485.554	521.75
485.772	502.75
485.99	506.75
486.209	505.75
486.427	502.75
486.645	517.75
486.863	538.75
487.081	555.75
487.299	503.75
487.517	511.75
487.735	518.75
487.953	522.75
488.171	495.75
488.389	512.75
488.607	525.75
488.825	526.75
489.043	525.75
489.261	537.75
489.479	536.75
489.696	514.75
489.914	516.75
490.132	514.75
490.35	530.75
490.568	539.75
490.786	530.75
491.003	553.75
491.221	574.75
491.439	570.75
491.657	582.75
491.874	590.75
492.092	572.75
492.31	588.75
492.527	602.75
492.745	599.75
492.963	595.75
493.18	623.75
493.398	602.75
493.615	615.75
493.833	609.75
494.05	591.75
494.268	637.75
494.485	584.75
494.703	615.75
494.92	605.75
495.138	627.75
495.355	606.75
495.573	603.75
495.79	605.75
496.008	610.75
496.225	602.75
496.442	590.75
496.66	605.75
496.877	613.75
497.094	621.75
497.312	624.75
497.529	613.75
497.746	641.75
497.963	650.75
498.181	654.75
498.398	668.75
498.615	671.75
498.832	671.75
499.049	646.75
499.267	685.75
499.484	697.75
499.701	708.75
499.918	720.75
500.135	744.75
500.352	783.75
500.569	790.75
500.786	779.75
501.003	773.75
501.22	759.75
501.437	730.75
501.654	723.75
501.871	730.75
