Data from 1965.PennyLincolnUp.Lamp.En5.5.200Scan.071719.P1._HRD10591_14-08-04-911.txt Node
Date: Thu Jul 18 14:08:04 EDT 2019
User: cochatt
Spectrometer: HR+D1059
Trigger mode: 1
Integration Time (sec): 1.000000E-1
Scans to average: 1
Electric dark correction enabled: true
Nonlinearity correction enabled: false
Boxcar width: 0
XAxis mode: Wavelengths
Number of Pixels in Spectrum: 2048
>>>>>Begin Spectral Data<<<<<
223.165	-2.56
223.4	-2.56
223.635	-2.56
223.869	-34.56
224.104	-20.56
224.338	-15.56
224.573	-16.56
224.808	-13.56
225.042	-3.56
225.277	-9.56
225.511	9.44
225.746	6.44
225.98	6.44
226.215	-3.56
226.449	19.44
226.683	29.44
226.918	16.44
227.152	32.44
227.387	34.44
227.621	26.44
227.856	42.44
228.09	31.44
228.324	48.44
228.559	76.44
228.793	64.44
229.027	78.44
229.262	94.44
229.496	109.44
229.73	107.44
229.964	142.44
230.199	108.44
230.433	100.44
230.667	121.44
230.901	105.44
231.136	108.44
231.37	105.44
231.604	91.44
231.838	102.44
232.072	92.44
232.306	109.44
232.541	114.44
232.775	106.44
233.009	111.44
233.243	94.44
233.477	95.44
233.711	115.44
233.945	98.44
234.179	93.44
234.413	97.44
234.647	106.44
234.881	95.44
235.115	112.44
235.349	105.44
235.583	116.44
235.817	104.44
236.051	128.44
236.285	125.44
236.519	107.44
236.753	116.44
236.987	108.44
237.221	163.44
237.455	198.44
237.689	164.44
237.922	126.44
238.156	119.44
238.39	126.44
238.624	105.44
238.858	105.44
239.091	124.44
239.325	111.44
239.559	111.44
239.793	109.44
240.027	120.44
240.26	114.44
240.494	124.44
240.728	126.44
240.961	131.44
241.195	124.44
241.429	126.44
241.662	110.44
241.896	128.44
242.13	128.44
242.363	120.44
242.597	100.44
242.83	128.44
243.064	126.44
243.298	124.44
243.531	120.44
243.765	126.44
243.998	126.44
244.232	128.44
244.465	134.44
244.699	132.44
244.932	127.44
245.166	118.44
245.399	141.44
245.633	132.44
245.866	123.44
246.099	130.44
246.333	123.44
246.566	127.44
246.8	128.44
247.033	143.44
247.266	156.44
247.5	124.44
247.733	147.44
247.966	137.44
248.2	158.44
248.433	156.44
248.666	150.44
248.899	158.44
249.133	166.44
249.366	167.44
249.599	174.44
249.832	154.44
250.066	155.44
250.299	142.44
250.532	160.44
250.765	177.44
250.998	184.44
251.231	167.44
251.465	184.44
251.698	170.44
251.931	178.44
252.164	187.44
252.397	172.44
252.63	176.44
252.863	165.44
253.096	177.44
253.329	171.44
253.562	184.44
253.795	190.44
254.028	179.44
254.261	181.44
254.494	182.44
254.727	224.44
254.96	215.44
255.193	214.44
255.426	208.44
255.659	204.44
255.892	195.44
256.124	186.44
256.357	199.44
256.59	191.44
256.823	183.44
257.056	187.44
257.289	186.44
257.521	181.44
257.754	200.44
257.987	176.44
258.22	173.44
258.452	178.44
258.685	184.44
258.918	178.44
259.151	195.44
259.383	193.44
259.616	178.44
259.849	186.44
260.081	187.44
260.314	201.44
260.547	211.44
260.779	192.44
261.012	204.44
261.244	188.44
261.477	193.44
261.71	169.44
261.942	182.44
262.175	192.44
262.407	197.44
262.64	189.44
262.872	187.44
263.105	184.44
263.337	196.44
263.57	184.44
263.802	181.44
264.035	188.44
264.267	173.44
264.499	194.44
264.732	195.44
264.964	170.44
265.197	184.44
265.429	164.44
265.661	193.44
265.894	180.44
266.126	176.44
266.358	190.44
266.591	196.44
266.823	186.44
267.055	185.44
267.287	194.44
267.52	191.44
267.752	184.44
267.984	194.44
268.216	201.44
268.448	195.44
268.681	199.44
268.913	213.44
269.145	210.44
269.377	205.44
269.609	225.44
269.841	222.44
270.073	223.44
270.306	246.44
270.538	254.44
270.77	240.44
271.002	234.44
271.234	231.44
271.466	230.44
271.698	248.44
271.93	246.44
272.162	254.44
272.394	249.44
272.626	245.44
272.858	224.44
273.09	225.44
273.322	224.44
273.553	223.44
273.785	207.44
274.017	225.44
274.249	202.44
274.481	208.44
274.713	239.44
274.945	216.44
275.176	219.44
275.408	211.44
275.64	228.44
275.872	228.44
276.104	215.44
276.335	206.44
276.567	219.44
276.799	226.44
277.031	266.44
277.262	248.44
277.494	250.44
277.726	229.44
277.957	247.44
278.189	211.44
278.421	234.44
278.652	219.44
278.884	213.44
279.115	217.44
279.347	229.44
279.579	216.44
279.81	294.44
280.042	222.44
280.273	223.44
280.505	226.44
280.736	224.44
280.968	210.44
281.199	224.44
281.431	201.44
281.662	216.44
281.894	213.44
282.125	216.44
282.356	231.44
282.588	252.44
282.819	252.44
283.051	246.44
283.282	221.44
283.513	224.44
283.745	229.44
283.976	237.44
284.207	227.44
284.439	221.44
284.67	236.44
284.901	237.44
285.132	231.44
285.364	223.44
285.595	222.44
285.826	224.44
286.057	234.44
286.288	230.44
286.52	233.44
286.751	220.44
286.982	226.44
287.213	214.44
287.444	231.44
287.675	237.44
287.906	240.44
288.138	234.44
288.369	235.44
288.6	253.44
288.831	230.44
289.062	252.44
289.293	232.44
289.524	231.44
289.755	232.44
289.986	249.44
290.217	236.44
290.448	249.44
290.679	238.44
290.91	240.44
291.141	256.44
291.371	242.44
291.602	233.44
291.833	246.44
292.064	231.44
292.295	244.44
292.526	257.44
292.757	232.44
292.987	254.44
293.218	242.44
293.449	241.44
293.68	244.44
293.91	243.44
294.141	207.44
294.372	224.44
294.603	230.44
294.833	224.44
295.064	249.44
295.295	237.44
295.525	231.44
295.756	242.44
295.987	252.44
296.217	252.44
296.448	259.44
296.679	244.44
296.909	239.44
297.14	256.44
297.37	255.44
297.601	245.44
297.831	249.44
298.062	228.44
298.292	248.44
298.523	244.44
298.753	262.44
298.984	251.44
299.214	250.44
299.445	248.44
299.675	253.44
299.905	256.44
300.136	263.44
300.366	251.44
300.597	228.44
300.827	259.44
301.057	253.44
301.288	275.44
301.518	282.44
301.748	258.44
301.979	262.44
302.209	270.44
302.439	262.44
302.669	268.44
302.9	248.44
303.13	265.44
303.36	251.44
303.59	272.44
303.82	278.44
304.051	274.44
304.281	276.44
304.511	288.44
304.741	261.44
304.971	269.44
305.201	265.44
305.431	282.44
305.661	252.44
305.891	267.44
306.121	282.44
306.352	296.44
306.582	292.44
306.812	278.44
307.042	265.44
307.272	265.44
307.502	264.44
307.731	280.44
307.961	270.44
308.191	280.44
308.421	273.44
308.651	271.44
308.881	292.44
309.111	292.44
309.341	277.44
309.571	281.44
309.8	312.44
310.03	295.44
310.26	313.44
310.49	312.44
310.72	326.44
310.949	301.44
311.179	318.44
311.409	301.44
311.639	283.44
311.868	297.44
312.098	314.44
312.328	317.44
312.557	301.44
312.787	337.44
313.017	347.44
313.246	310.44
313.476	299.44
313.706	290.44
313.935	313.44
314.165	313.44
314.394	337.44
314.624	318.44
314.853	308.44
315.083	312.44
315.312	302.44
315.542	315.44
315.771	305.44
316.001	318.44
316.23	314.44
316.46	299.44
316.689	308.44
316.919	316.44
317.148	314.44
317.377	316.44
317.607	319.44
317.836	317.44
318.065	298.44
318.295	310.44
318.524	285.44
318.753	305.44
318.983	308.44
319.212	290.44
319.441	300.44
319.67	306.44
319.9	331.44
320.129	316.44
320.358	324.44
320.587	304.44
320.816	334.44
321.046	314.44
321.275	323.44
321.504	347.44
321.733	320.44
321.962	335.44
322.191	333.44
322.42	364.44
322.649	373.44
322.878	384.44
323.108	387.44
323.337	360.44
323.566	404.44
323.795	444.44
324.024	470.44
324.253	574.44
324.482	820.44
324.71	1227.44
324.939	1672.44
325.168	1388.44
325.397	733.44
325.626	518.44
325.855	445.44
326.084	414.44
326.313	402.44
326.542	412.44
326.77	465.44
326.999	534.44
327.228	719.44
327.457	1064.44
327.686	1241.44
327.914	842.44
328.143	565.44
328.372	485.44
328.6	475.44
328.829	443.44
329.058	449.44
329.287	465.44
329.515	449.44
329.744	429.44
329.972	392.44
330.201	428.44
330.43	459.44
330.658	482.44
330.887	496.44
331.115	474.44
331.344	408.44
331.572	403.44
331.801	392.44
332.03	392.44
332.258	369.44
332.486	384.44
332.715	354.44
332.943	375.44
333.172	365.44
333.4	380.44
333.629	378.44
333.857	381.44
334.085	382.44
334.314	407.44
334.542	432.44
334.771	417.44
334.999	392.44
335.227	380.44
335.455	368.44
335.684	374.44
335.912	344.44
336.14	350.44
336.369	353.44
336.597	358.44
336.825	351.44
337.053	369.44
337.281	351.44
337.51	354.44
337.738	361.44
337.966	370.44
338.194	344.44
338.422	373.44
338.65	365.44
338.878	350.44
339.106	333.44
339.334	329.44
339.562	347.44
339.79	344.44
340.018	354.44
340.246	357.44
340.474	351.44
340.702	353.44
340.93	346.44
341.158	343.44
341.386	360.44
341.614	364.44
341.842	340.44
342.07	331.44
342.298	344.44
342.526	357.44
342.754	332.44
342.981	320.44
343.209	325.44
343.437	339.44
343.665	346.44
343.893	340.44
344.12	338.44
344.348	355.44
344.576	352.44
344.804	361.44
345.031	367.44
345.259	354.44
345.487	344.44
345.714	348.44
345.942	352.44
346.17	336.44
346.397	344.44
346.625	327.44
346.853	336.44
347.08	339.44
347.308	343.44
347.535	341.44
347.763	340.44
347.99	327.44
348.218	338.44
348.445	344.44
348.673	358.44
348.9	338.44
349.128	346.44
349.355	334.44
349.583	330.44
349.81	335.44
350.037	338.44
350.265	335.44
350.492	334.44
350.72	312.44
350.947	336.44
351.174	357.44
351.402	338.44
351.629	338.44
351.856	325.44
352.083	364.44
352.311	360.44
352.538	373.44
352.765	353.44
352.992	348.44
353.22	337.44
353.447	336.44
353.674	323.44
353.901	342.44
354.128	335.44
354.355	324.44
354.583	311.44
354.81	317.44
355.037	310.44
355.264	321.44
355.491	315.44
355.718	312.44
355.945	309.44
356.172	328.44
356.399	311.44
356.626	295.44
356.853	294.44
357.08	310.44
357.307	311.44
357.534	313.44
357.761	311.44
357.988	293.44
358.215	296.44
358.441	323.44
358.668	331.44
358.895	320.44
359.122	341.44
359.349	337.44
359.576	344.44
359.802	353.44
360.029	386.44
360.256	389.44
360.483	377.44
360.709	372.44
360.936	349.44
361.163	327.44
361.39	346.44
361.616	339.44
361.843	335.44
362.07	350.44
362.296	350.44
362.523	338.44
362.749	334.44
362.976	342.44
363.203	331.44
363.429	330.44
363.656	320.44
363.882	330.44
364.109	325.44
364.335	316.44
364.562	331.44
364.788	334.44
365.015	338.44
365.241	335.44
365.468	330.44
365.694	358.44
365.92	354.44
366.147	325.44
366.373	312.44
366.599	322.44
366.826	322.44
367.052	325.44
367.278	327.44
367.505	332.44
367.731	324.44
367.957	334.44
368.184	313.44
368.41	314.44
368.636	344.44
368.862	337.44
369.089	327.44
369.315	326.44
369.541	319.44
369.767	343.44
369.993	345.44
370.219	326.44
370.445	340.44
370.672	316.44
370.898	314.44
371.124	330.44
371.35	339.44
371.576	334.44
371.802	325.44
372.028	325.44
372.254	318.44
372.48	333.44
372.706	322.44
372.932	310.44
373.158	334.44
373.384	314.44
373.61	340.44
373.835	350.44
374.061	327.44
374.287	328.44
374.513	336.44
374.739	351.44
374.965	319.44
375.191	318.44
375.416	347.44
375.642	338.44
375.868	341.44
376.094	338.44
376.319	316.44
376.545	327.44
376.771	329.44
376.997	314.44
377.222	308.44
377.448	320.44
377.674	306.44
377.899	297.44
378.125	331.44
378.35	324.44
378.576	303.44
378.802	319.44
379.027	328.44
379.253	330.44
379.478	325.44
379.704	305.44
379.929	330.44
380.155	342.44
380.38	320.44
380.606	337.44
380.831	326.44
381.057	329.44
381.282	328.44
381.507	314.44
381.733	330.44
381.958	321.44
382.184	335.44
382.409	310.44
382.634	338.44
382.86	337.44
383.085	333.44
383.31	333.44
383.535	349.44
383.761	332.44
383.986	316.44
384.211	323.44
384.436	335.44
384.662	340.44
384.887	342.44
385.112	332.44
385.337	361.44
385.562	336.44
385.787	330.44
386.013	372.44
386.238	358.44
386.463	362.44
386.688	342.44
386.913	338.44
387.138	347.44
387.363	361.44
387.588	348.44
387.813	336.44
388.038	356.44
388.263	335.44
388.488	337.44
388.713	342.44
388.938	349.44
389.163	357.44
389.387	365.44
389.612	355.44
389.837	341.44
390.062	352.44
390.287	347.44
390.512	366.44
390.736	361.44
390.961	353.44
391.186	361.44
391.411	364.44
391.636	349.44
391.86	350.44
392.085	361.44
392.31	374.44
392.534	384.44
392.759	374.44
392.984	367.44
393.208	386.44
393.433	355.44
393.658	374.44
393.882	354.44
394.107	351.44
394.331	367.44
394.556	353.44
394.78	358.44
395.005	351.44
395.229	363.44
395.454	365.44
395.678	361.44
395.903	391.44
396.127	389.44
396.352	385.44
396.576	366.44
396.801	369.44
397.025	365.44
397.249	375.44
397.474	384.44
397.698	370.44
397.922	392.44
398.147	398.44
398.371	385.44
398.595	375.44
398.82	390.44
399.044	395.44
399.268	401.44
399.492	416.44
399.717	439.44
399.941	460.44
400.165	472.44
400.389	456.44
400.613	448.44
400.837	429.44
401.062	413.44
401.286	403.44
401.51	384.44
401.734	396.44
401.958	409.44
402.182	407.44
402.406	405.44
402.63	416.44
402.854	402.44
403.078	398.44
403.302	402.44
403.526	416.44
403.75	422.44
403.974	418.44
404.198	413.44
404.422	403.44
404.645	400.44
404.869	422.44
405.093	445.44
405.317	470.44
405.541	481.44
405.765	438.44
405.988	445.44
406.212	441.44
406.436	454.44
406.66	460.44
406.883	452.44
407.107	458.44
407.331	472.44
407.555	527.44
407.778	535.44
408.002	477.44
408.226	470.44
408.449	450.44
408.673	440.44
408.896	448.44
409.12	480.44
409.344	459.44
409.567	444.44
409.791	415.44
410.014	416.44
410.238	394.44
410.461	398.44
410.685	405.44
410.908	423.44
411.132	438.44
411.355	469.44
411.578	455.44
411.802	442.44
412.025	414.44
412.249	415.44
412.472	436.44
412.695	446.44
412.919	440.44
413.142	410.44
413.365	402.44
413.589	417.44
413.812	392.44
414.035	404.44
414.258	397.44
414.482	403.44
414.705	370.44
414.928	379.44
415.151	373.44
415.374	377.44
415.597	386.44
415.821	380.44
416.044	386.44
416.267	402.44
416.49	393.44
416.713	375.44
416.936	380.44
417.159	393.44
417.382	394.44
417.605	373.44
417.828	410.44
418.051	417.44
418.274	391.44
418.497	385.44
418.72	396.44
418.943	371.44
419.166	405.44
419.389	423.44
419.611	424.44
419.834	384.44
420.057	436.44
420.28	412.44
420.503	397.44
420.726	401.44
420.948	410.44
421.171	438.44
421.394	463.44
421.617	420.44
421.839	402.44
422.062	408.44
422.285	411.44
422.507	442.44
422.73	500.44
422.953	494.44
423.175	434.44
423.398	413.44
423.621	428.44
423.843	433.44
424.066	422.44
424.288	434.44
424.511	445.44
424.733	479.44
424.956	552.44
425.178	528.44
425.401	526.44
425.623	545.44
425.846	445.44
426.068	430.44
426.291	429.44
426.513	445.44
426.735	444.44
426.958	487.44
427.18	542.44
427.402	620.44
427.625	671.44
427.847	628.44
428.069	519.44
428.292	456.44
428.514	422.44
428.736	416.44
428.958	424.44
429.181	408.44
429.403	403.44
429.625	392.44
429.847	440.44
430.069	488.44
430.292	472.44
430.514	407.44
430.736	400.44
430.958	404.44
431.18	390.44
431.402	391.44
431.624	382.44
431.846	381.44
432.068	397.44
432.29	406.44
432.512	390.44
432.734	403.44
432.956	384.44
433.178	378.44
433.4	381.44
433.622	405.44
433.844	411.44
434.066	383.44
434.287	391.44
434.509	405.44
434.731	407.44
434.953	396.44
435.175	394.44
435.397	423.44
435.618	450.44
435.84	482.44
436.062	528.44
436.284	585.44
436.505	485.44
436.727	457.44
436.949	424.44
437.17	423.44
437.392	415.44
437.614	414.44
437.835	449.44
438.057	512.44
438.278	609.44
438.5	602.44
438.721	636.44
438.943	606.44
439.165	502.44
439.386	456.44
439.608	420.44
439.829	455.44
440.05	469.44
440.272	464.44
440.493	450.44
440.715	436.44
440.936	438.44
441.158	410.44
441.379	414.44
441.6	406.44
441.822	438.44
442.043	458.44
442.264	537.44
442.486	550.44
442.707	481.44
442.928	428.44
443.149	454.44
443.371	452.44
443.592	497.44
443.813	554.44
444.034	584.44
444.255	488.44
444.476	448.44
444.698	434.44
444.919	430.44
445.14	552.44
445.361	488.44
445.582	466.44
445.803	521.44
446.024	586.44
446.245	590.44
446.466	527.44
446.687	463.44
446.908	454.44
447.129	422.44
447.35	425.44
447.571	421.44
447.792	409.44
448.013	411.44
448.234	420.44
448.455	458.44
448.675	538.44
448.896	618.44
449.117	538.44
449.338	519.44
449.559	580.44
449.779	643.44
450	543.44
450.221	440.44
450.442	433.44
450.662	423.44
450.883	391.44
451.104	424.44
451.324	417.44
451.545	392.44
451.766	386.44
451.986	380.44
452.207	345.44
452.428	372.44
452.648	371.44
452.869	360.44
453.089	376.44
453.31	391.44
453.53	393.44
453.751	370.44
453.971	366.44
454.192	390.44
454.412	375.44
454.633	341.44
454.853	366.44
455.073	383.44
455.294	376.44
455.514	438.44
455.734	432.44
455.955	368.44
456.175	368.44
456.395	360.44
456.616	347.44
456.836	350.44
457.056	338.44
457.276	329.44
457.497	335.44
457.717	348.44
457.937	358.44
458.157	363.44
458.377	351.44
458.598	380.44
458.818	454.44
459.038	464.44
459.258	470.44
459.478	426.44
459.698	386.44
459.918	391.44
460.138	412.44
460.358	386.44
460.578	390.44
460.798	402.44
461.018	397.44
461.238	396.44
461.458	380.44
461.678	386.44
461.898	382.44
462.118	376.44
462.338	401.44
462.558	388.44
462.777	430.44
462.997	414.44
463.217	405.44
463.437	421.44
463.657	417.44
463.876	408.44
464.096	388.44
464.316	410.44
464.536	425.44
464.755	420.44
464.975	419.44
465.195	449.44
465.414	518.44
465.634	466.44
465.854	422.44
466.073	389.44
466.293	373.44
466.512	383.44
466.732	382.44
466.951	370.44
467.171	396.44
467.391	374.44
467.61	385.44
467.829	373.44
468.049	378.44
468.268	384.44
468.488	392.44
468.707	374.44
468.927	369.44
469.146	352.44
469.365	364.44
469.585	348.44
469.804	389.44
470.023	376.44
470.243	380.44
470.462	393.44
470.681	400.44
470.901	388.44
471.12	389.44
471.339	386.44
471.558	407.44
471.777	397.44
471.997	398.44
472.216	377.44
472.435	406.44
472.654	396.44
472.873	378.44
473.092	390.44
473.311	393.44
473.53	406.44
473.749	378.44
473.968	416.44
474.187	500.44
474.406	528.44
474.625	457.44
474.844	400.44
475.063	403.44
475.282	385.44
475.501	387.44
475.72	389.44
475.939	385.44
476.158	409.44
476.377	429.44
476.596	373.44
476.814	406.44
477.033	425.44
477.252	408.44
477.471	396.44
477.69	392.44
477.908	407.44
478.127	436.44
478.346	396.44
478.564	415.44
478.783	437.44
479.002	425.44
479.22	428.44
479.439	434.44
479.658	451.44
479.876	463.44
480.095	455.44
480.313	490.44
480.532	487.44
480.751	464.44
480.969	462.44
481.188	522.44
481.406	534.44
481.624	476.44
481.843	488.44
482.061	474.44
482.28	476.44
482.498	463.44
482.717	453.44
482.935	445.44
483.153	426.44
483.372	458.44
483.59	452.44
483.808	462.44
484.027	467.44
484.245	469.44
484.463	442.44
484.681	469.44
484.9	463.44
485.118	462.44
485.336	464.44
485.554	471.44
485.772	480.44
485.99	469.44
486.209	475.44
486.427	454.44
486.645	482.44
486.863	494.44
487.081	513.44
487.299	476.44
487.517	475.44
487.735	482.44
487.953	499.44
488.171	484.44
488.389	472.44
488.607	488.44
488.825	485.44
489.043	473.44
489.261	491.44
489.479	523.44
489.696	468.44
489.914	482.44
490.132	492.44
490.35	509.44
490.568	512.44
490.786	499.44
491.003	516.44
491.221	505.44
491.439	530.44
491.657	550.44
491.874	520.44
492.092	541.44
492.31	543.44
492.527	550.44
492.745	550.44
492.963	545.44
493.18	566.44
493.398	548.44
493.615	564.44
493.833	536.44
494.05	572.44
494.268	564.44
494.485	560.44
494.703	546.44
494.92	546.44
495.138	544.44
495.355	589.44
495.573	578.44
495.79	561.44
496.008	545.44
496.225	553.44
496.442	558.44
496.66	581.44
496.877	552.44
497.094	562.44
497.312	559.44
497.529	592.44
497.746	580.44
497.963	598.44
498.181	618.44
498.398	598.44
498.615	632.44
498.832	644.44
499.049	660.44
499.267	664.44
499.484	677.44
499.701	678.44
499.918	686.44
500.135	688.44
500.352	729.44
500.569	746.44
500.786	755.44
501.003	737.44
501.22	714.44
501.437	702.44
501.654	706.44
501.871	677.44
502.088	688.44
