Data from 1965.PennyLincolnUp.Lamp.En5.5.200Scan.071719.P1._HRD10591_14-10-52-913.txt Node
Date: Thu Jul 18 14:10:52 EDT 2019
User: cochatt
Spectrometer: HR+D1059
Trigger mode: 1
Integration Time (sec): 1.000000E-1
Scans to average: 1
Electric dark correction enabled: true
Nonlinearity correction enabled: false
Boxcar width: 0
XAxis mode: Wavelengths
Number of Pixels in Spectrum: 2048
>>>>>Begin Spectral Data<<<<<
223.165	-30.06
223.4	-30.06
223.635	-30.06
223.869	-9.06
224.104	-17.06
224.338	-17.06
224.573	-7.06
224.808	-8.06
225.042	-10.06
225.277	-14.06
225.511	-7.06
225.746	11.94
225.98	13.94
226.215	12.94
226.449	8.94
226.683	9.94
226.918	36.94
227.152	24.94
227.387	35.94
227.621	39.94
227.856	33.94
228.09	39.94
228.324	52.94
228.559	46.94
228.793	70.94
229.027	76.94
229.262	110.94
229.496	98.94
229.73	121.94
229.964	151.94
230.199	116.94
230.433	121.94
230.667	107.94
230.901	101.94
231.136	101.94
231.37	100.94
231.604	108.94
231.838	105.94
232.072	96.94
232.306	96.94
232.541	104.94
232.775	108.94
233.009	102.94
233.243	113.94
233.477	109.94
233.711	108.94
233.945	107.94
234.179	110.94
234.413	120.94
234.647	113.94
234.881	107.94
235.115	116.94
235.349	106.94
235.583	123.94
235.817	115.94
236.051	123.94
236.285	115.94
236.519	110.94
236.753	123.94
236.987	146.94
237.221	180.94
237.455	216.94
237.689	181.94
237.922	124.94
238.156	131.94
238.39	131.94
238.624	126.94
238.858	115.94
239.091	114.94
239.325	113.94
239.559	129.94
239.793	125.94
240.027	124.94
240.26	142.94
240.494	143.94
240.728	149.94
240.961	135.94
241.195	139.94
241.429	138.94
241.662	128.94
241.896	129.94
242.13	110.94
242.363	123.94
242.597	147.94
242.83	125.94
243.064	127.94
243.298	134.94
243.531	137.94
243.765	140.94
243.998	126.94
244.232	126.94
244.465	139.94
244.699	135.94
244.932	127.94
245.166	143.94
245.399	127.94
245.633	127.94
245.866	139.94
246.099	125.94
246.333	133.94
246.566	137.94
246.8	138.94
247.033	137.94
247.266	136.94
247.5	147.94
247.733	162.94
247.966	155.94
248.2	154.94
248.433	161.94
248.666	162.94
248.899	168.94
249.133	178.94
249.366	196.94
249.599	183.94
249.832	169.94
250.066	181.94
250.299	168.94
250.532	169.94
250.765	190.94
250.998	197.94
251.231	221.94
251.465	205.94
251.698	184.94
251.931	186.94
252.164	174.94
252.397	172.94
252.63	182.94
252.863	180.94
253.096	199.94
253.329	216.94
253.562	216.94
253.795	193.94
254.028	184.94
254.261	197.94
254.494	213.94
254.727	225.94
254.96	244.94
255.193	238.94
255.426	215.94
255.659	225.94
255.892	215.94
256.124	218.94
256.357	207.94
256.59	204.94
256.823	202.94
257.056	190.94
257.289	188.94
257.521	186.94
257.754	178.94
257.987	192.94
258.22	192.94
258.452	184.94
258.685	197.94
258.918	197.94
259.151	205.94
259.383	194.94
259.616	208.94
259.849	210.94
260.081	209.94
260.314	230.94
260.547	231.94
260.779	218.94
261.012	208.94
261.244	204.94
261.477	195.94
261.71	182.94
261.942	206.94
262.175	226.94
262.407	210.94
262.64	198.94
262.872	199.94
263.105	191.94
263.337	204.94
263.57	211.94
263.802	191.94
264.035	174.94
264.267	202.94
264.499	189.94
264.732	196.94
264.964	187.94
265.197	195.94
265.429	187.94
265.661	205.94
265.894	203.94
266.126	203.94
266.358	174.94
266.591	201.94
266.823	206.94
267.055	207.94
267.287	197.94
267.52	204.94
267.752	207.94
267.984	205.94
268.216	213.94
268.448	218.94
268.681	209.94
268.913	226.94
269.145	250.94
269.377	242.94
269.609	242.94
269.841	242.94
270.073	238.94
270.306	283.94
270.538	283.94
270.77	285.94
271.002	276.94
271.234	281.94
271.466	265.94
271.698	274.94
271.93	291.94
272.162	286.94
272.394	271.94
272.626	270.94
272.858	277.94
273.09	271.94
273.322	263.94
273.553	253.94
273.785	217.94
274.017	247.94
274.249	226.94
274.481	245.94
274.713	249.94
274.945	235.94
275.176	230.94
275.408	231.94
275.64	234.94
275.872	242.94
276.104	241.94
276.335	227.94
276.567	253.94
276.799	271.94
277.031	289.94
277.262	306.94
277.494	291.94
277.726	300.94
277.957	270.94
278.189	262.94
278.421	225.94
278.652	241.94
278.884	257.94
279.115	238.94
279.347	244.94
279.579	232.94
279.81	263.94
280.042	224.94
280.273	267.94
280.505	249.94
280.736	245.94
280.968	233.94
281.199	233.94
281.431	236.94
281.662	227.94
281.894	232.94
282.125	235.94
282.356	257.94
282.588	274.94
282.819	284.94
283.051	265.94
283.282	222.94
283.513	241.94
283.745	238.94
283.976	253.94
284.207	255.94
284.439	250.94
284.67	242.94
284.901	264.94
285.132	241.94
285.364	243.94
285.595	244.94
285.826	242.94
286.057	265.94
286.288	240.94
286.52	253.94
286.751	227.94
286.982	242.94
287.213	235.94
287.444	261.94
287.675	242.94
287.906	265.94
288.138	270.94
288.369	273.94
288.6	263.94
288.831	246.94
289.062	256.94
289.293	257.94
289.524	254.94
289.755	242.94
289.986	253.94
290.217	245.94
290.448	237.94
290.679	253.94
290.91	254.94
291.141	254.94
291.371	245.94
291.602	253.94
291.833	264.94
292.064	251.94
292.295	269.94
292.526	263.94
292.757	261.94
292.987	252.94
293.218	250.94
293.449	261.94
293.68	261.94
293.91	259.94
294.141	259.94
294.372	258.94
294.603	266.94
294.833	252.94
295.064	245.94
295.295	255.94
295.525	268.94
295.756	269.94
295.987	272.94
296.217	289.94
296.448	310.94
296.679	270.94
296.909	267.94
297.14	272.94
297.37	263.94
297.601	284.94
297.831	291.94
298.062	281.94
298.292	273.94
298.523	282.94
298.753	286.94
298.984	280.94
299.214	263.94
299.445	273.94
299.675	278.94
299.905	257.94
300.136	285.94
300.366	265.94
300.597	272.94
300.827	282.94
301.057	289.94
301.288	294.94
301.518	298.94
301.748	291.94
301.979	284.94
302.209	293.94
302.439	307.94
302.669	299.94
302.9	300.94
303.13	292.94
303.36	284.94
303.59	296.94
303.82	301.94
304.051	295.94
304.281	279.94
304.511	282.94
304.741	290.94
304.971	290.94
305.201	290.94
305.431	270.94
305.661	301.94
305.891	298.94
306.121	294.94
306.352	299.94
306.582	313.94
306.812	299.94
307.042	288.94
307.272	288.94
307.502	293.94
307.731	295.94
307.961	292.94
308.191	307.94
308.421	289.94
308.651	291.94
308.881	321.94
309.111	307.94
309.341	309.94
309.571	320.94
309.8	340.94
310.03	319.94
310.26	338.94
310.49	341.94
310.72	344.94
310.949	355.94
311.179	354.94
311.409	333.94
311.639	326.94
311.868	356.94
312.098	341.94
312.328	359.94
312.557	367.94
312.787	378.94
313.017	373.94
313.246	362.94
313.476	336.94
313.706	345.94
313.935	341.94
314.165	331.94
314.394	369.94
314.624	358.94
314.853	350.94
315.083	345.94
315.312	349.94
315.542	347.94
315.771	332.94
316.001	326.94
316.23	333.94
316.46	356.94
316.689	338.94
316.919	335.94
317.148	360.94
317.377	344.94
317.607	330.94
317.836	356.94
318.065	361.94
318.295	362.94
318.524	336.94
318.753	330.94
318.983	357.94
319.212	349.94
319.441	349.94
319.67	353.94
319.9	342.94
320.129	333.94
320.358	346.94
320.587	339.94
320.816	354.94
321.046	377.94
321.275	371.94
321.504	384.94
321.733	383.94
321.962	375.94
322.191	397.94
322.42	405.94
322.649	409.94
322.878	434.94
323.108	438.94
323.337	460.94
323.566	474.94
323.795	498.94
324.024	565.94
324.253	732.94
324.482	1058.94
324.71	1622.94
324.939	2228.94
325.168	1893.94
325.397	986.94
325.626	647.94
325.855	549.94
326.084	513.94
326.313	487.94
326.542	502.94
326.77	544.94
326.999	686.94
327.228	947.94
327.457	1429.94
327.686	1646.94
327.914	1103.94
328.143	727.94
328.372	636.94
328.6	591.94
328.829	539.94
329.058	555.94
329.287	596.94
329.515	524.94
329.744	508.94
329.972	487.94
330.201	546.94
330.43	542.94
330.658	594.94
330.887	614.94
331.115	572.94
331.344	493.94
331.572	453.94
331.801	472.94
332.03	467.94
332.258	432.94
332.486	431.94
332.715	414.94
332.943	406.94
333.172	417.94
333.4	406.94
333.629	435.94
333.857	437.94
334.085	438.94
334.314	451.94
334.542	511.94
334.771	515.94
334.999	467.94
335.227	424.94
335.455	413.94
335.684	407.94
335.912	402.94
336.14	399.94
336.369	409.94
336.597	421.94
336.825	414.94
337.053	399.94
337.281	397.94
337.51	392.94
337.738	382.94
337.966	390.94
338.194	386.94
338.422	393.94
338.65	403.94
338.878	395.94
339.106	405.94
339.334	396.94
339.562	376.94
339.79	367.94
340.018	377.94
340.246	381.94
340.474	407.94
340.702	393.94
340.93	386.94
341.158	376.94
341.386	394.94
341.614	398.94
341.842	405.94
342.07	387.94
342.298	390.94
342.526	361.94
342.754	348.94
342.981	377.94
343.209	376.94
343.437	379.94
343.665	364.94
343.893	402.94
344.12	387.94
344.348	393.94
344.576	388.94
344.804	380.94
345.031	398.94
345.259	405.94
345.487	408.94
345.714	383.94
345.942	375.94
346.17	385.94
346.397	375.94
346.625	360.94
346.853	371.94
347.08	365.94
347.308	384.94
347.535	405.94
347.763	385.94
347.99	395.94
348.218	411.94
348.445	399.94
348.673	388.94
348.9	389.94
349.128	363.94
349.355	366.94
349.583	365.94
349.81	375.94
350.037	371.94
350.265	362.94
350.492	367.94
350.72	379.94
350.947	369.94
351.174	395.94
351.402	380.94
351.629	380.94
351.856	404.94
352.083	377.94
352.311	396.94
352.538	395.94
352.765	396.94
352.992	411.94
353.22	391.94
353.447	398.94
353.674	380.94
353.901	375.94
354.128	363.94
354.355	346.94
354.583	343.94
354.81	348.94
355.037	363.94
355.264	345.94
355.491	348.94
355.718	344.94
355.945	346.94
356.172	345.94
356.399	344.94
356.626	339.94
356.853	346.94
357.08	338.94
357.307	340.94
357.534	332.94
357.761	331.94
357.988	346.94
358.215	340.94
358.441	360.94
358.668	347.94
358.895	356.94
359.122	359.94
359.349	373.94
359.576	371.94
359.802	400.94
360.029	441.94
360.256	424.94
360.483	415.94
360.709	386.94
360.936	395.94
361.163	371.94
361.39	371.94
361.616	379.94
361.843	383.94
362.07	383.94
362.296	383.94
362.523	379.94
362.749	375.94
362.976	373.94
363.203	376.94
363.429	353.94
363.656	365.94
363.882	370.94
364.109	373.94
364.335	362.94
364.562	357.94
364.788	365.94
365.015	373.94
365.241	341.94
365.468	366.94
365.694	343.94
365.92	379.94
366.147	358.94
366.373	366.94
366.599	344.94
366.826	364.94
367.052	335.94
367.278	374.94
367.505	363.94
367.731	359.94
367.957	350.94
368.184	361.94
368.41	377.94
368.636	367.94
368.862	378.94
369.089	345.94
369.315	358.94
369.541	345.94
369.767	365.94
369.993	346.94
370.219	375.94
370.445	366.94
370.672	355.94
370.898	338.94
371.124	334.94
371.35	335.94
371.576	373.94
371.802	360.94
372.028	337.94
372.254	347.94
372.48	341.94
372.706	358.94
372.932	342.94
373.158	361.94
373.384	355.94
373.61	355.94
373.835	363.94
374.061	363.94
374.287	354.94
374.513	358.94
374.739	359.94
374.965	370.94
375.191	362.94
375.416	354.94
375.642	351.94
375.868	365.94
376.094	355.94
376.319	350.94
376.545	334.94
376.771	328.94
376.997	343.94
377.222	357.94
377.448	362.94
377.674	347.94
377.899	345.94
378.125	322.94
378.35	325.94
378.576	328.94
378.802	342.94
379.027	332.94
379.253	339.94
379.478	345.94
379.704	333.94
379.929	340.94
380.155	351.94
380.38	350.94
380.606	363.94
380.831	351.94
381.057	353.94
381.282	357.94
381.507	341.94
381.733	356.94
381.958	362.94
382.184	338.94
382.409	341.94
382.634	354.94
382.86	360.94
383.085	354.94
383.31	376.94
383.535	358.94
383.761	373.94
383.986	365.94
384.211	374.94
384.436	363.94
384.662	375.94
384.887	366.94
385.112	361.94
385.337	371.94
385.562	353.94
385.787	360.94
386.013	391.94
386.238	389.94
386.463	365.94
386.688	371.94
386.913	377.94
387.138	361.94
387.363	361.94
387.588	334.94
387.813	385.94
388.038	383.94
388.263	373.94
388.488	374.94
388.713	374.94
388.938	375.94
389.163	364.94
389.387	360.94
389.612	376.94
389.837	381.94
390.062	360.94
390.287	385.94
390.512	349.94
390.736	371.94
390.961	369.94
391.186	376.94
391.411	369.94
391.636	362.94
391.86	379.94
392.085	385.94
392.31	389.94
392.534	395.94
392.759	383.94
392.984	374.94
393.208	371.94
393.433	376.94
393.658	374.94
393.882	373.94
394.107	347.94
394.331	375.94
394.556	369.94
394.78	362.94
395.005	385.94
395.229	378.94
395.454	384.94
395.678	369.94
395.903	403.94
396.127	391.94
396.352	419.94
396.576	381.94
396.801	366.94
397.025	386.94
397.249	380.94
397.474	394.94
397.698	405.94
397.922	415.94
398.147	423.94
398.371	398.94
398.595	423.94
398.82	411.94
399.044	417.94
399.268	434.94
399.492	451.94
399.717	466.94
399.941	475.94
400.165	508.94
400.389	486.94
400.613	457.94
400.837	439.94
401.062	438.94
401.286	445.94
401.51	419.94
401.734	415.94
401.958	434.94
402.182	429.94
402.406	449.94
402.63	433.94
402.854	442.94
403.078	424.94
403.302	405.94
403.526	457.94
403.75	457.94
403.974	428.94
404.198	440.94
404.422	431.94
404.645	434.94
404.869	444.94
405.093	465.94
405.317	506.94
405.541	528.94
405.765	492.94
405.988	478.94
406.212	471.94
406.436	491.94
406.66	516.94
406.883	484.94
407.107	482.94
407.331	505.94
407.555	567.94
407.778	565.94
408.002	540.94
408.226	500.94
408.449	483.94
408.673	462.94
408.896	527.94
409.12	535.94
409.344	511.94
409.567	463.94
409.791	457.94
410.014	427.94
410.238	466.94
410.461	472.94
410.685	444.94
410.908	454.94
411.132	494.94
411.355	538.94
411.578	498.94
411.802	458.94
412.025	418.94
412.249	441.94
412.472	477.94
412.695	518.94
412.919	486.94
413.142	461.94
413.365	450.94
413.589	424.94
413.812	441.94
414.035	422.94
414.258	431.94
414.482	406.94
414.705	396.94
414.928	435.94
415.151	420.94
415.374	413.94
415.597	427.94
415.821	418.94
416.044	414.94
416.267	422.94
416.49	390.94
416.713	420.94
416.936	405.94
417.159	408.94
417.382	418.94
417.605	411.94
417.828	424.94
418.051	442.94
418.274	429.94
418.497	433.94
418.72	424.94
418.943	401.94
419.166	444.94
419.389	441.94
419.611	417.94
419.834	418.94
420.057	450.94
420.28	452.94
420.503	443.94
420.726	446.94
420.948	457.94
421.171	483.94
421.394	519.94
421.617	429.94
421.839	423.94
422.062	426.94
422.285	462.94
422.507	508.94
422.73	568.94
422.953	517.94
423.175	470.94
423.398	461.94
423.621	439.94
423.843	470.94
424.066	476.94
424.288	478.94
424.511	502.94
424.733	534.94
424.956	597.94
425.178	571.94
425.401	582.94
425.623	598.94
425.846	512.94
426.068	483.94
426.291	471.94
426.513	474.94
426.735	485.94
426.958	506.94
427.18	595.94
427.402	682.94
427.625	780.94
427.847	729.94
428.069	610.94
428.292	543.94
428.514	495.94
428.736	469.94
428.958	446.94
429.181	435.94
429.403	438.94
429.625	470.94
429.847	492.94
430.069	540.94
430.292	533.94
430.514	469.94
430.736	431.94
430.958	428.94
431.18	405.94
431.402	426.94
431.624	419.94
431.846	419.94
432.068	403.94
432.29	417.94
432.512	421.94
432.734	424.94
432.956	445.94
433.178	416.94
433.4	424.94
433.622	418.94
433.844	417.94
434.066	410.94
434.287	410.94
434.509	418.94
434.731	435.94
434.953	415.94
435.175	451.94
435.397	492.94
435.618	493.94
435.84	530.94
436.062	585.94
436.284	633.94
436.505	581.94
436.727	489.94
436.949	442.94
437.17	462.94
437.392	457.94
437.614	437.94
437.835	501.94
438.057	595.94
438.278	641.94
438.5	660.94
438.721	714.94
438.943	679.94
439.165	558.94
439.386	502.94
439.608	505.94
439.829	497.94
440.05	508.94
440.272	554.94
440.493	498.94
440.715	497.94
440.936	464.94
441.158	428.94
441.379	445.94
441.6	443.94
441.822	482.94
442.043	526.94
442.264	601.94
442.486	627.94
442.707	524.94
442.928	488.94
443.149	521.94
443.371	528.94
443.592	557.94
443.813	627.94
444.034	674.94
444.255	552.94
444.476	511.94
444.698	467.94
444.919	483.94
445.14	563.94
445.361	545.94
445.582	534.94
445.803	594.94
446.024	666.94
446.245	674.94
446.466	620.94
446.687	525.94
446.908	477.94
447.129	469.94
447.35	480.94
447.571	437.94
447.792	446.94
448.013	446.94
448.234	452.94
448.455	515.94
448.675	603.94
448.896	678.94
449.117	604.94
449.338	579.94
449.559	661.94
449.779	749.94
450	597.94
450.221	495.94
450.442	455.94
450.662	437.94
450.883	475.94
451.104	475.94
451.324	465.94
451.545	428.94
451.766	417.94
451.986	394.94
452.207	392.94
452.428	402.94
452.648	403.94
452.869	411.94
453.089	398.94
453.31	407.94
453.53	410.94
453.751	410.94
453.971	419.94
454.192	427.94
454.412	429.94
454.633	396.94
454.853	388.94
455.073	409.94
455.294	447.94
455.514	475.94
455.734	476.94
455.955	394.94
456.175	387.94
456.395	399.94
456.616	360.94
456.836	382.94
457.056	369.94
457.276	378.94
457.497	400.94
457.717	385.94
457.937	379.94
458.157	376.94
458.377	382.94
458.598	406.94
458.818	468.94
459.038	578.94
459.258	572.94
459.478	470.94
459.698	435.94
459.918	427.94
460.138	397.94
460.358	388.94
460.578	419.94
460.798	417.94
461.018	424.94
461.238	410.94
461.458	411.94
461.678	387.94
461.898	438.94
462.118	405.94
462.338	427.94
462.558	398.94
462.777	430.94
462.997	450.94
463.217	439.94
463.437	429.94
463.657	434.94
463.876	416.94
464.096	440.94
464.316	429.94
464.536	460.94
464.755	459.94
464.975	473.94
465.195	515.94
465.414	585.94
465.634	509.94
465.854	470.94
466.073	439.94
466.293	420.94
466.512	411.94
466.732	398.94
466.951	421.94
467.171	404.94
467.391	378.94
467.61	427.94
467.829	435.94
468.049	412.94
468.268	419.94
468.488	410.94
468.707	385.94
468.927	407.94
469.146	392.94
469.365	409.94
469.585	411.94
469.804	396.94
470.023	410.94
470.243	418.94
470.462	420.94
470.681	444.94
470.901	430.94
471.12	429.94
471.339	421.94
471.558	420.94
471.777	421.94
471.997	412.94
472.216	439.94
472.435	449.94
472.654	473.94
472.873	413.94
473.092	419.94
473.311	414.94
473.53	399.94
473.749	397.94
473.968	456.94
474.187	565.94
474.406	577.94
474.625	463.94
474.844	425.94
475.063	430.94
475.282	431.94
475.501	427.94
475.72	438.94
475.939	427.94
476.158	416.94
476.377	437.94
476.596	434.94
476.814	452.94
477.033	435.94
477.252	435.94
477.471	436.94
477.69	439.94
477.908	461.94
478.127	428.94
478.346	461.94
478.564	458.94
478.783	460.94
479.002	455.94
479.22	461.94
479.439	504.94
479.658	493.94
479.876	513.94
480.095	500.94
480.313	520.94
480.532	508.94
480.751	495.94
480.969	523.94
481.188	606.94
481.406	653.94
481.624	561.94
481.843	531.94
482.061	510.94
482.28	488.94
482.498	502.94
482.717	492.94
482.935	489.94
483.153	465.94
483.372	485.94
483.59	484.94
483.808	497.94
484.027	517.94
484.245	477.94
484.463	494.94
484.681	505.94
484.9	510.94
485.118	488.94
485.336	504.94
485.554	493.94
485.772	484.94
485.99	527.94
486.209	496.94
486.427	531.94
486.645	489.94
486.863	557.94
487.081	526.94
487.299	527.94
487.517	511.94
487.735	540.94
487.953	514.94
488.171	538.94
488.389	519.94
488.607	537.94
488.825	524.94
489.043	527.94
489.261	528.94
489.479	529.94
489.696	539.94
489.914	532.94
490.132	538.94
490.35	565.94
490.568	539.94
490.786	558.94
491.003	560.94
491.221	568.94
491.439	590.94
491.657	604.94
491.874	602.94
492.092	589.94
492.31	617.94
492.527	606.94
492.745	600.94
492.963	616.94
493.18	617.94
493.398	616.94
493.615	626.94
493.833	630.94
494.05	617.94
494.268	603.94
494.485	627.94
494.703	633.94
494.92	631.94
495.138	630.94
495.355	610.94
495.573	612.94
495.79	641.94
496.008	639.94
496.225	630.94
496.442	617.94
496.66	614.94
496.877	625.94
497.094	639.94
497.312	642.94
497.529	647.94
497.746	646.94
497.963	642.94
498.181	668.94
498.398	665.94
498.615	658.94
498.832	673.94
499.049	689.94
499.267	678.94
499.484	698.94
499.701	717.94
499.918	724.94
500.135	782.94
500.352	755.94
500.569	773.94
500.786	784.94
501.003	781.94
501.22	796.94
501.437	765.94
501.654	751.94
501.871	724.94
