Data from 1965.PennyLincolnUp.Lamp.En5.5.200Scan.071719.P1._HRD10591_14-10-07-912.txt Node
Date: Thu Jul 18 14:10:07 EDT 2019
User: cochatt
Spectrometer: HR+D1059
Trigger mode: 1
Integration Time (sec): 1.000000E-1
Scans to average: 1
Electric dark correction enabled: true
Nonlinearity correction enabled: false
Boxcar width: 0
XAxis mode: Wavelengths
Number of Pixels in Spectrum: 2048
>>>>>Begin Spectral Data<<<<<
223.165	-16.31
223.4	-16.31
223.635	-16.31
223.869	-10.31
224.104	-21.31
224.338	-12.31
224.573	-12.31
224.808	-16.31
225.042	-20.31
225.277	-6.31
225.511	-0.31
225.746	4.69
225.98	1.69
226.215	9.69
226.449	13.69
226.683	22.69
226.918	42.69
227.152	20.69
227.387	33.69
227.621	39.69
227.856	45.69
228.09	42.69
228.324	40.69
228.559	50.69
228.793	78.69
229.027	92.69
229.262	116.69
229.496	123.69
229.73	127.69
229.964	158.69
230.199	120.69
230.433	105.69
230.667	121.69
230.901	107.69
231.136	117.69
231.37	101.69
231.604	99.69
231.838	113.69
232.072	102.69
232.306	102.69
232.541	86.69
232.775	98.69
233.009	111.69
233.243	116.69
233.477	118.69
233.711	107.69
233.945	116.69
234.179	108.69
234.413	113.69
234.647	129.69
234.881	117.69
235.115	124.69
235.349	122.69
235.583	110.69
235.817	121.69
236.051	107.69
236.285	122.69
236.519	109.69
236.753	122.69
236.987	145.69
237.221	164.69
237.455	223.69
237.689	187.69
237.922	135.69
238.156	124.69
238.39	115.69
238.624	125.69
238.858	106.69
239.091	117.69
239.325	126.69
239.559	131.69
239.793	128.69
240.027	113.69
240.26	114.69
240.494	151.69
240.728	137.69
240.961	137.69
241.195	154.69
241.429	141.69
241.662	125.69
241.896	118.69
242.13	120.69
242.363	120.69
242.597	118.69
242.83	123.69
243.064	145.69
243.298	126.69
243.531	127.69
243.765	130.69
243.998	136.69
244.232	126.69
244.465	126.69
244.699	132.69
244.932	132.69
245.166	141.69
245.399	131.69
245.633	139.69
245.866	147.69
246.099	139.69
246.333	129.69
246.566	140.69
246.8	135.69
247.033	139.69
247.266	139.69
247.5	141.69
247.733	155.69
247.966	165.69
248.2	153.69
248.433	152.69
248.666	161.69
248.899	168.69
249.133	188.69
249.366	202.69
249.599	185.69
249.832	156.69
250.066	157.69
250.299	174.69
250.532	164.69
250.765	180.69
250.998	190.69
251.231	203.69
251.465	200.69
251.698	194.69
251.931	178.69
252.164	172.69
252.397	194.69
252.63	184.69
252.863	201.69
253.096	215.69
253.329	213.69
253.562	194.69
253.795	186.69
254.028	171.69
254.261	185.69
254.494	208.69
254.727	240.69
254.96	232.69
255.193	247.69
255.426	228.69
255.659	220.69
255.892	212.69
256.124	221.69
256.357	214.69
256.59	204.69
256.823	199.69
257.056	190.69
257.289	181.69
257.521	207.69
257.754	193.69
257.987	206.69
258.22	188.69
258.452	186.69
258.685	186.69
258.918	200.69
259.151	203.69
259.383	187.69
259.616	207.69
259.849	206.69
260.081	218.69
260.314	229.69
260.547	219.69
260.779	211.69
261.012	196.69
261.244	210.69
261.477	203.69
261.71	211.69
261.942	216.69
262.175	217.69
262.407	199.69
262.64	195.69
262.872	204.69
263.105	192.69
263.337	183.69
263.57	189.69
263.802	189.69
264.035	206.69
264.267	196.69
264.499	194.69
264.732	188.69
264.964	192.69
265.197	181.69
265.429	186.69
265.661	200.69
265.894	193.69
266.126	194.69
266.358	197.69
266.591	204.69
266.823	203.69
267.055	189.69
267.287	202.69
267.52	198.69
267.752	209.69
267.984	188.69
268.216	216.69
268.448	225.69
268.681	221.69
268.913	221.69
269.145	235.69
269.377	257.69
269.609	260.69
269.841	236.69
270.073	254.69
270.306	255.69
270.538	281.69
270.77	263.69
271.002	277.69
271.234	284.69
271.466	264.69
271.698	283.69
271.93	275.69
272.162	290.69
272.394	280.69
272.626	283.69
272.858	258.69
273.09	253.69
273.322	269.69
273.553	225.69
273.785	238.69
274.017	232.69
274.249	222.69
274.481	232.69
274.713	236.69
274.945	243.69
275.176	239.69
275.408	247.69
275.64	235.69
275.872	227.69
276.104	223.69
276.335	232.69
276.567	244.69
276.799	265.69
277.031	277.69
277.262	299.69
277.494	292.69
277.726	270.69
277.957	269.69
278.189	238.69
278.421	240.69
278.652	241.69
278.884	245.69
279.115	242.69
279.347	239.69
279.579	227.69
279.81	229.69
280.042	233.69
280.273	212.69
280.505	248.69
280.736	226.69
280.968	241.69
281.199	238.69
281.431	246.69
281.662	237.69
281.894	257.69
282.125	235.69
282.356	266.69
282.588	274.69
282.819	281.69
283.051	239.69
283.282	239.69
283.513	233.69
283.745	249.69
283.976	247.69
284.207	257.69
284.439	251.69
284.67	239.69
284.901	240.69
285.132	247.69
285.364	255.69
285.595	253.69
285.826	259.69
286.057	247.69
286.288	246.69
286.52	227.69
286.751	259.69
286.982	260.69
287.213	257.69
287.444	237.69
287.675	258.69
287.906	264.69
288.138	281.69
288.369	276.69
288.6	269.69
288.831	279.69
289.062	277.69
289.293	270.69
289.524	259.69
289.755	249.69
289.986	246.69
290.217	246.69
290.448	259.69
290.679	251.69
290.91	269.69
291.141	250.69
291.371	251.69
291.602	234.69
291.833	263.69
292.064	263.69
292.295	246.69
292.526	282.69
292.757	216.69
292.987	266.69
293.218	257.69
293.449	262.69
293.68	273.69
293.91	247.69
294.141	252.69
294.372	246.69
294.603	268.69
294.833	245.69
295.064	281.69
295.295	259.69
295.525	251.69
295.756	281.69
295.987	262.69
296.217	293.69
296.448	303.69
296.679	268.69
296.909	241.69
297.14	263.69
297.37	273.69
297.601	271.69
297.831	271.69
298.062	260.69
298.292	271.69
298.523	288.69
298.753	286.69
298.984	281.69
299.214	277.69
299.445	248.69
299.675	270.69
299.905	288.69
300.136	270.69
300.366	287.69
300.597	258.69
300.827	276.69
301.057	291.69
301.288	301.69
301.518	297.69
301.748	305.69
301.979	309.69
302.209	281.69
302.439	290.69
302.669	275.69
302.9	301.69
303.13	271.69
303.36	302.69
303.59	273.69
303.82	313.69
304.051	291.69
304.281	301.69
304.511	298.69
304.741	283.69
304.971	301.69
305.201	288.69
305.431	291.69
305.661	283.69
305.891	294.69
306.121	285.69
306.352	297.69
306.582	313.69
306.812	297.69
307.042	287.69
307.272	298.69
307.502	290.69
307.731	303.69
307.961	303.69
308.191	296.69
308.421	299.69
308.651	302.69
308.881	292.69
309.111	309.69
309.341	311.69
309.571	303.69
309.8	308.69
310.03	327.69
310.26	338.69
310.49	333.69
310.72	362.69
310.949	372.69
311.179	366.69
311.409	350.69
311.639	362.69
311.868	361.69
312.098	329.69
312.328	333.69
312.557	344.69
312.787	369.69
313.017	370.69
313.246	354.69
313.476	350.69
313.706	353.69
313.935	353.69
314.165	342.69
314.394	371.69
314.624	353.69
314.853	346.69
315.083	345.69
315.312	341.69
315.542	319.69
315.771	334.69
316.001	324.69
316.23	328.69
316.46	343.69
316.689	337.69
316.919	356.69
317.148	360.69
317.377	347.69
317.607	347.69
317.836	338.69
318.065	348.69
318.295	328.69
318.524	346.69
318.753	341.69
318.983	347.69
319.212	357.69
319.441	362.69
319.67	350.69
319.9	373.69
320.129	347.69
320.358	344.69
320.587	366.69
320.816	353.69
321.046	362.69
321.275	369.69
321.504	354.69
321.733	377.69
321.962	376.69
322.191	405.69
322.42	394.69
322.649	405.69
322.878	439.69
323.108	431.69
323.337	451.69
323.566	476.69
323.795	518.69
324.024	556.69
324.253	705.69
324.482	1023.69
324.71	1582.69
324.939	2193.69
325.168	1795.69
325.397	953.69
325.626	656.69
325.855	553.69
326.084	489.69
326.313	481.69
326.542	489.69
326.77	556.69
326.999	643.69
327.228	926.69
327.457	1347.69
327.686	1591.69
327.914	1059.69
328.143	719.69
328.372	625.69
328.6	565.69
328.829	542.69
329.058	556.69
329.287	581.69
329.515	541.69
329.744	519.69
329.972	491.69
330.201	519.69
330.43	567.69
330.658	580.69
330.887	581.69
331.115	571.69
331.344	498.69
331.572	447.69
331.801	456.69
332.03	453.69
332.258	458.69
332.486	420.69
332.715	415.69
332.943	407.69
333.172	403.69
333.4	411.69
333.629	428.69
333.857	442.69
334.085	461.69
334.314	476.69
334.542	501.69
334.771	511.69
334.999	459.69
335.227	417.69
335.455	413.69
335.684	419.69
335.912	414.69
336.14	404.69
336.369	379.69
336.597	383.69
336.825	399.69
337.053	395.69
337.281	395.69
337.51	378.69
337.738	398.69
337.966	392.69
338.194	398.69
338.422	385.69
338.65	397.69
338.878	394.69
339.106	370.69
339.334	390.69
339.562	388.69
339.79	396.69
340.018	384.69
340.246	391.69
340.474	407.69
340.702	396.69
340.93	385.69
341.158	382.69
341.386	389.69
341.614	386.69
341.842	386.69
342.07	354.69
342.298	364.69
342.526	364.69
342.754	363.69
342.981	361.69
343.209	367.69
343.437	366.69
343.665	382.69
343.893	399.69
344.12	381.69
344.348	382.69
344.576	401.69
344.804	380.69
345.031	399.69
345.259	398.69
345.487	395.69
345.714	393.69
345.942	372.69
346.17	371.69
346.397	363.69
346.625	369.69
346.853	377.69
347.08	393.69
347.308	375.69
347.535	413.69
347.763	391.69
347.99	385.69
348.218	366.69
348.445	382.69
348.673	389.69
348.9	395.69
349.128	368.69
349.355	363.69
349.583	372.69
349.81	363.69
350.037	369.69
350.265	350.69
350.492	364.69
350.72	365.69
350.947	379.69
351.174	377.69
351.402	382.69
351.629	384.69
351.856	396.69
352.083	398.69
352.311	390.69
352.538	399.69
352.765	393.69
352.992	394.69
353.22	387.69
353.447	357.69
353.674	358.69
353.901	345.69
354.128	354.69
354.355	350.69
354.583	370.69
354.81	349.69
355.037	353.69
355.264	336.69
355.491	353.69
355.718	353.69
355.945	336.69
356.172	345.69
356.399	341.69
356.626	356.69
356.853	334.69
357.08	330.69
357.307	342.69
357.534	355.69
357.761	347.69
357.988	340.69
358.215	355.69
358.441	360.69
358.668	350.69
358.895	346.69
359.122	347.69
359.349	362.69
359.576	391.69
359.802	394.69
360.029	447.69
360.256	445.69
360.483	435.69
360.709	394.69
360.936	378.69
361.163	366.69
361.39	381.69
361.616	383.69
361.843	362.69
362.07	360.69
362.296	379.69
362.523	371.69
362.749	341.69
362.976	385.69
363.203	378.69
363.429	373.69
363.656	371.69
363.882	355.69
364.109	354.69
364.335	346.69
364.562	351.69
364.788	367.69
365.015	344.69
365.241	375.69
365.468	362.69
365.694	364.69
365.92	366.69
366.147	342.69
366.373	350.69
366.599	349.69
366.826	353.69
367.052	351.69
367.278	354.69
367.505	353.69
367.731	349.69
367.957	352.69
368.184	354.69
368.41	366.69
368.636	365.69
368.862	356.69
369.089	339.69
369.315	330.69
369.541	349.69
369.767	349.69
369.993	332.69
370.219	348.69
370.445	352.69
370.672	342.69
370.898	333.69
371.124	348.69
371.35	334.69
371.576	350.69
371.802	339.69
372.028	345.69
372.254	346.69
372.48	342.69
372.706	349.69
372.932	343.69
373.158	340.69
373.384	352.69
373.61	347.69
373.835	327.69
374.061	339.69
374.287	358.69
374.513	351.69
374.739	378.69
374.965	347.69
375.191	343.69
375.416	365.69
375.642	348.69
375.868	358.69
376.094	357.69
376.319	367.69
376.545	352.69
376.771	339.69
376.997	343.69
377.222	354.69
377.448	343.69
377.674	355.69
377.899	339.69
378.125	326.69
378.35	332.69
378.576	343.69
378.802	349.69
379.027	355.69
379.253	344.69
379.478	337.69
379.704	344.69
379.929	355.69
380.155	367.69
380.38	357.69
380.606	338.69
380.831	357.69
381.057	342.69
381.282	341.69
381.507	329.69
381.733	349.69
381.958	362.69
382.184	351.69
382.409	345.69
382.634	349.69
382.86	343.69
383.085	349.69
383.31	334.69
383.535	356.69
383.761	362.69
383.986	352.69
384.211	357.69
384.436	349.69
384.662	365.69
384.887	377.69
385.112	364.69
385.337	361.69
385.562	363.69
385.787	378.69
386.013	379.69
386.238	373.69
386.463	391.69
386.688	367.69
386.913	359.69
387.138	351.69
387.363	370.69
387.588	373.69
387.813	370.69
388.038	388.69
388.263	356.69
388.488	370.69
388.713	373.69
388.938	355.69
389.163	381.69
389.387	383.69
389.612	354.69
389.837	359.69
390.062	369.69
390.287	369.69
390.512	373.69
390.736	364.69
390.961	381.69
391.186	383.69
391.411	383.69
391.636	375.69
391.86	392.69
392.085	347.69
392.31	377.69
392.534	369.69
392.759	375.69
392.984	378.69
393.208	386.69
393.433	374.69
393.658	380.69
393.882	383.69
394.107	386.69
394.331	371.69
394.556	365.69
394.78	362.69
395.005	364.69
395.229	379.69
395.454	375.69
395.678	365.69
395.903	413.69
396.127	413.69
396.352	412.69
396.576	394.69
396.801	387.69
397.025	387.69
397.249	389.69
397.474	398.69
397.698	396.69
397.922	395.69
398.147	415.69
398.371	427.69
398.595	405.69
398.82	410.69
399.044	421.69
399.268	426.69
399.492	444.69
399.717	468.69
399.941	467.69
400.165	506.69
400.389	505.69
400.613	471.69
400.837	443.69
401.062	439.69
401.286	441.69
401.51	408.69
401.734	413.69
401.958	440.69
402.182	431.69
402.406	444.69
402.63	439.69
402.854	435.69
403.078	430.69
403.302	433.69
403.526	457.69
403.75	423.69
403.974	411.69
404.198	423.69
404.422	452.69
404.645	451.69
404.869	461.69
405.093	470.69
405.317	518.69
405.541	522.69
405.765	492.69
405.988	473.69
406.212	463.69
406.436	484.69
406.66	515.69
406.883	485.69
407.107	492.69
407.331	522.69
407.555	555.69
407.778	563.69
408.002	541.69
408.226	491.69
408.449	496.69
408.673	470.69
408.896	501.69
409.12	524.69
409.344	508.69
409.567	474.69
409.791	425.69
410.014	446.69
410.238	425.69
410.461	443.69
410.685	434.69
410.908	467.69
411.132	490.69
411.355	509.69
411.578	513.69
411.802	442.69
412.025	438.69
412.249	447.69
412.472	474.69
412.695	494.69
412.919	494.69
413.142	437.69
413.365	428.69
413.589	439.69
413.812	450.69
414.035	421.69
414.258	435.69
414.482	426.69
414.705	419.69
414.928	420.69
415.151	408.69
415.374	398.69
415.597	407.69
415.821	393.69
416.044	411.69
416.267	436.69
416.49	381.69
416.713	391.69
416.936	394.69
417.159	419.69
417.382	412.69
417.605	410.69
417.828	423.69
418.051	441.69
418.274	439.69
418.497	425.69
418.72	419.69
418.943	404.69
419.166	451.69
419.389	430.69
419.611	437.69
419.834	452.69
420.057	463.69
420.28	423.69
420.503	423.69
420.726	442.69
420.948	461.69
421.171	472.69
421.394	504.69
421.617	452.69
421.839	399.69
422.062	439.69
422.285	433.69
422.507	492.69
422.73	550.69
422.953	518.69
423.175	475.69
423.398	453.69
423.621	449.69
423.843	461.69
424.066	451.69
424.288	464.69
424.511	497.69
424.733	545.69
424.956	588.69
425.178	570.69
425.401	566.69
425.623	618.69
425.846	515.69
426.068	472.69
426.291	471.69
426.513	467.69
426.735	485.69
426.958	550.69
427.18	611.69
427.402	684.69
427.625	766.69
427.847	686.69
428.069	600.69
428.292	540.69
428.514	494.69
428.736	461.69
428.958	471.69
429.181	446.69
429.403	449.69
429.625	448.69
429.847	489.69
430.069	536.69
430.292	547.69
430.514	454.69
430.736	448.69
430.958	429.69
431.18	423.69
431.402	449.69
431.624	408.69
431.846	424.69
432.068	413.69
432.29	415.69
432.512	407.69
432.734	438.69
432.956	437.69
433.178	419.69
433.4	446.69
433.622	410.69
433.844	425.69
434.066	410.69
434.287	401.69
434.509	431.69
434.731	417.69
434.953	422.69
435.175	437.69
435.397	483.69
435.618	493.69
435.84	512.69
436.062	603.69
436.284	636.69
436.505	547.69
436.727	466.69
436.949	454.69
437.17	419.69
437.392	445.69
437.614	457.69
437.835	504.69
438.057	587.69
438.278	645.69
438.5	679.69
438.721	718.69
438.943	665.69
439.165	567.69
439.386	497.69
439.608	482.69
439.829	493.69
440.05	543.69
440.272	557.69
440.493	520.69
440.715	460.69
440.936	471.69
441.158	453.69
441.379	462.69
441.6	468.69
441.822	507.69
442.043	495.69
442.264	574.69
442.486	614.69
442.707	557.69
442.928	521.69
443.149	501.69
443.371	523.69
443.592	554.69
443.813	625.69
444.034	663.69
444.255	558.69
444.476	491.69
444.698	471.69
444.919	463.69
445.14	574.69
445.361	535.69
445.582	532.69
445.803	598.69
446.024	678.69
446.245	675.69
446.466	617.69
446.687	533.69
446.908	480.69
447.129	456.69
447.35	436.69
447.571	468.69
447.792	451.69
448.013	457.69
448.234	474.69
448.455	519.69
448.675	627.69
448.896	700.69
449.117	594.69
449.338	568.69
449.559	653.69
449.779	732.69
450	581.69
450.221	490.69
450.442	458.69
450.662	463.69
450.883	462.69
451.104	461.69
451.324	456.69
451.545	429.69
451.766	420.69
451.986	393.69
452.207	406.69
452.428	398.69
452.648	413.69
452.869	387.69
453.089	423.69
453.31	433.69
453.53	417.69
453.751	403.69
453.971	418.69
454.192	441.69
454.412	415.69
454.633	391.69
454.853	403.69
455.073	410.69
455.294	425.69
455.514	468.69
455.734	499.69
455.955	407.69
456.175	377.69
456.395	380.69
456.616	374.69
456.836	364.69
457.056	370.69
457.276	366.69
457.497	381.69
457.717	379.69
457.937	374.69
458.157	396.69
458.377	395.69
458.598	430.69
458.818	461.69
459.038	547.69
459.258	573.69
459.478	493.69
459.698	430.69
459.918	434.69
460.138	418.69
460.358	391.69
460.578	422.69
460.798	401.69
461.018	408.69
461.238	421.69
461.458	421.69
461.678	403.69
461.898	418.69
462.118	407.69
462.338	414.69
462.558	443.69
462.777	427.69
462.997	442.69
463.217	427.69
463.437	449.69
463.657	420.69
463.876	442.69
464.096	451.69
464.316	429.69
464.536	467.69
464.755	459.69
464.975	478.69
465.195	513.69
465.414	595.69
465.634	486.69
465.854	462.69
466.073	431.69
466.293	433.69
466.512	426.69
466.732	389.69
466.951	422.69
467.171	396.69
467.391	403.69
467.61	429.69
467.829	422.69
468.049	445.69
468.268	424.69
468.488	411.69
468.707	405.69
468.927	404.69
469.146	396.69
469.365	394.69
469.585	407.69
469.804	412.69
470.023	412.69
470.243	425.69
470.462	422.69
470.681	429.69
470.901	423.69
471.12	410.69
471.339	414.69
471.558	424.69
471.777	433.69
471.997	417.69
472.216	413.69
472.435	479.69
472.654	455.69
472.873	437.69
473.092	409.69
473.311	394.69
473.53	395.69
473.749	437.69
473.968	465.69
474.187	545.69
474.406	569.69
474.625	472.69
474.844	425.69
475.063	438.69
475.282	428.69
475.501	418.69
475.72	437.69
475.939	421.69
476.158	399.69
476.377	434.69
476.596	435.69
476.814	455.69
477.033	443.69
477.252	452.69
477.471	442.69
477.69	447.69
477.908	446.69
478.127	448.69
478.346	434.69
478.564	431.69
478.783	444.69
479.002	468.69
479.22	471.69
479.439	479.69
479.658	504.69
479.876	492.69
480.095	522.69
480.313	539.69
480.532	525.69
480.751	517.69
480.969	542.69
481.188	612.69
481.406	640.69
481.624	552.69
481.843	516.69
482.061	502.69
482.28	506.69
482.498	487.69
482.717	486.69
482.935	469.69
483.153	497.69
483.372	480.69
483.59	480.69
483.808	484.69
484.027	486.69
484.245	500.69
484.463	478.69
484.681	494.69
484.9	505.69
485.118	515.69
485.336	497.69
485.554	506.69
485.772	498.69
485.99	498.69
486.209	521.69
486.427	533.69
486.645	521.69
486.863	539.69
487.081	543.69
487.299	526.69
487.517	515.69
487.735	517.69
487.953	514.69
488.171	534.69
488.389	535.69
488.607	516.69
488.825	542.69
489.043	543.69
489.261	542.69
489.479	536.69
489.696	545.69
489.914	527.69
490.132	567.69
490.35	580.69
490.568	546.69
490.786	566.69
491.003	579.69
491.221	563.69
491.439	582.69
491.657	580.69
491.874	584.69
492.092	611.69
492.31	609.69
492.527	592.69
492.745	591.69
492.963	638.69
493.18	640.69
493.398	627.69
493.615	616.69
493.833	638.69
494.05	613.69
494.268	633.69
494.485	620.69
494.703	616.69
494.92	621.69
495.138	615.69
495.355	615.69
495.573	611.69
495.79	644.69
496.008	646.69
496.225	616.69
496.442	638.69
496.66	646.69
496.877	637.69
497.094	636.69
497.312	634.69
497.529	651.69
497.746	645.69
497.963	663.69
498.181	662.69
498.398	654.69
498.615	647.69
498.832	670.69
499.049	691.69
499.267	696.69
499.484	725.69
499.701	736.69
499.918	731.69
500.135	770.69
500.352	783.69
500.569	770.69
500.786	817.69
501.003	804.69
501.22	777.69
501.437	739.69
501.654	749.69
501.871	777.69
