Data from 1965.PennyLincolnUp.Lamp.En5.5.200Scan.071719.P1._HRD10591_14-10-13-912.txt Node
Date: Thu Jul 18 14:10:13 EDT 2019
User: cochatt
Spectrometer: HR+D1059
Trigger mode: 1
Integration Time (sec): 1.000000E-1
Scans to average: 1
Electric dark correction enabled: true
Nonlinearity correction enabled: false
Boxcar width: 0
XAxis mode: Wavelengths
Number of Pixels in Spectrum: 2048
>>>>>Begin Spectral Data<<<<<
223.165	-26.75
223.4	-26.75
223.635	-26.75
223.869	-20.75
224.104	-29.75
224.338	-2.75
224.573	-19.75
224.808	-9.75
225.042	-1.75
225.277	1.25
225.511	-5.75
225.746	-2.75
225.98	19.25
226.215	6.25
226.449	8.25
226.683	28.25
226.918	25.25
227.152	31.25
227.387	45.25
227.621	39.25
227.856	52.25
228.09	40.25
228.324	36.25
228.559	41.25
228.793	65.25
229.027	87.25
229.262	100.25
229.496	119.25
229.73	135.25
229.964	141.25
230.199	123.25
230.433	110.25
230.667	110.25
230.901	106.25
231.136	109.25
231.37	96.25
231.604	101.25
231.838	94.25
232.072	107.25
232.306	116.25
232.541	123.25
232.775	117.25
233.009	113.25
233.243	92.25
233.477	99.25
233.711	103.25
233.945	103.25
234.179	128.25
234.413	113.25
234.647	115.25
234.881	108.25
235.115	109.25
235.349	109.25
235.583	114.25
235.817	109.25
236.051	114.25
236.285	125.25
236.519	112.25
236.753	129.25
236.987	133.25
237.221	181.25
237.455	219.25
237.689	170.25
237.922	133.25
238.156	115.25
238.39	111.25
238.624	116.25
238.858	123.25
239.091	112.25
239.325	115.25
239.559	123.25
239.793	125.25
240.027	111.25
240.26	117.25
240.494	162.25
240.728	140.25
240.961	142.25
241.195	142.25
241.429	145.25
241.662	125.25
241.896	125.25
242.13	136.25
242.363	125.25
242.597	125.25
242.83	122.25
243.064	117.25
243.298	130.25
243.531	132.25
243.765	136.25
243.998	124.25
244.232	127.25
244.465	131.25
244.699	133.25
244.932	129.25
245.166	114.25
245.399	150.25
245.633	126.25
245.866	131.25
246.099	123.25
246.333	120.25
246.566	137.25
246.8	156.25
247.033	138.25
247.266	140.25
247.5	152.25
247.733	150.25
247.966	154.25
248.2	169.25
248.433	157.25
248.666	156.25
248.899	173.25
249.133	190.25
249.366	193.25
249.599	181.25
249.832	160.25
250.066	176.25
250.299	161.25
250.532	158.25
250.765	203.25
250.998	191.25
251.231	204.25
251.465	185.25
251.698	167.25
251.931	177.25
252.164	177.25
252.397	182.25
252.63	192.25
252.863	197.25
253.096	193.25
253.329	211.25
253.562	193.25
253.795	203.25
254.028	189.25
254.261	204.25
254.494	212.25
254.727	230.25
254.96	265.25
255.193	239.25
255.426	241.25
255.659	216.25
255.892	209.25
256.124	210.25
256.357	201.25
256.59	222.25
256.823	215.25
257.056	189.25
257.289	188.25
257.521	199.25
257.754	186.25
257.987	183.25
258.22	207.25
258.452	195.25
258.685	190.25
258.918	178.25
259.151	189.25
259.383	204.25
259.616	202.25
259.849	207.25
260.081	211.25
260.314	222.25
260.547	234.25
260.779	211.25
261.012	203.25
261.244	216.25
261.477	204.25
261.71	199.25
261.942	200.25
262.175	212.25
262.407	217.25
262.64	186.25
262.872	205.25
263.105	192.25
263.337	196.25
263.57	200.25
263.802	196.25
264.035	189.25
264.267	191.25
264.499	182.25
264.732	187.25
264.964	171.25
265.197	204.25
265.429	202.25
265.661	186.25
265.894	204.25
266.126	210.25
266.358	198.25
266.591	183.25
266.823	208.25
267.055	212.25
267.287	200.25
267.52	189.25
267.752	204.25
267.984	195.25
268.216	218.25
268.448	221.25
268.681	215.25
268.913	225.25
269.145	231.25
269.377	247.25
269.609	253.25
269.841	241.25
270.073	245.25
270.306	267.25
270.538	279.25
270.77	283.25
271.002	280.25
271.234	265.25
271.466	278.25
271.698	279.25
271.93	291.25
272.162	279.25
272.394	282.25
272.626	254.25
272.858	246.25
273.09	239.25
273.322	269.25
273.553	246.25
273.785	235.25
274.017	232.25
274.249	229.25
274.481	236.25
274.713	253.25
274.945	253.25
275.176	222.25
275.408	238.25
275.64	226.25
275.872	236.25
276.104	237.25
276.335	243.25
276.567	251.25
276.799	285.25
277.031	266.25
277.262	279.25
277.494	291.25
277.726	272.25
277.957	238.25
278.189	255.25
278.421	255.25
278.652	261.25
278.884	253.25
279.115	241.25
279.347	253.25
279.579	252.25
279.81	245.25
280.042	243.25
280.273	227.25
280.505	231.25
280.736	247.25
280.968	244.25
281.199	221.25
281.431	238.25
281.662	234.25
281.894	246.25
282.125	255.25
282.356	259.25
282.588	271.25
282.819	278.25
283.051	257.25
283.282	231.25
283.513	245.25
283.745	247.25
283.976	244.25
284.207	249.25
284.439	221.25
284.67	234.25
284.901	251.25
285.132	257.25
285.364	228.25
285.595	238.25
285.826	237.25
286.057	257.25
286.288	254.25
286.52	239.25
286.751	229.25
286.982	253.25
287.213	235.25
287.444	246.25
287.675	268.25
287.906	251.25
288.138	262.25
288.369	270.25
288.6	279.25
288.831	265.25
289.062	257.25
289.293	266.25
289.524	236.25
289.755	264.25
289.986	254.25
290.217	253.25
290.448	259.25
290.679	261.25
290.91	247.25
291.141	248.25
291.371	263.25
291.602	265.25
291.833	235.25
292.064	243.25
292.295	264.25
292.526	238.25
292.757	246.25
292.987	263.25
293.218	232.25
293.449	259.25
293.68	251.25
293.91	251.25
294.141	254.25
294.372	263.25
294.603	248.25
294.833	261.25
295.064	266.25
295.295	247.25
295.525	250.25
295.756	257.25
295.987	263.25
296.217	290.25
296.448	299.25
296.679	267.25
296.909	247.25
297.14	279.25
297.37	273.25
297.601	283.25
297.831	267.25
298.062	266.25
298.292	269.25
298.523	286.25
298.753	272.25
298.984	266.25
299.214	264.25
299.445	260.25
299.675	269.25
299.905	279.25
300.136	264.25
300.366	274.25
300.597	269.25
300.827	282.25
301.057	310.25
301.288	277.25
301.518	270.25
301.748	287.25
301.979	283.25
302.209	316.25
302.439	297.25
302.669	289.25
302.9	286.25
303.13	284.25
303.36	299.25
303.59	309.25
303.82	297.25
304.051	306.25
304.281	294.25
304.511	271.25
304.741	285.25
304.971	269.25
305.201	282.25
305.431	276.25
305.661	312.25
305.891	287.25
306.121	281.25
306.352	298.25
306.582	296.25
306.812	289.25
307.042	294.25
307.272	289.25
307.502	281.25
307.731	294.25
307.961	313.25
308.191	296.25
308.421	287.25
308.651	301.25
308.881	292.25
309.111	311.25
309.341	328.25
309.571	314.25
309.8	328.25
310.03	339.25
310.26	326.25
310.49	337.25
310.72	347.25
310.949	364.25
311.179	359.25
311.409	349.25
311.639	339.25
311.868	338.25
312.098	344.25
312.328	358.25
312.557	372.25
312.787	373.25
313.017	372.25
313.246	365.25
313.476	345.25
313.706	345.25
313.935	344.25
314.165	360.25
314.394	372.25
314.624	371.25
314.853	360.25
315.083	345.25
315.312	342.25
315.542	331.25
315.771	340.25
316.001	347.25
316.23	342.25
316.46	332.25
316.689	312.25
316.919	333.25
317.148	355.25
317.377	354.25
317.607	355.25
317.836	350.25
318.065	349.25
318.295	328.25
318.524	335.25
318.753	337.25
318.983	333.25
319.212	338.25
319.441	342.25
319.67	353.25
319.9	338.25
320.129	353.25
320.358	337.25
320.587	355.25
320.816	338.25
321.046	361.25
321.275	369.25
321.504	345.25
321.733	377.25
321.962	375.25
322.191	397.25
322.42	426.25
322.649	416.25
322.878	406.25
323.108	423.25
323.337	472.25
323.566	469.25
323.795	517.25
324.024	554.25
324.253	669.25
324.482	1027.25
324.71	1577.25
324.939	2155.25
325.168	1751.25
325.397	937.25
325.626	624.25
325.855	524.25
326.084	486.25
326.313	487.25
326.542	468.25
326.77	525.25
326.999	638.25
327.228	914.25
327.457	1372.25
327.686	1596.25
327.914	1047.25
328.143	699.25
328.372	619.25
328.6	588.25
328.829	539.25
329.058	550.25
329.287	566.25
329.515	510.25
329.744	493.25
329.972	494.25
330.201	521.25
330.43	555.25
330.658	570.25
330.887	561.25
331.115	589.25
331.344	479.25
331.572	465.25
331.801	444.25
332.03	462.25
332.258	424.25
332.486	423.25
332.715	393.25
332.943	414.25
333.172	409.25
333.4	395.25
333.629	434.25
333.857	439.25
334.085	458.25
334.314	453.25
334.542	489.25
334.771	488.25
334.999	456.25
335.227	417.25
335.455	395.25
335.684	406.25
335.912	379.25
336.14	398.25
336.369	395.25
336.597	406.25
336.825	406.25
337.053	407.25
337.281	375.25
337.51	379.25
337.738	387.25
337.966	381.25
338.194	374.25
338.422	374.25
338.65	387.25
338.878	378.25
339.106	381.25
339.334	386.25
339.562	377.25
339.79	397.25
340.018	400.25
340.246	383.25
340.474	380.25
340.702	398.25
340.93	378.25
341.158	388.25
341.386	372.25
341.614	378.25
341.842	374.25
342.07	389.25
342.298	378.25
342.526	377.25
342.754	378.25
342.981	357.25
343.209	366.25
343.437	370.25
343.665	367.25
343.893	358.25
344.12	385.25
344.348	377.25
344.576	387.25
344.804	387.25
345.031	401.25
345.259	401.25
345.487	411.25
345.714	398.25
345.942	379.25
346.17	394.25
346.397	377.25
346.625	362.25
346.853	369.25
347.08	363.25
347.308	368.25
347.535	393.25
347.763	385.25
347.99	376.25
348.218	383.25
348.445	389.25
348.673	378.25
348.9	395.25
349.128	367.25
349.355	363.25
349.583	358.25
349.81	358.25
350.037	366.25
350.265	359.25
350.492	365.25
350.72	359.25
350.947	367.25
351.174	366.25
351.402	384.25
351.629	379.25
351.856	369.25
352.083	381.25
352.311	395.25
352.538	388.25
352.765	397.25
352.992	390.25
353.22	385.25
353.447	376.25
353.674	367.25
353.901	359.25
354.128	351.25
354.355	350.25
354.583	334.25
354.81	339.25
355.037	327.25
355.264	335.25
355.491	341.25
355.718	334.25
355.945	325.25
356.172	354.25
356.399	345.25
356.626	320.25
356.853	317.25
357.08	340.25
357.307	362.25
357.534	318.25
357.761	344.25
357.988	353.25
358.215	363.25
358.441	370.25
358.668	339.25
358.895	341.25
359.122	362.25
359.349	348.25
359.576	366.25
359.802	411.25
360.029	422.25
360.256	441.25
360.483	410.25
360.709	374.25
360.936	365.25
361.163	363.25
361.39	334.25
361.616	374.25
361.843	349.25
362.07	366.25
362.296	389.25
362.523	368.25
362.749	351.25
362.976	384.25
363.203	381.25
363.429	372.25
363.656	362.25
363.882	361.25
364.109	357.25
364.335	351.25
364.562	357.25
364.788	354.25
365.015	352.25
365.241	340.25
365.468	369.25
365.694	342.25
365.92	353.25
366.147	348.25
366.373	356.25
366.599	341.25
366.826	352.25
367.052	348.25
367.278	346.25
367.505	348.25
367.731	350.25
367.957	346.25
368.184	340.25
368.41	343.25
368.636	367.25
368.862	386.25
369.089	358.25
369.315	342.25
369.541	343.25
369.767	339.25
369.993	371.25
370.219	351.25
370.445	342.25
370.672	366.25
370.898	358.25
371.124	365.25
371.35	338.25
371.576	359.25
371.802	342.25
372.028	339.25
372.254	351.25
372.48	336.25
372.706	344.25
372.932	347.25
373.158	339.25
373.384	348.25
373.61	353.25
373.835	353.25
374.061	336.25
374.287	356.25
374.513	341.25
374.739	344.25
374.965	358.25
375.191	329.25
375.416	335.25
375.642	334.25
375.868	342.25
376.094	367.25
376.319	353.25
376.545	333.25
376.771	350.25
376.997	325.25
377.222	351.25
377.448	325.25
377.674	349.25
377.899	338.25
378.125	356.25
378.35	341.25
378.576	338.25
378.802	340.25
379.027	333.25
379.253	332.25
379.478	345.25
379.704	335.25
379.929	349.25
380.155	345.25
380.38	349.25
380.606	343.25
380.831	346.25
381.057	343.25
381.282	348.25
381.507	340.25
381.733	345.25
381.958	326.25
382.184	346.25
382.409	341.25
382.634	350.25
382.86	354.25
383.085	355.25
383.31	345.25
383.535	326.25
383.761	359.25
383.986	362.25
384.211	345.25
384.436	341.25
384.662	371.25
384.887	366.25
385.112	375.25
385.337	369.25
385.562	349.25
385.787	356.25
386.013	382.25
386.238	379.25
386.463	386.25
386.688	366.25
386.913	366.25
387.138	364.25
387.363	343.25
387.588	377.25
387.813	366.25
388.038	371.25
388.263	385.25
388.488	358.25
388.713	362.25
388.938	393.25
389.163	381.25
389.387	381.25
389.612	378.25
389.837	369.25
390.062	371.25
390.287	371.25
390.512	366.25
390.736	379.25
390.961	359.25
391.186	358.25
391.411	366.25
391.636	377.25
391.86	361.25
392.085	373.25
392.31	368.25
392.534	382.25
392.759	381.25
392.984	371.25
393.208	371.25
393.433	350.25
393.658	359.25
393.882	362.25
394.107	355.25
394.331	353.25
394.556	361.25
394.78	371.25
395.005	349.25
395.229	376.25
395.454	377.25
395.678	390.25
395.903	381.25
396.127	423.25
396.352	389.25
396.576	381.25
396.801	386.25
397.025	380.25
397.249	385.25
397.474	385.25
397.698	387.25
397.922	386.25
398.147	410.25
398.371	414.25
398.595	410.25
398.82	401.25
399.044	419.25
399.268	419.25
399.492	445.25
399.717	469.25
399.941	486.25
400.165	502.25
400.389	490.25
400.613	486.25
400.837	454.25
401.062	422.25
401.286	422.25
401.51	403.25
401.734	417.25
401.958	420.25
402.182	420.25
402.406	421.25
402.63	438.25
402.854	435.25
403.078	419.25
403.302	424.25
403.526	429.25
403.75	414.25
403.974	430.25
404.198	416.25
404.422	426.25
404.645	436.25
404.869	486.25
405.093	469.25
405.317	481.25
405.541	532.25
405.765	501.25
405.988	470.25
406.212	469.25
406.436	501.25
406.66	495.25
406.883	456.25
407.107	479.25
407.331	520.25
407.555	596.25
407.778	552.25
408.002	519.25
408.226	502.25
408.449	468.25
408.673	482.25
408.896	524.25
409.12	517.25
409.344	494.25
409.567	473.25
409.791	461.25
410.014	433.25
410.238	417.25
410.461	426.25
410.685	452.25
410.908	451.25
411.132	471.25
411.355	536.25
411.578	489.25
411.802	434.25
412.025	414.25
412.249	463.25
412.472	457.25
412.695	477.25
412.919	500.25
413.142	437.25
413.365	430.25
413.589	420.25
413.812	406.25
414.035	432.25
414.258	397.25
414.482	413.25
414.705	397.25
414.928	409.25
415.151	394.25
415.374	408.25
415.597	418.25
415.821	406.25
416.044	398.25
416.267	413.25
416.49	398.25
416.713	386.25
416.936	410.25
417.159	411.25
417.382	418.25
417.605	411.25
417.828	434.25
418.051	436.25
418.274	429.25
418.497	410.25
418.72	405.25
418.943	398.25
419.166	418.25
419.389	434.25
419.611	427.25
419.834	429.25
420.057	446.25
420.28	444.25
420.503	415.25
420.726	399.25
420.948	429.25
421.171	482.25
421.394	490.25
421.617	441.25
421.839	429.25
422.062	437.25
422.285	456.25
422.507	480.25
422.73	550.25
422.953	563.25
423.175	460.25
423.398	460.25
423.621	469.25
423.843	455.25
424.066	463.25
424.288	441.25
424.511	490.25
424.733	519.25
424.956	599.25
425.178	571.25
425.401	569.25
425.623	581.25
425.846	499.25
426.068	491.25
426.291	473.25
426.513	477.25
426.735	496.25
426.958	487.25
427.18	568.25
427.402	701.25
427.625	753.25
427.847	683.25
428.069	612.25
428.292	511.25
428.514	486.25
428.736	465.25
428.958	454.25
429.181	456.25
429.403	428.25
429.625	439.25
429.847	459.25
430.069	513.25
430.292	523.25
430.514	439.25
430.736	427.25
430.958	433.25
431.18	422.25
431.402	403.25
431.624	417.25
431.846	409.25
432.068	394.25
432.29	421.25
432.512	422.25
432.734	419.25
432.956	418.25
433.178	422.25
433.4	425.25
433.622	425.25
433.844	427.25
434.066	421.25
434.287	420.25
434.509	413.25
434.731	419.25
434.953	433.25
435.175	412.25
435.397	464.25
435.618	467.25
435.84	525.25
436.062	579.25
436.284	644.25
436.505	524.25
436.727	497.25
436.949	435.25
437.17	429.25
437.392	458.25
437.614	468.25
437.835	509.25
438.057	588.25
438.278	671.25
438.5	655.25
438.721	700.25
438.943	682.25
439.165	540.25
439.386	479.25
439.608	513.25
439.829	505.25
440.05	525.25
440.272	568.25
440.493	493.25
440.715	484.25
440.936	455.25
441.158	417.25
441.379	437.25
441.6	465.25
441.822	479.25
442.043	533.25
442.264	602.25
442.486	595.25
442.707	526.25
442.928	530.25
443.149	490.25
443.371	507.25
443.592	555.25
443.813	636.25
444.034	665.25
444.255	544.25
444.476	483.25
444.698	465.25
444.919	478.25
445.14	578.25
445.361	527.25
445.582	545.25
445.803	573.25
446.024	656.25
446.245	664.25
446.466	600.25
446.687	538.25
446.908	512.25
447.129	461.25
447.35	439.25
447.571	455.25
447.792	447.25
448.013	448.25
448.234	465.25
448.455	522.25
448.675	615.25
448.896	691.25
449.117	598.25
449.338	570.25
449.559	659.25
449.779	716.25
450	603.25
450.221	502.25
450.442	465.25
450.662	451.25
450.883	446.25
451.104	455.25
451.324	456.25
451.545	433.25
451.766	422.25
451.986	407.25
452.207	397.25
452.428	398.25
452.648	407.25
452.869	385.25
453.089	415.25
453.31	418.25
453.53	408.25
453.751	413.25
453.971	407.25
454.192	410.25
454.412	403.25
454.633	420.25
454.853	397.25
455.073	382.25
455.294	436.25
455.514	485.25
455.734	475.25
455.955	392.25
456.175	386.25
456.395	387.25
456.616	377.25
456.836	378.25
457.056	371.25
457.276	365.25
457.497	361.25
457.717	365.25
457.937	381.25
458.157	371.25
458.377	386.25
458.598	426.25
458.818	476.25
459.038	517.25
459.258	569.25
459.478	469.25
459.698	450.25
459.918	406.25
460.138	410.25
460.358	398.25
460.578	431.25
460.798	413.25
461.018	411.25
461.238	404.25
461.458	425.25
461.678	413.25
461.898	410.25
462.118	405.25
462.338	413.25
462.558	413.25
462.777	436.25
462.997	431.25
463.217	432.25
463.437	457.25
463.657	443.25
463.876	425.25
464.096	445.25
464.316	442.25
464.536	450.25
464.755	450.25
464.975	461.25
465.195	499.25
465.414	581.25
465.634	517.25
465.854	453.25
466.073	444.25
466.293	426.25
466.512	405.25
466.732	424.25
466.951	407.25
467.171	417.25
467.391	386.25
467.61	406.25
467.829	409.25
468.049	407.25
468.268	426.25
468.488	421.25
468.707	399.25
468.927	407.25
469.146	407.25
469.365	375.25
469.585	379.25
469.804	408.25
470.023	413.25
470.243	411.25
470.462	430.25
470.681	427.25
470.901	445.25
471.12	449.25
471.339	407.25
471.558	414.25
471.777	421.25
471.997	403.25
472.216	417.25
472.435	452.25
472.654	464.25
472.873	428.25
473.092	393.25
473.311	398.25
473.53	415.25
473.749	427.25
473.968	471.25
474.187	561.25
474.406	586.25
474.625	466.25
474.844	437.25
475.063	417.25
475.282	421.25
475.501	410.25
475.72	444.25
475.939	406.25
476.158	447.25
476.377	440.25
476.596	417.25
476.814	436.25
477.033	449.25
477.252	449.25
477.471	449.25
477.69	428.25
477.908	437.25
478.127	439.25
478.346	452.25
478.564	447.25
478.783	461.25
479.002	445.25
479.22	466.25
479.439	471.25
479.658	487.25
479.876	514.25
480.095	509.25
480.313	521.25
480.532	532.25
480.751	516.25
480.969	509.25
481.188	573.25
481.406	625.25
481.624	543.25
481.843	521.25
482.061	514.25
482.28	484.25
482.498	500.25
482.717	486.25
482.935	485.25
483.153	471.25
483.372	471.25
483.59	481.25
483.808	490.25
484.027	479.25
484.245	483.25
484.463	477.25
484.681	488.25
484.9	489.25
485.118	497.25
485.336	497.25
485.554	503.25
485.772	507.25
485.99	508.25
486.209	510.25
486.427	519.25
486.645	521.25
486.863	545.25
487.081	532.25
487.299	513.25
487.517	517.25
487.735	507.25
487.953	518.25
488.171	515.25
488.389	530.25
488.607	510.25
488.825	502.25
489.043	519.25
489.261	531.25
489.479	512.25
489.696	535.25
489.914	543.25
490.132	549.25
490.35	543.25
490.568	562.25
490.786	565.25
491.003	575.25
491.221	565.25
491.439	568.25
491.657	579.25
491.874	617.25
492.092	613.25
492.31	590.25
492.527	585.25
492.745	580.25
492.963	605.25
493.18	598.25
493.398	611.25
493.615	609.25
493.833	644.25
494.05	633.25
494.268	618.25
494.485	614.25
494.703	600.25
494.92	629.25
495.138	614.25
495.355	609.25
495.573	633.25
495.79	612.25
496.008	620.25
496.225	612.25
496.442	621.25
496.66	616.25
496.877	635.25
497.094	639.25
497.312	634.25
497.529	620.25
497.746	637.25
497.963	613.25
498.181	652.25
498.398	647.25
498.615	656.25
498.832	659.25
499.049	677.25
499.267	688.25
499.484	711.25
499.701	701.25
499.918	715.25
500.135	771.25
500.352	755.25
500.569	780.25
500.786	783.25
501.003	787.25
501.22	767.25
501.437	727.25
501.654	742.25
501.871	754.25
502.088	708.25
