Data from 1965.PennyLincolnUp.Lamp.En5.5.200Scan.071719.P1._HRD10591_14-09-18-911.txt Node
Date: Thu Jul 18 14:09:18 EDT 2019
User: cochatt
Spectrometer: HR+D1059
Trigger mode: 1
Integration Time (sec): 1.000000E-1
Scans to average: 1
Electric dark correction enabled: true
Nonlinearity correction enabled: false
Boxcar width: 0
XAxis mode: Wavelengths
Number of Pixels in Spectrum: 2048
>>>>>Begin Spectral Data<<<<<
223.165	-6.69
223.4	-6.69
223.635	-6.69
223.869	-5.69
224.104	-19.69
224.338	-31.69
224.573	-17.69
224.808	-12.69
225.042	-21.69
225.277	7.31
225.511	10.31
225.746	5.31
225.98	10.31
226.215	-0.69
226.449	12.31
226.683	18.31
226.918	12.31
227.152	40.31
227.387	31.31
227.621	34.31
227.856	31.31
228.09	44.31
228.324	55.31
228.559	39.31
228.793	52.31
229.027	79.31
229.262	84.31
229.496	98.31
229.73	121.31
229.964	131.31
230.199	108.31
230.433	104.31
230.667	96.31
230.901	103.31
231.136	101.31
231.37	93.31
231.604	103.31
231.838	85.31
232.072	96.31
232.306	99.31
232.541	115.31
232.775	96.31
233.009	102.31
233.243	101.31
233.477	105.31
233.711	95.31
233.945	115.31
234.179	101.31
234.413	117.31
234.647	116.31
234.881	110.31
235.115	122.31
235.349	116.31
235.583	107.31
235.817	97.31
236.051	116.31
236.285	113.31
236.519	103.31
236.753	115.31
236.987	127.31
237.221	172.31
237.455	213.31
237.689	164.31
237.922	126.31
238.156	122.31
238.39	102.31
238.624	116.31
238.858	108.31
239.091	109.31
239.325	126.31
239.559	122.31
239.793	129.31
240.027	138.31
240.26	135.31
240.494	145.31
240.728	143.31
240.961	152.31
241.195	130.31
241.429	143.31
241.662	120.31
241.896	119.31
242.13	123.31
242.363	117.31
242.597	122.31
242.83	120.31
243.064	116.31
243.298	133.31
243.531	121.31
243.765	117.31
243.998	122.31
244.232	120.31
244.465	141.31
244.699	137.31
244.932	135.31
245.166	114.31
245.399	133.31
245.633	132.31
245.866	133.31
246.099	130.31
246.333	131.31
246.566	133.31
246.8	136.31
247.033	130.31
247.266	142.31
247.5	154.31
247.733	138.31
247.966	147.31
248.2	135.31
248.433	157.31
248.666	161.31
248.899	159.31
249.133	182.31
249.366	184.31
249.599	168.31
249.832	170.31
250.066	163.31
250.299	173.31
250.532	183.31
250.765	186.31
250.998	197.31
251.231	188.31
251.465	198.31
251.698	178.31
251.931	184.31
252.164	171.31
252.397	160.31
252.63	176.31
252.863	182.31
253.096	179.31
253.329	184.31
253.562	195.31
253.795	196.31
254.028	205.31
254.261	195.31
254.494	191.31
254.727	229.31
254.96	242.31
255.193	247.31
255.426	228.31
255.659	204.31
255.892	201.31
256.124	213.31
256.357	205.31
256.59	187.31
256.823	203.31
257.056	190.31
257.289	178.31
257.521	195.31
257.754	196.31
257.987	202.31
258.22	197.31
258.452	186.31
258.685	169.31
258.918	185.31
259.151	184.31
259.383	189.31
259.616	209.31
259.849	179.31
260.081	224.31
260.314	225.31
260.547	241.31
260.779	228.31
261.012	215.31
261.244	207.31
261.477	203.31
261.71	195.31
261.942	192.31
262.175	221.31
262.407	202.31
262.64	205.31
262.872	202.31
263.105	174.31
263.337	179.31
263.57	196.31
263.802	196.31
264.035	181.31
264.267	188.31
264.499	185.31
264.732	194.31
264.964	170.31
265.197	185.31
265.429	198.31
265.661	187.31
265.894	200.31
266.126	207.31
266.358	191.31
266.591	185.31
266.823	193.31
267.055	197.31
267.287	189.31
267.52	204.31
267.752	193.31
267.984	198.31
268.216	202.31
268.448	220.31
268.681	197.31
268.913	222.31
269.145	220.31
269.377	246.31
269.609	243.31
269.841	238.31
270.073	242.31
270.306	263.31
270.538	254.31
270.77	273.31
271.002	277.31
271.234	269.31
271.466	256.31
271.698	281.31
271.93	278.31
272.162	275.31
272.394	276.31
272.626	276.31
272.858	246.31
273.09	244.31
273.322	228.31
273.553	232.31
273.785	236.31
274.017	230.31
274.249	230.31
274.481	247.31
274.713	235.31
274.945	233.31
275.176	242.31
275.408	231.31
275.64	229.31
275.872	230.31
276.104	230.31
276.335	228.31
276.567	252.31
276.799	268.31
277.031	269.31
277.262	282.31
277.494	267.31
277.726	251.31
277.957	248.31
278.189	243.31
278.421	259.31
278.652	242.31
278.884	228.31
279.115	247.31
279.347	232.31
279.579	237.31
279.81	228.31
280.042	221.31
280.273	255.31
280.505	234.31
280.736	239.31
280.968	227.31
281.199	221.31
281.431	246.31
281.662	226.31
281.894	242.31
282.125	228.31
282.356	246.31
282.588	257.31
282.819	275.31
283.051	240.31
283.282	221.31
283.513	239.31
283.745	232.31
283.976	243.31
284.207	250.31
284.439	241.31
284.67	242.31
284.901	231.31
285.132	254.31
285.364	236.31
285.595	244.31
285.826	239.31
286.057	242.31
286.288	243.31
286.52	235.31
286.751	226.31
286.982	239.31
287.213	251.31
287.444	247.31
287.675	251.31
287.906	257.31
288.138	278.31
288.369	265.31
288.6	272.31
288.831	246.31
289.062	250.31
289.293	248.31
289.524	246.31
289.755	260.31
289.986	240.31
290.217	256.31
290.448	239.31
290.679	247.31
290.91	247.31
291.141	258.31
291.371	259.31
291.602	235.31
291.833	252.31
292.064	245.31
292.295	242.31
292.526	241.31
292.757	244.31
292.987	243.31
293.218	242.31
293.449	240.31
293.68	244.31
293.91	263.31
294.141	245.31
294.372	247.31
294.603	235.31
294.833	251.31
295.064	249.31
295.295	248.31
295.525	251.31
295.756	247.31
295.987	272.31
296.217	267.31
296.448	288.31
296.679	249.31
296.909	255.31
297.14	265.31
297.37	251.31
297.601	270.31
297.831	252.31
298.062	252.31
298.292	249.31
298.523	256.31
298.753	255.31
298.984	259.31
299.214	275.31
299.445	267.31
299.675	250.31
299.905	276.31
300.136	267.31
300.366	258.31
300.597	273.31
300.827	283.31
301.057	265.31
301.288	282.31
301.518	282.31
301.748	286.31
301.979	268.31
302.209	283.31
302.439	285.31
302.669	278.31
302.9	304.31
303.13	271.31
303.36	285.31
303.59	280.31
303.82	299.31
304.051	297.31
304.281	283.31
304.511	268.31
304.741	287.31
304.971	274.31
305.201	269.31
305.431	283.31
305.661	268.31
305.891	285.31
306.121	266.31
306.352	291.31
306.582	304.31
306.812	283.31
307.042	277.31
307.272	302.31
307.502	301.31
307.731	294.31
307.961	288.31
308.191	280.31
308.421	308.31
308.651	296.31
308.881	279.31
309.111	295.31
309.341	299.31
309.571	312.31
309.8	317.31
310.03	311.31
310.26	352.31
310.49	339.31
310.72	333.31
310.949	348.31
311.179	371.31
311.409	337.31
311.639	327.31
311.868	329.31
312.098	347.31
312.328	338.31
312.557	358.31
312.787	364.31
313.017	356.31
313.246	338.31
313.476	344.31
313.706	320.31
313.935	343.31
314.165	351.31
314.394	337.31
314.624	350.31
314.853	348.31
315.083	319.31
315.312	332.31
315.542	321.31
315.771	325.31
316.001	309.31
316.23	318.31
316.46	330.31
316.689	332.31
316.919	333.31
317.148	346.31
317.377	335.31
317.607	335.31
317.836	327.31
318.065	319.31
318.295	343.31
318.524	342.31
318.753	333.31
318.983	336.31
319.212	343.31
319.441	328.31
319.67	343.31
319.9	329.31
320.129	347.31
320.358	332.31
320.587	344.31
320.816	343.31
321.046	343.31
321.275	348.31
321.504	343.31
321.733	353.31
321.962	351.31
322.191	372.31
322.42	399.31
322.649	399.31
322.878	412.31
323.108	418.31
323.337	443.31
323.566	471.31
323.795	492.31
324.024	527.31
324.253	660.31
324.482	943.31
324.71	1469.31
324.939	1991.31
325.168	1687.31
325.397	900.31
325.626	591.31
325.855	515.31
326.084	473.31
326.313	455.31
326.542	479.31
326.77	517.31
326.999	631.31
327.228	867.31
327.457	1293.31
327.686	1484.31
327.914	997.31
328.143	679.31
328.372	603.31
328.6	541.31
328.829	530.31
329.058	549.31
329.287	532.31
329.515	514.31
329.744	467.31
329.972	466.31
330.201	472.31
330.43	548.31
330.658	561.31
330.887	564.31
331.115	545.31
331.344	483.31
331.572	434.31
331.801	449.31
332.03	438.31
332.258	396.31
332.486	391.31
332.715	406.31
332.943	403.31
333.172	384.31
333.4	401.31
333.629	409.31
333.857	410.31
334.085	446.31
334.314	445.31
334.542	485.31
334.771	491.31
334.999	446.31
335.227	410.31
335.455	381.31
335.684	392.31
335.912	387.31
336.14	395.31
336.369	382.31
336.597	383.31
336.825	396.31
337.053	377.31
337.281	390.31
337.51	370.31
337.738	386.31
337.966	394.31
338.194	387.31
338.422	397.31
338.65	379.31
338.878	377.31
339.106	373.31
339.334	375.31
339.562	380.31
339.79	360.31
340.018	393.31
340.246	375.31
340.474	375.31
340.702	373.31
340.93	354.31
341.158	371.31
341.386	374.31
341.614	361.31
341.842	373.31
342.07	367.31
342.298	379.31
342.526	373.31
342.754	357.31
342.981	362.31
343.209	343.31
343.437	345.31
343.665	357.31
343.893	367.31
344.12	370.31
344.348	371.31
344.576	360.31
344.804	369.31
345.031	371.31
345.259	388.31
345.487	383.31
345.714	380.31
345.942	364.31
346.17	381.31
346.397	368.31
346.625	360.31
346.853	364.31
347.08	354.31
347.308	376.31
347.535	369.31
347.763	381.31
347.99	382.31
348.218	358.31
348.445	372.31
348.673	359.31
348.9	379.31
349.128	353.31
349.355	341.31
349.583	360.31
349.81	371.31
350.037	335.31
350.265	359.31
350.492	384.31
350.72	346.31
350.947	376.31
351.174	385.31
351.402	346.31
351.629	369.31
351.856	363.31
352.083	378.31
352.311	385.31
352.538	379.31
352.765	360.31
352.992	372.31
353.22	377.31
353.447	368.31
353.674	347.31
353.901	361.31
354.128	345.31
354.355	332.31
354.583	336.31
354.81	323.31
355.037	317.31
355.264	339.31
355.491	339.31
355.718	330.31
355.945	335.31
356.172	344.31
356.399	340.31
356.626	314.31
356.853	337.31
357.08	340.31
357.307	308.31
357.534	348.31
357.761	336.31
357.988	336.31
358.215	340.31
358.441	336.31
358.668	336.31
358.895	351.31
359.122	357.31
359.349	354.31
359.576	377.31
359.802	405.31
360.029	403.31
360.256	415.31
360.483	393.31
360.709	388.31
360.936	364.31
361.163	363.31
361.39	378.31
361.616	370.31
361.843	354.31
362.07	371.31
362.296	364.31
362.523	369.31
362.749	371.31
362.976	359.31
363.203	359.31
363.429	336.31
363.656	346.31
363.882	329.31
364.109	332.31
364.335	354.31
364.562	335.31
364.788	346.31
365.015	345.31
365.241	347.31
365.468	330.31
365.694	349.31
365.92	361.31
366.147	347.31
366.373	353.31
366.599	344.31
366.826	340.31
367.052	313.31
367.278	347.31
367.505	352.31
367.731	336.31
367.957	325.31
368.184	339.31
368.41	341.31
368.636	367.31
368.862	355.31
369.089	363.31
369.315	360.31
369.541	343.31
369.767	356.31
369.993	361.31
370.219	342.31
370.445	307.31
370.672	333.31
370.898	342.31
371.124	339.31
371.35	327.31
371.576	323.31
371.802	328.31
372.028	346.31
372.254	346.31
372.48	321.31
372.706	332.31
372.932	335.31
373.158	340.31
373.384	348.31
373.61	336.31
373.835	348.31
374.061	338.31
374.287	335.31
374.513	356.31
374.739	341.31
374.965	345.31
375.191	333.31
375.416	328.31
375.642	340.31
375.868	336.31
376.094	342.31
376.319	342.31
376.545	332.31
376.771	332.31
376.997	320.31
377.222	332.31
377.448	348.31
377.674	337.31
377.899	342.31
378.125	314.31
378.35	335.31
378.576	320.31
378.802	331.31
379.027	336.31
379.253	325.31
379.478	338.31
379.704	328.31
379.929	334.31
380.155	335.31
380.38	332.31
380.606	335.31
380.831	338.31
381.057	349.31
381.282	340.31
381.507	349.31
381.733	360.31
381.958	340.31
382.184	343.31
382.409	341.31
382.634	342.31
382.86	338.31
383.085	342.31
383.31	344.31
383.535	349.31
383.761	368.31
383.986	348.31
384.211	346.31
384.436	365.31
384.662	350.31
384.887	359.31
385.112	360.31
385.337	355.31
385.562	364.31
385.787	347.31
386.013	347.31
386.238	372.31
386.463	376.31
386.688	381.31
386.913	357.31
387.138	371.31
387.363	354.31
387.588	356.31
387.813	357.31
388.038	348.31
388.263	357.31
388.488	369.31
388.713	375.31
388.938	351.31
389.163	351.31
389.387	372.31
389.612	369.31
389.837	353.31
390.062	368.31
390.287	360.31
390.512	375.31
390.736	364.31
390.961	375.31
391.186	340.31
391.411	341.31
391.636	376.31
391.86	358.31
392.085	367.31
392.31	355.31
392.534	365.31
392.759	358.31
392.984	347.31
393.208	376.31
393.433	356.31
393.658	346.31
393.882	364.31
394.107	380.31
394.331	359.31
394.556	347.31
394.78	358.31
395.005	353.31
395.229	383.31
395.454	376.31
395.678	390.31
395.903	368.31
396.127	402.31
396.352	383.31
396.576	372.31
396.801	355.31
397.025	379.31
397.249	387.31
397.474	380.31
397.698	375.31
397.922	385.31
398.147	396.31
398.371	422.31
398.595	382.31
398.82	403.31
399.044	395.31
399.268	427.31
399.492	428.31
399.717	457.31
399.941	459.31
400.165	483.31
400.389	506.31
400.613	451.31
400.837	426.31
401.062	430.31
401.286	401.31
401.51	406.31
401.734	417.31
401.958	389.31
402.182	423.31
402.406	416.31
402.63	407.31
402.854	424.31
403.078	423.31
403.302	397.31
403.526	435.31
403.75	431.31
403.974	435.31
404.198	389.31
404.422	425.31
404.645	428.31
404.869	451.31
405.093	464.31
405.317	504.31
405.541	484.31
405.765	468.31
405.988	449.31
406.212	455.31
406.436	482.31
406.66	472.31
406.883	448.31
407.107	481.31
407.331	476.31
407.555	547.31
407.778	551.31
408.002	530.31
408.226	495.31
408.449	469.31
408.673	499.31
408.896	497.31
409.12	514.31
409.344	498.31
409.567	448.31
409.791	429.31
410.014	439.31
410.238	435.31
410.461	415.31
410.685	417.31
410.908	451.31
411.132	445.31
411.355	502.31
411.578	474.31
411.802	440.31
412.025	429.31
412.249	423.31
412.472	445.31
412.695	490.31
412.919	469.31
413.142	435.31
413.365	414.31
413.589	410.31
413.812	395.31
414.035	386.31
414.258	419.31
414.482	396.31
414.705	403.31
414.928	396.31
415.151	401.31
415.374	389.31
415.597	399.31
415.821	399.31
416.044	389.31
416.267	419.31
416.49	413.31
416.713	405.31
416.936	403.31
417.159	395.31
417.382	407.31
417.605	410.31
417.828	420.31
418.051	418.31
418.274	439.31
418.497	392.31
418.72	422.31
418.943	385.31
419.166	419.31
419.389	431.31
419.611	427.31
419.834	423.31
420.057	415.31
420.28	425.31
420.503	425.31
420.726	421.31
420.948	443.31
421.171	468.31
421.394	499.31
421.617	447.31
421.839	415.31
422.062	412.31
422.285	425.31
422.507	479.31
422.73	540.31
422.953	507.31
423.175	461.31
423.398	435.31
423.621	420.31
423.843	427.31
424.066	467.31
424.288	454.31
424.511	450.31
424.733	522.31
424.956	581.31
425.178	571.31
425.401	561.31
425.623	551.31
425.846	496.31
426.068	465.31
426.291	444.31
426.513	449.31
426.735	477.31
426.958	519.31
427.18	556.31
427.402	662.31
427.625	750.31
427.847	669.31
428.069	575.31
428.292	501.31
428.514	471.31
428.736	449.31
428.958	445.31
429.181	427.31
429.403	438.31
429.625	428.31
429.847	470.31
430.069	525.31
430.292	489.31
430.514	438.31
430.736	423.31
430.958	412.31
431.18	414.31
431.402	420.31
431.624	398.31
431.846	412.31
432.068	389.31
432.29	419.31
432.512	402.31
432.734	417.31
432.956	406.31
433.178	423.31
433.4	411.31
433.622	423.31
433.844	414.31
434.066	413.31
434.287	407.31
434.509	415.31
434.731	408.31
434.953	418.31
435.175	441.31
435.397	439.31
435.618	472.31
435.84	521.31
436.062	557.31
436.284	623.31
436.505	531.31
436.727	470.31
436.949	451.31
437.17	431.31
437.392	417.31
437.614	456.31
437.835	479.31
438.057	580.31
438.278	643.31
438.5	638.31
438.721	671.31
438.943	635.31
439.165	518.31
439.386	486.31
439.608	464.31
439.829	473.31
440.05	496.31
440.272	529.31
440.493	498.31
440.715	444.31
440.936	434.31
441.158	433.31
441.379	425.31
441.6	424.31
441.822	465.31
442.043	501.31
442.264	559.31
442.486	599.31
442.707	527.31
442.928	476.31
443.149	485.31
443.371	493.31
443.592	507.31
443.813	603.31
444.034	645.31
444.255	529.31
444.476	497.31
444.698	469.31
444.919	459.31
445.14	567.31
445.361	537.31
445.582	504.31
445.803	572.31
446.024	616.31
446.245	635.31
446.466	602.31
446.687	534.31
446.908	468.31
447.129	457.31
447.35	438.31
447.571	409.31
447.792	436.31
448.013	451.31
448.234	454.31
448.455	514.31
448.675	589.31
448.896	668.31
449.117	595.31
449.338	566.31
449.559	640.31
449.779	683.31
450	591.31
450.221	485.31
450.442	437.31
450.662	456.31
450.883	441.31
451.104	458.31
451.324	443.31
451.545	419.31
451.766	412.31
451.986	395.31
452.207	372.31
452.428	372.31
452.648	400.31
452.869	388.31
453.089	401.31
453.31	412.31
453.53	393.31
453.751	385.31
453.971	409.31
454.192	410.31
454.412	416.31
454.633	401.31
454.853	362.31
455.073	410.31
455.294	421.31
455.514	480.31
455.734	468.31
455.955	395.31
456.175	376.31
456.395	345.31
456.616	345.31
456.836	377.31
457.056	382.31
457.276	356.31
457.497	369.31
457.717	355.31
457.937	381.31
458.157	381.31
458.377	384.31
458.598	419.31
458.818	475.31
459.038	545.31
459.258	533.31
459.478	457.31
459.698	403.31
459.918	400.31
460.138	410.31
460.358	399.31
460.578	403.31
460.798	392.31
461.018	421.31
461.238	386.31
461.458	409.31
461.678	387.31
461.898	404.31
462.118	407.31
462.338	421.31
462.558	401.31
462.777	428.31
462.997	415.31
463.217	426.31
463.437	404.31
463.657	424.31
463.876	419.31
464.096	422.31
464.316	404.31
464.536	440.31
464.755	439.31
464.975	445.31
465.195	473.31
465.414	575.31
465.634	490.31
465.854	437.31
466.073	436.31
466.293	410.31
466.512	386.31
466.732	403.31
466.951	397.31
467.171	389.31
467.391	398.31
467.61	394.31
467.829	395.31
468.049	412.31
468.268	408.31
468.488	395.31
468.707	394.31
468.927	398.31
469.146	374.31
469.365	396.31
469.585	386.31
469.804	389.31
470.023	409.31
470.243	402.31
470.462	416.31
470.681	413.31
470.901	396.31
471.12	397.31
471.339	396.31
471.558	410.31
471.777	393.31
471.997	394.31
472.216	403.31
472.435	450.31
472.654	424.31
472.873	408.31
473.092	402.31
473.311	409.31
473.53	400.31
473.749	404.31
473.968	418.31
474.187	544.31
474.406	534.31
474.625	460.31
474.844	416.31
475.063	409.31
475.282	407.31
475.501	393.31
475.72	413.31
475.939	420.31
476.158	427.31
476.377	419.31
476.596	411.31
476.814	436.31
477.033	439.31
477.252	423.31
477.471	428.31
477.69	437.31
477.908	449.31
478.127	428.31
478.346	437.31
478.564	425.31
478.783	437.31
479.002	464.31
479.22	466.31
479.439	472.31
479.658	502.31
479.876	480.31
480.095	483.31
480.313	511.31
480.532	481.31
480.751	484.31
480.969	487.31
481.188	581.31
481.406	612.31
481.624	546.31
481.843	511.31
482.061	483.31
482.28	471.31
482.498	478.31
482.717	463.31
482.935	476.31
483.153	474.31
483.372	472.31
483.59	468.31
483.808	475.31
484.027	486.31
484.245	487.31
484.463	476.31
484.681	498.31
484.9	492.31
485.118	460.31
485.336	465.31
485.554	479.31
485.772	475.31
485.99	470.31
486.209	497.31
486.427	496.31
486.645	512.31
486.863	541.31
487.081	516.31
487.299	523.31
487.517	503.31
487.735	503.31
487.953	507.31
488.171	509.31
488.389	499.31
488.607	505.31
488.825	505.31
489.043	504.31
489.261	529.31
489.479	524.31
489.696	522.31
489.914	514.31
490.132	512.31
490.35	523.31
490.568	558.31
490.786	547.31
491.003	551.31
491.221	556.31
491.439	575.31
491.657	575.31
491.874	580.31
492.092	587.31
492.31	572.31
492.527	587.31
492.745	591.31
492.963	579.31
493.18	589.31
493.398	595.31
493.615	609.31
493.833	580.31
494.05	602.31
494.268	611.31
494.485	580.31
494.703	586.31
494.92	592.31
495.138	584.31
495.355	615.31
495.573	634.31
495.79	593.31
496.008	602.31
496.225	612.31
496.442	600.31
496.66	608.31
496.877	616.31
497.094	621.31
497.312	617.31
497.529	618.31
497.746	599.31
497.963	614.31
498.181	637.31
498.398	636.31
498.615	634.31
498.832	684.31
499.049	665.31
499.267	681.31
499.484	706.31
499.701	676.31
499.918	697.31
500.135	715.31
500.352	746.31
500.569	761.31
500.786	769.31
501.003	756.31
501.22	747.31
501.437	733.31
501.654	722.31
501.871	733.31
502.088	701.31
