Data from 1965.PennyLincolnUp.Lamp.En5.5.200Scan.071719.P1._HRD10591_14-09-25-911.txt Node
Date: Thu Jul 18 14:09:25 EDT 2019
User: cochatt
Spectrometer: HR+D1059
Trigger mode: 1
Integration Time (sec): 1.000000E-1
Scans to average: 1
Electric dark correction enabled: true
Nonlinearity correction enabled: false
Boxcar width: 0
XAxis mode: Wavelengths
Number of Pixels in Spectrum: 2048
>>>>>Begin Spectral Data<<<<<
223.165	-10.5
223.4	-10.5
223.635	-10.5
223.869	-13.5
224.104	-12.5
224.338	-4.5
224.573	-35.5
224.808	-8.5
225.042	2.5
225.277	-6.5
225.511	-1.5
225.746	10.5
225.98	1.5
226.215	-1.5
226.449	11.5
226.683	22.5
226.918	20.5
227.152	25.5
227.387	31.5
227.621	29.5
227.856	33.5
228.09	20.5
228.324	45.5
228.559	59.5
228.793	50.5
229.027	81.5
229.262	112.5
229.496	120.5
229.73	120.5
229.964	133.5
230.199	128.5
230.433	107.5
230.667	120.5
230.901	107.5
231.136	117.5
231.37	115.5
231.604	103.5
231.838	104.5
232.072	108.5
232.306	93.5
232.541	94.5
232.775	103.5
233.009	104.5
233.243	101.5
233.477	104.5
233.711	107.5
233.945	113.5
234.179	98.5
234.413	115.5
234.647	98.5
234.881	95.5
235.115	122.5
235.349	100.5
235.583	105.5
235.817	124.5
236.051	117.5
236.285	103.5
236.519	118.5
236.753	109.5
236.987	147.5
237.221	181.5
237.455	214.5
237.689	181.5
237.922	121.5
238.156	127.5
238.39	132.5
238.624	124.5
238.858	96.5
239.091	116.5
239.325	118.5
239.559	133.5
239.793	112.5
240.027	128.5
240.26	137.5
240.494	142.5
240.728	130.5
240.961	122.5
241.195	145.5
241.429	119.5
241.662	122.5
241.896	123.5
242.13	125.5
242.363	143.5
242.597	121.5
242.83	148.5
243.064	116.5
243.298	116.5
243.531	132.5
243.765	129.5
243.998	126.5
244.232	126.5
244.465	139.5
244.699	136.5
244.932	122.5
245.166	131.5
245.399	134.5
245.633	146.5
245.866	139.5
246.099	120.5
246.333	138.5
246.566	142.5
246.8	130.5
247.033	136.5
247.266	153.5
247.5	156.5
247.733	156.5
247.966	142.5
248.2	146.5
248.433	167.5
248.666	146.5
248.899	169.5
249.133	178.5
249.366	186.5
249.599	178.5
249.832	160.5
250.066	159.5
250.299	152.5
250.532	180.5
250.765	175.5
250.998	195.5
251.231	201.5
251.465	180.5
251.698	175.5
251.931	200.5
252.164	166.5
252.397	171.5
252.63	174.5
252.863	181.5
253.096	174.5
253.329	195.5
253.562	197.5
253.795	195.5
254.028	182.5
254.261	202.5
254.494	200.5
254.727	220.5
254.96	254.5
255.193	228.5
255.426	226.5
255.659	210.5
255.892	215.5
256.124	195.5
256.357	191.5
256.59	207.5
256.823	181.5
257.056	199.5
257.289	203.5
257.521	176.5
257.754	206.5
257.987	181.5
258.22	172.5
258.452	192.5
258.685	189.5
258.918	178.5
259.151	182.5
259.383	190.5
259.616	187.5
259.849	206.5
260.081	216.5
260.314	210.5
260.547	213.5
260.779	223.5
261.012	213.5
261.244	188.5
261.477	204.5
261.71	200.5
261.942	225.5
262.175	201.5
262.407	224.5
262.64	184.5
262.872	197.5
263.105	192.5
263.337	204.5
263.57	202.5
263.802	204.5
264.035	208.5
264.267	201.5
264.499	184.5
264.732	192.5
264.964	196.5
265.197	193.5
265.429	194.5
265.661	186.5
265.894	189.5
266.126	193.5
266.358	189.5
266.591	183.5
266.823	197.5
267.055	197.5
267.287	192.5
267.52	203.5
267.752	206.5
267.984	197.5
268.216	191.5
268.448	204.5
268.681	199.5
268.913	220.5
269.145	218.5
269.377	234.5
269.609	243.5
269.841	215.5
270.073	237.5
270.306	242.5
270.538	268.5
270.77	266.5
271.002	270.5
271.234	245.5
271.466	256.5
271.698	264.5
271.93	269.5
272.162	289.5
272.394	284.5
272.626	274.5
272.858	239.5
273.09	251.5
273.322	240.5
273.553	235.5
273.785	242.5
274.017	230.5
274.249	233.5
274.481	231.5
274.713	230.5
274.945	242.5
275.176	222.5
275.408	242.5
275.64	233.5
275.872	234.5
276.104	238.5
276.335	232.5
276.567	244.5
276.799	245.5
277.031	278.5
277.262	273.5
277.494	259.5
277.726	270.5
277.957	266.5
278.189	261.5
278.421	244.5
278.652	222.5
278.884	221.5
279.115	218.5
279.347	228.5
279.579	234.5
279.81	220.5
280.042	228.5
280.273	231.5
280.505	213.5
280.736	228.5
280.968	241.5
281.199	227.5
281.431	222.5
281.662	244.5
281.894	235.5
282.125	243.5
282.356	256.5
282.588	276.5
282.819	277.5
283.051	257.5
283.282	251.5
283.513	231.5
283.745	238.5
283.976	259.5
284.207	242.5
284.439	233.5
284.67	241.5
284.901	243.5
285.132	233.5
285.364	232.5
285.595	238.5
285.826	250.5
286.057	242.5
286.288	248.5
286.52	221.5
286.751	242.5
286.982	230.5
287.213	258.5
287.444	247.5
287.675	256.5
287.906	267.5
288.138	270.5
288.369	268.5
288.6	268.5
288.831	257.5
289.062	245.5
289.293	257.5
289.524	232.5
289.755	252.5
289.986	241.5
290.217	256.5
290.448	261.5
290.679	251.5
290.91	254.5
291.141	239.5
291.371	247.5
291.602	252.5
291.833	251.5
292.064	262.5
292.295	236.5
292.526	237.5
292.757	252.5
292.987	272.5
293.218	233.5
293.449	254.5
293.68	237.5
293.91	241.5
294.141	256.5
294.372	231.5
294.603	241.5
294.833	258.5
295.064	234.5
295.295	242.5
295.525	241.5
295.756	274.5
295.987	266.5
296.217	281.5
296.448	288.5
296.679	282.5
296.909	240.5
297.14	244.5
297.37	254.5
297.601	249.5
297.831	260.5
298.062	247.5
298.292	256.5
298.523	274.5
298.753	258.5
298.984	254.5
299.214	262.5
299.445	267.5
299.675	266.5
299.905	265.5
300.136	267.5
300.366	271.5
300.597	266.5
300.827	272.5
301.057	277.5
301.288	276.5
301.518	287.5
301.748	280.5
301.979	285.5
302.209	277.5
302.439	282.5
302.669	270.5
302.9	276.5
303.13	278.5
303.36	291.5
303.59	292.5
303.82	295.5
304.051	283.5
304.281	272.5
304.511	262.5
304.741	270.5
304.971	282.5
305.201	277.5
305.431	276.5
305.661	292.5
305.891	278.5
306.121	288.5
306.352	306.5
306.582	291.5
306.812	287.5
307.042	270.5
307.272	284.5
307.502	287.5
307.731	300.5
307.961	291.5
308.191	290.5
308.421	296.5
308.651	284.5
308.881	297.5
309.111	305.5
309.341	298.5
309.571	321.5
309.8	312.5
310.03	321.5
310.26	325.5
310.49	325.5
310.72	346.5
310.949	347.5
311.179	365.5
311.409	324.5
311.639	329.5
311.868	316.5
312.098	333.5
312.328	345.5
312.557	356.5
312.787	365.5
313.017	346.5
313.246	360.5
313.476	327.5
313.706	329.5
313.935	351.5
314.165	342.5
314.394	359.5
314.624	348.5
314.853	370.5
315.083	344.5
315.312	329.5
315.542	323.5
315.771	308.5
316.001	334.5
316.23	333.5
316.46	324.5
316.689	335.5
316.919	329.5
317.148	338.5
317.377	348.5
317.607	335.5
317.836	333.5
318.065	349.5
318.295	324.5
318.524	341.5
318.753	311.5
318.983	321.5
319.212	336.5
319.441	340.5
319.67	356.5
319.9	334.5
320.129	330.5
320.358	340.5
320.587	339.5
320.816	347.5
321.046	355.5
321.275	336.5
321.504	357.5
321.733	355.5
321.962	381.5
322.191	384.5
322.42	382.5
322.649	384.5
322.878	423.5
323.108	422.5
323.337	446.5
323.566	488.5
323.795	510.5
324.024	550.5
324.253	672.5
324.482	981.5
324.71	1495.5
324.939	2052.5
325.168	1697.5
325.397	939.5
325.626	615.5
325.855	521.5
326.084	466.5
326.313	456.5
326.542	466.5
326.77	542.5
326.999	635.5
327.228	871.5
327.457	1293.5
327.686	1505.5
327.914	1006.5
328.143	678.5
328.372	602.5
328.6	590.5
328.829	538.5
329.058	551.5
329.287	549.5
329.515	519.5
329.744	468.5
329.972	461.5
330.201	509.5
330.43	533.5
330.658	566.5
330.887	581.5
331.115	557.5
331.344	475.5
331.572	445.5
331.801	436.5
332.03	447.5
332.258	410.5
332.486	388.5
332.715	390.5
332.943	396.5
333.172	414.5
333.4	406.5
333.629	412.5
333.857	434.5
334.085	425.5
334.314	450.5
334.542	480.5
334.771	516.5
334.999	441.5
335.227	410.5
335.455	391.5
335.684	398.5
335.912	380.5
336.14	396.5
336.369	377.5
336.597	410.5
336.825	378.5
337.053	389.5
337.281	373.5
337.51	389.5
337.738	388.5
337.966	375.5
338.194	400.5
338.422	372.5
338.65	392.5
338.878	384.5
339.106	369.5
339.334	377.5
339.562	385.5
339.79	342.5
340.018	366.5
340.246	373.5
340.474	370.5
340.702	371.5
340.93	382.5
341.158	348.5
341.386	363.5
341.614	377.5
341.842	381.5
342.07	356.5
342.298	359.5
342.526	352.5
342.754	369.5
342.981	365.5
343.209	354.5
343.437	352.5
343.665	363.5
343.893	349.5
344.12	372.5
344.348	372.5
344.576	388.5
344.804	379.5
345.031	398.5
345.259	379.5
345.487	375.5
345.714	381.5
345.942	358.5
346.17	349.5
346.397	346.5
346.625	370.5
346.853	387.5
347.08	356.5
347.308	370.5
347.535	379.5
347.763	374.5
347.99	372.5
348.218	387.5
348.445	375.5
348.673	369.5
348.9	368.5
349.128	368.5
349.355	351.5
349.583	370.5
349.81	317.5
350.037	351.5
350.265	356.5
350.492	355.5
350.72	355.5
350.947	353.5
351.174	374.5
351.402	395.5
351.629	366.5
351.856	362.5
352.083	369.5
352.311	378.5
352.538	388.5
352.765	369.5
352.992	366.5
353.22	375.5
353.447	368.5
353.674	376.5
353.901	334.5
354.128	356.5
354.355	346.5
354.583	350.5
354.81	359.5
355.037	358.5
355.264	349.5
355.491	346.5
355.718	322.5
355.945	322.5
356.172	332.5
356.399	328.5
356.626	332.5
356.853	323.5
357.08	318.5
357.307	320.5
357.534	331.5
357.761	341.5
357.988	345.5
358.215	349.5
358.441	333.5
358.668	359.5
358.895	339.5
359.122	350.5
359.349	364.5
359.576	376.5
359.802	395.5
360.029	416.5
360.256	412.5
360.483	381.5
360.709	371.5
360.936	371.5
361.163	375.5
361.39	359.5
361.616	359.5
361.843	352.5
362.07	365.5
362.296	350.5
362.523	341.5
362.749	361.5
362.976	342.5
363.203	350.5
363.429	343.5
363.656	355.5
363.882	346.5
364.109	344.5
364.335	352.5
364.562	337.5
364.788	334.5
365.015	339.5
365.241	356.5
365.468	338.5
365.694	351.5
365.92	353.5
366.147	348.5
366.373	361.5
366.599	327.5
366.826	332.5
367.052	331.5
367.278	346.5
367.505	344.5
367.731	340.5
367.957	356.5
368.184	338.5
368.41	362.5
368.636	365.5
368.862	346.5
369.089	348.5
369.315	340.5
369.541	343.5
369.767	356.5
369.993	328.5
370.219	363.5
370.445	331.5
370.672	358.5
370.898	354.5
371.124	328.5
371.35	327.5
371.576	320.5
371.802	352.5
372.028	344.5
372.254	325.5
372.48	353.5
372.706	349.5
372.932	348.5
373.158	347.5
373.384	356.5
373.61	340.5
373.835	365.5
374.061	327.5
374.287	352.5
374.513	339.5
374.739	334.5
374.965	342.5
375.191	333.5
375.416	350.5
375.642	341.5
375.868	329.5
376.094	336.5
376.319	332.5
376.545	344.5
376.771	329.5
376.997	324.5
377.222	323.5
377.448	337.5
377.674	335.5
377.899	332.5
378.125	332.5
378.35	339.5
378.576	338.5
378.802	313.5
379.027	325.5
379.253	315.5
379.478	313.5
379.704	331.5
379.929	333.5
380.155	346.5
380.38	324.5
380.606	344.5
380.831	314.5
381.057	336.5
381.282	329.5
381.507	341.5
381.733	360.5
381.958	335.5
382.184	346.5
382.409	359.5
382.634	346.5
382.86	334.5
383.085	356.5
383.31	347.5
383.535	337.5
383.761	355.5
383.986	355.5
384.211	332.5
384.436	336.5
384.662	368.5
384.887	346.5
385.112	344.5
385.337	355.5
385.562	342.5
385.787	365.5
386.013	373.5
386.238	356.5
386.463	378.5
386.688	357.5
386.913	356.5
387.138	352.5
387.363	347.5
387.588	342.5
387.813	373.5
388.038	365.5
388.263	371.5
388.488	374.5
388.713	367.5
388.938	364.5
389.163	359.5
389.387	357.5
389.612	338.5
389.837	357.5
390.062	347.5
390.287	373.5
390.512	348.5
390.736	358.5
390.961	362.5
391.186	350.5
391.411	364.5
391.636	349.5
391.86	366.5
392.085	360.5
392.31	372.5
392.534	374.5
392.759	341.5
392.984	380.5
393.208	365.5
393.433	376.5
393.658	380.5
393.882	341.5
394.107	357.5
394.331	367.5
394.556	377.5
394.78	357.5
395.005	362.5
395.229	360.5
395.454	365.5
395.678	376.5
395.903	369.5
396.127	379.5
396.352	401.5
396.576	379.5
396.801	380.5
397.025	377.5
397.249	382.5
397.474	399.5
397.698	377.5
397.922	409.5
398.147	413.5
398.371	394.5
398.595	400.5
398.82	420.5
399.044	395.5
399.268	424.5
399.492	434.5
399.717	459.5
399.941	473.5
400.165	494.5
400.389	489.5
400.613	450.5
400.837	425.5
401.062	424.5
401.286	411.5
401.51	411.5
401.734	390.5
401.958	402.5
402.182	419.5
402.406	411.5
402.63	437.5
402.854	414.5
403.078	408.5
403.302	432.5
403.526	417.5
403.75	429.5
403.974	413.5
404.198	410.5
404.422	413.5
404.645	433.5
404.869	436.5
405.093	456.5
405.317	484.5
405.541	530.5
405.765	478.5
405.988	433.5
406.212	467.5
406.436	487.5
406.66	484.5
406.883	467.5
407.107	483.5
407.331	513.5
407.555	560.5
407.778	546.5
408.002	496.5
408.226	451.5
408.449	463.5
408.673	458.5
408.896	477.5
409.12	507.5
409.344	494.5
409.567	449.5
409.791	422.5
410.014	433.5
410.238	418.5
410.461	433.5
410.685	425.5
410.908	441.5
411.132	498.5
411.355	483.5
411.578	461.5
411.802	421.5
412.025	414.5
412.249	424.5
412.472	458.5
412.695	483.5
412.919	490.5
413.142	436.5
413.365	406.5
413.589	389.5
413.812	413.5
414.035	418.5
414.258	408.5
414.482	393.5
414.705	409.5
414.928	431.5
415.151	408.5
415.374	394.5
415.597	391.5
415.821	387.5
416.044	398.5
416.267	384.5
416.49	416.5
416.713	402.5
416.936	386.5
417.159	386.5
417.382	418.5
417.605	418.5
417.828	435.5
418.051	423.5
418.274	420.5
418.497	397.5
418.72	407.5
418.943	399.5
419.166	408.5
419.389	423.5
419.611	411.5
419.834	393.5
420.057	407.5
420.28	406.5
420.503	400.5
420.726	424.5
420.948	432.5
421.171	456.5
421.394	493.5
421.617	435.5
421.839	421.5
422.062	432.5
422.285	432.5
422.507	469.5
422.73	539.5
422.953	510.5
423.175	460.5
423.398	458.5
423.621	429.5
423.843	437.5
424.066	456.5
424.288	459.5
424.511	471.5
424.733	527.5
424.956	569.5
425.178	563.5
425.401	551.5
425.623	570.5
425.846	476.5
426.068	476.5
426.291	453.5
426.513	462.5
426.735	470.5
426.958	509.5
427.18	579.5
427.402	651.5
427.625	732.5
427.847	661.5
428.069	564.5
428.292	497.5
428.514	474.5
428.736	454.5
428.958	432.5
429.181	436.5
429.403	436.5
429.625	442.5
429.847	463.5
430.069	505.5
430.292	486.5
430.514	446.5
430.736	437.5
430.958	407.5
431.18	426.5
431.402	404.5
431.624	387.5
431.846	383.5
432.068	397.5
432.29	405.5
432.512	402.5
432.734	434.5
432.956	416.5
433.178	435.5
433.4	426.5
433.622	434.5
433.844	412.5
434.066	405.5
434.287	393.5
434.509	390.5
434.731	434.5
434.953	417.5
435.175	434.5
435.397	442.5
435.618	472.5
435.84	506.5
436.062	561.5
436.284	627.5
436.505	529.5
436.727	483.5
436.949	456.5
437.17	453.5
437.392	432.5
437.614	442.5
437.835	508.5
438.057	564.5
438.278	644.5
438.5	645.5
438.721	688.5
438.943	644.5
439.165	525.5
439.386	462.5
439.608	478.5
439.829	481.5
440.05	500.5
440.272	549.5
440.493	490.5
440.715	474.5
440.936	460.5
441.158	442.5
441.379	416.5
441.6	445.5
441.822	447.5
442.043	499.5
442.264	570.5
442.486	601.5
442.707	531.5
442.928	481.5
443.149	476.5
443.371	505.5
443.592	542.5
443.813	590.5
444.034	630.5
444.255	545.5
444.476	493.5
444.698	496.5
444.919	446.5
445.14	575.5
445.361	531.5
445.582	518.5
445.803	570.5
446.024	639.5
446.245	662.5
446.466	612.5
446.687	479.5
446.908	449.5
447.129	463.5
447.35	448.5
447.571	442.5
447.792	422.5
448.013	435.5
448.234	461.5
448.455	508.5
448.675	598.5
448.896	665.5
449.117	568.5
449.338	540.5
449.559	656.5
449.779	718.5
450	569.5
450.221	488.5
450.442	468.5
450.662	433.5
450.883	444.5
451.104	462.5
451.324	459.5
451.545	418.5
451.766	397.5
451.986	397.5
452.207	373.5
452.428	369.5
452.648	396.5
452.869	392.5
453.089	412.5
453.31	419.5
453.53	411.5
453.751	387.5
453.971	410.5
454.192	410.5
454.412	410.5
454.633	396.5
454.853	386.5
455.073	374.5
455.294	407.5
455.514	465.5
455.734	475.5
455.955	373.5
456.175	378.5
456.395	376.5
456.616	366.5
456.836	359.5
457.056	366.5
457.276	339.5
457.497	374.5
457.717	361.5
457.937	360.5
458.157	371.5
458.377	376.5
458.598	411.5
458.818	460.5
459.038	511.5
459.258	556.5
459.478	473.5
459.698	429.5
459.918	403.5
460.138	406.5
460.358	404.5
460.578	404.5
460.798	395.5
461.018	398.5
461.238	422.5
461.458	398.5
461.678	389.5
461.898	396.5
462.118	402.5
462.338	417.5
462.558	407.5
462.777	423.5
462.997	413.5
463.217	409.5
463.437	425.5
463.657	436.5
463.876	425.5
464.096	422.5
464.316	429.5
464.536	436.5
464.755	427.5
464.975	440.5
465.195	506.5
465.414	568.5
465.634	478.5
465.854	448.5
466.073	418.5
466.293	413.5
466.512	422.5
466.732	405.5
466.951	408.5
467.171	400.5
467.391	401.5
467.61	418.5
467.829	436.5
468.049	416.5
468.268	419.5
468.488	413.5
468.707	395.5
468.927	410.5
469.146	380.5
469.365	399.5
469.585	394.5
469.804	397.5
470.023	400.5
470.243	422.5
470.462	411.5
470.681	420.5
470.901	427.5
471.12	419.5
471.339	404.5
471.558	404.5
471.777	383.5
471.997	394.5
472.216	407.5
472.435	452.5
472.654	445.5
472.873	417.5
473.092	405.5
473.311	407.5
473.53	412.5
473.749	407.5
473.968	445.5
474.187	536.5
474.406	562.5
474.625	469.5
474.844	413.5
475.063	410.5
475.282	408.5
475.501	418.5
475.72	407.5
475.939	404.5
476.158	400.5
476.377	428.5
476.596	401.5
476.814	438.5
477.033	446.5
477.252	442.5
477.471	455.5
477.69	433.5
477.908	429.5
478.127	436.5
478.346	438.5
478.564	428.5
478.783	424.5
479.002	462.5
479.22	462.5
479.439	480.5
479.658	490.5
479.876	501.5
480.095	501.5
480.313	509.5
480.532	481.5
480.751	504.5
480.969	494.5
481.188	581.5
481.406	629.5
481.624	544.5
481.843	487.5
482.061	485.5
482.28	453.5
482.498	473.5
482.717	467.5
482.935	462.5
483.153	480.5
483.372	462.5
483.59	484.5
483.808	458.5
484.027	489.5
484.245	492.5
484.463	467.5
484.681	486.5
484.9	479.5
485.118	479.5
485.336	497.5
485.554	496.5
485.772	493.5
485.99	503.5
486.209	510.5
486.427	493.5
486.645	503.5
486.863	492.5
487.081	486.5
487.299	493.5
487.517	478.5
487.735	481.5
487.953	523.5
488.171	500.5
488.389	514.5
488.607	506.5
488.825	505.5
489.043	509.5
489.261	497.5
489.479	530.5
489.696	504.5
489.914	510.5
490.132	524.5
490.35	536.5
490.568	524.5
490.786	553.5
491.003	537.5
491.221	548.5
491.439	567.5
491.657	558.5
491.874	589.5
492.092	581.5
492.31	562.5
492.527	571.5
492.745	569.5
492.963	595.5
493.18	588.5
493.398	598.5
493.615	597.5
493.833	592.5
494.05	603.5
494.268	594.5
494.485	602.5
494.703	598.5
494.92	587.5
495.138	594.5
495.355	578.5
495.573	593.5
495.79	590.5
496.008	591.5
496.225	606.5
496.442	577.5
496.66	574.5
496.877	585.5
497.094	592.5
497.312	590.5
497.529	588.5
497.746	635.5
497.963	627.5
498.181	624.5
498.398	625.5
498.615	662.5
498.832	655.5
499.049	692.5
499.267	667.5
499.484	685.5
499.701	693.5
499.918	726.5
500.135	735.5
500.352	767.5
500.569	757.5
500.786	776.5
501.003	748.5
501.22	736.5
501.437	740.5
501.654	709.5
501.871	737.5
502.088	738.5
502.305	698.5
502.522	658.5
502.739	658.5
502.956	638.5
503.172	612.5
503.389	618.5
503.606	630.5
503.823	642.5
504.04	619.5
504.256	586.5
504.473	607.5
504.69	596.5
504.907	581.5
505.123	581.5
505.34	580.5
505.557	574.5
505.773	572.5
505.99	599.5
506.207	595.5
506.423	586.5
506.64	570.5
506.856	565.5
507.073	572.5
507.289	558.5
507.506	560.5
507.722	582.5
507.939	617.5
508.155	602.5
508.372	572.5
508.588	544.5
508.805	549.5
509.021	553.5
509.238	566.5
509.454	558.5
509.67	570.5
509.887	561.5
510.103	552.5
510.319	570.5
510.536	675.5
510.752	1189.5
510.968	950.5
511.184	600.5
511.401	564.5
511.617	563.5
511.833	537.5
512.049	540.5
512.265	531.5
512.481	531.5
512.698	545.5
512.914	529.5
513.13	518.5
513.346	544.5
513.562	538.5
513.778	538.5
513.994	572.5
514.21	569.5
514.426	591.5
514.642	635.5
514.858	662.5
515.074	717.5
515.29	887.5
515.506	1336.5
515.721	1058.5
515.937	700.5
516.153	605.5
516.369	534.5
516.585	577.5
516.801	551.5
517.016	548.5
517.232	549.5
517.448	542.5
517.664	536.5
517.879	549.5
518.095	519.5
518.311	532.5
518.527	540.5
518.742	534.5
518.958	521.5
519.173	516.5
519.389	540.5
519.605	523.5
519.82	561.5
