Data from 1965.PennyLincolnUp.Lamp.En5.5.200Scan.071719.P1._HRD10591_14-08-05-910.txt Node
Date: Thu Jul 18 14:08:05 EDT 2019
User: cochatt
Spectrometer: HR+D1059
Trigger mode: 1
Integration Time (sec): 1.000000E-1
Scans to average: 1
Electric dark correction enabled: true
Nonlinearity correction enabled: false
Boxcar width: 0
XAxis mode: Wavelengths
Number of Pixels in Spectrum: 2048
>>>>>Begin Spectral Data<<<<<
223.165	-16.38
223.4	-16.38
223.635	-16.38
223.869	-19.38
224.104	-13.38
224.338	-3.38
224.573	-9.38
224.808	-7.38
225.042	-16.38
225.277	-13.38
225.511	-2.38
225.746	-2.38
225.98	1.62
226.215	11.62
226.449	19.62
226.683	11.62
226.918	23.62
227.152	35.62
227.387	44.62
227.621	49.62
227.856	50.62
228.09	46.62
228.324	35.62
228.559	53.62
228.793	69.62
229.027	98.62
229.262	90.62
229.496	96.62
229.73	112.62
229.964	124.62
230.199	114.62
230.433	115.62
230.667	104.62
230.901	91.62
231.136	111.62
231.37	115.62
231.604	113.62
231.838	107.62
232.072	109.62
232.306	117.62
232.541	106.62
232.775	101.62
233.009	109.62
233.243	97.62
233.477	99.62
233.711	119.62
233.945	117.62
234.179	131.62
234.413	101.62
234.647	107.62
234.881	118.62
235.115	110.62
235.349	103.62
235.583	113.62
235.817	114.62
236.051	115.62
236.285	114.62
236.519	125.62
236.753	136.62
236.987	142.62
237.221	160.62
237.455	195.62
237.689	144.62
237.922	121.62
238.156	114.62
238.39	122.62
238.624	125.62
238.858	115.62
239.091	117.62
239.325	117.62
239.559	117.62
239.793	119.62
240.027	129.62
240.26	122.62
240.494	139.62
240.728	137.62
240.961	139.62
241.195	131.62
241.429	133.62
241.662	110.62
241.896	120.62
242.13	119.62
242.363	117.62
242.597	111.62
242.83	125.62
243.064	133.62
243.298	130.62
243.531	137.62
243.765	109.62
243.998	121.62
244.232	126.62
244.465	137.62
244.699	125.62
244.932	134.62
245.166	130.62
245.399	123.62
245.633	137.62
245.866	137.62
246.099	119.62
246.333	121.62
246.566	137.62
246.8	134.62
247.033	130.62
247.266	159.62
247.5	147.62
247.733	140.62
247.966	147.62
248.2	152.62
248.433	155.62
248.666	171.62
248.899	162.62
249.133	168.62
249.366	173.62
249.599	163.62
249.832	161.62
250.066	159.62
250.299	155.62
250.532	171.62
250.765	169.62
250.998	173.62
251.231	179.62
251.465	189.62
251.698	178.62
251.931	173.62
252.164	165.62
252.397	176.62
252.63	174.62
252.863	169.62
253.096	177.62
253.329	188.62
253.562	196.62
253.795	191.62
254.028	186.62
254.261	180.62
254.494	174.62
254.727	202.62
254.96	210.62
255.193	219.62
255.426	185.62
255.659	168.62
255.892	201.62
256.124	181.62
256.357	187.62
256.59	194.62
256.823	190.62
257.056	173.62
257.289	175.62
257.521	170.62
257.754	169.62
257.987	169.62
258.22	174.62
258.452	163.62
258.685	186.62
258.918	195.62
259.151	172.62
259.383	185.62
259.616	189.62
259.849	193.62
260.081	187.62
260.314	193.62
260.547	215.62
260.779	215.62
261.012	203.62
261.244	192.62
261.477	199.62
261.71	189.62
261.942	167.62
262.175	202.62
262.407	204.62
262.64	201.62
262.872	173.62
263.105	176.62
263.337	165.62
263.57	176.62
263.802	188.62
264.035	179.62
264.267	176.62
264.499	178.62
264.732	183.62
264.964	172.62
265.197	169.62
265.429	163.62
265.661	181.62
265.894	188.62
266.126	183.62
266.358	185.62
266.591	184.62
266.823	187.62
267.055	199.62
267.287	176.62
267.52	183.62
267.752	183.62
267.984	181.62
268.216	187.62
268.448	206.62
268.681	217.62
268.913	199.62
269.145	220.62
269.377	210.62
269.609	232.62
269.841	207.62
270.073	234.62
270.306	234.62
270.538	250.62
270.77	234.62
271.002	248.62
271.234	245.62
271.466	248.62
271.698	235.62
271.93	240.62
272.162	247.62
272.394	253.62
272.626	250.62
272.858	248.62
273.09	227.62
273.322	223.62
273.553	219.62
273.785	211.62
274.017	230.62
274.249	213.62
274.481	215.62
274.713	205.62
274.945	218.62
275.176	219.62
275.408	241.62
275.64	216.62
275.872	218.62
276.104	238.62
276.335	218.62
276.567	233.62
276.799	239.62
277.031	242.62
277.262	258.62
277.494	251.62
277.726	235.62
277.957	229.62
278.189	228.62
278.421	210.62
278.652	214.62
278.884	206.62
279.115	226.62
279.347	204.62
279.579	213.62
279.81	211.62
280.042	232.62
280.273	226.62
280.505	231.62
280.736	229.62
280.968	224.62
281.199	199.62
281.431	213.62
281.662	231.62
281.894	212.62
282.125	228.62
282.356	238.62
282.588	236.62
282.819	234.62
283.051	225.62
283.282	223.62
283.513	232.62
283.745	215.62
283.976	205.62
284.207	226.62
284.439	229.62
284.67	241.62
284.901	224.62
285.132	223.62
285.364	233.62
285.595	229.62
285.826	234.62
286.057	234.62
286.288	216.62
286.52	232.62
286.751	230.62
286.982	222.62
287.213	227.62
287.444	232.62
287.675	239.62
287.906	234.62
288.138	243.62
288.369	250.62
288.6	239.62
288.831	227.62
289.062	238.62
289.293	229.62
289.524	229.62
289.755	232.62
289.986	222.62
290.217	232.62
290.448	224.62
290.679	228.62
290.91	225.62
291.141	251.62
291.371	240.62
291.602	228.62
291.833	227.62
292.064	229.62
292.295	231.62
292.526	251.62
292.757	242.62
292.987	235.62
293.218	225.62
293.449	241.62
293.68	215.62
293.91	253.62
294.141	233.62
294.372	246.62
294.603	232.62
294.833	242.62
295.064	250.62
295.295	260.62
295.525	234.62
295.756	234.62
295.987	253.62
296.217	263.62
296.448	265.62
296.679	250.62
296.909	233.62
297.14	219.62
297.37	241.62
297.601	250.62
297.831	241.62
298.062	240.62
298.292	249.62
298.523	259.62
298.753	253.62
298.984	246.62
299.214	236.62
299.445	255.62
299.675	253.62
299.905	266.62
300.136	252.62
300.366	242.62
300.597	246.62
300.827	251.62
301.057	263.62
301.288	265.62
301.518	265.62
301.748	269.62
301.979	264.62
302.209	257.62
302.439	274.62
302.669	255.62
302.9	261.62
303.13	270.62
303.36	265.62
303.59	261.62
303.82	276.62
304.051	260.62
304.281	262.62
304.511	272.62
304.741	254.62
304.971	267.62
305.201	266.62
305.431	249.62
305.661	266.62
305.891	274.62
306.121	286.62
306.352	283.62
306.582	270.62
306.812	281.62
307.042	272.62
307.272	248.62
307.502	260.62
307.731	286.62
307.961	271.62
308.191	267.62
308.421	274.62
308.651	261.62
308.881	285.62
309.111	281.62
309.341	287.62
309.571	288.62
309.8	286.62
310.03	299.62
310.26	323.62
310.49	285.62
310.72	296.62
310.949	307.62
311.179	324.62
311.409	303.62
311.639	318.62
311.868	310.62
312.098	330.62
312.328	318.62
312.557	310.62
312.787	341.62
313.017	329.62
313.246	313.62
313.476	300.62
313.706	301.62
313.935	301.62
314.165	313.62
314.394	320.62
314.624	317.62
314.853	331.62
315.083	307.62
315.312	295.62
315.542	294.62
315.771	288.62
316.001	303.62
316.23	299.62
316.46	289.62
316.689	300.62
316.919	296.62
317.148	318.62
317.377	333.62
317.607	319.62
317.836	329.62
318.065	313.62
318.295	306.62
318.524	310.62
318.753	303.62
318.983	313.62
319.212	309.62
319.441	297.62
319.67	329.62
319.9	318.62
320.129	309.62
320.358	311.62
320.587	310.62
320.816	313.62
321.046	315.62
321.275	340.62
321.504	327.62
321.733	333.62
321.962	328.62
322.191	342.62
322.42	358.62
322.649	358.62
322.878	378.62
323.108	370.62
323.337	375.62
323.566	411.62
323.795	421.62
324.024	461.62
324.253	563.62
324.482	814.62
324.71	1249.62
324.939	1668.62
325.168	1409.62
325.397	746.62
325.626	545.62
325.855	441.62
326.084	395.62
326.313	418.62
326.542	411.62
326.77	461.62
326.999	533.62
327.228	745.62
327.457	1098.62
327.686	1250.62
327.914	821.62
328.143	569.62
328.372	519.62
328.6	474.62
328.829	459.62
329.058	459.62
329.287	473.62
329.515	463.62
329.744	418.62
329.972	394.62
330.201	412.62
330.43	457.62
330.658	475.62
330.887	495.62
331.115	469.62
331.344	419.62
331.572	393.62
331.801	403.62
332.03	385.62
332.258	370.62
332.486	357.62
332.715	365.62
332.943	349.62
333.172	343.62
333.4	357.62
333.629	365.62
333.857	382.62
334.085	403.62
334.314	398.62
334.542	425.62
334.771	420.62
334.999	388.62
335.227	391.62
335.455	362.62
335.684	365.62
335.912	335.62
336.14	377.62
336.369	344.62
336.597	347.62
336.825	364.62
337.053	374.62
337.281	339.62
337.51	359.62
337.738	365.62
337.966	351.62
338.194	344.62
338.422	345.62
338.65	375.62
338.878	362.62
339.106	346.62
339.334	346.62
339.562	346.62
339.79	342.62
340.018	328.62
340.246	351.62
340.474	348.62
340.702	361.62
340.93	368.62
341.158	328.62
341.386	330.62
341.614	351.62
341.842	341.62
342.07	329.62
342.298	335.62
342.526	341.62
342.754	325.62
342.981	321.62
343.209	345.62
343.437	321.62
343.665	334.62
343.893	347.62
344.12	357.62
344.348	347.62
344.576	354.62
344.804	339.62
345.031	360.62
345.259	385.62
345.487	348.62
345.714	333.62
345.942	346.62
346.17	341.62
346.397	338.62
346.625	337.62
346.853	336.62
347.08	340.62
347.308	335.62
347.535	367.62
347.763	356.62
347.99	339.62
348.218	343.62
348.445	347.62
348.673	352.62
348.9	322.62
349.128	337.62
349.355	324.62
349.583	325.62
349.81	323.62
350.037	324.62
350.265	325.62
350.492	331.62
350.72	326.62
350.947	336.62
351.174	353.62
351.402	354.62
351.629	352.62
351.856	334.62
352.083	338.62
352.311	347.62
352.538	354.62
352.765	373.62
352.992	369.62
353.22	327.62
353.447	340.62
353.674	329.62
353.901	330.62
354.128	326.62
354.355	320.62
354.583	330.62
354.81	311.62
355.037	311.62
355.264	313.62
355.491	313.62
355.718	306.62
355.945	306.62
356.172	311.62
356.399	311.62
356.626	303.62
356.853	331.62
357.08	309.62
357.307	318.62
357.534	304.62
357.761	311.62
357.988	318.62
358.215	325.62
358.441	303.62
358.668	307.62
358.895	305.62
359.122	322.62
359.349	351.62
359.576	338.62
359.802	354.62
360.029	364.62
360.256	379.62
360.483	353.62
360.709	342.62
360.936	339.62
361.163	345.62
361.39	345.62
361.616	351.62
361.843	333.62
362.07	337.62
362.296	332.62
362.523	347.62
362.749	330.62
362.976	315.62
363.203	331.62
363.429	336.62
363.656	331.62
363.882	321.62
364.109	321.62
364.335	307.62
364.562	333.62
364.788	323.62
365.015	311.62
365.241	321.62
365.468	358.62
365.694	331.62
365.92	313.62
366.147	328.62
366.373	316.62
366.599	328.62
366.826	319.62
367.052	321.62
367.278	305.62
367.505	318.62
367.731	323.62
367.957	320.62
368.184	338.62
368.41	341.62
368.636	340.62
368.862	332.62
369.089	333.62
369.315	318.62
369.541	338.62
369.767	343.62
369.993	335.62
370.219	304.62
370.445	303.62
370.672	325.62
370.898	321.62
371.124	307.62
371.35	320.62
371.576	304.62
371.802	327.62
372.028	310.62
372.254	316.62
372.48	329.62
372.706	313.62
372.932	324.62
373.158	305.62
373.384	324.62
373.61	333.62
373.835	307.62
374.061	319.62
374.287	316.62
374.513	313.62
374.739	332.62
374.965	329.62
375.191	328.62
375.416	322.62
375.642	327.62
375.868	325.62
376.094	320.62
376.319	332.62
376.545	304.62
376.771	323.62
376.997	317.62
377.222	319.62
377.448	334.62
377.674	324.62
377.899	326.62
378.125	306.62
378.35	321.62
378.576	306.62
378.802	334.62
379.027	319.62
379.253	322.62
379.478	322.62
379.704	334.62
379.929	329.62
380.155	321.62
380.38	312.62
380.606	318.62
380.831	322.62
381.057	339.62
381.282	313.62
381.507	321.62
381.733	309.62
381.958	315.62
382.184	310.62
382.409	329.62
382.634	317.62
382.86	318.62
383.085	312.62
383.31	318.62
383.535	335.62
383.761	321.62
383.986	344.62
384.211	326.62
384.436	307.62
384.662	349.62
384.887	338.62
385.112	330.62
385.337	338.62
385.562	344.62
385.787	339.62
386.013	369.62
386.238	351.62
386.463	360.62
386.688	349.62
386.913	353.62
387.138	351.62
387.363	336.62
387.588	344.62
387.813	351.62
388.038	336.62
388.263	328.62
388.488	357.62
388.713	347.62
388.938	343.62
389.163	345.62
389.387	343.62
389.612	344.62
389.837	346.62
390.062	347.62
390.287	345.62
390.512	335.62
390.736	324.62
390.961	325.62
391.186	327.62
391.411	346.62
391.636	340.62
391.86	372.62
392.085	353.62
392.31	348.62
392.534	348.62
392.759	347.62
392.984	358.62
393.208	353.62
393.433	360.62
393.658	350.62
393.882	356.62
394.107	339.62
394.331	343.62
394.556	357.62
394.78	345.62
395.005	355.62
395.229	359.62
395.454	343.62
395.678	356.62
395.903	369.62
396.127	385.62
396.352	368.62
396.576	358.62
396.801	355.62
397.025	363.62
397.249	369.62
397.474	354.62
397.698	367.62
397.922	387.62
398.147	365.62
398.371	386.62
398.595	393.62
398.82	399.62
399.044	403.62
399.268	413.62
399.492	405.62
399.717	437.62
399.941	444.62
400.165	472.62
400.389	451.62
400.613	400.62
400.837	416.62
401.062	406.62
401.286	399.62
401.51	398.62
401.734	393.62
401.958	405.62
402.182	380.62
402.406	413.62
402.63	390.62
402.854	385.62
403.078	377.62
403.302	393.62
403.526	369.62
403.75	394.62
403.974	396.62
404.198	393.62
404.422	387.62
404.645	409.62
404.869	419.62
405.093	430.62
405.317	450.62
405.541	464.62
405.765	431.62
405.988	408.62
406.212	437.62
406.436	443.62
406.66	443.62
406.883	427.62
407.107	439.62
407.331	476.62
407.555	519.62
407.778	537.62
408.002	481.62
408.226	453.62
408.449	436.62
408.673	451.62
408.896	473.62
409.12	468.62
409.344	466.62
409.567	425.62
409.791	419.62
410.014	413.62
410.238	388.62
410.461	407.62
410.685	419.62
410.908	420.62
411.132	470.62
411.355	459.62
411.578	443.62
411.802	396.62
412.025	397.62
412.249	428.62
412.472	420.62
412.695	433.62
412.919	439.62
413.142	412.62
413.365	417.62
413.589	389.62
413.812	399.62
414.035	381.62
414.258	378.62
414.482	382.62
414.705	393.62
414.928	387.62
415.151	386.62
415.374	381.62
415.597	363.62
415.821	383.62
416.044	374.62
416.267	386.62
416.49	382.62
416.713	388.62
416.936	385.62
417.159	371.62
417.382	374.62
417.605	389.62
417.828	372.62
418.051	390.62
418.274	390.62
418.497	377.62
418.72	404.62
418.943	377.62
419.166	400.62
419.389	417.62
419.611	423.62
419.834	414.62
420.057	407.62
420.28	389.62
420.503	366.62
420.726	387.62
420.948	416.62
421.171	435.62
421.394	437.62
421.617	425.62
421.839	397.62
422.062	413.62
422.285	429.62
422.507	461.62
422.73	509.62
422.953	471.62
423.175	429.62
423.398	440.62
423.621	417.62
423.843	405.62
424.066	430.62
424.288	425.62
424.511	432.62
424.733	485.62
424.956	547.62
425.178	504.62
425.401	509.62
425.623	528.62
425.846	458.62
426.068	431.62
426.291	408.62
426.513	453.62
426.735	445.62
426.958	457.62
427.18	545.62
427.402	613.62
427.625	674.62
427.847	609.62
428.069	519.62
428.292	477.62
428.514	459.62
428.736	416.62
428.958	431.62
429.181	409.62
429.403	400.62
429.625	408.62
429.847	461.62
430.069	487.62
430.292	484.62
430.514	397.62
430.736	413.62
430.958	404.62
431.18	390.62
431.402	381.62
431.624	394.62
431.846	365.62
432.068	381.62
432.29	379.62
432.512	375.62
432.734	386.62
432.956	389.62
433.178	383.62
433.4	384.62
433.622	398.62
433.844	385.62
434.066	381.62
434.287	385.62
434.509	377.62
434.731	402.62
434.953	387.62
435.175	414.62
435.397	435.62
435.618	425.62
435.84	474.62
436.062	538.62
436.284	595.62
436.505	491.62
436.727	440.62
436.949	392.62
437.17	399.62
437.392	415.62
437.614	415.62
437.835	414.62
438.057	513.62
438.278	555.62
438.5	572.62
438.721	633.62
438.943	614.62
439.165	485.62
439.386	451.62
439.608	448.62
439.829	447.62
440.05	453.62
440.272	486.62
440.493	451.62
440.715	427.62
440.936	411.62
441.158	397.62
441.379	402.62
441.6	417.62
441.822	436.62
442.043	482.62
442.264	533.62
442.486	551.62
442.707	473.62
442.928	440.62
443.149	442.62
443.371	465.62
443.592	513.62
443.813	569.62
444.034	595.62
444.255	510.62
444.476	446.62
444.698	421.62
444.919	442.62
445.14	535.62
445.361	478.62
445.582	474.62
445.803	505.62
446.024	589.62
446.245	595.62
446.466	543.62
446.687	469.62
446.908	444.62
447.129	413.62
447.35	399.62
447.571	408.62
447.792	411.62
448.013	404.62
448.234	429.62
448.455	467.62
448.675	547.62
448.896	609.62
449.117	537.62
449.338	507.62
449.559	594.62
449.779	631.62
450	532.62
450.221	433.62
450.442	407.62
450.662	405.62
450.883	407.62
451.104	423.62
451.324	426.62
451.545	371.62
451.766	383.62
451.986	362.62
452.207	375.62
452.428	368.62
452.648	368.62
452.869	364.62
453.089	381.62
453.31	392.62
453.53	368.62
453.751	353.62
453.971	372.62
454.192	389.62
454.412	389.62
454.633	378.62
454.853	361.62
455.073	370.62
455.294	396.62
455.514	404.62
455.734	419.62
455.955	355.62
456.175	345.62
456.395	350.62
456.616	356.62
456.836	354.62
457.056	346.62
457.276	343.62
457.497	345.62
457.717	347.62
457.937	362.62
458.157	357.62
458.377	356.62
458.598	386.62
458.818	439.62
459.038	484.62
459.258	494.62
459.478	441.62
459.698	391.62
459.918	360.62
460.138	380.62
460.358	407.62
460.578	378.62
460.798	395.62
461.018	386.62
461.238	375.62
461.458	385.62
461.678	395.62
461.898	394.62
462.118	410.62
462.338	390.62
462.558	393.62
462.777	417.62
462.997	431.62
463.217	429.62
463.437	422.62
463.657	402.62
463.876	400.62
464.096	412.62
464.316	407.62
464.536	417.62
464.755	410.62
464.975	416.62
465.195	462.62
465.414	515.62
465.634	466.62
465.854	395.62
466.073	393.62
466.293	380.62
466.512	388.62
466.732	376.62
466.951	395.62
467.171	381.62
467.391	391.62
467.61	363.62
467.829	393.62
468.049	396.62
468.268	384.62
468.488	370.62
468.707	377.62
468.927	359.62
469.146	382.62
469.365	362.62
469.585	370.62
469.804	364.62
470.023	391.62
470.243	379.62
470.462	382.62
470.681	405.62
470.901	391.62
471.12	380.62
471.339	391.62
471.558	378.62
471.777	395.62
471.997	383.62
472.216	392.62
472.435	399.62
472.654	392.62
472.873	385.62
473.092	376.62
473.311	375.62
473.53	370.62
473.749	393.62
473.968	419.62
474.187	492.62
474.406	493.62
474.625	432.62
474.844	385.62
475.063	383.62
475.282	392.62
475.501	396.62
475.72	390.62
475.939	391.62
476.158	400.62
476.377	404.62
476.596	394.62
476.814	421.62
477.033	397.62
477.252	390.62
477.471	384.62
477.69	395.62
477.908	391.62
478.127	417.62
478.346	407.62
478.564	397.62
478.783	398.62
479.002	437.62
479.22	439.62
479.439	430.62
479.658	427.62
479.876	456.62
480.095	443.62
480.313	461.62
480.532	473.62
480.751	456.62
480.969	460.62
481.188	508.62
481.406	553.62
481.624	488.62
481.843	459.62
482.061	463.62
482.28	460.62
482.498	471.62
482.717	450.62
482.935	444.62
483.153	469.62
483.372	470.62
483.59	437.62
483.808	461.62
484.027	437.62
484.245	433.62
484.463	458.62
484.681	462.62
484.9	444.62
485.118	454.62
485.336	470.62
485.554	453.62
485.772	451.62
485.99	468.62
486.209	455.62
486.427	449.62
486.645	487.62
486.863	483.62
487.081	482.62
487.299	497.62
487.517	470.62
487.735	487.62
487.953	477.62
488.171	481.62
488.389	484.62
488.607	489.62
488.825	479.62
489.043	470.62
489.261	491.62
489.479	489.62
489.696	475.62
489.914	472.62
490.132	485.62
490.35	497.62
490.568	495.62
490.786	506.62
491.003	512.62
491.221	528.62
491.439	536.62
491.657	525.62
491.874	522.62
492.092	537.62
492.31	519.62
492.527	544.62
492.745	561.62
492.963	549.62
493.18	542.62
493.398	543.62
493.615	547.62
493.833	550.62
494.05	575.62
494.268	563.62
494.485	566.62
494.703	567.62
494.92	542.62
495.138	573.62
495.355	552.62
495.573	573.62
495.79	565.62
496.008	577.62
496.225	530.62
496.442	573.62
496.66	554.62
496.877	575.62
497.094	574.62
497.312	575.62
497.529	587.62
497.746	594.62
497.963	577.62
498.181	604.62
498.398	600.62
498.615	600.62
498.832	624.62
499.049	629.62
499.267	633.62
499.484	656.62
499.701	652.62
499.918	706.62
500.135	713.62
500.352	723.62
500.569	734.62
500.786	721.62
501.003	732.62
501.22	716.62
501.437	675.62
501.654	703.62
501.871	693.62
502.088	659.62
