Data from 1965.PennyLincolnUp.Lamp.En5.5.200Scan.071719.P1._HRD10591_14-08-44-912.txt Node
Date: Thu Jul 18 14:08:44 EDT 2019
User: cochatt
Spectrometer: HR+D1059
Trigger mode: 1
Integration Time (sec): 1.000000E-1
Scans to average: 1
Electric dark correction enabled: true
Nonlinearity correction enabled: false
Boxcar width: 0
XAxis mode: Wavelengths
Number of Pixels in Spectrum: 2048
>>>>>Begin Spectral Data<<<<<
223.165	-16.5
223.4	-16.5
223.635	-16.5
223.869	-7.5
224.104	-24.5
224.338	-21.5
224.573	-25.5
224.808	-19.5
225.042	-4.5
225.277	-9.5
225.511	4.5
225.746	7.5
225.98	-2.5
226.215	12.5
226.449	8.5
226.683	20.5
226.918	36.5
227.152	41.5
227.387	35.5
227.621	36.5
227.856	47.5
228.09	47.5
228.324	46.5
228.559	60.5
228.793	71.5
229.027	83.5
229.262	99.5
229.496	102.5
229.73	125.5
229.964	132.5
230.199	112.5
230.433	114.5
230.667	102.5
230.901	108.5
231.136	109.5
231.37	110.5
231.604	101.5
231.838	93.5
232.072	104.5
232.306	97.5
232.541	104.5
232.775	112.5
233.009	110.5
233.243	114.5
233.477	107.5
233.711	110.5
233.945	103.5
234.179	112.5
234.413	114.5
234.647	102.5
234.881	111.5
235.115	100.5
235.349	105.5
235.583	108.5
235.817	115.5
236.051	108.5
236.285	111.5
236.519	105.5
236.753	113.5
236.987	130.5
237.221	173.5
237.455	214.5
237.689	163.5
237.922	115.5
238.156	130.5
238.39	120.5
238.624	104.5
238.858	110.5
239.091	103.5
239.325	117.5
239.559	123.5
239.793	116.5
240.027	119.5
240.26	124.5
240.494	146.5
240.728	131.5
240.961	126.5
241.195	132.5
241.429	120.5
241.662	131.5
241.896	113.5
242.13	110.5
242.363	124.5
242.597	128.5
242.83	141.5
243.064	124.5
243.298	140.5
243.531	127.5
243.765	135.5
243.998	127.5
244.232	126.5
244.465	125.5
244.699	142.5
244.932	129.5
245.166	127.5
245.399	130.5
245.633	136.5
245.866	127.5
246.099	120.5
246.333	125.5
246.566	124.5
246.8	126.5
247.033	136.5
247.266	132.5
247.5	145.5
247.733	143.5
247.966	160.5
248.2	150.5
248.433	144.5
248.666	157.5
248.899	154.5
249.133	177.5
249.366	187.5
249.599	174.5
249.832	154.5
250.066	166.5
250.299	171.5
250.532	173.5
250.765	187.5
250.998	175.5
251.231	176.5
251.465	179.5
251.698	159.5
251.931	159.5
252.164	171.5
252.397	175.5
252.63	163.5
252.863	175.5
253.096	185.5
253.329	198.5
253.562	187.5
253.795	182.5
254.028	206.5
254.261	189.5
254.494	192.5
254.727	212.5
254.96	235.5
255.193	220.5
255.426	208.5
255.659	199.5
255.892	198.5
256.124	205.5
256.357	190.5
256.59	207.5
256.823	176.5
257.056	178.5
257.289	174.5
257.521	192.5
257.754	182.5
257.987	184.5
258.22	168.5
258.452	175.5
258.685	190.5
258.918	171.5
259.151	182.5
259.383	187.5
259.616	210.5
259.849	190.5
260.081	195.5
260.314	213.5
260.547	225.5
260.779	223.5
261.012	206.5
261.244	192.5
261.477	200.5
261.71	198.5
261.942	204.5
262.175	217.5
262.407	197.5
262.64	175.5
262.872	198.5
263.105	179.5
263.337	179.5
263.57	175.5
263.802	170.5
264.035	171.5
264.267	169.5
264.499	184.5
264.732	182.5
264.964	176.5
265.197	178.5
265.429	163.5
265.661	196.5
265.894	194.5
266.126	183.5
266.358	199.5
266.591	205.5
266.823	201.5
267.055	192.5
267.287	196.5
267.52	204.5
267.752	203.5
267.984	197.5
268.216	202.5
268.448	210.5
268.681	198.5
268.913	223.5
269.145	230.5
269.377	222.5
269.609	240.5
269.841	216.5
270.073	221.5
270.306	240.5
270.538	270.5
270.77	264.5
271.002	268.5
271.234	236.5
271.466	254.5
271.698	239.5
271.93	254.5
272.162	277.5
272.394	278.5
272.626	246.5
272.858	243.5
273.09	236.5
273.322	216.5
273.553	219.5
273.785	231.5
274.017	210.5
274.249	229.5
274.481	223.5
274.713	243.5
274.945	217.5
275.176	231.5
275.408	233.5
275.64	221.5
275.872	212.5
276.104	206.5
276.335	221.5
276.567	223.5
276.799	237.5
277.031	266.5
277.262	268.5
277.494	248.5
277.726	258.5
277.957	243.5
278.189	231.5
278.421	228.5
278.652	226.5
278.884	224.5
279.115	212.5
279.347	213.5
279.579	229.5
279.81	221.5
280.042	207.5
280.273	207.5
280.505	247.5
280.736	221.5
280.968	216.5
281.199	214.5
281.431	226.5
281.662	221.5
281.894	227.5
282.125	224.5
282.356	249.5
282.588	263.5
282.819	266.5
283.051	221.5
283.282	222.5
283.513	228.5
283.745	231.5
283.976	255.5
284.207	236.5
284.439	222.5
284.67	229.5
284.901	229.5
285.132	238.5
285.364	206.5
285.595	208.5
285.826	245.5
286.057	225.5
286.288	239.5
286.52	234.5
286.751	218.5
286.982	244.5
287.213	213.5
287.444	227.5
287.675	240.5
287.906	244.5
288.138	252.5
288.369	233.5
288.6	235.5
288.831	248.5
289.062	255.5
289.293	244.5
289.524	232.5
289.755	258.5
289.986	234.5
290.217	237.5
290.448	236.5
290.679	260.5
290.91	236.5
291.141	246.5
291.371	218.5
291.602	238.5
291.833	259.5
292.064	242.5
292.295	236.5
292.526	243.5
292.757	245.5
292.987	240.5
293.218	237.5
293.449	235.5
293.68	239.5
293.91	233.5
294.141	235.5
294.372	248.5
294.603	247.5
294.833	235.5
295.064	249.5
295.295	230.5
295.525	238.5
295.756	242.5
295.987	244.5
296.217	271.5
296.448	274.5
296.679	270.5
296.909	250.5
297.14	243.5
297.37	260.5
297.601	246.5
297.831	237.5
298.062	239.5
298.292	240.5
298.523	235.5
298.753	237.5
298.984	245.5
299.214	250.5
299.445	237.5
299.675	253.5
299.905	271.5
300.136	256.5
300.366	248.5
300.597	263.5
300.827	266.5
301.057	254.5
301.288	279.5
301.518	272.5
301.748	269.5
301.979	280.5
302.209	280.5
302.439	267.5
302.669	265.5
302.9	271.5
303.13	269.5
303.36	279.5
303.59	296.5
303.82	302.5
304.051	283.5
304.281	280.5
304.511	256.5
304.741	280.5
304.971	257.5
305.201	281.5
305.431	277.5
305.661	257.5
305.891	262.5
306.121	260.5
306.352	264.5
306.582	267.5
306.812	259.5
307.042	282.5
307.272	274.5
307.502	275.5
307.731	280.5
307.961	269.5
308.191	269.5
308.421	267.5
308.651	279.5
308.881	293.5
309.111	263.5
309.341	280.5
309.571	280.5
309.8	287.5
310.03	304.5
310.26	314.5
310.49	324.5
310.72	331.5
310.949	343.5
311.179	341.5
311.409	330.5
311.639	310.5
311.868	312.5
312.098	316.5
312.328	334.5
312.557	336.5
312.787	347.5
313.017	358.5
313.246	340.5
313.476	300.5
313.706	326.5
313.935	322.5
314.165	327.5
314.394	343.5
314.624	333.5
314.853	319.5
315.083	312.5
315.312	299.5
315.542	309.5
315.771	305.5
316.001	318.5
316.23	316.5
316.46	312.5
316.689	311.5
316.919	325.5
317.148	325.5
317.377	329.5
317.607	332.5
317.836	310.5
318.065	327.5
318.295	335.5
318.524	308.5
318.753	315.5
318.983	326.5
319.212	325.5
319.441	319.5
319.67	321.5
319.9	312.5
320.129	315.5
320.358	316.5
320.587	312.5
320.816	326.5
321.046	348.5
321.275	324.5
321.504	328.5
321.733	339.5
321.962	348.5
322.191	370.5
322.42	355.5
322.649	378.5
322.878	374.5
323.108	382.5
323.337	410.5
323.566	412.5
323.795	474.5
324.024	512.5
324.253	618.5
324.482	890.5
324.71	1330.5
324.939	1840.5
325.168	1557.5
325.397	846.5
325.626	580.5
325.855	452.5
326.084	454.5
326.313	422.5
326.542	422.5
326.77	482.5
326.999	577.5
327.228	804.5
327.457	1174.5
327.686	1376.5
327.914	935.5
328.143	634.5
328.372	568.5
328.6	516.5
328.829	498.5
329.058	495.5
329.287	503.5
329.515	477.5
329.744	446.5
329.972	417.5
330.201	465.5
330.43	492.5
330.658	495.5
330.887	538.5
331.115	513.5
331.344	460.5
331.572	408.5
331.801	423.5
332.03	425.5
332.258	401.5
332.486	385.5
332.715	367.5
332.943	370.5
333.172	375.5
333.4	382.5
333.629	372.5
333.857	375.5
334.085	418.5
334.314	414.5
334.542	442.5
334.771	451.5
334.999	392.5
335.227	381.5
335.455	382.5
335.684	372.5
335.912	370.5
336.14	378.5
336.369	387.5
336.597	394.5
336.825	369.5
337.053	374.5
337.281	348.5
337.51	354.5
337.738	378.5
337.966	352.5
338.194	353.5
338.422	366.5
338.65	361.5
338.878	362.5
339.106	339.5
339.334	358.5
339.562	335.5
339.79	345.5
340.018	366.5
340.246	376.5
340.474	374.5
340.702	357.5
340.93	336.5
341.158	331.5
341.386	347.5
341.614	355.5
341.842	362.5
342.07	333.5
342.298	347.5
342.526	347.5
342.754	331.5
342.981	346.5
343.209	327.5
343.437	357.5
343.665	353.5
343.893	349.5
344.12	370.5
344.348	336.5
344.576	372.5
344.804	366.5
345.031	370.5
345.259	375.5
345.487	350.5
345.714	363.5
345.942	359.5
346.17	349.5
346.397	351.5
346.625	350.5
346.853	343.5
347.08	332.5
347.308	359.5
347.535	361.5
347.763	341.5
347.99	338.5
348.218	361.5
348.445	363.5
348.673	356.5
348.9	355.5
349.128	330.5
349.355	337.5
349.583	340.5
349.81	347.5
350.037	335.5
350.265	327.5
350.492	333.5
350.72	326.5
350.947	327.5
351.174	359.5
351.402	356.5
351.629	362.5
351.856	340.5
352.083	360.5
352.311	363.5
352.538	354.5
352.765	362.5
352.992	351.5
353.22	355.5
353.447	356.5
353.674	336.5
353.901	329.5
354.128	318.5
354.355	323.5
354.583	324.5
354.81	320.5
355.037	322.5
355.264	314.5
355.491	326.5
355.718	314.5
355.945	319.5
356.172	321.5
356.399	327.5
356.626	327.5
356.853	325.5
357.08	310.5
357.307	314.5
357.534	324.5
357.761	329.5
357.988	323.5
358.215	326.5
358.441	320.5
358.668	334.5
358.895	335.5
359.122	333.5
359.349	308.5
359.576	342.5
359.802	379.5
360.029	401.5
360.256	392.5
360.483	382.5
360.709	348.5
360.936	356.5
361.163	342.5
361.39	326.5
361.616	347.5
361.843	336.5
362.07	367.5
362.296	342.5
362.523	348.5
362.749	348.5
362.976	345.5
363.203	325.5
363.429	318.5
363.656	335.5
363.882	326.5
364.109	327.5
364.335	339.5
364.562	333.5
364.788	312.5
365.015	332.5
365.241	317.5
365.468	347.5
365.694	306.5
365.92	349.5
366.147	327.5
366.373	329.5
366.599	339.5
366.826	330.5
367.052	310.5
367.278	308.5
367.505	324.5
367.731	317.5
367.957	349.5
368.184	326.5
368.41	335.5
368.636	331.5
368.862	327.5
369.089	325.5
369.315	318.5
369.541	341.5
369.767	324.5
369.993	324.5
370.219	322.5
370.445	331.5
370.672	328.5
370.898	322.5
371.124	317.5
371.35	332.5
371.576	330.5
371.802	322.5
372.028	323.5
372.254	331.5
372.48	334.5
372.706	322.5
372.932	333.5
373.158	317.5
373.384	304.5
373.61	312.5
373.835	334.5
374.061	326.5
374.287	328.5
374.513	337.5
374.739	309.5
374.965	328.5
375.191	317.5
375.416	303.5
375.642	327.5
375.868	311.5
376.094	327.5
376.319	342.5
376.545	319.5
376.771	316.5
376.997	324.5
377.222	314.5
377.448	324.5
377.674	323.5
377.899	326.5
378.125	329.5
378.35	306.5
378.576	315.5
378.802	310.5
379.027	319.5
379.253	325.5
379.478	300.5
379.704	328.5
379.929	333.5
380.155	301.5
380.38	312.5
380.606	322.5
380.831	339.5
381.057	327.5
381.282	316.5
381.507	317.5
381.733	313.5
381.958	303.5
382.184	319.5
382.409	335.5
382.634	323.5
382.86	343.5
383.085	319.5
383.31	327.5
383.535	335.5
383.761	336.5
383.986	342.5
384.211	344.5
384.436	356.5
384.662	342.5
384.887	327.5
385.112	326.5
385.337	339.5
385.562	340.5
385.787	332.5
386.013	346.5
386.238	360.5
386.463	348.5
386.688	335.5
386.913	342.5
387.138	328.5
387.363	342.5
387.588	351.5
387.813	327.5
388.038	343.5
388.263	345.5
388.488	331.5
388.713	339.5
388.938	359.5
389.163	350.5
389.387	343.5
389.612	334.5
389.837	346.5
390.062	343.5
390.287	351.5
390.512	344.5
390.736	343.5
390.961	342.5
391.186	344.5
391.411	359.5
391.636	352.5
391.86	343.5
392.085	354.5
392.31	357.5
392.534	352.5
392.759	336.5
392.984	347.5
393.208	340.5
393.433	348.5
393.658	348.5
393.882	347.5
394.107	359.5
394.331	362.5
394.556	364.5
394.78	350.5
395.005	339.5
395.229	333.5
395.454	346.5
395.678	359.5
395.903	353.5
396.127	374.5
396.352	384.5
396.576	367.5
396.801	360.5
397.025	370.5
397.249	355.5
397.474	375.5
397.698	375.5
397.922	370.5
398.147	376.5
398.371	381.5
398.595	368.5
398.82	392.5
399.044	382.5
399.268	420.5
399.492	429.5
399.717	422.5
399.941	446.5
400.165	438.5
400.389	475.5
400.613	436.5
400.837	404.5
401.062	403.5
401.286	388.5
401.51	391.5
401.734	383.5
401.958	396.5
402.182	406.5
402.406	422.5
402.63	427.5
402.854	406.5
403.078	410.5
403.302	380.5
403.526	415.5
403.75	407.5
403.974	408.5
404.198	383.5
404.422	408.5
404.645	408.5
404.869	408.5
405.093	431.5
405.317	462.5
405.541	480.5
405.765	446.5
405.988	444.5
406.212	450.5
406.436	456.5
406.66	460.5
406.883	441.5
407.107	447.5
407.331	472.5
407.555	540.5
407.778	531.5
408.002	486.5
408.226	436.5
408.449	442.5
408.673	446.5
408.896	461.5
409.12	489.5
409.344	477.5
409.567	435.5
409.791	424.5
410.014	425.5
410.238	404.5
410.461	417.5
410.685	412.5
410.908	406.5
411.132	455.5
411.355	482.5
411.578	446.5
411.802	422.5
412.025	403.5
412.249	430.5
412.472	440.5
412.695	444.5
412.919	446.5
413.142	408.5
413.365	396.5
413.589	392.5
413.812	387.5
414.035	406.5
414.258	387.5
414.482	380.5
414.705	394.5
414.928	391.5
415.151	384.5
415.374	385.5
415.597	395.5
415.821	368.5
416.044	362.5
416.267	367.5
416.49	364.5
416.713	386.5
416.936	394.5
417.159	382.5
417.382	385.5
417.605	409.5
417.828	385.5
418.051	411.5
418.274	394.5
418.497	370.5
418.72	394.5
418.943	391.5
419.166	395.5
419.389	406.5
419.611	412.5
419.834	406.5
420.057	413.5
420.28	408.5
420.503	384.5
420.726	396.5
420.948	401.5
421.171	459.5
421.394	468.5
421.617	430.5
421.839	405.5
422.062	406.5
422.285	415.5
422.507	454.5
422.73	511.5
422.953	502.5
423.175	453.5
423.398	402.5
423.621	418.5
423.843	413.5
424.066	407.5
424.288	418.5
424.511	440.5
424.733	492.5
424.956	536.5
425.178	531.5
425.401	526.5
425.623	548.5
425.846	475.5
426.068	446.5
426.291	440.5
426.513	419.5
426.735	439.5
426.958	468.5
427.18	520.5
427.402	655.5
427.625	687.5
427.847	637.5
428.069	540.5
428.292	467.5
428.514	428.5
428.736	438.5
428.958	426.5
429.181	401.5
429.403	407.5
429.625	432.5
429.847	464.5
430.069	493.5
430.292	480.5
430.514	411.5
430.736	386.5
430.958	387.5
431.18	386.5
431.402	405.5
431.624	399.5
431.846	378.5
432.068	384.5
432.29	387.5
432.512	372.5
432.734	383.5
432.956	367.5
433.178	394.5
433.4	396.5
433.622	395.5
433.844	392.5
434.066	380.5
434.287	391.5
434.509	383.5
434.731	393.5
434.953	397.5
435.175	406.5
435.397	417.5
435.618	464.5
435.84	468.5
436.062	551.5
436.284	607.5
436.505	504.5
436.727	442.5
436.949	414.5
437.17	393.5
437.392	432.5
437.614	418.5
437.835	437.5
438.057	540.5
438.278	617.5
438.5	620.5
438.721	633.5
438.943	606.5
439.165	495.5
439.386	449.5
439.608	432.5
439.829	448.5
440.05	490.5
440.272	511.5
440.493	476.5
440.715	455.5
440.936	420.5
441.158	418.5
441.379	408.5
441.6	447.5
441.822	450.5
442.043	476.5
442.264	535.5
442.486	547.5
442.707	484.5
442.928	456.5
443.149	459.5
443.371	480.5
443.592	519.5
443.813	581.5
444.034	626.5
444.255	499.5
444.476	438.5
444.698	442.5
444.919	454.5
445.14	541.5
445.361	461.5
445.582	451.5
445.803	523.5
446.024	593.5
446.245	608.5
446.466	564.5
446.687	460.5
446.908	450.5
447.129	421.5
447.35	402.5
447.571	403.5
447.792	412.5
448.013	405.5
448.234	415.5
448.455	461.5
448.675	562.5
448.896	628.5
449.117	570.5
449.338	522.5
449.559	602.5
449.779	682.5
450	551.5
450.221	475.5
450.442	425.5
450.662	405.5
450.883	431.5
451.104	431.5
451.324	429.5
451.545	380.5
451.766	389.5
451.986	380.5
452.207	365.5
452.428	365.5
452.648	382.5
452.869	370.5
453.089	395.5
453.31	390.5
453.53	372.5
453.751	384.5
453.971	380.5
454.192	409.5
454.412	386.5
454.633	364.5
454.853	366.5
455.073	375.5
455.294	398.5
455.514	450.5
455.734	430.5
455.955	390.5
456.175	358.5
456.395	335.5
456.616	352.5
456.836	361.5
457.056	330.5
457.276	334.5
457.497	367.5
457.717	364.5
457.937	375.5
458.157	348.5
458.377	370.5
458.598	372.5
458.818	439.5
459.038	509.5
459.258	524.5
459.478	426.5
459.698	405.5
459.918	404.5
460.138	378.5
460.358	390.5
460.578	391.5
460.798	390.5
461.018	395.5
461.238	380.5
461.458	380.5
461.678	379.5
461.898	405.5
462.118	403.5
462.338	378.5
462.558	405.5
462.777	386.5
462.997	384.5
463.217	396.5
463.437	400.5
463.657	409.5
463.876	398.5
464.096	382.5
464.316	385.5
464.536	400.5
464.755	414.5
464.975	446.5
465.195	460.5
465.414	532.5
465.634	480.5
465.854	429.5
466.073	409.5
466.293	394.5
466.512	391.5
466.732	387.5
466.951	388.5
467.171	374.5
467.391	379.5
467.61	380.5
467.829	400.5
468.049	410.5
468.268	388.5
468.488	377.5
468.707	384.5
468.927	355.5
469.146	366.5
469.365	358.5
469.585	364.5
469.804	391.5
470.023	404.5
470.243	356.5
470.462	400.5
470.681	420.5
470.901	404.5
471.12	374.5
471.339	385.5
471.558	385.5
471.777	383.5
471.997	379.5
472.216	391.5
472.435	424.5
472.654	418.5
472.873	408.5
473.092	391.5
473.311	375.5
473.53	382.5
473.749	406.5
473.968	439.5
474.187	520.5
474.406	513.5
474.625	400.5
474.844	393.5
475.063	403.5
475.282	375.5
475.501	406.5
475.72	398.5
475.939	398.5
476.158	381.5
476.377	390.5
476.596	398.5
476.814	402.5
477.033	425.5
477.252	390.5
477.471	419.5
477.69	408.5
477.908	441.5
478.127	428.5
478.346	397.5
478.564	414.5
478.783	416.5
479.002	438.5
479.22	437.5
479.439	452.5
479.658	459.5
479.876	447.5
480.095	470.5
480.313	481.5
480.532	474.5
480.751	498.5
480.969	486.5
481.188	540.5
481.406	566.5
481.624	524.5
481.843	470.5
482.061	483.5
482.28	460.5
482.498	450.5
482.717	474.5
482.935	438.5
483.153	444.5
483.372	461.5
483.59	444.5
483.808	458.5
484.027	448.5
484.245	453.5
484.463	458.5
484.681	451.5
484.9	465.5
485.118	463.5
485.336	471.5
485.554	451.5
485.772	455.5
485.99	459.5
486.209	485.5
486.427	465.5
486.645	457.5
486.863	514.5
487.081	481.5
487.299	464.5
487.517	474.5
487.735	471.5
487.953	468.5
488.171	468.5
488.389	473.5
488.607	488.5
488.825	495.5
489.043	480.5
489.261	527.5
489.479	526.5
489.696	487.5
489.914	504.5
490.132	479.5
490.35	540.5
490.568	501.5
490.786	520.5
491.003	518.5
491.221	534.5
491.439	547.5
491.657	534.5
491.874	568.5
492.092	544.5
492.31	553.5
492.527	573.5
492.745	548.5
492.963	579.5
493.18	561.5
493.398	575.5
493.615	579.5
493.833	583.5
494.05	563.5
494.268	554.5
494.485	559.5
494.703	538.5
494.92	559.5
495.138	565.5
495.355	558.5
495.573	574.5
495.79	573.5
496.008	579.5
496.225	537.5
496.442	563.5
496.66	555.5
496.877	587.5
497.094	586.5
497.312	593.5
497.529	588.5
497.746	617.5
497.963	600.5
498.181	597.5
498.398	636.5
498.615	617.5
498.832	621.5
499.049	636.5
499.267	649.5
499.484	646.5
499.701	662.5
499.918	664.5
500.135	721.5
500.352	712.5
500.569	747.5
500.786	749.5
501.003	728.5
501.22	727.5
501.437	699.5
501.654	670.5
501.871	708.5
502.088	683.5
502.305	666.5
502.522	626.5
502.739	628.5
502.956	602.5
503.172	589.5
503.389	593.5
503.606	587.5
503.823	602.5
504.04	596.5
504.256	596.5
504.473	565.5
504.69	550.5
504.907	591.5
505.123	555.5
505.34	540.5
505.557	555.5
505.773	572.5
505.99	547.5
506.207	559.5
506.423	552.5
506.64	541.5
506.856	572.5
507.073	551.5
507.289	543.5
507.506	568.5
507.722	548.5
507.939	571.5
508.155	547.5
508.372	555.5
508.588	525.5
508.805	529.5
509.021	518.5
509.238	536.5
509.454	546.5
509.67	529.5
509.887	531.5
510.103	540.5
510.319	546.5
510.536	622.5
510.752	1104.5
510.968	906.5
511.184	557.5
511.401	542.5
511.617	525.5
511.833	532.5
512.049	501.5
512.265	542.5
512.481	514.5
512.698	495.5
512.914	510.5
513.13	525.5
513.346	500.5
513.562	500.5
513.778	509.5
513.994	516.5
514.21	541.5
514.426	578.5
514.642	595.5
514.858	619.5
515.074	663.5
515.29	808.5
515.506	1226.5
515.721	996.5
515.937	639.5
516.153	591.5
516.369	537.5
516.585	529.5
516.801	533.5
517.016	526.5
517.232	514.5
517.448	520.5
517.664	506.5
517.879	512.5
518.095	492.5
518.311	484.5
518.527	502.5
518.742	517.5
518.958	502.5
519.173	498.5
519.389	495.5
519.605	484.5
519.82	509.5
