Data from 1965.PennyLincolnUp.Lamp.En5.5.200Scan.071719.P1._HRD10591_14-09-23-911.txt Node
Date: Thu Jul 18 14:09:23 EDT 2019
User: cochatt
Spectrometer: HR+D1059
Trigger mode: 1
Integration Time (sec): 1.000000E-1
Scans to average: 1
Electric dark correction enabled: true
Nonlinearity correction enabled: false
Boxcar width: 0
XAxis mode: Wavelengths
Number of Pixels in Spectrum: 2048
>>>>>Begin Spectral Data<<<<<
223.165	-18.44
223.4	-18.44
223.635	-18.44
223.869	-20.44
224.104	-19.44
224.338	-5.44
224.573	-15.44
224.808	-13.44
225.042	7.56
225.277	-2.44
225.511	-10.44
225.746	4.56
225.98	2.56
226.215	7.56
226.449	22.56
226.683	12.56
226.918	19.56
227.152	28.56
227.387	27.56
227.621	35.56
227.856	54.56
228.09	49.56
228.324	37.56
228.559	47.56
228.793	66.56
229.027	85.56
229.262	100.56
229.496	100.56
229.73	130.56
229.964	149.56
230.199	113.56
230.433	105.56
230.667	106.56
230.901	115.56
231.136	102.56
231.37	95.56
231.604	108.56
231.838	113.56
232.072	113.56
232.306	118.56
232.541	117.56
232.775	95.56
233.009	109.56
233.243	107.56
233.477	115.56
233.711	102.56
233.945	115.56
234.179	117.56
234.413	108.56
234.647	110.56
234.881	108.56
235.115	115.56
235.349	103.56
235.583	108.56
235.817	107.56
236.051	108.56
236.285	108.56
236.519	117.56
236.753	128.56
236.987	138.56
237.221	167.56
237.455	198.56
237.689	165.56
237.922	122.56
238.156	128.56
238.39	125.56
238.624	128.56
238.858	115.56
239.091	120.56
239.325	123.56
239.559	118.56
239.793	121.56
240.027	120.56
240.26	147.56
240.494	157.56
240.728	139.56
240.961	150.56
241.195	137.56
241.429	132.56
241.662	141.56
241.896	136.56
242.13	108.56
242.363	120.56
242.597	129.56
242.83	123.56
243.064	104.56
243.298	118.56
243.531	115.56
243.765	108.56
243.998	113.56
244.232	133.56
244.465	119.56
244.699	130.56
244.932	103.56
245.166	129.56
245.399	143.56
245.633	127.56
245.866	127.56
246.099	141.56
246.333	146.56
246.566	142.56
246.8	136.56
247.033	135.56
247.266	153.56
247.5	156.56
247.733	129.56
247.966	149.56
248.2	147.56
248.433	149.56
248.666	169.56
248.899	139.56
249.133	180.56
249.366	187.56
249.599	186.56
249.832	163.56
250.066	170.56
250.299	167.56
250.532	174.56
250.765	181.56
250.998	200.56
251.231	189.56
251.465	190.56
251.698	185.56
251.931	172.56
252.164	179.56
252.397	176.56
252.63	175.56
252.863	170.56
253.096	194.56
253.329	195.56
253.562	203.56
253.795	187.56
254.028	180.56
254.261	177.56
254.494	199.56
254.727	219.56
254.96	243.56
255.193	227.56
255.426	221.56
255.659	210.56
255.892	224.56
256.124	184.56
256.357	206.56
256.59	187.56
256.823	201.56
257.056	189.56
257.289	186.56
257.521	201.56
257.754	188.56
257.987	184.56
258.22	187.56
258.452	203.56
258.685	189.56
258.918	184.56
259.151	189.56
259.383	182.56
259.616	186.56
259.849	201.56
260.081	207.56
260.314	209.56
260.547	223.56
260.779	222.56
261.012	198.56
261.244	185.56
261.477	199.56
261.71	195.56
261.942	203.56
262.175	205.56
262.407	199.56
262.64	201.56
262.872	189.56
263.105	201.56
263.337	188.56
263.57	187.56
263.802	189.56
264.035	169.56
264.267	197.56
264.499	194.56
264.732	173.56
264.964	197.56
265.197	178.56
265.429	190.56
265.661	190.56
265.894	213.56
266.126	197.56
266.358	174.56
266.591	205.56
266.823	197.56
267.055	200.56
267.287	189.56
267.52	205.56
267.752	206.56
267.984	203.56
268.216	198.56
268.448	197.56
268.681	208.56
268.913	231.56
269.145	232.56
269.377	225.56
269.609	237.56
269.841	225.56
270.073	229.56
270.306	241.56
270.538	269.56
270.77	267.56
271.002	272.56
271.234	273.56
271.466	274.56
271.698	267.56
271.93	269.56
272.162	276.56
272.394	282.56
272.626	271.56
272.858	261.56
273.09	248.56
273.322	255.56
273.553	244.56
273.785	231.56
274.017	239.56
274.249	231.56
274.481	246.56
274.713	249.56
274.945	243.56
275.176	241.56
275.408	222.56
275.64	241.56
275.872	226.56
276.104	238.56
276.335	241.56
276.567	229.56
276.799	246.56
277.031	270.56
277.262	282.56
277.494	261.56
277.726	268.56
277.957	267.56
278.189	251.56
278.421	246.56
278.652	237.56
278.884	214.56
279.115	242.56
279.347	222.56
279.579	242.56
279.81	228.56
280.042	235.56
280.273	251.56
280.505	227.56
280.736	239.56
280.968	231.56
281.199	225.56
281.431	239.56
281.662	233.56
281.894	237.56
282.125	244.56
282.356	257.56
282.588	291.56
282.819	291.56
283.051	263.56
283.282	237.56
283.513	225.56
283.745	228.56
283.976	242.56
284.207	235.56
284.439	231.56
284.67	237.56
284.901	247.56
285.132	237.56
285.364	248.56
285.595	244.56
285.826	247.56
286.057	245.56
286.288	238.56
286.52	231.56
286.751	247.56
286.982	251.56
287.213	252.56
287.444	259.56
287.675	265.56
287.906	263.56
288.138	261.56
288.369	265.56
288.6	271.56
288.831	250.56
289.062	268.56
289.293	277.56
289.524	245.56
289.755	257.56
289.986	243.56
290.217	262.56
290.448	243.56
290.679	254.56
290.91	241.56
291.141	251.56
291.371	253.56
291.602	241.56
291.833	227.56
292.064	263.56
292.295	245.56
292.526	242.56
292.757	237.56
292.987	259.56
293.218	250.56
293.449	254.56
293.68	245.56
293.91	248.56
294.141	244.56
294.372	242.56
294.603	264.56
294.833	272.56
295.064	231.56
295.295	271.56
295.525	231.56
295.756	266.56
295.987	273.56
296.217	286.56
296.448	280.56
296.679	278.56
296.909	269.56
297.14	264.56
297.37	254.56
297.601	262.56
297.831	259.56
298.062	259.56
298.292	242.56
298.523	258.56
298.753	267.56
298.984	255.56
299.214	258.56
299.445	268.56
299.675	258.56
299.905	279.56
300.136	268.56
300.366	262.56
300.597	263.56
300.827	261.56
301.057	283.56
301.288	278.56
301.518	293.56
301.748	291.56
301.979	282.56
302.209	283.56
302.439	282.56
302.669	276.56
302.9	286.56
303.13	294.56
303.36	289.56
303.59	273.56
303.82	293.56
304.051	290.56
304.281	299.56
304.511	290.56
304.741	246.56
304.971	288.56
305.201	275.56
305.431	274.56
305.661	277.56
305.891	283.56
306.121	290.56
306.352	294.56
306.582	296.56
306.812	289.56
307.042	293.56
307.272	276.56
307.502	290.56
307.731	284.56
307.961	293.56
308.191	287.56
308.421	299.56
308.651	310.56
308.881	283.56
309.111	311.56
309.341	328.56
309.571	325.56
309.8	325.56
310.03	324.56
310.26	323.56
310.49	329.56
310.72	353.56
310.949	341.56
311.179	326.56
311.409	347.56
311.639	329.56
311.868	335.56
312.098	341.56
312.328	356.56
312.557	360.56
312.787	366.56
313.017	357.56
313.246	334.56
313.476	330.56
313.706	319.56
313.935	308.56
314.165	350.56
314.394	348.56
314.624	343.56
314.853	341.56
315.083	335.56
315.312	329.56
315.542	321.56
315.771	319.56
316.001	326.56
316.23	321.56
316.46	327.56
316.689	315.56
316.919	315.56
317.148	336.56
317.377	358.56
317.607	334.56
317.836	326.56
318.065	334.56
318.295	338.56
318.524	335.56
318.753	345.56
318.983	339.56
319.212	335.56
319.441	338.56
319.67	356.56
319.9	335.56
320.129	318.56
320.358	350.56
320.587	331.56
320.816	361.56
321.046	354.56
321.275	361.56
321.504	359.56
321.733	362.56
321.962	362.56
322.191	351.56
322.42	402.56
322.649	397.56
322.878	413.56
323.108	429.56
323.337	457.56
323.566	469.56
323.795	511.56
324.024	549.56
324.253	693.56
324.482	977.56
324.71	1527.56
324.939	2051.56
325.168	1726.56
325.397	898.56
325.626	609.56
325.855	505.56
326.084	499.56
326.313	483.56
326.542	501.56
326.77	513.56
326.999	615.56
327.228	901.56
327.457	1293.56
327.686	1502.56
327.914	1025.56
328.143	693.56
328.372	604.56
328.6	546.56
328.829	536.56
329.058	566.56
329.287	538.56
329.515	479.56
329.744	469.56
329.972	480.56
330.201	484.56
330.43	527.56
330.658	550.56
330.887	566.56
331.115	553.56
331.344	490.56
331.572	436.56
331.801	449.56
332.03	428.56
332.258	425.56
332.486	404.56
332.715	387.56
332.943	403.56
333.172	399.56
333.4	389.56
333.629	404.56
333.857	409.56
334.085	419.56
334.314	441.56
334.542	482.56
334.771	489.56
334.999	426.56
335.227	408.56
335.455	405.56
335.684	400.56
335.912	389.56
336.14	386.56
336.369	388.56
336.597	384.56
336.825	393.56
337.053	394.56
337.281	368.56
337.51	375.56
337.738	390.56
337.966	396.56
338.194	399.56
338.422	355.56
338.65	393.56
338.878	376.56
339.106	387.56
339.334	387.56
339.562	358.56
339.79	377.56
340.018	375.56
340.246	369.56
340.474	375.56
340.702	361.56
340.93	373.56
341.158	373.56
341.386	382.56
341.614	377.56
341.842	369.56
342.07	365.56
342.298	381.56
342.526	353.56
342.754	371.56
342.981	347.56
343.209	339.56
343.437	342.56
343.665	365.56
343.893	373.56
344.12	379.56
344.348	371.56
344.576	375.56
344.804	392.56
345.031	404.56
345.259	382.56
345.487	394.56
345.714	374.56
345.942	396.56
346.17	367.56
346.397	378.56
346.625	353.56
346.853	362.56
347.08	343.56
347.308	370.56
347.535	359.56
347.763	381.56
347.99	387.56
348.218	395.56
348.445	385.56
348.673	382.56
348.9	379.56
349.128	353.56
349.355	364.56
349.583	353.56
349.81	346.56
350.037	362.56
350.265	359.56
350.492	353.56
350.72	354.56
350.947	369.56
351.174	371.56
351.402	386.56
351.629	382.56
351.856	353.56
352.083	371.56
352.311	395.56
352.538	390.56
352.765	362.56
352.992	375.56
353.22	362.56
353.447	358.56
353.674	354.56
353.901	347.56
354.128	352.56
354.355	327.56
354.583	360.56
354.81	316.56
355.037	345.56
355.264	330.56
355.491	341.56
355.718	337.56
355.945	321.56
356.172	341.56
356.399	337.56
356.626	352.56
356.853	349.56
357.08	342.56
357.307	322.56
357.534	334.56
357.761	343.56
357.988	336.56
358.215	327.56
358.441	339.56
358.668	352.56
358.895	332.56
359.122	329.56
359.349	366.56
359.576	359.56
359.802	399.56
360.029	423.56
360.256	427.56
360.483	406.56
360.709	374.56
360.936	367.56
361.163	350.56
361.39	379.56
361.616	366.56
361.843	366.56
362.07	377.56
362.296	373.56
362.523	376.56
362.749	360.56
362.976	351.56
363.203	367.56
363.429	348.56
363.656	338.56
363.882	346.56
364.109	351.56
364.335	338.56
364.562	336.56
364.788	337.56
365.015	349.56
365.241	341.56
365.468	357.56
365.694	347.56
365.92	352.56
366.147	353.56
366.373	335.56
366.599	335.56
366.826	351.56
367.052	327.56
367.278	335.56
367.505	340.56
367.731	342.56
367.957	330.56
368.184	345.56
368.41	356.56
368.636	338.56
368.862	378.56
369.089	365.56
369.315	333.56
369.541	342.56
369.767	338.56
369.993	327.56
370.219	338.56
370.445	327.56
370.672	342.56
370.898	358.56
371.124	352.56
371.35	349.56
371.576	347.56
371.802	327.56
372.028	342.56
372.254	341.56
372.48	359.56
372.706	352.56
372.932	341.56
373.158	350.56
373.384	355.56
373.61	345.56
373.835	331.56
374.061	334.56
374.287	337.56
374.513	345.56
374.739	335.56
374.965	337.56
375.191	334.56
375.416	343.56
375.642	349.56
375.868	336.56
376.094	347.56
376.319	334.56
376.545	333.56
376.771	331.56
376.997	350.56
377.222	348.56
377.448	331.56
377.674	350.56
377.899	330.56
378.125	333.56
378.35	343.56
378.576	333.56
378.802	327.56
379.027	329.56
379.253	323.56
379.478	326.56
379.704	337.56
379.929	341.56
380.155	340.56
380.38	333.56
380.606	351.56
380.831	336.56
381.057	349.56
381.282	337.56
381.507	339.56
381.733	346.56
381.958	336.56
382.184	348.56
382.409	338.56
382.634	354.56
382.86	317.56
383.085	335.56
383.31	352.56
383.535	362.56
383.761	334.56
383.986	336.56
384.211	346.56
384.436	350.56
384.662	348.56
384.887	356.56
385.112	347.56
385.337	366.56
385.562	354.56
385.787	351.56
386.013	370.56
386.238	370.56
386.463	385.56
386.688	361.56
386.913	339.56
387.138	343.56
387.363	360.56
387.588	373.56
387.813	357.56
388.038	354.56
388.263	359.56
388.488	348.56
388.713	351.56
388.938	358.56
389.163	366.56
389.387	371.56
389.612	351.56
389.837	345.56
390.062	366.56
390.287	364.56
390.512	364.56
390.736	366.56
390.961	357.56
391.186	359.56
391.411	367.56
391.636	377.56
391.86	377.56
392.085	373.56
392.31	373.56
392.534	361.56
392.759	371.56
392.984	361.56
393.208	379.56
393.433	362.56
393.658	350.56
393.882	354.56
394.107	378.56
394.331	354.56
394.556	342.56
394.78	375.56
395.005	362.56
395.229	373.56
395.454	369.56
395.678	369.56
395.903	394.56
396.127	413.56
396.352	396.56
396.576	376.56
396.801	359.56
397.025	393.56
397.249	398.56
397.474	388.56
397.698	405.56
397.922	400.56
398.147	395.56
398.371	415.56
398.595	407.56
398.82	420.56
399.044	398.56
399.268	408.56
399.492	427.56
399.717	466.56
399.941	455.56
400.165	491.56
400.389	503.56
400.613	457.56
400.837	428.56
401.062	425.56
401.286	398.56
401.51	406.56
401.734	403.56
401.958	430.56
402.182	425.56
402.406	433.56
402.63	427.56
402.854	410.56
403.078	409.56
403.302	414.56
403.526	433.56
403.75	435.56
403.974	416.56
404.198	396.56
404.422	434.56
404.645	419.56
404.869	429.56
405.093	461.56
405.317	488.56
405.541	519.56
405.765	493.56
405.988	445.56
406.212	458.56
406.436	487.56
406.66	492.56
406.883	461.56
407.107	469.56
407.331	516.56
407.555	547.56
407.778	540.56
408.002	496.56
408.226	499.56
408.449	463.56
408.673	463.56
408.896	498.56
409.12	493.56
409.344	492.56
409.567	453.56
409.791	441.56
410.014	441.56
410.238	423.56
410.461	424.56
410.685	426.56
410.908	449.56
411.132	473.56
411.355	513.56
411.578	472.56
411.802	428.56
412.025	418.56
412.249	433.56
412.472	445.56
412.695	481.56
412.919	481.56
413.142	458.56
413.365	427.56
413.589	430.56
413.812	414.56
414.035	406.56
414.258	402.56
414.482	404.56
414.705	399.56
414.928	376.56
415.151	421.56
415.374	421.56
415.597	400.56
415.821	391.56
416.044	408.56
416.267	405.56
416.49	391.56
416.713	380.56
416.936	399.56
417.159	381.56
417.382	409.56
417.605	410.56
417.828	438.56
418.051	412.56
418.274	424.56
418.497	409.56
418.72	433.56
418.943	400.56
419.166	438.56
419.389	431.56
419.611	439.56
419.834	405.56
420.057	414.56
420.28	422.56
420.503	406.56
420.726	411.56
420.948	448.56
421.171	475.56
421.394	510.56
421.617	457.56
421.839	428.56
422.062	431.56
422.285	439.56
422.507	481.56
422.73	546.56
422.953	519.56
423.175	464.56
423.398	451.56
423.621	461.56
423.843	446.56
424.066	467.56
424.288	455.56
424.511	468.56
424.733	521.56
424.956	585.56
425.178	559.56
425.401	572.56
425.623	559.56
425.846	488.56
426.068	437.56
426.291	457.56
426.513	470.56
426.735	461.56
426.958	517.56
427.18	556.56
427.402	665.56
427.625	742.56
427.847	669.56
428.069	566.56
428.292	515.56
428.514	458.56
428.736	452.56
428.958	457.56
429.181	432.56
429.403	421.56
429.625	449.56
429.847	468.56
430.069	535.56
430.292	514.56
430.514	436.56
430.736	433.56
430.958	417.56
431.18	397.56
431.402	388.56
431.624	389.56
431.846	409.56
432.068	397.56
432.29	404.56
432.512	397.56
432.734	427.56
432.956	398.56
433.178	411.56
433.4	443.56
433.622	414.56
433.844	406.56
434.066	392.56
434.287	397.56
434.509	409.56
434.731	404.56
434.953	412.56
435.175	433.56
435.397	476.56
435.618	472.56
435.84	488.56
436.062	565.56
436.284	617.56
436.505	541.56
436.727	461.56
436.949	465.56
437.17	425.56
437.392	450.56
437.614	454.56
437.835	493.56
438.057	562.56
438.278	622.56
438.5	641.56
438.721	678.56
438.943	643.56
439.165	507.56
439.386	477.56
439.608	471.56
439.829	476.56
440.05	505.56
440.272	550.56
440.493	495.56
440.715	467.56
440.936	420.56
441.158	442.56
441.379	438.56
441.6	467.56
441.822	474.56
442.043	484.56
442.264	553.56
442.486	599.56
442.707	514.56
442.928	491.56
443.149	475.56
443.371	510.56
443.592	535.56
443.813	591.56
444.034	651.56
444.255	541.56
444.476	492.56
444.698	469.56
444.919	467.56
445.14	579.56
445.361	517.56
445.582	510.56
445.803	573.56
446.024	645.56
446.245	635.56
446.466	605.56
446.687	491.56
446.908	482.56
447.129	453.56
447.35	445.56
447.571	451.56
447.792	428.56
448.013	445.56
448.234	461.56
448.455	491.56
448.675	596.56
448.896	673.56
449.117	571.56
449.338	563.56
449.559	634.56
449.779	705.56
450	589.56
450.221	489.56
450.442	441.56
450.662	430.56
450.883	453.56
451.104	462.56
451.324	443.56
451.545	421.56
451.766	417.56
451.986	377.56
452.207	398.56
452.428	393.56
452.648	400.56
452.869	385.56
453.089	385.56
453.31	413.56
453.53	397.56
453.751	411.56
453.971	391.56
454.192	406.56
454.412	410.56
454.633	391.56
454.853	390.56
455.073	379.56
455.294	416.56
455.514	471.56
455.734	464.56
455.955	402.56
456.175	363.56
456.395	366.56
456.616	357.56
456.836	373.56
457.056	375.56
457.276	369.56
457.497	369.56
457.717	375.56
457.937	392.56
458.157	378.56
458.377	380.56
458.598	395.56
458.818	474.56
459.038	539.56
459.258	538.56
459.478	461.56
459.698	410.56
459.918	406.56
460.138	398.56
460.358	412.56
460.578	399.56
460.798	421.56
461.018	406.56
461.238	387.56
461.458	416.56
461.678	399.56
461.898	396.56
462.118	404.56
462.338	421.56
462.558	406.56
462.777	419.56
462.997	454.56
463.217	403.56
463.437	438.56
463.657	422.56
463.876	397.56
464.096	427.56
464.316	435.56
464.536	437.56
464.755	418.56
464.975	442.56
465.195	497.56
465.414	574.56
465.634	499.56
465.854	460.56
466.073	415.56
466.293	414.56
466.512	397.56
466.732	411.56
466.951	385.56
467.171	378.56
467.391	410.56
467.61	397.56
467.829	418.56
468.049	416.56
468.268	418.56
468.488	403.56
468.707	377.56
468.927	386.56
469.146	378.56
469.365	394.56
469.585	383.56
469.804	409.56
470.023	405.56
470.243	402.56
470.462	412.56
470.681	435.56
470.901	416.56
471.12	397.56
471.339	419.56
471.558	386.56
471.777	403.56
471.997	405.56
472.216	395.56
472.435	470.56
472.654	452.56
472.873	426.56
473.092	421.56
473.311	404.56
473.53	404.56
473.749	430.56
473.968	447.56
474.187	531.56
474.406	539.56
474.625	476.56
474.844	433.56
475.063	403.56
475.282	399.56
475.501	423.56
475.72	411.56
475.939	410.56
476.158	422.56
476.377	407.56
476.596	414.56
476.814	412.56
477.033	422.56
477.252	449.56
477.471	430.56
477.69	426.56
477.908	449.56
478.127	428.56
478.346	438.56
478.564	456.56
478.783	443.56
479.002	458.56
479.22	456.56
479.439	476.56
479.658	485.56
479.876	470.56
480.095	477.56
480.313	501.56
480.532	515.56
480.751	497.56
480.969	510.56
481.188	580.56
481.406	595.56
481.624	540.56
481.843	499.56
482.061	508.56
482.28	490.56
482.498	477.56
482.717	483.56
482.935	477.56
483.153	482.56
483.372	474.56
483.59	472.56
483.808	473.56
484.027	481.56
484.245	468.56
484.463	479.56
484.681	481.56
484.9	488.56
485.118	476.56
485.336	484.56
485.554	492.56
485.772	487.56
485.99	485.56
486.209	492.56
486.427	495.56
486.645	521.56
486.863	544.56
487.081	527.56
487.299	499.56
487.517	520.56
487.735	488.56
487.953	514.56
488.171	509.56
488.389	510.56
488.607	517.56
488.825	530.56
489.043	502.56
489.261	510.56
489.479	525.56
489.696	528.56
489.914	519.56
490.132	527.56
490.35	541.56
490.568	537.56
490.786	557.56
491.003	565.56
491.221	579.56
491.439	555.56
491.657	571.56
491.874	597.56
492.092	580.56
492.31	584.56
492.527	569.56
492.745	586.56
492.963	589.56
493.18	574.56
493.398	590.56
493.615	604.56
493.833	616.56
494.05	588.56
494.268	621.56
494.485	578.56
494.703	587.56
494.92	582.56
495.138	610.56
495.355	578.56
495.573	603.56
495.79	592.56
496.008	603.56
496.225	599.56
496.442	614.56
496.66	600.56
496.877	590.56
497.094	611.56
497.312	602.56
497.529	603.56
497.746	601.56
497.963	621.56
498.181	643.56
498.398	630.56
498.615	676.56
498.832	664.56
499.049	662.56
499.267	718.56
499.484	671.56
499.701	710.56
499.918	748.56
500.135	729.56
500.352	742.56
500.569	767.56
500.786	776.56
501.003	787.56
501.22	751.56
501.437	737.56
501.654	724.56
501.871	715.56
