Data from 1965.PennyLincolnUp.Lamp.En5.5.200Scan.071719.P1._HRD10591_14-07-46-911.txt Node
Date: Thu Jul 18 14:07:46 EDT 2019
User: cochatt
Spectrometer: HR+D1059
Trigger mode: 1
Integration Time (sec): 1.000000E-1
Scans to average: 1
Electric dark correction enabled: true
Nonlinearity correction enabled: false
Boxcar width: 0
XAxis mode: Wavelengths
Number of Pixels in Spectrum: 2048
>>>>>Begin Spectral Data<<<<<
223.165	-5.44
223.4	-5.44
223.635	-5.44
223.869	-9.44
224.104	-20.44
224.338	-16.44
224.573	-20.44
224.808	-27.44
225.042	-15.44
225.277	4.56
225.511	4.56
225.746	-11.44
225.98	16.56
226.215	4.56
226.449	24.56
226.683	11.56
226.918	26.56
227.152	33.56
227.387	29.56
227.621	44.56
227.856	40.56
228.09	50.56
228.324	54.56
228.559	55.56
228.793	69.56
229.027	89.56
229.262	78.56
229.496	103.56
229.73	122.56
229.964	107.56
230.199	110.56
230.433	95.56
230.667	104.56
230.901	103.56
231.136	96.56
231.37	106.56
231.604	99.56
231.838	110.56
232.072	96.56
232.306	101.56
232.541	100.56
232.775	109.56
233.009	97.56
233.243	94.56
233.477	107.56
233.711	97.56
233.945	101.56
234.179	104.56
234.413	102.56
234.647	99.56
234.881	104.56
235.115	98.56
235.349	102.56
235.583	106.56
235.817	102.56
236.051	110.56
236.285	108.56
236.519	120.56
236.753	98.56
236.987	122.56
237.221	136.56
237.455	176.56
237.689	137.56
237.922	112.56
238.156	115.56
238.39	100.56
238.624	88.56
238.858	98.56
239.091	103.56
239.325	105.56
239.559	109.56
239.793	108.56
240.027	112.56
240.26	125.56
240.494	127.56
240.728	121.56
240.961	127.56
241.195	118.56
241.429	123.56
241.662	96.56
241.896	105.56
242.13	115.56
242.363	98.56
242.597	109.56
242.83	108.56
243.064	115.56
243.298	122.56
243.531	122.56
243.765	115.56
243.998	109.56
244.232	119.56
244.465	107.56
244.699	123.56
244.932	128.56
245.166	124.56
245.399	111.56
245.633	124.56
245.866	126.56
246.099	118.56
246.333	139.56
246.566	118.56
246.8	132.56
247.033	108.56
247.266	131.56
247.5	144.56
247.733	139.56
247.966	147.56
248.2	139.56
248.433	136.56
248.666	122.56
248.899	137.56
249.133	159.56
249.366	164.56
249.599	152.56
249.832	138.56
250.066	154.56
250.299	140.56
250.532	146.56
250.765	148.56
250.998	155.56
251.231	162.56
251.465	165.56
251.698	154.56
251.931	146.56
252.164	152.56
252.397	145.56
252.63	163.56
252.863	174.56
253.096	180.56
253.329	162.56
253.562	171.56
253.795	170.56
254.028	175.56
254.261	185.56
254.494	176.56
254.727	199.56
254.96	201.56
255.193	196.56
255.426	181.56
255.659	184.56
255.892	175.56
256.124	181.56
256.357	182.56
256.59	183.56
256.823	164.56
257.056	171.56
257.289	142.56
257.521	152.56
257.754	163.56
257.987	157.56
258.22	168.56
258.452	162.56
258.685	155.56
258.918	152.56
259.151	163.56
259.383	162.56
259.616	179.56
259.849	182.56
260.081	173.56
260.314	190.56
260.547	205.56
260.779	178.56
261.012	181.56
261.244	176.56
261.477	176.56
261.71	156.56
261.942	170.56
262.175	180.56
262.407	173.56
262.64	160.56
262.872	156.56
263.105	178.56
263.337	189.56
263.57	162.56
263.802	171.56
264.035	170.56
264.267	179.56
264.499	164.56
264.732	171.56
264.964	158.56
265.197	168.56
265.429	175.56
265.661	154.56
265.894	171.56
266.126	162.56
266.358	165.56
266.591	178.56
266.823	172.56
267.055	178.56
267.287	174.56
267.52	157.56
267.752	166.56
267.984	175.56
268.216	173.56
268.448	182.56
268.681	180.56
268.913	178.56
269.145	193.56
269.377	190.56
269.609	210.56
269.841	194.56
270.073	192.56
270.306	203.56
270.538	227.56
270.77	209.56
271.002	219.56
271.234	213.56
271.466	215.56
271.698	214.56
271.93	228.56
272.162	219.56
272.394	222.56
272.626	225.56
272.858	214.56
273.09	214.56
273.322	195.56
273.553	210.56
273.785	205.56
274.017	206.56
274.249	204.56
274.481	186.56
274.713	201.56
274.945	199.56
275.176	194.56
275.408	183.56
275.64	205.56
275.872	209.56
276.104	198.56
276.335	199.56
276.567	196.56
276.799	223.56
277.031	235.56
277.262	247.56
277.494	211.56
277.726	218.56
277.957	204.56
278.189	189.56
278.421	212.56
278.652	215.56
278.884	192.56
279.115	195.56
279.347	192.56
279.579	208.56
279.81	204.56
280.042	217.56
280.273	212.56
280.505	207.56
280.736	199.56
280.968	216.56
281.199	209.56
281.431	196.56
281.662	206.56
281.894	211.56
282.125	211.56
282.356	215.56
282.588	216.56
282.819	238.56
283.051	208.56
283.282	214.56
283.513	227.56
283.745	215.56
283.976	200.56
284.207	198.56
284.439	201.56
284.67	227.56
284.901	207.56
285.132	211.56
285.364	200.56
285.595	211.56
285.826	195.56
286.057	228.56
286.288	223.56
286.52	214.56
286.751	210.56
286.982	215.56
287.213	221.56
287.444	222.56
287.675	224.56
287.906	227.56
288.138	236.56
288.369	230.56
288.6	233.56
288.831	231.56
289.062	222.56
289.293	220.56
289.524	219.56
289.755	226.56
289.986	228.56
290.217	222.56
290.448	207.56
290.679	214.56
290.91	220.56
291.141	219.56
291.371	229.56
291.602	220.56
291.833	218.56
292.064	224.56
292.295	218.56
292.526	222.56
292.757	234.56
292.987	213.56
293.218	218.56
293.449	228.56
293.68	208.56
293.91	197.56
294.141	216.56
294.372	230.56
294.603	211.56
294.833	212.56
295.064	203.56
295.295	215.56
295.525	227.56
295.756	229.56
295.987	233.56
296.217	236.56
296.448	241.56
296.679	247.56
296.909	211.56
297.14	232.56
297.37	230.56
297.601	235.56
297.831	219.56
298.062	244.56
298.292	236.56
298.523	220.56
298.753	228.56
298.984	233.56
299.214	232.56
299.445	239.56
299.675	222.56
299.905	234.56
300.136	230.56
300.366	227.56
300.597	247.56
300.827	235.56
301.057	234.56
301.288	228.56
301.518	238.56
301.748	245.56
301.979	233.56
302.209	250.56
302.439	242.56
302.669	233.56
302.9	233.56
303.13	231.56
303.36	234.56
303.59	242.56
303.82	235.56
304.051	237.56
304.281	256.56
304.511	247.56
304.741	256.56
304.971	230.56
305.201	237.56
305.431	246.56
305.661	238.56
305.891	239.56
306.121	253.56
306.352	238.56
306.582	250.56
306.812	242.56
307.042	236.56
307.272	259.56
307.502	249.56
307.731	275.56
307.961	247.56
308.191	248.56
308.421	248.56
308.651	259.56
308.881	252.56
309.111	247.56
309.341	265.56
309.571	258.56
309.8	252.56
310.03	276.56
310.26	285.56
310.49	273.56
310.72	289.56
310.949	293.56
311.179	272.56
311.409	279.56
311.639	282.56
311.868	274.56
312.098	278.56
312.328	291.56
312.557	297.56
312.787	317.56
313.017	302.56
313.246	280.56
313.476	275.56
313.706	294.56
313.935	291.56
314.165	280.56
314.394	284.56
314.624	288.56
314.853	298.56
315.083	268.56
315.312	286.56
315.542	277.56
315.771	284.56
316.001	273.56
316.23	266.56
316.46	276.56
316.689	290.56
316.919	291.56
317.148	286.56
317.377	293.56
317.607	283.56
317.836	300.56
318.065	299.56
318.295	273.56
318.524	285.56
318.753	270.56
318.983	294.56
319.212	290.56
319.441	267.56
319.67	286.56
319.9	276.56
320.129	272.56
320.358	277.56
320.587	290.56
320.816	280.56
321.046	298.56
321.275	306.56
321.504	292.56
321.733	303.56
321.962	293.56
322.191	303.56
322.42	318.56
322.649	336.56
322.878	344.56
323.108	355.56
323.337	335.56
323.566	340.56
323.795	398.56
324.024	422.56
324.253	487.56
324.482	708.56
324.71	1045.56
324.939	1450.56
325.168	1195.56
325.397	631.56
325.626	451.56
325.855	387.56
326.084	358.56
326.313	359.56
326.542	365.56
326.77	413.56
326.999	444.56
327.228	639.56
327.457	928.56
327.686	1078.56
327.914	686.56
328.143	504.56
328.372	438.56
328.6	400.56
328.829	394.56
329.058	407.56
329.287	411.56
329.515	382.56
329.744	365.56
329.972	366.56
330.201	363.56
330.43	393.56
330.658	396.56
330.887	400.56
331.115	428.56
331.344	365.56
331.572	362.56
331.801	357.56
332.03	337.56
332.258	348.56
332.486	327.56
332.715	315.56
332.943	334.56
333.172	303.56
333.4	322.56
333.629	335.56
333.857	348.56
334.085	353.56
334.314	359.56
334.542	361.56
334.771	378.56
334.999	345.56
335.227	333.56
335.455	323.56
335.684	344.56
335.912	315.56
336.14	319.56
336.369	318.56
336.597	326.56
336.825	344.56
337.053	310.56
337.281	323.56
337.51	310.56
337.738	333.56
337.966	302.56
338.194	322.56
338.422	330.56
338.65	309.56
338.878	328.56
339.106	302.56
339.334	318.56
339.562	316.56
339.79	326.56
340.018	310.56
340.246	325.56
340.474	331.56
340.702	303.56
340.93	304.56
341.158	324.56
341.386	323.56
341.614	313.56
341.842	308.56
342.07	310.56
342.298	322.56
342.526	317.56
342.754	317.56
342.981	319.56
343.209	311.56
343.437	300.56
343.665	301.56
343.893	328.56
344.12	318.56
344.348	318.56
344.576	324.56
344.804	331.56
345.031	339.56
345.259	332.56
345.487	328.56
345.714	326.56
345.942	301.56
346.17	312.56
346.397	308.56
346.625	315.56
346.853	294.56
347.08	299.56
347.308	306.56
347.535	317.56
347.763	313.56
347.99	306.56
348.218	304.56
348.445	299.56
348.673	312.56
348.9	310.56
349.128	307.56
349.355	298.56
349.583	303.56
349.81	296.56
350.037	300.56
350.265	306.56
350.492	298.56
350.72	303.56
350.947	314.56
351.174	310.56
351.402	310.56
351.629	312.56
351.856	314.56
352.083	326.56
352.311	308.56
352.538	330.56
352.765	334.56
352.992	318.56
353.22	296.56
353.447	302.56
353.674	319.56
353.901	322.56
354.128	310.56
354.355	300.56
354.583	312.56
354.81	298.56
355.037	300.56
355.264	293.56
355.491	272.56
355.718	290.56
355.945	307.56
356.172	293.56
356.399	286.56
356.626	293.56
356.853	292.56
357.08	299.56
357.307	305.56
357.534	306.56
357.761	276.56
357.988	305.56
358.215	292.56
358.441	306.56
358.668	303.56
358.895	320.56
359.122	302.56
359.349	306.56
359.576	313.56
359.802	338.56
360.029	348.56
360.256	361.56
360.483	331.56
360.709	313.56
360.936	302.56
361.163	302.56
361.39	315.56
361.616	312.56
361.843	320.56
362.07	309.56
362.296	309.56
362.523	323.56
362.749	310.56
362.976	301.56
363.203	306.56
363.429	306.56
363.656	298.56
363.882	316.56
364.109	292.56
364.335	299.56
364.562	292.56
364.788	299.56
365.015	299.56
365.241	301.56
365.468	297.56
365.694	297.56
365.92	306.56
366.147	295.56
366.373	288.56
366.599	310.56
366.826	307.56
367.052	284.56
367.278	307.56
367.505	301.56
367.731	284.56
367.957	286.56
368.184	282.56
368.41	317.56
368.636	314.56
368.862	310.56
369.089	317.56
369.315	285.56
369.541	298.56
369.767	319.56
369.993	299.56
370.219	294.56
370.445	313.56
370.672	292.56
370.898	308.56
371.124	290.56
371.35	300.56
371.576	301.56
371.802	295.56
372.028	303.56
372.254	288.56
372.48	296.56
372.706	297.56
372.932	311.56
373.158	300.56
373.384	297.56
373.61	298.56
373.835	304.56
374.061	307.56
374.287	315.56
374.513	311.56
374.739	324.56
374.965	307.56
375.191	324.56
375.416	322.56
375.642	306.56
375.868	303.56
376.094	306.56
376.319	295.56
376.545	302.56
376.771	306.56
376.997	308.56
377.222	293.56
377.448	280.56
377.674	317.56
377.899	275.56
378.125	290.56
378.35	301.56
378.576	291.56
378.802	297.56
379.027	300.56
379.253	294.56
379.478	289.56
379.704	306.56
379.929	283.56
380.155	300.56
380.38	301.56
380.606	319.56
380.831	300.56
381.057	314.56
381.282	303.56
381.507	308.56
381.733	306.56
381.958	317.56
382.184	316.56
382.409	300.56
382.634	304.56
382.86	314.56
383.085	302.56
383.31	309.56
383.535	303.56
383.761	297.56
383.986	333.56
384.211	281.56
384.436	316.56
384.662	306.56
384.887	324.56
385.112	318.56
385.337	308.56
385.562	323.56
385.787	328.56
386.013	330.56
386.238	335.56
386.463	342.56
386.688	313.56
386.913	308.56
387.138	339.56
387.363	317.56
387.588	333.56
387.813	325.56
388.038	334.56
388.263	311.56
388.488	336.56
388.713	329.56
388.938	315.56
389.163	336.56
389.387	322.56
389.612	328.56
389.837	319.56
390.062	318.56
390.287	299.56
390.512	326.56
390.736	341.56
390.961	316.56
391.186	337.56
391.411	314.56
391.636	324.56
391.86	310.56
392.085	336.56
392.31	325.56
392.534	346.56
392.759	338.56
392.984	330.56
393.208	337.56
393.433	345.56
393.658	319.56
393.882	346.56
394.107	331.56
394.331	330.56
394.556	335.56
394.78	346.56
395.005	335.56
395.229	328.56
395.454	323.56
395.678	342.56
395.903	344.56
396.127	346.56
396.352	369.56
396.576	346.56
396.801	345.56
397.025	355.56
397.249	331.56
397.474	354.56
397.698	336.56
397.922	373.56
398.147	372.56
398.371	369.56
398.595	366.56
398.82	370.56
399.044	372.56
399.268	371.56
399.492	397.56
399.717	412.56
399.941	424.56
400.165	454.56
400.389	436.56
400.613	442.56
400.837	386.56
401.062	381.56
401.286	370.56
401.51	355.56
401.734	365.56
401.958	380.56
402.182	372.56
402.406	368.56
402.63	376.56
402.854	370.56
403.078	364.56
403.302	376.56
403.526	374.56
403.75	391.56
403.974	382.56
404.198	360.56
404.422	383.56
404.645	372.56
404.869	379.56
405.093	410.56
405.317	428.56
405.541	443.56
405.765	406.56
405.988	405.56
406.212	411.56
406.436	413.56
406.66	424.56
406.883	408.56
407.107	423.56
407.331	457.56
407.555	476.56
407.778	491.56
408.002	448.56
408.226	435.56
408.449	428.56
408.673	423.56
408.896	428.56
409.12	448.56
409.344	432.56
409.567	395.56
409.791	379.56
410.014	378.56
410.238	391.56
410.461	393.56
410.685	398.56
410.908	406.56
411.132	420.56
411.355	432.56
411.578	420.56
411.802	392.56
412.025	384.56
412.249	398.56
412.472	391.56
412.695	412.56
412.919	406.56
413.142	362.56
413.365	372.56
413.589	376.56
413.812	374.56
414.035	347.56
414.258	380.56
414.482	346.56
414.705	378.56
414.928	355.56
415.151	363.56
415.374	351.56
415.597	360.56
415.821	342.56
416.044	374.56
416.267	362.56
416.49	363.56
416.713	361.56
416.936	346.56
417.159	353.56
417.382	372.56
417.605	344.56
417.828	352.56
418.051	383.56
418.274	369.56
418.497	360.56
418.72	365.56
418.943	363.56
419.166	376.56
419.389	378.56
419.611	371.56
419.834	376.56
420.057	343.56
420.28	384.56
420.503	362.56
420.726	369.56
420.948	378.56
421.171	411.56
421.394	442.56
421.617	378.56
421.839	371.56
422.062	355.56
422.285	380.56
422.507	425.56
422.73	458.56
422.953	459.56
423.175	410.56
423.398	394.56
423.621	392.56
423.843	389.56
424.066	402.56
424.288	400.56
424.511	394.56
424.733	424.56
424.956	484.56
425.178	469.56
425.401	488.56
425.623	498.56
425.846	431.56
426.068	405.56
426.291	404.56
426.513	396.56
426.735	401.56
426.958	421.56
427.18	473.56
427.402	584.56
427.625	636.56
427.847	536.56
428.069	479.56
428.292	426.56
428.514	405.56
428.736	394.56
428.958	394.56
429.181	389.56
429.403	357.56
429.625	377.56
429.847	390.56
430.069	449.56
430.292	442.56
430.514	391.56
430.736	376.56
430.958	382.56
431.18	346.56
431.402	358.56
431.624	369.56
431.846	359.56
432.068	367.56
432.29	363.56
432.512	375.56
432.734	350.56
432.956	349.56
433.178	376.56
433.4	374.56
433.622	356.56
433.844	370.56
434.066	350.56
434.287	358.56
434.509	351.56
434.731	352.56
434.953	376.56
435.175	372.56
435.397	391.56
435.618	413.56
435.84	414.56
436.062	480.56
436.284	512.56
436.505	449.56
436.727	428.56
436.949	387.56
437.17	380.56
437.392	395.56
437.614	384.56
437.835	419.56
438.057	468.56
438.278	549.56
438.5	546.56
438.721	567.56
438.943	556.56
439.165	460.56
439.386	423.56
439.608	399.56
439.829	410.56
440.05	423.56
440.272	451.56
440.493	423.56
440.715	408.56
440.936	398.56
441.158	392.56
441.379	393.56
441.6	387.56
441.822	395.56
442.043	416.56
442.264	480.56
442.486	465.56
442.707	420.56
442.928	435.56
443.149	420.56
443.371	453.56
443.592	472.56
443.813	494.56
444.034	543.56
444.255	468.56
444.476	400.56
444.698	406.56
444.919	407.56
445.14	487.56
445.361	433.56
445.582	414.56
445.803	468.56
446.024	562.56
446.245	538.56
446.466	487.56
446.687	423.56
446.908	399.56
447.129	392.56
447.35	383.56
447.571	375.56
447.792	376.56
448.013	372.56
448.234	415.56
448.455	409.56
448.675	487.56
448.896	562.56
449.117	474.56
449.338	464.56
449.559	545.56
449.779	607.56
450	466.56
450.221	409.56
450.442	381.56
450.662	382.56
450.883	370.56
451.104	373.56
451.324	356.56
451.545	342.56
451.766	342.56
451.986	356.56
452.207	341.56
452.428	357.56
452.648	353.56
452.869	346.56
453.089	364.56
453.31	347.56
453.53	339.56
453.751	333.56
453.971	345.56
454.192	367.56
454.412	331.56
454.633	335.56
454.853	343.56
455.073	355.56
455.294	340.56
455.514	383.56
455.734	379.56
455.955	344.56
456.175	336.56
456.395	322.56
456.616	314.56
456.836	313.56
457.056	326.56
457.276	322.56
457.497	342.56
457.717	323.56
457.937	322.56
458.157	324.56
458.377	343.56
458.598	356.56
458.818	398.56
459.038	462.56
459.258	456.56
459.478	403.56
459.698	358.56
459.918	380.56
460.138	363.56
460.358	344.56
460.578	363.56
460.798	381.56
461.018	362.56
461.238	359.56
461.458	352.56
461.678	348.56
461.898	367.56
462.118	356.56
462.338	365.56
462.558	374.56
462.777	361.56
462.997	392.56
463.217	396.56
463.437	396.56
463.657	397.56
463.876	400.56
464.096	396.56
464.316	401.56
464.536	392.56
464.755	384.56
464.975	396.56
465.195	408.56
465.414	464.56
465.634	428.56
465.854	386.56
466.073	390.56
466.293	388.56
466.512	346.56
466.732	342.56
466.951	359.56
467.171	350.56
467.391	361.56
467.61	351.56
467.829	356.56
468.049	333.56
468.268	366.56
468.488	336.56
468.707	339.56
468.927	354.56
469.146	312.56
469.365	342.56
469.585	349.56
469.804	357.56
470.023	351.56
470.243	360.56
470.462	366.56
470.681	387.56
470.901	372.56
471.12	355.56
471.339	342.56
471.558	360.56
471.777	342.56
471.997	359.56
472.216	370.56
472.435	386.56
472.654	364.56
472.873	363.56
473.092	346.56
473.311	363.56
473.53	348.56
473.749	356.56
473.968	388.56
474.187	459.56
474.406	454.56
474.625	400.56
474.844	366.56
475.063	361.56
475.282	385.56
475.501	357.56
475.72	376.56
475.939	349.56
476.158	366.56
476.377	372.56
476.596	365.56
476.814	350.56
477.033	374.56
477.252	370.56
477.471	383.56
477.69	396.56
477.908	383.56
478.127	382.56
478.346	374.56
478.564	414.56
478.783	397.56
479.002	384.56
479.22	408.56
479.439	404.56
479.658	423.56
479.876	447.56
480.095	421.56
480.313	434.56
480.532	425.56
480.751	444.56
480.969	428.56
481.188	469.56
481.406	487.56
481.624	435.56
481.843	434.56
482.061	416.56
482.28	410.56
482.498	423.56
482.717	422.56
482.935	424.56
483.153	405.56
483.372	429.56
483.59	419.56
483.808	427.56
484.027	434.56
484.245	436.56
484.463	429.56
484.681	444.56
484.9	442.56
485.118	469.56
485.336	440.56
485.554	442.56
485.772	449.56
485.99	426.56
486.209	430.56
486.427	444.56
486.645	460.56
486.863	457.56
487.081	458.56
487.299	476.56
487.517	452.56
487.735	446.56
487.953	428.56
488.171	457.56
488.389	458.56
488.607	442.56
488.825	449.56
489.043	459.56
489.261	430.56
489.479	476.56
489.696	456.56
489.914	440.56
490.132	434.56
490.35	462.56
490.568	437.56
490.786	463.56
491.003	471.56
491.221	493.56
491.439	487.56
491.657	501.56
491.874	493.56
492.092	518.56
492.31	469.56
492.527	487.56
492.745	506.56
492.963	522.56
493.18	512.56
493.398	509.56
493.615	507.56
493.833	523.56
494.05	498.56
494.268	522.56
494.485	508.56
494.703	499.56
494.92	503.56
495.138	512.56
495.355	506.56
495.573	526.56
495.79	495.56
496.008	516.56
496.225	526.56
496.442	533.56
496.66	514.56
496.877	529.56
497.094	523.56
497.312	550.56
497.529	571.56
497.746	559.56
497.963	528.56
498.181	557.56
498.398	546.56
498.615	572.56
498.832	589.56
499.049	603.56
499.267	592.56
499.484	592.56
499.701	642.56
499.918	626.56
500.135	671.56
500.352	702.56
500.569	678.56
500.786	724.56
501.003	710.56
501.22	690.56
501.437	675.56
501.654	656.56
501.871	639.56
502.088	619.56
