Data from 1965.PennyLincolnUp.Lamp.En5.5.200Scan.071719.P1._HRD10591_14-10-57-913.txt Node
Date: Thu Jul 18 14:10:57 EDT 2019
User: cochatt
Spectrometer: HR+D1059
Trigger mode: 1
Integration Time (sec): 1.000000E-1
Scans to average: 1
Electric dark correction enabled: true
Nonlinearity correction enabled: false
Boxcar width: 0
XAxis mode: Wavelengths
Number of Pixels in Spectrum: 2048
>>>>>Begin Spectral Data<<<<<
223.165	-9.19
223.4	-9.19
223.635	-9.19
223.869	3.81
224.104	-11.19
224.338	-19.19
224.573	-23.19
224.808	-16.19
225.042	-18.19
225.277	0.81
225.511	5.81
225.746	8.81
225.98	1.81
226.215	11.81
226.449	18.81
226.683	19.81
226.918	9.81
227.152	15.81
227.387	34.81
227.621	43.81
227.856	42.81
228.09	47.81
228.324	43.81
228.559	38.81
228.793	72.81
229.027	92.81
229.262	121.81
229.496	120.81
229.73	146.81
229.964	164.81
230.199	139.81
230.433	122.81
230.667	104.81
230.901	111.81
231.136	107.81
231.37	114.81
231.604	117.81
231.838	104.81
232.072	109.81
232.306	117.81
232.541	94.81
232.775	96.81
233.009	95.81
233.243	115.81
233.477	106.81
233.711	109.81
233.945	113.81
234.179	116.81
234.413	109.81
234.647	120.81
234.881	110.81
235.115	110.81
235.349	108.81
235.583	125.81
235.817	121.81
236.051	126.81
236.285	121.81
236.519	120.81
236.753	126.81
236.987	141.81
237.221	178.81
237.455	213.81
237.689	183.81
237.922	135.81
238.156	129.81
238.39	117.81
238.624	121.81
238.858	135.81
239.091	115.81
239.325	116.81
239.559	121.81
239.793	119.81
240.027	128.81
240.26	146.81
240.494	173.81
240.728	151.81
240.961	143.81
241.195	152.81
241.429	138.81
241.662	119.81
241.896	125.81
242.13	130.81
242.363	128.81
242.597	130.81
242.83	136.81
243.064	129.81
243.298	131.81
243.531	133.81
243.765	126.81
243.998	133.81
244.232	133.81
244.465	123.81
244.699	123.81
244.932	138.81
245.166	140.81
245.399	137.81
245.633	142.81
245.866	132.81
246.099	142.81
246.333	130.81
246.566	133.81
246.8	135.81
247.033	144.81
247.266	137.81
247.5	146.81
247.733	135.81
247.966	160.81
248.2	168.81
248.433	163.81
248.666	179.81
248.899	171.81
249.133	183.81
249.366	202.81
249.599	190.81
249.832	180.81
250.066	162.81
250.299	181.81
250.532	190.81
250.765	194.81
250.998	183.81
251.231	226.81
251.465	201.81
251.698	187.81
251.931	175.81
252.164	197.81
252.397	175.81
252.63	187.81
252.863	195.81
253.096	205.81
253.329	206.81
253.562	229.81
253.795	208.81
254.028	192.81
254.261	200.81
254.494	218.81
254.727	244.81
254.96	250.81
255.193	259.81
255.426	221.81
255.659	213.81
255.892	229.81
256.124	221.81
256.357	224.81
256.59	205.81
256.823	215.81
257.056	198.81
257.289	205.81
257.521	212.81
257.754	201.81
257.987	183.81
258.22	207.81
258.452	198.81
258.685	193.81
258.918	219.81
259.151	198.81
259.383	201.81
259.616	200.81
259.849	209.81
260.081	221.81
260.314	227.81
260.547	245.81
260.779	224.81
261.012	219.81
261.244	224.81
261.477	218.81
261.71	203.81
261.942	215.81
262.175	230.81
262.407	213.81
262.64	213.81
262.872	216.81
263.105	194.81
263.337	204.81
263.57	213.81
263.802	197.81
264.035	214.81
264.267	203.81
264.499	195.81
264.732	193.81
264.964	202.81
265.197	203.81
265.429	204.81
265.661	209.81
265.894	195.81
266.126	188.81
266.358	189.81
266.591	218.81
266.823	221.81
267.055	219.81
267.287	218.81
267.52	228.81
267.752	212.81
267.984	216.81
268.216	224.81
268.448	213.81
268.681	202.81
268.913	232.81
269.145	256.81
269.377	244.81
269.609	259.81
269.841	240.81
270.073	240.81
270.306	268.81
270.538	288.81
270.77	284.81
271.002	299.81
271.234	265.81
271.466	274.81
271.698	290.81
271.93	293.81
272.162	283.81
272.394	302.81
272.626	281.81
272.858	274.81
273.09	248.81
273.322	271.81
273.553	250.81
273.785	255.81
274.017	234.81
274.249	252.81
274.481	267.81
274.713	252.81
274.945	263.81
275.176	265.81
275.408	261.81
275.64	243.81
275.872	239.81
276.104	255.81
276.335	237.81
276.567	254.81
276.799	271.81
277.031	281.81
277.262	311.81
277.494	305.81
277.726	289.81
277.957	285.81
278.189	260.81
278.421	259.81
278.652	250.81
278.884	260.81
279.115	244.81
279.347	253.81
279.579	269.81
279.81	226.81
280.042	251.81
280.273	255.81
280.505	257.81
280.736	239.81
280.968	250.81
281.199	233.81
281.431	245.81
281.662	240.81
281.894	243.81
282.125	242.81
282.356	257.81
282.588	296.81
282.819	276.81
283.051	251.81
283.282	256.81
283.513	269.81
283.745	248.81
283.976	254.81
284.207	239.81
284.439	251.81
284.67	261.81
284.901	250.81
285.132	249.81
285.364	223.81
285.595	253.81
285.826	264.81
286.057	237.81
286.288	261.81
286.52	255.81
286.751	268.81
286.982	263.81
287.213	248.81
287.444	250.81
287.675	244.81
287.906	274.81
288.138	275.81
288.369	256.81
288.6	279.81
288.831	265.81
289.062	276.81
289.293	269.81
289.524	281.81
289.755	257.81
289.986	265.81
290.217	260.81
290.448	265.81
290.679	251.81
290.91	266.81
291.141	268.81
291.371	251.81
291.602	267.81
291.833	256.81
292.064	265.81
292.295	268.81
292.526	250.81
292.757	281.81
292.987	283.81
293.218	262.81
293.449	260.81
293.68	256.81
293.91	253.81
294.141	259.81
294.372	256.81
294.603	263.81
294.833	265.81
295.064	253.81
295.295	284.81
295.525	267.81
295.756	250.81
295.987	295.81
296.217	315.81
296.448	318.81
296.679	299.81
296.909	285.81
297.14	262.81
297.37	294.81
297.601	271.81
297.831	277.81
298.062	263.81
298.292	272.81
298.523	278.81
298.753	273.81
298.984	284.81
299.214	283.81
299.445	265.81
299.675	276.81
299.905	280.81
300.136	301.81
300.366	283.81
300.597	279.81
300.827	299.81
301.057	282.81
301.288	288.81
301.518	281.81
301.748	288.81
301.979	299.81
302.209	296.81
302.439	297.81
302.669	299.81
302.9	298.81
303.13	286.81
303.36	289.81
303.59	303.81
303.82	296.81
304.051	300.81
304.281	309.81
304.511	303.81
304.741	315.81
304.971	294.81
305.201	288.81
305.431	311.81
305.661	295.81
305.891	300.81
306.121	308.81
306.352	322.81
306.582	331.81
306.812	303.81
307.042	296.81
307.272	293.81
307.502	307.81
307.731	307.81
307.961	303.81
308.191	301.81
308.421	302.81
308.651	297.81
308.881	298.81
309.111	315.81
309.341	330.81
309.571	314.81
309.8	335.81
310.03	344.81
310.26	350.81
310.49	357.81
310.72	379.81
310.949	391.81
311.179	387.81
311.409	352.81
311.639	341.81
311.868	353.81
312.098	358.81
312.328	361.81
312.557	374.81
312.787	397.81
313.017	379.81
313.246	364.81
313.476	366.81
313.706	352.81
313.935	338.81
314.165	379.81
314.394	375.81
314.624	391.81
314.853	356.81
315.083	358.81
315.312	343.81
315.542	362.81
315.771	349.81
316.001	335.81
316.23	348.81
316.46	335.81
316.689	349.81
316.919	341.81
317.148	351.81
317.377	354.81
317.607	353.81
317.836	358.81
318.065	343.81
318.295	357.81
318.524	372.81
318.753	336.81
318.983	349.81
319.212	343.81
319.441	376.81
319.67	368.81
319.9	362.81
320.129	358.81
320.358	339.81
320.587	346.81
320.816	377.81
321.046	360.81
321.275	409.81
321.504	383.81
321.733	398.81
321.962	363.81
322.191	401.81
322.42	401.81
322.649	441.81
322.878	431.81
323.108	451.81
323.337	475.81
323.566	498.81
323.795	541.81
324.024	567.81
324.253	751.81
324.482	1084.81
324.71	1626.81
324.939	2246.81
325.168	1919.81
325.397	952.81
325.626	668.81
325.855	531.81
326.084	507.81
326.313	484.81
326.542	517.81
326.77	550.81
326.999	657.81
327.228	940.81
327.457	1416.81
327.686	1658.81
327.914	1116.81
328.143	753.81
328.372	639.81
328.6	611.81
328.829	574.81
329.058	588.81
329.287	600.81
329.515	541.81
329.744	505.81
329.972	521.81
330.201	550.81
330.43	597.81
330.658	613.81
330.887	628.81
331.115	612.81
331.344	495.81
331.572	469.81
331.801	468.81
332.03	459.81
332.258	459.81
332.486	412.81
332.715	411.81
332.943	414.81
333.172	416.81
333.4	411.81
333.629	423.81
333.857	429.81
334.085	454.81
334.314	464.81
334.542	516.81
334.771	545.81
334.999	494.81
335.227	446.81
335.455	404.81
335.684	419.81
335.912	405.81
336.14	411.81
336.369	406.81
336.597	419.81
336.825	425.81
337.053	417.81
337.281	404.81
337.51	402.81
337.738	407.81
337.966	409.81
338.194	405.81
338.422	396.81
338.65	395.81
338.878	400.81
339.106	391.81
339.334	402.81
339.562	383.81
339.79	383.81
340.018	382.81
340.246	376.81
340.474	405.81
340.702	390.81
340.93	386.81
341.158	407.81
341.386	381.81
341.614	407.81
341.842	408.81
342.07	380.81
342.298	375.81
342.526	380.81
342.754	379.81
342.981	375.81
343.209	360.81
343.437	381.81
343.665	366.81
343.893	391.81
344.12	389.81
344.348	392.81
344.576	373.81
344.804	401.81
345.031	422.81
345.259	446.81
345.487	401.81
345.714	382.81
345.942	377.81
346.17	382.81
346.397	393.81
346.625	401.81
346.853	376.81
347.08	397.81
347.308	387.81
347.535	417.81
347.763	393.81
347.99	398.81
348.218	387.81
348.445	408.81
348.673	408.81
348.9	394.81
349.128	381.81
349.355	380.81
349.583	368.81
349.81	364.81
350.037	361.81
350.265	377.81
350.492	373.81
350.72	372.81
350.947	368.81
351.174	393.81
351.402	393.81
351.629	396.81
351.856	405.81
352.083	409.81
352.311	416.81
352.538	406.81
352.765	410.81
352.992	398.81
353.22	396.81
353.447	379.81
353.674	397.81
353.901	368.81
354.128	364.81
354.355	351.81
354.583	361.81
354.81	366.81
355.037	342.81
355.264	350.81
355.491	340.81
355.718	346.81
355.945	337.81
356.172	329.81
356.399	344.81
356.626	347.81
356.853	346.81
357.08	341.81
357.307	352.81
357.534	353.81
357.761	361.81
357.988	347.81
358.215	353.81
358.441	340.81
358.668	360.81
358.895	357.81
359.122	377.81
359.349	364.81
359.576	395.81
359.802	420.81
360.029	433.81
360.256	485.81
360.483	423.81
360.709	401.81
360.936	390.81
361.163	356.81
361.39	377.81
361.616	385.81
361.843	401.81
362.07	407.81
362.296	387.81
362.523	381.81
362.749	389.81
362.976	368.81
363.203	389.81
363.429	358.81
363.656	363.81
363.882	372.81
364.109	371.81
364.335	374.81
364.562	357.81
364.788	344.81
365.015	356.81
365.241	359.81
365.468	352.81
365.694	351.81
365.92	356.81
366.147	352.81
366.373	368.81
366.599	362.81
366.826	347.81
367.052	346.81
367.278	354.81
367.505	354.81
367.731	362.81
367.957	373.81
368.184	362.81
368.41	367.81
368.636	375.81
368.862	380.81
369.089	376.81
369.315	347.81
369.541	354.81
369.767	367.81
369.993	372.81
370.219	346.81
370.445	366.81
370.672	350.81
370.898	354.81
371.124	365.81
371.35	352.81
371.576	350.81
371.802	328.81
372.028	362.81
372.254	343.81
372.48	355.81
372.706	355.81
372.932	364.81
373.158	361.81
373.384	346.81
373.61	348.81
373.835	345.81
374.061	355.81
374.287	359.81
374.513	373.81
374.739	343.81
374.965	349.81
375.191	362.81
375.416	365.81
375.642	366.81
375.868	347.81
376.094	355.81
376.319	337.81
376.545	352.81
376.771	362.81
376.997	360.81
377.222	349.81
377.448	349.81
377.674	356.81
377.899	347.81
378.125	347.81
378.35	341.81
378.576	347.81
378.802	356.81
379.027	340.81
379.253	348.81
379.478	341.81
379.704	348.81
379.929	348.81
380.155	368.81
380.38	323.81
380.606	346.81
380.831	350.81
381.057	354.81
381.282	352.81
381.507	337.81
381.733	354.81
381.958	360.81
382.184	359.81
382.409	340.81
382.634	351.81
382.86	349.81
383.085	357.81
383.31	352.81
383.535	357.81
383.761	377.81
383.986	369.81
384.211	361.81
384.436	364.81
384.662	362.81
384.887	374.81
385.112	371.81
385.337	356.81
385.562	380.81
385.787	371.81
386.013	384.81
386.238	391.81
386.463	399.81
386.688	377.81
386.913	395.81
387.138	400.81
387.363	388.81
387.588	358.81
387.813	375.81
388.038	363.81
388.263	381.81
388.488	393.81
388.713	376.81
388.938	391.81
389.163	364.81
389.387	365.81
389.612	366.81
389.837	372.81
390.062	383.81
390.287	394.81
390.512	392.81
390.736	395.81
390.961	378.81
391.186	366.81
391.411	368.81
391.636	380.81
391.86	383.81
392.085	382.81
392.31	362.81
392.534	387.81
392.759	375.81
392.984	374.81
393.208	381.81
393.433	385.81
393.658	392.81
393.882	365.81
394.107	395.81
394.331	375.81
394.556	375.81
394.78	386.81
395.005	376.81
395.229	372.81
395.454	388.81
395.678	381.81
395.903	421.81
396.127	392.81
396.352	415.81
396.576	399.81
396.801	394.81
397.025	382.81
397.249	408.81
397.474	418.81
397.698	405.81
397.922	423.81
398.147	437.81
398.371	421.81
398.595	414.81
398.82	422.81
399.044	428.81
399.268	436.81
399.492	453.81
399.717	478.81
399.941	511.81
400.165	511.81
400.389	522.81
400.613	480.81
400.837	461.81
401.062	425.81
401.286	461.81
401.51	421.81
401.734	436.81
401.958	442.81
402.182	430.81
402.406	441.81
402.63	447.81
402.854	467.81
403.078	460.81
403.302	429.81
403.526	437.81
403.75	450.81
403.974	454.81
404.198	447.81
404.422	452.81
404.645	453.81
404.869	477.81
405.093	493.81
405.317	521.81
405.541	517.81
405.765	503.81
405.988	466.81
406.212	475.81
406.436	517.81
406.66	516.81
406.883	497.81
407.107	507.81
407.331	538.81
407.555	591.81
407.778	585.81
408.002	529.81
408.226	480.81
408.449	466.81
408.673	493.81
408.896	507.81
409.12	541.81
409.344	502.81
409.567	460.81
409.791	475.81
410.014	440.81
410.238	451.81
410.461	447.81
410.685	456.81
410.908	467.81
411.132	478.81
411.355	531.81
411.578	503.81
411.802	463.81
412.025	443.81
412.249	457.81
412.472	481.81
412.695	524.81
412.919	512.81
413.142	475.81
413.365	407.81
413.589	428.81
413.812	429.81
414.035	408.81
414.258	413.81
414.482	403.81
414.705	422.81
414.928	395.81
415.151	418.81
415.374	421.81
415.597	426.81
415.821	412.81
416.044	423.81
416.267	418.81
416.49	425.81
416.713	404.81
416.936	420.81
417.159	429.81
417.382	435.81
417.605	431.81
417.828	428.81
418.051	443.81
418.274	416.81
418.497	426.81
418.72	436.81
418.943	411.81
419.166	428.81
419.389	460.81
419.611	469.81
419.834	459.81
420.057	461.81
420.28	436.81
420.503	447.81
420.726	476.81
420.948	480.81
421.171	484.81
421.394	503.81
421.617	466.81
421.839	438.81
422.062	435.81
422.285	450.81
422.507	503.81
422.73	551.81
422.953	551.81
423.175	484.81
423.398	487.81
423.621	465.81
423.843	497.81
424.066	466.81
424.288	462.81
424.511	499.81
424.733	539.81
424.956	609.81
425.178	603.81
425.401	593.81
425.623	585.81
425.846	507.81
426.068	476.81
426.291	466.81
426.513	487.81
426.735	484.81
426.958	520.81
427.18	596.81
427.402	705.81
427.625	796.81
427.847	705.81
428.069	593.81
428.292	562.81
428.514	502.81
428.736	474.81
428.958	474.81
429.181	459.81
429.403	452.81
429.625	456.81
429.847	486.81
430.069	545.81
430.292	552.81
430.514	472.81
430.736	462.81
430.958	464.81
431.18	432.81
431.402	429.81
431.624	402.81
431.846	409.81
432.068	400.81
432.29	431.81
432.512	433.81
432.734	447.81
432.956	444.81
433.178	427.81
433.4	441.81
433.622	448.81
433.844	425.81
434.066	429.81
434.287	449.81
434.509	447.81
434.731	439.81
434.953	461.81
435.175	453.81
435.397	476.81
435.618	467.81
435.84	527.81
436.062	605.81
436.284	628.81
436.505	549.81
436.727	487.81
436.949	483.81
437.17	464.81
437.392	464.81
437.614	485.81
437.835	508.81
438.057	584.81
438.278	670.81
438.5	663.81
438.721	718.81
438.943	696.81
439.165	569.81
439.386	501.81
439.608	494.81
439.829	522.81
440.05	528.81
440.272	568.81
440.493	523.81
440.715	500.81
440.936	480.81
441.158	452.81
441.379	431.81
441.6	466.81
441.822	476.81
442.043	527.81
442.264	605.81
442.486	612.81
442.707	528.81
442.928	524.81
443.149	499.81
443.371	532.81
443.592	591.81
443.813	655.81
444.034	689.81
444.255	583.81
444.476	490.81
444.698	491.81
444.919	477.81
445.14	564.81
445.361	549.81
445.582	541.81
445.803	611.81
446.024	710.81
446.245	707.81
446.466	632.81
446.687	535.81
446.908	477.81
447.129	464.81
447.35	447.81
447.571	458.81
447.792	430.81
448.013	461.81
448.234	472.81
448.455	535.81
448.675	612.81
448.896	687.81
449.117	614.81
449.338	563.81
449.559	688.81
449.779	733.81
450	580.81
450.221	521.81
450.442	471.81
450.662	444.81
450.883	465.81
451.104	484.81
451.324	464.81
451.545	447.81
451.766	438.81
451.986	398.81
452.207	419.81
452.428	386.81
452.648	401.81
452.869	405.81
453.089	421.81
453.31	442.81
453.53	410.81
453.751	411.81
453.971	419.81
454.192	440.81
454.412	431.81
454.633	415.81
454.853	408.81
455.073	408.81
455.294	461.81
455.514	500.81
455.734	494.81
455.955	403.81
456.175	389.81
456.395	380.81
456.616	391.81
456.836	384.81
457.056	383.81
457.276	374.81
457.497	375.81
457.717	385.81
457.937	396.81
458.157	401.81
458.377	410.81
458.598	432.81
458.818	477.81
459.038	591.81
459.258	581.81
459.478	471.81
459.698	409.81
459.918	424.81
460.138	409.81
460.358	435.81
460.578	415.81
460.798	429.81
461.018	418.81
461.238	419.81
461.458	411.81
461.678	427.81
461.898	429.81
462.118	397.81
462.338	428.81
462.558	432.81
462.777	434.81
462.997	455.81
463.217	433.81
463.437	439.81
463.657	430.81
463.876	429.81
464.096	453.81
464.316	458.81
464.536	427.81
464.755	462.81
464.975	468.81
465.195	536.81
465.414	629.81
465.634	524.81
465.854	489.81
466.073	464.81
466.293	440.81
466.512	417.81
466.732	395.81
466.951	434.81
467.171	399.81
467.391	419.81
467.61	419.81
467.829	440.81
468.049	426.81
468.268	443.81
468.488	408.81
468.707	408.81
468.927	403.81
469.146	401.81
469.365	412.81
469.585	400.81
469.804	387.81
470.023	426.81
470.243	408.81
470.462	436.81
470.681	439.81
470.901	450.81
471.12	436.81
471.339	420.81
471.558	429.81
471.777	425.81
471.997	432.81
472.216	420.81
472.435	469.81
472.654	469.81
472.873	445.81
473.092	411.81
473.311	431.81
473.53	412.81
473.749	433.81
473.968	472.81
474.187	583.81
474.406	594.81
474.625	462.81
474.844	440.81
475.063	438.81
475.282	435.81
475.501	421.81
475.72	448.81
475.939	430.81
476.158	423.81
476.377	430.81
476.596	433.81
476.814	439.81
477.033	451.81
477.252	444.81
477.471	421.81
477.69	469.81
477.908	479.81
478.127	467.81
478.346	466.81
478.564	480.81
478.783	468.81
479.002	470.81
479.22	480.81
479.439	485.81
479.658	490.81
479.876	509.81
480.095	510.81
480.313	524.81
480.532	512.81
480.751	514.81
480.969	514.81
481.188	626.81
481.406	663.81
481.624	571.81
481.843	523.81
482.061	514.81
482.28	509.81
482.498	491.81
482.717	511.81
482.935	487.81
483.153	489.81
483.372	478.81
483.59	494.81
483.808	514.81
484.027	500.81
484.245	510.81
484.463	495.81
484.681	486.81
484.9	493.81
485.118	494.81
485.336	524.81
485.554	493.81
485.772	525.81
485.99	503.81
486.209	525.81
486.427	533.81
486.645	540.81
486.863	559.81
487.081	527.81
487.299	533.81
487.517	538.81
487.735	541.81
487.953	533.81
488.171	529.81
488.389	559.81
488.607	552.81
488.825	531.81
489.043	517.81
489.261	549.81
489.479	529.81
489.696	557.81
489.914	550.81
490.132	541.81
490.35	549.81
490.568	564.81
490.786	571.81
491.003	567.81
491.221	577.81
491.439	620.81
491.657	607.81
491.874	618.81
492.092	608.81
492.31	598.81
492.527	603.81
492.745	615.81
492.963	635.81
493.18	623.81
493.398	638.81
493.615	639.81
493.833	634.81
494.05	629.81
494.268	617.81
494.485	631.81
494.703	627.81
494.92	643.81
495.138	621.81
495.355	630.81
495.573	621.81
495.79	636.81
496.008	651.81
496.225	632.81
496.442	616.81
496.66	623.81
496.877	631.81
497.094	641.81
497.312	641.81
497.529	653.81
497.746	658.81
497.963	657.81
498.181	706.81
498.398	692.81
498.615	669.81
498.832	674.81
499.049	677.81
499.267	728.81
499.484	720.81
499.701	733.81
499.918	750.81
500.135	779.81
500.352	800.81
500.569	796.81
500.786	788.81
501.003	802.81
501.22	786.81
501.437	785.81
501.654	749.81
501.871	749.81
502.088	743.81
