Data from 1965.PennyLincolnUp.Lamp.En5.5.200Scan.071719.P1._HRD10591_14-08-56-910.txt Node
Date: Thu Jul 18 14:08:56 EDT 2019
User: cochatt
Spectrometer: HR+D1059
Trigger mode: 1
Integration Time (sec): 1.000000E-1
Scans to average: 1
Electric dark correction enabled: true
Nonlinearity correction enabled: false
Boxcar width: 0
XAxis mode: Wavelengths
Number of Pixels in Spectrum: 2048
>>>>>Begin Spectral Data<<<<<
223.165	-24.88
223.4	-24.88
223.635	-24.88
223.869	-8.88
224.104	-9.88
224.338	-18.88
224.573	-7.88
224.808	-0.88
225.042	-13.88
225.277	-2.88
225.511	-10.88
225.746	8.12
225.98	3.12
226.215	16.12
226.449	-2.88
226.683	32.12
226.918	13.12
227.152	29.12
227.387	40.12
227.621	50.12
227.856	39.12
228.09	47.12
228.324	42.12
228.559	64.12
228.793	67.12
229.027	88.12
229.262	87.12
229.496	101.12
229.73	140.12
229.964	150.12
230.199	114.12
230.433	99.12
230.667	96.12
230.901	97.12
231.136	93.12
231.37	99.12
231.604	103.12
231.838	91.12
232.072	105.12
232.306	131.12
232.541	99.12
232.775	127.12
233.009	112.12
233.243	94.12
233.477	102.12
233.711	97.12
233.945	95.12
234.179	106.12
234.413	106.12
234.647	99.12
234.881	105.12
235.115	119.12
235.349	108.12
235.583	121.12
235.817	121.12
236.051	105.12
236.285	120.12
236.519	107.12
236.753	122.12
236.987	117.12
237.221	165.12
237.455	210.12
237.689	171.12
237.922	112.12
238.156	113.12
238.39	101.12
238.624	100.12
238.858	105.12
239.091	102.12
239.325	96.12
239.559	122.12
239.793	127.12
240.027	126.12
240.26	128.12
240.494	142.12
240.728	145.12
240.961	142.12
241.195	137.12
241.429	123.12
241.662	115.12
241.896	115.12
242.13	111.12
242.363	128.12
242.597	118.12
242.83	120.12
243.064	116.12
243.298	107.12
243.531	123.12
243.765	124.12
243.998	139.12
244.232	121.12
244.465	130.12
244.699	127.12
244.932	140.12
245.166	124.12
245.399	122.12
245.633	140.12
245.866	116.12
246.099	120.12
246.333	131.12
246.566	127.12
246.8	129.12
247.033	137.12
247.266	138.12
247.5	147.12
247.733	160.12
247.966	133.12
248.2	149.12
248.433	157.12
248.666	157.12
248.899	169.12
249.133	159.12
249.366	175.12
249.599	166.12
249.832	162.12
250.066	163.12
250.299	174.12
250.532	151.12
250.765	183.12
250.998	186.12
251.231	193.12
251.465	173.12
251.698	181.12
251.931	181.12
252.164	184.12
252.397	181.12
252.63	180.12
252.863	178.12
253.096	185.12
253.329	220.12
253.562	193.12
253.795	179.12
254.028	194.12
254.261	193.12
254.494	202.12
254.727	205.12
254.96	248.12
255.193	226.12
255.426	199.12
255.659	206.12
255.892	199.12
256.124	199.12
256.357	202.12
256.59	200.12
256.823	199.12
257.056	199.12
257.289	183.12
257.521	175.12
257.754	196.12
257.987	173.12
258.22	190.12
258.452	168.12
258.685	179.12
258.918	185.12
259.151	181.12
259.383	176.12
259.616	185.12
259.849	191.12
260.081	189.12
260.314	229.12
260.547	223.12
260.779	211.12
261.012	213.12
261.244	227.12
261.477	204.12
261.71	190.12
261.942	186.12
262.175	204.12
262.407	211.12
262.64	197.12
262.872	184.12
263.105	179.12
263.337	193.12
263.57	174.12
263.802	183.12
264.035	184.12
264.267	177.12
264.499	175.12
264.732	172.12
264.964	184.12
265.197	184.12
265.429	192.12
265.661	177.12
265.894	187.12
266.126	192.12
266.358	183.12
266.591	185.12
266.823	179.12
267.055	184.12
267.287	192.12
267.52	223.12
267.752	193.12
267.984	205.12
268.216	188.12
268.448	210.12
268.681	208.12
268.913	211.12
269.145	205.12
269.377	229.12
269.609	230.12
269.841	243.12
270.073	235.12
270.306	265.12
270.538	262.12
270.77	264.12
271.002	275.12
271.234	248.12
271.466	246.12
271.698	257.12
271.93	279.12
272.162	265.12
272.394	279.12
272.626	245.12
272.858	234.12
273.09	256.12
273.322	231.12
273.553	212.12
273.785	233.12
274.017	235.12
274.249	223.12
274.481	222.12
274.713	229.12
274.945	240.12
275.176	224.12
275.408	228.12
275.64	244.12
275.872	220.12
276.104	227.12
276.335	221.12
276.567	237.12
276.799	238.12
277.031	268.12
277.262	253.12
277.494	258.12
277.726	254.12
277.957	258.12
278.189	225.12
278.421	221.12
278.652	216.12
278.884	235.12
279.115	227.12
279.347	219.12
279.579	232.12
279.81	243.12
280.042	245.12
280.273	218.12
280.505	220.12
280.736	228.12
280.968	223.12
281.199	211.12
281.431	226.12
281.662	212.12
281.894	224.12
282.125	223.12
282.356	257.12
282.588	262.12
282.819	261.12
283.051	244.12
283.282	216.12
283.513	222.12
283.745	231.12
283.976	220.12
284.207	247.12
284.439	227.12
284.67	239.12
284.901	242.12
285.132	232.12
285.364	227.12
285.595	255.12
285.826	237.12
286.057	212.12
286.288	233.12
286.52	227.12
286.751	236.12
286.982	236.12
287.213	221.12
287.444	243.12
287.675	240.12
287.906	257.12
288.138	246.12
288.369	263.12
288.6	259.12
288.831	246.12
289.062	250.12
289.293	249.12
289.524	238.12
289.755	228.12
289.986	240.12
290.217	245.12
290.448	256.12
290.679	239.12
290.91	221.12
291.141	234.12
291.371	265.12
291.602	246.12
291.833	243.12
292.064	255.12
292.295	231.12
292.526	233.12
292.757	245.12
292.987	260.12
293.218	239.12
293.449	273.12
293.68	249.12
293.91	233.12
294.141	238.12
294.372	241.12
294.603	242.12
294.833	233.12
295.064	242.12
295.295	249.12
295.525	248.12
295.756	237.12
295.987	264.12
296.217	263.12
296.448	278.12
296.679	263.12
296.909	252.12
297.14	257.12
297.37	248.12
297.601	267.12
297.831	227.12
298.062	240.12
298.292	257.12
298.523	253.12
298.753	247.12
298.984	264.12
299.214	263.12
299.445	264.12
299.675	268.12
299.905	259.12
300.136	265.12
300.366	274.12
300.597	245.12
300.827	253.12
301.057	266.12
301.288	297.12
301.518	262.12
301.748	260.12
301.979	281.12
302.209	274.12
302.439	261.12
302.669	277.12
302.9	287.12
303.13	268.12
303.36	263.12
303.59	276.12
303.82	279.12
304.051	278.12
304.281	271.12
304.511	269.12
304.741	263.12
304.971	256.12
305.201	271.12
305.431	277.12
305.661	273.12
305.891	280.12
306.121	290.12
306.352	266.12
306.582	281.12
306.812	268.12
307.042	291.12
307.272	269.12
307.502	289.12
307.731	284.12
307.961	283.12
308.191	282.12
308.421	300.12
308.651	311.12
308.881	297.12
309.111	311.12
309.341	289.12
309.571	319.12
309.8	307.12
310.03	335.12
310.26	328.12
310.49	320.12
310.72	351.12
310.949	340.12
311.179	336.12
311.409	331.12
311.639	316.12
311.868	307.12
312.098	344.12
312.328	341.12
312.557	340.12
312.787	355.12
313.017	360.12
313.246	326.12
313.476	308.12
313.706	314.12
313.935	312.12
314.165	335.12
314.394	327.12
314.624	351.12
314.853	340.12
315.083	332.12
315.312	317.12
315.542	340.12
315.771	325.12
316.001	339.12
316.23	313.12
316.46	325.12
316.689	317.12
316.919	309.12
317.148	330.12
317.377	347.12
317.607	326.12
317.836	332.12
318.065	328.12
318.295	317.12
318.524	314.12
318.753	304.12
318.983	324.12
319.212	320.12
319.441	333.12
319.67	337.12
319.9	316.12
320.129	328.12
320.358	340.12
320.587	330.12
320.816	327.12
321.046	355.12
321.275	352.12
321.504	330.12
321.733	334.12
321.962	364.12
322.191	357.12
322.42	374.12
322.649	388.12
322.878	410.12
323.108	402.12
323.337	428.12
323.566	448.12
323.795	482.12
324.024	517.12
324.253	663.12
324.482	927.12
324.71	1451.12
324.939	1946.12
325.168	1615.12
325.397	887.12
325.626	615.12
325.855	504.12
326.084	456.12
326.313	425.12
326.542	449.12
326.77	508.12
326.999	595.12
327.228	832.12
327.457	1256.12
327.686	1467.12
327.914	991.12
328.143	656.12
328.372	576.12
328.6	543.12
328.829	511.12
329.058	508.12
329.287	529.12
329.515	476.12
329.744	463.12
329.972	465.12
330.201	460.12
330.43	498.12
330.658	528.12
330.887	566.12
331.115	529.12
331.344	455.12
331.572	428.12
331.801	437.12
332.03	431.12
332.258	398.12
332.486	381.12
332.715	375.12
332.943	394.12
333.172	391.12
333.4	380.12
333.629	388.12
333.857	385.12
334.085	423.12
334.314	431.12
334.542	455.12
334.771	471.12
334.999	419.12
335.227	399.12
335.455	411.12
335.684	380.12
335.912	365.12
336.14	379.12
336.369	391.12
336.597	386.12
336.825	376.12
337.053	368.12
337.281	345.12
337.51	375.12
337.738	385.12
337.966	394.12
338.194	372.12
338.422	383.12
338.65	369.12
338.878	382.12
339.106	357.12
339.334	353.12
339.562	354.12
339.79	351.12
340.018	373.12
340.246	363.12
340.474	348.12
340.702	354.12
340.93	355.12
341.158	360.12
341.386	348.12
341.614	347.12
341.842	373.12
342.07	363.12
342.298	337.12
342.526	355.12
342.754	353.12
342.981	335.12
343.209	340.12
343.437	333.12
343.665	351.12
343.893	345.12
344.12	375.12
344.348	373.12
344.576	357.12
344.804	383.12
345.031	381.12
345.259	393.12
345.487	376.12
345.714	359.12
345.942	349.12
346.17	343.12
346.397	363.12
346.625	348.12
346.853	341.12
347.08	351.12
347.308	355.12
347.535	379.12
347.763	368.12
347.99	362.12
348.218	383.12
348.445	370.12
348.673	373.12
348.9	354.12
349.128	344.12
349.355	331.12
349.583	351.12
349.81	351.12
350.037	337.12
350.265	354.12
350.492	360.12
350.72	354.12
350.947	352.12
351.174	352.12
351.402	369.12
351.629	363.12
351.856	381.12
352.083	375.12
352.311	364.12
352.538	368.12
352.765	369.12
352.992	354.12
353.22	369.12
353.447	354.12
353.674	346.12
353.901	340.12
354.128	320.12
354.355	340.12
354.583	324.12
354.81	327.12
355.037	331.12
355.264	320.12
355.491	332.12
355.718	313.12
355.945	342.12
356.172	323.12
356.399	307.12
356.626	313.12
356.853	315.12
357.08	339.12
357.307	308.12
357.534	321.12
357.761	335.12
357.988	348.12
358.215	323.12
358.441	335.12
358.668	339.12
358.895	348.12
359.122	339.12
359.349	352.12
359.576	349.12
359.802	377.12
360.029	407.12
360.256	402.12
360.483	400.12
360.709	362.12
360.936	348.12
361.163	347.12
361.39	360.12
361.616	356.12
361.843	353.12
362.07	348.12
362.296	377.12
362.523	356.12
362.749	351.12
362.976	336.12
363.203	346.12
363.429	326.12
363.656	344.12
363.882	350.12
364.109	344.12
364.335	321.12
364.562	339.12
364.788	341.12
365.015	358.12
365.241	333.12
365.468	337.12
365.694	347.12
365.92	352.12
366.147	355.12
366.373	349.12
366.599	333.12
366.826	319.12
367.052	330.12
367.278	348.12
367.505	327.12
367.731	336.12
367.957	315.12
368.184	330.12
368.41	333.12
368.636	360.12
368.862	335.12
369.089	342.12
369.315	331.12
369.541	330.12
369.767	352.12
369.993	348.12
370.219	339.12
370.445	339.12
370.672	344.12
370.898	310.12
371.124	319.12
371.35	325.12
371.576	332.12
371.802	329.12
372.028	333.12
372.254	330.12
372.48	338.12
372.706	342.12
372.932	330.12
373.158	336.12
373.384	339.12
373.61	319.12
373.835	337.12
374.061	334.12
374.287	324.12
374.513	337.12
374.739	358.12
374.965	344.12
375.191	323.12
375.416	344.12
375.642	339.12
375.868	339.12
376.094	337.12
376.319	327.12
376.545	319.12
376.771	321.12
376.997	317.12
377.222	320.12
377.448	335.12
377.674	335.12
377.899	318.12
378.125	312.12
378.35	328.12
378.576	311.12
378.802	316.12
379.027	331.12
379.253	327.12
379.478	320.12
379.704	295.12
379.929	322.12
380.155	355.12
380.38	325.12
380.606	312.12
380.831	339.12
381.057	333.12
381.282	328.12
381.507	335.12
381.733	319.12
381.958	330.12
382.184	321.12
382.409	330.12
382.634	328.12
382.86	315.12
383.085	317.12
383.31	344.12
383.535	345.12
383.761	336.12
383.986	341.12
384.211	359.12
384.436	343.12
384.662	336.12
384.887	349.12
385.112	336.12
385.337	356.12
385.562	355.12
385.787	367.12
386.013	371.12
386.238	364.12
386.463	372.12
386.688	356.12
386.913	351.12
387.138	358.12
387.363	352.12
387.588	336.12
387.813	350.12
388.038	359.12
388.263	358.12
388.488	354.12
388.713	337.12
388.938	330.12
389.163	356.12
389.387	348.12
389.612	347.12
389.837	344.12
390.062	357.12
390.287	338.12
390.512	364.12
390.736	383.12
390.961	348.12
391.186	335.12
391.411	350.12
391.636	364.12
391.86	361.12
392.085	367.12
392.31	362.12
392.534	353.12
392.759	359.12
392.984	351.12
393.208	345.12
393.433	352.12
393.658	361.12
393.882	349.12
394.107	369.12
394.331	359.12
394.556	360.12
394.78	367.12
395.005	341.12
395.229	352.12
395.454	363.12
395.678	361.12
395.903	385.12
396.127	395.12
396.352	389.12
396.576	374.12
396.801	370.12
397.025	370.12
397.249	345.12
397.474	371.12
397.698	385.12
397.922	373.12
398.147	391.12
398.371	406.12
398.595	388.12
398.82	405.12
399.044	417.12
399.268	414.12
399.492	429.12
399.717	455.12
399.941	434.12
400.165	484.12
400.389	503.12
400.613	446.12
400.837	404.12
401.062	415.12
401.286	410.12
401.51	399.12
401.734	401.12
401.958	405.12
402.182	413.12
402.406	407.12
402.63	408.12
402.854	407.12
403.078	421.12
403.302	407.12
403.526	413.12
403.75	421.12
403.974	408.12
404.198	404.12
404.422	420.12
404.645	412.12
404.869	437.12
405.093	439.12
405.317	455.12
405.541	505.12
405.765	469.12
405.988	443.12
406.212	453.12
406.436	479.12
406.66	476.12
406.883	463.12
407.107	476.12
407.331	504.12
407.555	530.12
407.778	538.12
408.002	492.12
408.226	469.12
408.449	460.12
408.673	452.12
408.896	473.12
409.12	491.12
409.344	492.12
409.567	439.12
409.791	431.12
410.014	418.12
410.238	415.12
410.461	423.12
410.685	436.12
410.908	463.12
411.132	461.12
411.355	485.12
411.578	457.12
411.802	420.12
412.025	437.12
412.249	435.12
412.472	452.12
412.695	477.12
412.919	465.12
413.142	434.12
413.365	405.12
413.589	406.12
413.812	408.12
414.035	397.12
414.258	386.12
414.482	379.12
414.705	401.12
414.928	384.12
415.151	380.12
415.374	388.12
415.597	381.12
415.821	394.12
416.044	379.12
416.267	395.12
416.49	396.12
416.713	397.12
416.936	383.12
417.159	389.12
417.382	397.12
417.605	387.12
417.828	393.12
418.051	401.12
418.274	399.12
418.497	409.12
418.72	388.12
418.943	391.12
419.166	415.12
419.389	412.12
419.611	403.12
419.834	400.12
420.057	411.12
420.28	407.12
420.503	426.12
420.726	404.12
420.948	416.12
421.171	458.12
421.394	483.12
421.617	428.12
421.839	389.12
422.062	400.12
422.285	432.12
422.507	451.12
422.73	535.12
422.953	510.12
423.175	457.12
423.398	436.12
423.621	414.12
423.843	463.12
424.066	439.12
424.288	427.12
424.511	450.12
424.733	524.12
424.956	565.12
425.178	551.12
425.401	549.12
425.623	567.12
425.846	485.12
426.068	450.12
426.291	444.12
426.513	459.12
426.735	465.12
426.958	491.12
427.18	565.12
427.402	654.12
427.625	724.12
427.847	656.12
428.069	557.12
428.292	505.12
428.514	448.12
428.736	429.12
428.958	429.12
429.181	438.12
429.403	429.12
429.625	429.12
429.847	461.12
430.069	499.12
430.292	508.12
430.514	445.12
430.736	409.12
430.958	400.12
431.18	400.12
431.402	379.12
431.624	379.12
431.846	387.12
432.068	396.12
432.29	400.12
432.512	391.12
432.734	408.12
432.956	395.12
433.178	433.12
433.4	426.12
433.622	401.12
433.844	409.12
434.066	386.12
434.287	398.12
434.509	421.12
434.731	410.12
434.953	392.12
435.175	394.12
435.397	438.12
435.618	467.12
435.84	487.12
436.062	562.12
436.284	617.12
436.505	523.12
436.727	476.12
436.949	452.12
437.17	439.12
437.392	434.12
437.614	446.12
437.835	481.12
438.057	552.12
438.278	654.12
438.5	605.12
438.721	650.12
438.943	645.12
439.165	523.12
439.386	469.12
439.608	465.12
439.829	479.12
440.05	475.12
440.272	520.12
440.493	495.12
440.715	457.12
440.936	442.12
441.158	433.12
441.379	416.12
441.6	428.12
441.822	455.12
442.043	483.12
442.264	548.12
442.486	584.12
442.707	522.12
442.928	482.12
443.149	481.12
443.371	488.12
443.592	521.12
443.813	593.12
444.034	633.12
444.255	526.12
444.476	472.12
444.698	460.12
444.919	455.12
445.14	563.12
445.361	515.12
445.582	492.12
445.803	555.12
446.024	642.12
446.245	633.12
446.466	607.12
446.687	494.12
446.908	455.12
447.129	457.12
447.35	442.12
447.571	414.12
447.792	430.12
448.013	441.12
448.234	431.12
448.455	466.12
448.675	580.12
448.896	629.12
449.117	553.12
449.338	535.12
449.559	623.12
449.779	677.12
450	540.12
450.221	481.12
450.442	432.12
450.662	411.12
450.883	421.12
451.104	449.12
451.324	423.12
451.545	405.12
451.766	409.12
451.986	377.12
452.207	378.12
452.428	367.12
452.648	376.12
452.869	386.12
453.089	380.12
453.31	392.12
453.53	401.12
453.751	395.12
453.971	387.12
454.192	411.12
454.412	409.12
454.633	379.12
454.853	386.12
455.073	372.12
455.294	411.12
455.514	467.12
455.734	434.12
455.955	374.12
456.175	365.12
456.395	341.12
456.616	335.12
456.836	367.12
457.056	354.12
457.276	344.12
457.497	366.12
457.717	352.12
457.937	367.12
458.157	374.12
458.377	380.12
458.598	400.12
458.818	479.12
459.038	527.12
459.258	518.12
459.478	463.12
459.698	433.12
459.918	394.12
460.138	397.12
460.358	380.12
460.578	396.12
460.798	411.12
461.018	401.12
461.238	411.12
461.458	418.12
461.678	413.12
461.898	402.12
462.118	413.12
462.338	405.12
462.558	401.12
462.777	406.12
462.997	417.12
463.217	408.12
463.437	421.12
463.657	416.12
463.876	419.12
464.096	383.12
464.316	416.12
464.536	426.12
464.755	435.12
464.975	441.12
465.195	476.12
465.414	576.12
465.634	487.12
465.854	430.12
466.073	421.12
466.293	405.12
466.512	392.12
466.732	381.12
466.951	384.12
467.171	383.12
467.391	390.12
467.61	397.12
467.829	409.12
468.049	402.12
468.268	405.12
468.488	381.12
468.707	371.12
468.927	382.12
469.146	380.12
469.365	374.12
469.585	374.12
469.804	389.12
470.023	393.12
470.243	402.12
470.462	411.12
470.681	412.12
470.901	414.12
471.12	407.12
471.339	386.12
471.558	383.12
471.777	396.12
471.997	393.12
472.216	405.12
472.435	450.12
472.654	419.12
472.873	408.12
473.092	415.12
473.311	391.12
473.53	400.12
473.749	417.12
473.968	438.12
474.187	525.12
474.406	545.12
474.625	427.12
474.844	390.12
475.063	386.12
475.282	386.12
475.501	398.12
475.72	409.12
475.939	416.12
476.158	393.12
476.377	406.12
476.596	415.12
476.814	415.12
477.033	413.12
477.252	397.12
477.471	436.12
477.69	426.12
477.908	438.12
478.127	412.12
478.346	417.12
478.564	440.12
478.783	418.12
479.002	444.12
479.22	432.12
479.439	451.12
479.658	480.12
479.876	492.12
480.095	487.12
480.313	493.12
480.532	485.12
480.751	471.12
480.969	493.12
481.188	551.12
481.406	589.12
481.624	532.12
481.843	478.12
482.061	486.12
482.28	449.12
482.498	495.12
482.717	464.12
482.935	454.12
483.153	449.12
483.372	462.12
483.59	467.12
483.808	496.12
484.027	443.12
484.245	461.12
484.463	461.12
484.681	474.12
484.9	481.12
485.118	490.12
485.336	474.12
485.554	447.12
485.772	462.12
485.99	478.12
486.209	477.12
486.427	473.12
486.645	467.12
486.863	529.12
487.081	511.12
487.299	523.12
487.517	525.12
487.735	492.12
487.953	472.12
488.171	523.12
488.389	489.12
488.607	497.12
488.825	524.12
489.043	500.12
489.261	502.12
489.479	492.12
489.696	499.12
489.914	509.12
490.132	517.12
490.35	511.12
490.568	508.12
490.786	533.12
491.003	538.12
491.221	539.12
491.439	550.12
491.657	560.12
491.874	540.12
492.092	569.12
492.31	572.12
492.527	565.12
492.745	590.12
492.963	580.12
493.18	586.12
493.398	587.12
493.615	575.12
493.833	601.12
494.05	572.12
494.268	581.12
494.485	586.12
494.703	579.12
494.92	595.12
495.138	596.12
495.355	585.12
495.573	599.12
495.79	597.12
496.008	581.12
496.225	594.12
496.442	586.12
496.66	570.12
496.877	602.12
497.094	587.12
497.312	598.12
497.529	609.12
497.746	615.12
497.963	589.12
498.181	622.12
498.398	627.12
498.615	649.12
498.832	643.12
499.049	659.12
499.267	656.12
499.484	679.12
499.701	701.12
499.918	710.12
500.135	736.12
500.352	747.12
500.569	725.12
500.786	740.12
501.003	736.12
501.22	738.12
501.437	694.12
501.654	708.12
501.871	722.12
502.088	698.12
