Data from 1965.PennyLincolnUp.Lamp.En5.5.200Scan.071719.P1._HRD10591_14-08-55-911.txt Node
Date: Thu Jul 18 14:08:55 EDT 2019
User: cochatt
Spectrometer: HR+D1059
Trigger mode: 1
Integration Time (sec): 1.000000E-1
Scans to average: 1
Electric dark correction enabled: true
Nonlinearity correction enabled: false
Boxcar width: 0
XAxis mode: Wavelengths
Number of Pixels in Spectrum: 2048
>>>>>Begin Spectral Data<<<<<
223.165	-20.88
223.4	-20.88
223.635	-20.88
223.869	-23.88
224.104	-22.88
224.338	-1.88
224.573	0.12
224.808	-14.88
225.042	-5.88
225.277	-12.88
225.511	-0.88
225.746	-1.88
225.98	11.12
226.215	11.12
226.449	13.12
226.683	22.12
226.918	33.12
227.152	15.12
227.387	26.12
227.621	26.12
227.856	43.12
228.09	51.12
228.324	41.12
228.559	50.12
228.793	67.12
229.027	89.12
229.262	104.12
229.496	118.12
229.73	125.12
229.964	143.12
230.199	132.12
230.433	104.12
230.667	104.12
230.901	115.12
231.136	108.12
231.37	97.12
231.604	101.12
231.838	106.12
232.072	105.12
232.306	107.12
232.541	110.12
232.775	107.12
233.009	115.12
233.243	95.12
233.477	104.12
233.711	105.12
233.945	104.12
234.179	99.12
234.413	99.12
234.647	117.12
234.881	119.12
235.115	105.12
235.349	115.12
235.583	114.12
235.817	107.12
236.051	127.12
236.285	104.12
236.519	111.12
236.753	113.12
236.987	126.12
237.221	175.12
237.455	201.12
237.689	165.12
237.922	130.12
238.156	120.12
238.39	120.12
238.624	107.12
238.858	107.12
239.091	124.12
239.325	108.12
239.559	123.12
239.793	139.12
240.027	139.12
240.26	129.12
240.494	156.12
240.728	135.12
240.961	131.12
241.195	144.12
241.429	137.12
241.662	122.12
241.896	123.12
242.13	131.12
242.363	132.12
242.597	125.12
242.83	128.12
243.064	128.12
243.298	119.12
243.531	125.12
243.765	128.12
243.998	116.12
244.232	119.12
244.465	129.12
244.699	131.12
244.932	121.12
245.166	125.12
245.399	154.12
245.633	136.12
245.866	133.12
246.099	142.12
246.333	132.12
246.566	146.12
246.8	138.12
247.033	146.12
247.266	142.12
247.5	151.12
247.733	142.12
247.966	149.12
248.2	150.12
248.433	155.12
248.666	150.12
248.899	137.12
249.133	173.12
249.366	185.12
249.599	202.12
249.832	167.12
250.066	157.12
250.299	171.12
250.532	168.12
250.765	166.12
250.998	204.12
251.231	207.12
251.465	174.12
251.698	182.12
251.931	182.12
252.164	172.12
252.397	179.12
252.63	191.12
252.863	190.12
253.096	184.12
253.329	208.12
253.562	201.12
253.795	212.12
254.028	192.12
254.261	200.12
254.494	202.12
254.727	222.12
254.96	231.12
255.193	224.12
255.426	221.12
255.659	207.12
255.892	213.12
256.124	204.12
256.357	216.12
256.59	197.12
256.823	200.12
257.056	199.12
257.289	193.12
257.521	197.12
257.754	193.12
257.987	186.12
258.22	185.12
258.452	191.12
258.685	202.12
258.918	186.12
259.151	175.12
259.383	183.12
259.616	191.12
259.849	205.12
260.081	212.12
260.314	226.12
260.547	221.12
260.779	222.12
261.012	212.12
261.244	216.12
261.477	222.12
261.71	201.12
261.942	190.12
262.175	195.12
262.407	202.12
262.64	194.12
262.872	191.12
263.105	184.12
263.337	193.12
263.57	208.12
263.802	182.12
264.035	186.12
264.267	183.12
264.499	189.12
264.732	172.12
264.964	180.12
265.197	189.12
265.429	193.12
265.661	205.12
265.894	189.12
266.126	188.12
266.358	183.12
266.591	185.12
266.823	204.12
267.055	206.12
267.287	205.12
267.52	212.12
267.752	207.12
267.984	204.12
268.216	218.12
268.448	211.12
268.681	198.12
268.913	214.12
269.145	228.12
269.377	236.12
269.609	234.12
269.841	227.12
270.073	229.12
270.306	252.12
270.538	273.12
270.77	261.12
271.002	276.12
271.234	241.12
271.466	267.12
271.698	263.12
271.93	281.12
272.162	265.12
272.394	280.12
272.626	261.12
272.858	244.12
273.09	247.12
273.322	239.12
273.553	221.12
273.785	239.12
274.017	236.12
274.249	221.12
274.481	248.12
274.713	245.12
274.945	246.12
275.176	245.12
275.408	247.12
275.64	208.12
275.872	224.12
276.104	233.12
276.335	229.12
276.567	237.12
276.799	249.12
277.031	260.12
277.262	294.12
277.494	286.12
277.726	271.12
277.957	254.12
278.189	223.12
278.421	239.12
278.652	230.12
278.884	228.12
279.115	229.12
279.347	227.12
279.579	231.12
279.81	228.12
280.042	224.12
280.273	229.12
280.505	226.12
280.736	213.12
280.968	256.12
281.199	209.12
281.431	228.12
281.662	227.12
281.894	245.12
282.125	236.12
282.356	235.12
282.588	263.12
282.819	265.12
283.051	240.12
283.282	234.12
283.513	233.12
283.745	243.12
283.976	234.12
284.207	231.12
284.439	251.12
284.67	224.12
284.901	240.12
285.132	240.12
285.364	249.12
285.595	247.12
285.826	254.12
286.057	257.12
286.288	231.12
286.52	234.12
286.751	233.12
286.982	227.12
287.213	229.12
287.444	243.12
287.675	248.12
287.906	266.12
288.138	240.12
288.369	251.12
288.6	271.12
288.831	239.12
289.062	267.12
289.293	244.12
289.524	248.12
289.755	250.12
289.986	249.12
290.217	247.12
290.448	262.12
290.679	248.12
290.91	227.12
291.141	247.12
291.371	241.12
291.602	236.12
291.833	248.12
292.064	242.12
292.295	225.12
292.526	261.12
292.757	253.12
292.987	238.12
293.218	247.12
293.449	246.12
293.68	225.12
293.91	259.12
294.141	257.12
294.372	253.12
294.603	243.12
294.833	248.12
295.064	260.12
295.295	247.12
295.525	259.12
295.756	254.12
295.987	263.12
296.217	274.12
296.448	283.12
296.679	265.12
296.909	248.12
297.14	248.12
297.37	257.12
297.601	263.12
297.831	265.12
298.062	258.12
298.292	261.12
298.523	251.12
298.753	262.12
298.984	252.12
299.214	268.12
299.445	259.12
299.675	271.12
299.905	269.12
300.136	276.12
300.366	265.12
300.597	259.12
300.827	277.12
301.057	268.12
301.288	284.12
301.518	293.12
301.748	275.12
301.979	266.12
302.209	284.12
302.439	261.12
302.669	293.12
302.9	286.12
303.13	287.12
303.36	252.12
303.59	272.12
303.82	286.12
304.051	302.12
304.281	283.12
304.511	275.12
304.741	280.12
304.971	279.12
305.201	281.12
305.431	293.12
305.661	272.12
305.891	261.12
306.121	283.12
306.352	277.12
306.582	289.12
306.812	289.12
307.042	296.12
307.272	276.12
307.502	302.12
307.731	269.12
307.961	276.12
308.191	284.12
308.421	292.12
308.651	285.12
308.881	289.12
309.111	299.12
309.341	284.12
309.571	297.12
309.8	317.12
310.03	331.12
310.26	321.12
310.49	310.12
310.72	320.12
310.949	358.12
311.179	360.12
311.409	318.12
311.639	326.12
311.868	323.12
312.098	343.12
312.328	327.12
312.557	355.12
312.787	355.12
313.017	363.12
313.246	354.12
313.476	341.12
313.706	339.12
313.935	340.12
314.165	341.12
314.394	345.12
314.624	349.12
314.853	324.12
315.083	314.12
315.312	318.12
315.542	310.12
315.771	315.12
316.001	321.12
316.23	332.12
316.46	313.12
316.689	321.12
316.919	319.12
317.148	356.12
317.377	351.12
317.607	339.12
317.836	336.12
318.065	330.12
318.295	324.12
318.524	328.12
318.753	309.12
318.983	319.12
319.212	336.12
319.441	320.12
319.67	339.12
319.9	331.12
320.129	331.12
320.358	320.12
320.587	335.12
320.816	335.12
321.046	361.12
321.275	356.12
321.504	359.12
321.733	353.12
321.962	369.12
322.191	372.12
322.42	381.12
322.649	380.12
322.878	409.12
323.108	390.12
323.337	459.12
323.566	449.12
323.795	494.12
324.024	541.12
324.253	679.12
324.482	963.12
324.71	1458.12
324.939	2002.12
325.168	1667.12
325.397	893.12
325.626	614.12
325.855	499.12
326.084	475.12
326.313	451.12
326.542	477.12
326.77	511.12
326.999	603.12
327.228	847.12
327.457	1280.12
327.686	1435.12
327.914	989.12
328.143	651.12
328.372	588.12
328.6	554.12
328.829	496.12
329.058	536.12
329.287	538.12
329.515	496.12
329.744	441.12
329.972	444.12
330.201	474.12
330.43	518.12
330.658	537.12
330.887	589.12
331.115	561.12
331.344	462.12
331.572	429.12
331.801	447.12
332.03	409.12
332.258	388.12
332.486	413.12
332.715	384.12
332.943	379.12
333.172	382.12
333.4	388.12
333.629	414.12
333.857	397.12
334.085	414.12
334.314	422.12
334.542	461.12
334.771	457.12
334.999	436.12
335.227	409.12
335.455	395.12
335.684	398.12
335.912	388.12
336.14	378.12
336.369	388.12
336.597	385.12
336.825	397.12
337.053	380.12
337.281	376.12
337.51	361.12
337.738	373.12
337.966	365.12
338.194	383.12
338.422	385.12
338.65	373.12
338.878	357.12
339.106	360.12
339.334	375.12
339.562	366.12
339.79	369.12
340.018	373.12
340.246	350.12
340.474	373.12
340.702	379.12
340.93	373.12
341.158	357.12
341.386	359.12
341.614	376.12
341.842	352.12
342.07	359.12
342.298	348.12
342.526	367.12
342.754	346.12
342.981	357.12
343.209	359.12
343.437	365.12
343.665	340.12
343.893	382.12
344.12	371.12
344.348	375.12
344.576	367.12
344.804	367.12
345.031	398.12
345.259	395.12
345.487	378.12
345.714	391.12
345.942	368.12
346.17	357.12
346.397	360.12
346.625	367.12
346.853	351.12
347.08	368.12
347.308	352.12
347.535	359.12
347.763	375.12
347.99	367.12
348.218	371.12
348.445	371.12
348.673	376.12
348.9	342.12
349.128	362.12
349.355	336.12
349.583	350.12
349.81	362.12
350.037	342.12
350.265	358.12
350.492	341.12
350.72	351.12
350.947	367.12
351.174	344.12
351.402	372.12
351.629	364.12
351.856	363.12
352.083	368.12
352.311	383.12
352.538	375.12
352.765	375.12
352.992	359.12
353.22	364.12
353.447	350.12
353.674	360.12
353.901	342.12
354.128	352.12
354.355	328.12
354.583	315.12
354.81	335.12
355.037	336.12
355.264	323.12
355.491	343.12
355.718	311.12
355.945	323.12
356.172	325.12
356.399	323.12
356.626	326.12
356.853	340.12
357.08	318.12
357.307	324.12
357.534	313.12
357.761	332.12
357.988	327.12
358.215	348.12
358.441	332.12
358.668	327.12
358.895	321.12
359.122	329.12
359.349	353.12
359.576	355.12
359.802	371.12
360.029	383.12
360.256	399.12
360.483	401.12
360.709	377.12
360.936	363.12
361.163	347.12
361.39	359.12
361.616	383.12
361.843	363.12
362.07	344.12
362.296	378.12
362.523	371.12
362.749	368.12
362.976	363.12
363.203	353.12
363.429	351.12
363.656	358.12
363.882	342.12
364.109	360.12
364.335	342.12
364.562	350.12
364.788	332.12
365.015	333.12
365.241	337.12
365.468	349.12
365.694	348.12
365.92	363.12
366.147	347.12
366.373	338.12
366.599	326.12
366.826	345.12
367.052	358.12
367.278	344.12
367.505	328.12
367.731	332.12
367.957	328.12
368.184	340.12
368.41	368.12
368.636	371.12
368.862	339.12
369.089	348.12
369.315	341.12
369.541	325.12
369.767	337.12
369.993	329.12
370.219	315.12
370.445	345.12
370.672	348.12
370.898	335.12
371.124	329.12
371.35	329.12
371.576	342.12
371.802	331.12
372.028	347.12
372.254	321.12
372.48	348.12
372.706	328.12
372.932	337.12
373.158	333.12
373.384	350.12
373.61	360.12
373.835	325.12
374.061	323.12
374.287	336.12
374.513	350.12
374.739	321.12
374.965	334.12
375.191	329.12
375.416	320.12
375.642	335.12
375.868	337.12
376.094	333.12
376.319	333.12
376.545	354.12
376.771	349.12
376.997	342.12
377.222	331.12
377.448	320.12
377.674	333.12
377.899	329.12
378.125	331.12
378.35	316.12
378.576	328.12
378.802	315.12
379.027	335.12
379.253	318.12
379.478	315.12
379.704	327.12
379.929	337.12
380.155	331.12
380.38	344.12
380.606	323.12
380.831	340.12
381.057	335.12
381.282	318.12
381.507	328.12
381.733	315.12
381.958	318.12
382.184	326.12
382.409	333.12
382.634	344.12
382.86	346.12
383.085	353.12
383.31	334.12
383.535	339.12
383.761	337.12
383.986	339.12
384.211	335.12
384.436	358.12
384.662	345.12
384.887	352.12
385.112	350.12
385.337	350.12
385.562	351.12
385.787	346.12
386.013	378.12
386.238	368.12
386.463	351.12
386.688	345.12
386.913	340.12
387.138	362.12
387.363	352.12
387.588	349.12
387.813	357.12
388.038	333.12
388.263	351.12
388.488	358.12
388.713	361.12
388.938	360.12
389.163	360.12
389.387	343.12
389.612	354.12
389.837	356.12
390.062	352.12
390.287	372.12
390.512	363.12
390.736	356.12
390.961	356.12
391.186	356.12
391.411	349.12
391.636	369.12
391.86	375.12
392.085	366.12
392.31	353.12
392.534	369.12
392.759	351.12
392.984	366.12
393.208	365.12
393.433	348.12
393.658	364.12
393.882	356.12
394.107	344.12
394.331	379.12
394.556	360.12
394.78	366.12
395.005	351.12
395.229	351.12
395.454	374.12
395.678	379.12
395.903	361.12
396.127	376.12
396.352	402.12
396.576	362.12
396.801	364.12
397.025	355.12
397.249	371.12
397.474	373.12
397.698	368.12
397.922	387.12
398.147	397.12
398.371	401.12
398.595	387.12
398.82	411.12
399.044	416.12
399.268	402.12
399.492	432.12
399.717	447.12
399.941	463.12
400.165	476.12
400.389	499.12
400.613	437.12
400.837	443.12
401.062	409.12
401.286	419.12
401.51	429.12
401.734	411.12
401.958	397.12
402.182	407.12
402.406	426.12
402.63	413.12
402.854	414.12
403.078	404.12
403.302	421.12
403.526	429.12
403.75	417.12
403.974	426.12
404.198	431.12
404.422	428.12
404.645	412.12
404.869	410.12
405.093	450.12
405.317	491.12
405.541	515.12
405.765	465.12
405.988	438.12
406.212	462.12
406.436	488.12
406.66	478.12
406.883	435.12
407.107	468.12
407.331	509.12
407.555	561.12
407.778	561.12
408.002	472.12
408.226	459.12
408.449	457.12
408.673	456.12
408.896	466.12
409.12	524.12
409.344	479.12
409.567	424.12
409.791	451.12
410.014	420.12
410.238	412.12
410.461	421.12
410.685	439.12
410.908	413.12
411.132	465.12
411.355	477.12
411.578	465.12
411.802	423.12
412.025	419.12
412.249	409.12
412.472	427.12
412.695	448.12
412.919	479.12
413.142	419.12
413.365	415.12
413.589	401.12
413.812	416.12
414.035	398.12
414.258	390.12
414.482	384.12
414.705	404.12
414.928	393.12
415.151	390.12
415.374	381.12
415.597	384.12
415.821	376.12
416.044	388.12
416.267	388.12
416.49	406.12
416.713	366.12
416.936	401.12
417.159	389.12
417.382	375.12
417.605	391.12
417.828	396.12
418.051	443.12
418.274	419.12
418.497	410.12
418.72	399.12
418.943	398.12
419.166	409.12
419.389	415.12
419.611	440.12
419.834	418.12
420.057	419.12
420.28	417.12
420.503	419.12
420.726	407.12
420.948	416.12
421.171	440.12
421.394	479.12
421.617	437.12
421.839	425.12
422.062	422.12
422.285	419.12
422.507	472.12
422.73	511.12
422.953	508.12
423.175	452.12
423.398	432.12
423.621	432.12
423.843	461.12
424.066	449.12
424.288	453.12
424.511	451.12
424.733	499.12
424.956	571.12
425.178	539.12
425.401	540.12
425.623	545.12
425.846	507.12
426.068	457.12
426.291	453.12
426.513	440.12
426.735	470.12
426.958	499.12
427.18	573.12
427.402	663.12
427.625	709.12
427.847	660.12
428.069	577.12
428.292	511.12
428.514	473.12
428.736	442.12
428.958	443.12
429.181	416.12
429.403	413.12
429.625	424.12
429.847	472.12
430.069	513.12
430.292	519.12
430.514	440.12
430.736	424.12
430.958	409.12
431.18	393.12
431.402	406.12
431.624	415.12
431.846	401.12
432.068	420.12
432.29	406.12
432.512	383.12
432.734	402.12
432.956	405.12
433.178	409.12
433.4	413.12
433.622	404.12
433.844	398.12
434.066	388.12
434.287	385.12
434.509	403.12
434.731	408.12
434.953	417.12
435.175	442.12
435.397	423.12
435.618	450.12
435.84	468.12
436.062	553.12
436.284	619.12
436.505	526.12
436.727	468.12
436.949	425.12
437.17	435.12
437.392	414.12
437.614	461.12
437.835	465.12
438.057	566.12
438.278	635.12
438.5	623.12
438.721	689.12
438.943	639.12
439.165	525.12
439.386	495.12
439.608	476.12
439.829	468.12
440.05	479.12
440.272	536.12
440.493	486.12
440.715	452.12
440.936	446.12
441.158	421.12
441.379	422.12
441.6	439.12
441.822	444.12
442.043	463.12
442.264	553.12
442.486	584.12
442.707	503.12
442.928	487.12
443.149	467.12
443.371	490.12
443.592	515.12
443.813	599.12
444.034	614.12
444.255	535.12
444.476	472.12
444.698	464.12
444.919	446.12
445.14	537.12
445.361	522.12
445.582	482.12
445.803	535.12
446.024	628.12
446.245	619.12
446.466	579.12
446.687	499.12
446.908	476.12
447.129	427.12
447.35	433.12
447.571	424.12
447.792	424.12
448.013	433.12
448.234	440.12
448.455	505.12
448.675	587.12
448.896	652.12
449.117	553.12
449.338	555.12
449.559	621.12
449.779	679.12
450	568.12
450.221	475.12
450.442	433.12
450.662	426.12
450.883	434.12
451.104	458.12
451.324	440.12
451.545	427.12
451.766	409.12
451.986	398.12
452.207	400.12
452.428	376.12
452.648	388.12
452.869	383.12
453.089	414.12
453.31	403.12
453.53	393.12
453.751	387.12
453.971	400.12
454.192	413.12
454.412	422.12
454.633	405.12
454.853	387.12
455.073	391.12
455.294	409.12
455.514	474.12
455.734	427.12
455.955	388.12
456.175	388.12
456.395	361.12
456.616	368.12
456.836	348.12
457.056	358.12
457.276	345.12
457.497	382.12
457.717	375.12
457.937	384.12
458.157	369.12
458.377	364.12
458.598	394.12
458.818	442.12
459.038	524.12
459.258	535.12
459.478	447.12
459.698	400.12
459.918	382.12
460.138	392.12
460.358	400.12
460.578	408.12
460.798	403.12
461.018	410.12
461.238	388.12
461.458	398.12
461.678	381.12
461.898	410.12
462.118	387.12
462.338	410.12
462.558	409.12
462.777	415.12
462.997	439.12
463.217	412.12
463.437	437.12
463.657	408.12
463.876	412.12
464.096	430.12
464.316	421.12
464.536	429.12
464.755	423.12
464.975	430.12
465.195	489.12
465.414	567.12
465.634	472.12
465.854	441.12
466.073	413.12
466.293	394.12
466.512	404.12
466.732	387.12
466.951	391.12
467.171	382.12
467.391	382.12
467.61	391.12
467.829	418.12
468.049	411.12
468.268	406.12
468.488	391.12
468.707	375.12
468.927	396.12
469.146	378.12
469.365	381.12
469.585	395.12
469.804	388.12
470.023	388.12
470.243	410.12
470.462	398.12
470.681	414.12
470.901	417.12
471.12	415.12
471.339	395.12
471.558	389.12
471.777	390.12
471.997	402.12
472.216	410.12
472.435	421.12
472.654	435.12
472.873	403.12
473.092	421.12
473.311	391.12
473.53	409.12
473.749	404.12
473.968	443.12
474.187	512.12
474.406	543.12
474.625	448.12
474.844	429.12
475.063	408.12
475.282	393.12
475.501	397.12
475.72	419.12
475.939	406.12
476.158	409.12
476.377	431.12
476.596	411.12
476.814	409.12
477.033	425.12
477.252	410.12
477.471	397.12
477.69	400.12
477.908	430.12
478.127	424.12
478.346	413.12
478.564	433.12
478.783	424.12
479.002	421.12
479.22	456.12
479.439	449.12
479.658	488.12
479.876	484.12
480.095	488.12
480.313	497.12
480.532	504.12
480.751	481.12
480.969	515.12
481.188	557.12
481.406	609.12
481.624	516.12
481.843	488.12
482.061	489.12
482.28	469.12
482.498	448.12
482.717	462.12
482.935	464.12
483.153	454.12
483.372	439.12
483.59	467.12
483.808	456.12
484.027	464.12
484.245	469.12
484.463	482.12
484.681	493.12
484.9	472.12
485.118	465.12
485.336	486.12
485.554	495.12
485.772	477.12
485.99	476.12
486.209	491.12
486.427	481.12
486.645	496.12
486.863	505.12
487.081	509.12
487.299	511.12
487.517	483.12
487.735	491.12
487.953	485.12
488.171	499.12
488.389	516.12
488.607	509.12
488.825	491.12
489.043	517.12
489.261	515.12
489.479	516.12
489.696	532.12
489.914	513.12
490.132	531.12
490.35	516.12
490.568	539.12
490.786	555.12
491.003	556.12
491.221	557.12
491.439	548.12
491.657	556.12
491.874	548.12
492.092	568.12
492.31	588.12
492.527	568.12
492.745	569.12
492.963	597.12
493.18	584.12
493.398	594.12
493.615	585.12
493.833	579.12
494.05	568.12
494.268	589.12
494.485	606.12
494.703	595.12
494.92	574.12
495.138	592.12
495.355	616.12
495.573	588.12
495.79	611.12
496.008	590.12
496.225	559.12
496.442	575.12
496.66	586.12
496.877	585.12
497.094	609.12
497.312	595.12
497.529	612.12
497.746	629.12
497.963	626.12
498.181	620.12
498.398	648.12
498.615	635.12
498.832	634.12
499.049	669.12
499.267	665.12
499.484	665.12
499.701	694.12
499.918	704.12
500.135	731.12
500.352	773.12
500.569	767.12
500.786	727.12
501.003	743.12
501.22	752.12
501.437	709.12
501.654	721.12
501.871	749.12
502.088	683.12
