Data from 1965.PennyLincolnUp.Lamp.En5.5.200Scan.071719.P1._HRD10591_14-08-45-912.txt Node
Date: Thu Jul 18 14:08:45 EDT 2019
User: cochatt
Spectrometer: HR+D1059
Trigger mode: 1
Integration Time (sec): 1.000000E-1
Scans to average: 1
Electric dark correction enabled: true
Nonlinearity correction enabled: false
Boxcar width: 0
XAxis mode: Wavelengths
Number of Pixels in Spectrum: 2048
>>>>>Begin Spectral Data<<<<<
223.165	-8.25
223.4	-8.25
223.635	-8.25
223.869	-20.25
224.104	-21.25
224.338	1.75
224.573	-17.25
224.808	-26.25
225.042	-16.25
225.277	-14.25
225.511	-6.25
225.746	-4.25
225.98	13.75
226.215	21.75
226.449	21.75
226.683	21.75
226.918	23.75
227.152	29.75
227.387	55.75
227.621	30.75
227.856	33.75
228.09	47.75
228.324	60.75
228.559	67.75
228.793	62.75
229.027	87.75
229.262	103.75
229.496	104.75
229.73	110.75
229.964	151.75
230.199	127.75
230.433	104.75
230.667	107.75
230.901	109.75
231.136	103.75
231.37	104.75
231.604	112.75
231.838	97.75
232.072	109.75
232.306	95.75
232.541	107.75
232.775	110.75
233.009	115.75
233.243	104.75
233.477	119.75
233.711	101.75
233.945	106.75
234.179	112.75
234.413	102.75
234.647	125.75
234.881	110.75
235.115	117.75
235.349	123.75
235.583	119.75
235.817	122.75
236.051	123.75
236.285	126.75
236.519	126.75
236.753	136.75
236.987	129.75
237.221	183.75
237.455	217.75
237.689	153.75
237.922	132.75
238.156	136.75
238.39	120.75
238.624	117.75
238.858	123.75
239.091	125.75
239.325	118.75
239.559	113.75
239.793	126.75
240.027	129.75
240.26	129.75
240.494	144.75
240.728	143.75
240.961	135.75
241.195	105.75
241.429	137.75
241.662	101.75
241.896	121.75
242.13	109.75
242.363	131.75
242.597	112.75
242.83	127.75
243.064	124.75
243.298	131.75
243.531	125.75
243.765	126.75
243.998	121.75
244.232	136.75
244.465	137.75
244.699	136.75
244.932	131.75
245.166	133.75
245.399	121.75
245.633	127.75
245.866	146.75
246.099	141.75
246.333	139.75
246.566	153.75
246.8	126.75
247.033	125.75
247.266	131.75
247.5	153.75
247.733	150.75
247.966	155.75
248.2	145.75
248.433	153.75
248.666	149.75
248.899	161.75
249.133	169.75
249.366	179.75
249.599	164.75
249.832	176.75
250.066	166.75
250.299	164.75
250.532	171.75
250.765	189.75
250.998	193.75
251.231	191.75
251.465	165.75
251.698	182.75
251.931	190.75
252.164	176.75
252.397	185.75
252.63	168.75
252.863	183.75
253.096	205.75
253.329	209.75
253.562	217.75
253.795	184.75
254.028	195.75
254.261	190.75
254.494	192.75
254.727	220.75
254.96	264.75
255.193	225.75
255.426	199.75
255.659	209.75
255.892	216.75
256.124	196.75
256.357	204.75
256.59	202.75
256.823	184.75
257.056	189.75
257.289	180.75
257.521	184.75
257.754	187.75
257.987	196.75
258.22	195.75
258.452	179.75
258.685	199.75
258.918	176.75
259.151	172.75
259.383	184.75
259.616	212.75
259.849	200.75
260.081	230.75
260.314	224.75
260.547	222.75
260.779	215.75
261.012	201.75
261.244	205.75
261.477	204.75
261.71	186.75
261.942	202.75
262.175	207.75
262.407	193.75
262.64	203.75
262.872	197.75
263.105	183.75
263.337	179.75
263.57	187.75
263.802	183.75
264.035	179.75
264.267	189.75
264.499	172.75
264.732	185.75
264.964	192.75
265.197	192.75
265.429	185.75
265.661	188.75
265.894	175.75
266.126	185.75
266.358	197.75
266.591	178.75
266.823	205.75
267.055	195.75
267.287	190.75
267.52	192.75
267.752	191.75
267.984	183.75
268.216	184.75
268.448	183.75
268.681	204.75
268.913	224.75
269.145	213.75
269.377	234.75
269.609	228.75
269.841	234.75
270.073	244.75
270.306	247.75
270.538	278.75
270.77	255.75
271.002	260.75
271.234	254.75
271.466	253.75
271.698	283.75
271.93	246.75
272.162	277.75
272.394	272.75
272.626	253.75
272.858	258.75
273.09	242.75
273.322	239.75
273.553	212.75
273.785	227.75
274.017	220.75
274.249	230.75
274.481	232.75
274.713	222.75
274.945	239.75
275.176	225.75
275.408	244.75
275.64	244.75
275.872	214.75
276.104	204.75
276.335	230.75
276.567	236.75
276.799	268.75
277.031	280.75
277.262	275.75
277.494	274.75
277.726	245.75
277.957	231.75
278.189	233.75
278.421	221.75
278.652	223.75
278.884	229.75
279.115	213.75
279.347	231.75
279.579	222.75
279.81	216.75
280.042	228.75
280.273	232.75
280.505	230.75
280.736	219.75
280.968	219.75
281.199	223.75
281.431	218.75
281.662	224.75
281.894	215.75
282.125	243.75
282.356	249.75
282.588	263.75
282.819	255.75
283.051	243.75
283.282	235.75
283.513	239.75
283.745	225.75
283.976	236.75
284.207	229.75
284.439	219.75
284.67	251.75
284.901	254.75
285.132	222.75
285.364	235.75
285.595	232.75
285.826	236.75
286.057	261.75
286.288	237.75
286.52	226.75
286.751	248.75
286.982	248.75
287.213	217.75
287.444	223.75
287.675	221.75
287.906	271.75
288.138	267.75
288.369	257.75
288.6	248.75
288.831	232.75
289.062	250.75
289.293	236.75
289.524	263.75
289.755	257.75
289.986	241.75
290.217	234.75
290.448	243.75
290.679	250.75
290.91	223.75
291.141	251.75
291.371	228.75
291.602	244.75
291.833	243.75
292.064	250.75
292.295	244.75
292.526	242.75
292.757	244.75
292.987	248.75
293.218	236.75
293.449	245.75
293.68	243.75
293.91	265.75
294.141	237.75
294.372	243.75
294.603	241.75
294.833	244.75
295.064	265.75
295.295	250.75
295.525	261.75
295.756	256.75
295.987	267.75
296.217	275.75
296.448	294.75
296.679	283.75
296.909	258.75
297.14	259.75
297.37	253.75
297.601	260.75
297.831	251.75
298.062	257.75
298.292	251.75
298.523	251.75
298.753	271.75
298.984	249.75
299.214	260.75
299.445	259.75
299.675	264.75
299.905	271.75
300.136	273.75
300.366	256.75
300.597	271.75
300.827	282.75
301.057	269.75
301.288	280.75
301.518	281.75
301.748	267.75
301.979	293.75
302.209	273.75
302.439	269.75
302.669	281.75
302.9	285.75
303.13	287.75
303.36	271.75
303.59	268.75
303.82	303.75
304.051	271.75
304.281	285.75
304.511	267.75
304.741	275.75
304.971	289.75
305.201	267.75
305.431	269.75
305.661	284.75
305.891	291.75
306.121	281.75
306.352	291.75
306.582	292.75
306.812	289.75
307.042	287.75
307.272	273.75
307.502	288.75
307.731	270.75
307.961	258.75
308.191	266.75
308.421	279.75
308.651	301.75
308.881	292.75
309.111	293.75
309.341	307.75
309.571	314.75
309.8	302.75
310.03	313.75
310.26	315.75
310.49	323.75
310.72	323.75
310.949	340.75
311.179	353.75
311.409	325.75
311.639	333.75
311.868	329.75
312.098	330.75
312.328	329.75
312.557	353.75
312.787	377.75
313.017	351.75
313.246	336.75
313.476	327.75
313.706	341.75
313.935	326.75
314.165	338.75
314.394	349.75
314.624	356.75
314.853	333.75
315.083	325.75
315.312	325.75
315.542	316.75
315.771	307.75
316.001	325.75
316.23	318.75
316.46	319.75
316.689	311.75
316.919	335.75
317.148	341.75
317.377	334.75
317.607	346.75
317.836	340.75
318.065	338.75
318.295	334.75
318.524	316.75
318.753	316.75
318.983	327.75
319.212	321.75
319.441	329.75
319.67	325.75
319.9	330.75
320.129	317.75
320.358	352.75
320.587	347.75
320.816	348.75
321.046	343.75
321.275	349.75
321.504	341.75
321.733	342.75
321.962	344.75
322.191	361.75
322.42	375.75
322.649	385.75
322.878	412.75
323.108	414.75
323.337	415.75
323.566	441.75
323.795	464.75
324.024	549.75
324.253	646.75
324.482	942.75
324.71	1416.75
324.939	1961.75
325.168	1648.75
325.397	876.75
325.626	613.75
325.855	495.75
326.084	443.75
326.313	448.75
326.542	464.75
326.77	497.75
326.999	611.75
327.228	846.75
327.457	1255.75
327.686	1454.75
327.914	989.75
328.143	651.75
328.372	552.75
328.6	550.75
328.829	511.75
329.058	531.75
329.287	532.75
329.515	488.75
329.744	456.75
329.972	439.75
330.201	450.75
330.43	508.75
330.658	555.75
330.887	558.75
331.115	507.75
331.344	452.75
331.572	431.75
331.801	439.75
332.03	416.75
332.258	415.75
332.486	394.75
332.715	400.75
332.943	375.75
333.172	373.75
333.4	383.75
333.629	399.75
333.857	396.75
334.085	417.75
334.314	433.75
334.542	446.75
334.771	463.75
334.999	429.75
335.227	394.75
335.455	368.75
335.684	389.75
335.912	389.75
336.14	384.75
336.369	359.75
336.597	396.75
336.825	403.75
337.053	372.75
337.281	374.75
337.51	359.75
337.738	367.75
337.966	361.75
338.194	365.75
338.422	381.75
338.65	343.75
338.878	377.75
339.106	354.75
339.334	363.75
339.562	369.75
339.79	367.75
340.018	361.75
340.246	371.75
340.474	383.75
340.702	353.75
340.93	359.75
341.158	369.75
341.386	350.75
341.614	360.75
341.842	357.75
342.07	348.75
342.298	349.75
342.526	355.75
342.754	347.75
342.981	358.75
343.209	337.75
343.437	335.75
343.665	336.75
343.893	361.75
344.12	381.75
344.348	371.75
344.576	377.75
344.804	344.75
345.031	377.75
345.259	377.75
345.487	374.75
345.714	376.75
345.942	357.75
346.17	358.75
346.397	357.75
346.625	351.75
346.853	359.75
347.08	362.75
347.308	343.75
347.535	383.75
347.763	371.75
347.99	367.75
348.218	360.75
348.445	365.75
348.673	381.75
348.9	353.75
349.128	348.75
349.355	355.75
349.583	333.75
349.81	360.75
350.037	351.75
350.265	354.75
350.492	347.75
350.72	348.75
350.947	347.75
351.174	365.75
351.402	365.75
351.629	352.75
351.856	379.75
352.083	363.75
352.311	376.75
352.538	371.75
352.765	369.75
352.992	377.75
353.22	368.75
353.447	350.75
353.674	346.75
353.901	349.75
354.128	357.75
354.355	333.75
354.583	345.75
354.81	359.75
355.037	332.75
355.264	314.75
355.491	313.75
355.718	340.75
355.945	327.75
356.172	321.75
356.399	328.75
356.626	315.75
356.853	333.75
357.08	328.75
357.307	321.75
357.534	321.75
357.761	336.75
357.988	321.75
358.215	325.75
358.441	340.75
358.668	332.75
358.895	349.75
359.122	353.75
359.349	328.75
359.576	332.75
359.802	364.75
360.029	392.75
360.256	433.75
360.483	403.75
360.709	368.75
360.936	352.75
361.163	361.75
361.39	375.75
361.616	357.75
361.843	377.75
362.07	379.75
362.296	372.75
362.523	347.75
362.749	337.75
362.976	354.75
363.203	331.75
363.429	328.75
363.656	326.75
363.882	327.75
364.109	347.75
364.335	335.75
364.562	354.75
364.788	320.75
365.015	321.75
365.241	328.75
365.468	343.75
365.694	347.75
365.92	357.75
366.147	353.75
366.373	350.75
366.599	345.75
366.826	338.75
367.052	346.75
367.278	342.75
367.505	337.75
367.731	363.75
367.957	343.75
368.184	346.75
368.41	341.75
368.636	360.75
368.862	348.75
369.089	350.75
369.315	358.75
369.541	331.75
369.767	335.75
369.993	335.75
370.219	350.75
370.445	341.75
370.672	342.75
370.898	327.75
371.124	325.75
371.35	320.75
371.576	327.75
371.802	311.75
372.028	325.75
372.254	330.75
372.48	336.75
372.706	344.75
372.932	319.75
373.158	326.75
373.384	330.75
373.61	340.75
373.835	346.75
374.061	308.75
374.287	344.75
374.513	333.75
374.739	349.75
374.965	345.75
375.191	336.75
375.416	326.75
375.642	328.75
375.868	327.75
376.094	337.75
376.319	327.75
376.545	331.75
376.771	328.75
376.997	341.75
377.222	312.75
377.448	329.75
377.674	339.75
377.899	320.75
378.125	321.75
378.35	355.75
378.576	341.75
378.802	325.75
379.027	329.75
379.253	342.75
379.478	320.75
379.704	316.75
379.929	322.75
380.155	340.75
380.38	307.75
380.606	334.75
380.831	327.75
381.057	339.75
381.282	329.75
381.507	328.75
381.733	343.75
381.958	355.75
382.184	337.75
382.409	328.75
382.634	337.75
382.86	318.75
383.085	329.75
383.31	321.75
383.535	331.75
383.761	331.75
383.986	369.75
384.211	342.75
384.436	347.75
384.662	352.75
384.887	339.75
385.112	326.75
385.337	353.75
385.562	357.75
385.787	351.75
386.013	345.75
386.238	362.75
386.463	355.75
386.688	363.75
386.913	359.75
387.138	353.75
387.363	352.75
387.588	352.75
387.813	326.75
388.038	345.75
388.263	360.75
388.488	358.75
388.713	342.75
388.938	349.75
389.163	353.75
389.387	355.75
389.612	355.75
389.837	338.75
390.062	357.75
390.287	350.75
390.512	361.75
390.736	360.75
390.961	360.75
391.186	328.75
391.411	342.75
391.636	348.75
391.86	355.75
392.085	344.75
392.31	370.75
392.534	343.75
392.759	351.75
392.984	355.75
393.208	366.75
393.433	347.75
393.658	349.75
393.882	364.75
394.107	371.75
394.331	343.75
394.556	366.75
394.78	355.75
395.005	361.75
395.229	364.75
395.454	362.75
395.678	379.75
395.903	377.75
396.127	390.75
396.352	391.75
396.576	380.75
396.801	375.75
397.025	379.75
397.249	368.75
397.474	377.75
397.698	359.75
397.922	384.75
398.147	395.75
398.371	393.75
398.595	390.75
398.82	392.75
399.044	402.75
399.268	415.75
399.492	413.75
399.717	452.75
399.941	461.75
400.165	463.75
400.389	489.75
400.613	442.75
400.837	415.75
401.062	399.75
401.286	414.75
401.51	408.75
401.734	395.75
401.958	398.75
402.182	415.75
402.406	403.75
402.63	413.75
402.854	411.75
403.078	415.75
403.302	413.75
403.526	415.75
403.75	417.75
403.974	423.75
404.198	400.75
404.422	409.75
404.645	425.75
404.869	436.75
405.093	453.75
405.317	491.75
405.541	503.75
405.765	487.75
405.988	447.75
406.212	446.75
406.436	464.75
406.66	488.75
406.883	466.75
407.107	466.75
407.331	488.75
407.555	547.75
407.778	567.75
408.002	470.75
408.226	455.75
408.449	479.75
408.673	448.75
408.896	499.75
409.12	508.75
409.344	484.75
409.567	452.75
409.791	440.75
410.014	423.75
410.238	419.75
410.461	415.75
410.685	415.75
410.908	451.75
411.132	445.75
411.355	523.75
411.578	474.75
411.802	441.75
412.025	428.75
412.249	427.75
412.472	448.75
412.695	470.75
412.919	459.75
413.142	424.75
413.365	424.75
413.589	413.75
413.812	393.75
414.035	397.75
414.258	392.75
414.482	384.75
414.705	400.75
414.928	409.75
415.151	401.75
415.374	393.75
415.597	379.75
415.821	389.75
416.044	396.75
416.267	407.75
416.49	389.75
416.713	391.75
416.936	407.75
417.159	390.75
417.382	388.75
417.605	397.75
417.828	420.75
418.051	407.75
418.274	412.75
418.497	386.75
418.72	389.75
418.943	399.75
419.166	417.75
419.389	427.75
419.611	410.75
419.834	412.75
420.057	401.75
420.28	420.75
420.503	429.75
420.726	403.75
420.948	428.75
421.171	469.75
421.394	457.75
421.617	417.75
421.839	395.75
422.062	409.75
422.285	427.75
422.507	463.75
422.73	515.75
422.953	507.75
423.175	466.75
423.398	449.75
423.621	441.75
423.843	451.75
424.066	442.75
424.288	463.75
424.511	449.75
424.733	499.75
424.956	573.75
425.178	547.75
425.401	544.75
425.623	574.75
425.846	488.75
426.068	451.75
426.291	437.75
426.513	453.75
426.735	455.75
426.958	488.75
427.18	550.75
427.402	674.75
427.625	730.75
427.847	659.75
428.069	557.75
428.292	499.75
428.514	466.75
428.736	443.75
428.958	443.75
429.181	419.75
429.403	414.75
429.625	428.75
429.847	437.75
430.069	502.75
430.292	505.75
430.514	439.75
430.736	404.75
430.958	409.75
431.18	398.75
431.402	374.75
431.624	393.75
431.846	395.75
432.068	393.75
432.29	375.75
432.512	392.75
432.734	409.75
432.956	390.75
433.178	406.75
433.4	423.75
433.622	390.75
433.844	391.75
434.066	381.75
434.287	421.75
434.509	420.75
434.731	395.75
434.953	416.75
435.175	431.75
435.397	436.75
435.618	445.75
435.84	484.75
436.062	554.75
436.284	600.75
436.505	521.75
436.727	471.75
436.949	450.75
437.17	430.75
437.392	417.75
437.614	446.75
437.835	472.75
438.057	523.75
438.278	605.75
438.5	623.75
438.721	677.75
438.943	631.75
439.165	530.75
439.386	474.75
439.608	448.75
439.829	471.75
440.05	508.75
440.272	521.75
440.493	500.75
440.715	447.75
440.936	437.75
441.158	419.75
441.379	435.75
441.6	439.75
441.822	454.75
442.043	505.75
442.264	539.75
442.486	565.75
442.707	483.75
442.928	458.75
443.149	468.75
443.371	488.75
443.592	543.75
443.813	590.75
444.034	639.75
444.255	529.75
444.476	469.75
444.698	442.75
444.919	458.75
445.14	516.75
445.361	482.75
445.582	488.75
445.803	549.75
446.024	628.75
446.245	631.75
446.466	597.75
446.687	512.75
446.908	483.75
447.129	445.75
447.35	448.75
447.571	415.75
447.792	419.75
448.013	424.75
448.234	450.75
448.455	486.75
448.675	590.75
448.896	652.75
449.117	563.75
449.338	553.75
449.559	640.75
449.779	667.75
450	547.75
450.221	484.75
450.442	441.75
450.662	421.75
450.883	435.75
451.104	457.75
451.324	443.75
451.545	425.75
451.766	393.75
451.986	365.75
452.207	363.75
452.428	392.75
452.648	371.75
452.869	379.75
453.089	387.75
453.31	419.75
453.53	380.75
453.751	373.75
453.971	401.75
454.192	401.75
454.412	394.75
454.633	404.75
454.853	394.75
455.073	374.75
455.294	399.75
455.514	461.75
455.734	443.75
455.955	386.75
456.175	353.75
456.395	361.75
456.616	354.75
456.836	375.75
457.056	348.75
457.276	352.75
457.497	344.75
457.717	365.75
457.937	369.75
458.157	364.75
458.377	377.75
458.598	400.75
458.818	444.75
459.038	535.75
459.258	522.75
459.478	415.75
459.698	400.75
459.918	417.75
460.138	393.75
460.358	400.75
460.578	393.75
460.798	420.75
461.018	403.75
461.238	369.75
461.458	385.75
461.678	383.75
461.898	421.75
462.118	423.75
462.338	386.75
462.558	391.75
462.777	417.75
462.997	423.75
463.217	417.75
463.437	406.75
463.657	426.75
463.876	396.75
464.096	407.75
464.316	409.75
464.536	417.75
464.755	440.75
464.975	427.75
465.195	475.75
465.414	537.75
465.634	497.75
465.854	435.75
466.073	401.75
466.293	408.75
466.512	397.75
466.732	402.75
466.951	395.75
467.171	412.75
467.391	397.75
467.61	375.75
467.829	416.75
468.049	416.75
468.268	423.75
468.488	382.75
468.707	383.75
468.927	384.75
469.146	378.75
469.365	376.75
469.585	373.75
469.804	395.75
470.023	385.75
470.243	394.75
470.462	393.75
470.681	412.75
470.901	392.75
471.12	403.75
471.339	387.75
471.558	395.75
471.777	406.75
471.997	397.75
472.216	399.75
472.435	438.75
472.654	416.75
472.873	413.75
473.092	380.75
473.311	387.75
473.53	383.75
473.749	390.75
473.968	437.75
474.187	521.75
474.406	526.75
474.625	454.75
474.844	424.75
475.063	420.75
475.282	419.75
475.501	421.75
475.72	417.75
475.939	399.75
476.158	406.75
476.377	421.75
476.596	393.75
476.814	409.75
477.033	409.75
477.252	453.75
477.471	441.75
477.69	415.75
477.908	429.75
478.127	424.75
478.346	428.75
478.564	430.75
478.783	432.75
479.002	420.75
479.22	427.75
479.439	462.75
479.658	470.75
479.876	475.75
480.095	495.75
480.313	489.75
480.532	488.75
480.751	504.75
480.969	477.75
481.188	549.75
481.406	587.75
481.624	527.75
481.843	493.75
482.061	449.75
482.28	470.75
482.498	484.75
482.717	463.75
482.935	473.75
483.153	453.75
483.372	459.75
483.59	457.75
483.808	455.75
484.027	455.75
484.245	479.75
484.463	459.75
484.681	470.75
484.9	483.75
485.118	481.75
485.336	465.75
485.554	470.75
485.772	475.75
485.99	462.75
486.209	476.75
486.427	466.75
486.645	496.75
486.863	526.75
487.081	503.75
487.299	501.75
487.517	484.75
487.735	503.75
487.953	462.75
488.171	495.75
488.389	515.75
488.607	519.75
488.825	511.75
489.043	496.75
489.261	513.75
489.479	508.75
489.696	504.75
489.914	513.75
490.132	525.75
490.35	548.75
490.568	513.75
490.786	529.75
491.003	515.75
491.221	541.75
491.439	565.75
491.657	562.75
491.874	569.75
492.092	542.75
492.31	582.75
492.527	567.75
492.745	583.75
492.963	586.75
493.18	598.75
493.398	584.75
493.615	610.75
493.833	595.75
494.05	568.75
494.268	577.75
494.485	598.75
494.703	571.75
494.92	575.75
495.138	585.75
495.355	575.75
495.573	578.75
495.79	588.75
496.008	597.75
496.225	600.75
496.442	574.75
496.66	578.75
496.877	569.75
497.094	588.75
497.312	591.75
497.529	596.75
497.746	596.75
497.963	627.75
498.181	625.75
498.398	641.75
498.615	636.75
498.832	634.75
499.049	667.75
499.267	661.75
499.484	675.75
499.701	702.75
499.918	686.75
500.135	721.75
500.352	743.75
500.569	753.75
500.786	761.75
501.003	721.75
501.22	752.75
501.437	729.75
501.654	709.75
501.871	694.75
