Data from 1965.PennyLincolnUp.Lamp.En5.5.200Scan.071719.P1._HRD10591_14-09-26-912.txt Node
Date: Thu Jul 18 14:09:26 EDT 2019
User: cochatt
Spectrometer: HR+D1059
Trigger mode: 1
Integration Time (sec): 1.000000E-1
Scans to average: 1
Electric dark correction enabled: true
Nonlinearity correction enabled: false
Boxcar width: 0
XAxis mode: Wavelengths
Number of Pixels in Spectrum: 2048
>>>>>Begin Spectral Data<<<<<
223.165	-13.19
223.4	-13.19
223.635	-13.19
223.869	-22.19
224.104	-6.19
224.338	-6.19
224.573	-11.19
224.808	-9.19
225.042	-8.19
225.277	-13.19
225.511	-1.19
225.746	-5.19
225.98	8.81
226.215	7.81
226.449	13.81
226.683	21.81
226.918	7.81
227.152	35.81
227.387	34.81
227.621	21.81
227.856	47.81
228.09	51.81
228.324	37.81
228.559	52.81
228.793	62.81
229.027	81.81
229.262	86.81
229.496	96.81
229.73	119.81
229.964	140.81
230.199	128.81
230.433	111.81
230.667	105.81
230.901	110.81
231.136	102.81
231.37	101.81
231.604	115.81
231.838	92.81
232.072	110.81
232.306	105.81
232.541	91.81
232.775	94.81
233.009	99.81
233.243	98.81
233.477	95.81
233.711	105.81
233.945	99.81
234.179	110.81
234.413	101.81
234.647	101.81
234.881	102.81
235.115	110.81
235.349	96.81
235.583	116.81
235.817	118.81
236.051	116.81
236.285	117.81
236.519	112.81
236.753	128.81
236.987	130.81
237.221	154.81
237.455	211.81
237.689	167.81
237.922	139.81
238.156	125.81
238.39	104.81
238.624	106.81
238.858	121.81
239.091	114.81
239.325	122.81
239.559	120.81
239.793	113.81
240.027	134.81
240.26	126.81
240.494	148.81
240.728	134.81
240.961	140.81
241.195	134.81
241.429	121.81
241.662	115.81
241.896	138.81
242.13	122.81
242.363	112.81
242.597	125.81
242.83	134.81
243.064	114.81
243.298	137.81
243.531	118.81
243.765	137.81
243.998	128.81
244.232	124.81
244.465	128.81
244.699	131.81
244.932	123.81
245.166	129.81
245.399	129.81
245.633	140.81
245.866	128.81
246.099	126.81
246.333	123.81
246.566	117.81
246.8	126.81
247.033	127.81
247.266	140.81
247.5	152.81
247.733	147.81
247.966	162.81
248.2	141.81
248.433	152.81
248.666	152.81
248.899	165.81
249.133	179.81
249.366	186.81
249.599	172.81
249.832	170.81
250.066	178.81
250.299	155.81
250.532	185.81
250.765	187.81
250.998	186.81
251.231	193.81
251.465	196.81
251.698	180.81
251.931	177.81
252.164	184.81
252.397	176.81
252.63	185.81
252.863	186.81
253.096	206.81
253.329	197.81
253.562	196.81
253.795	198.81
254.028	201.81
254.261	182.81
254.494	224.81
254.727	214.81
254.96	243.81
255.193	230.81
255.426	240.81
255.659	212.81
255.892	201.81
256.124	203.81
256.357	197.81
256.59	204.81
256.823	188.81
257.056	199.81
257.289	188.81
257.521	195.81
257.754	178.81
257.987	184.81
258.22	185.81
258.452	179.81
258.685	203.81
258.918	196.81
259.151	180.81
259.383	210.81
259.616	196.81
259.849	194.81
260.081	226.81
260.314	231.81
260.547	217.81
260.779	219.81
261.012	201.81
261.244	187.81
261.477	199.81
261.71	203.81
261.942	210.81
262.175	209.81
262.407	213.81
262.64	212.81
262.872	196.81
263.105	206.81
263.337	212.81
263.57	203.81
263.802	190.81
264.035	178.81
264.267	200.81
264.499	194.81
264.732	184.81
264.964	190.81
265.197	200.81
265.429	199.81
265.661	189.81
265.894	192.81
266.126	195.81
266.358	179.81
266.591	184.81
266.823	202.81
267.055	206.81
267.287	185.81
267.52	170.81
267.752	190.81
267.984	198.81
268.216	210.81
268.448	194.81
268.681	209.81
268.913	211.81
269.145	236.81
269.377	248.81
269.609	215.81
269.841	247.81
270.073	238.81
270.306	261.81
270.538	259.81
270.77	254.81
271.002	275.81
271.234	266.81
271.466	236.81
271.698	258.81
271.93	274.81
272.162	277.81
272.394	276.81
272.626	274.81
272.858	265.81
273.09	244.81
273.322	238.81
273.553	235.81
273.785	233.81
274.017	236.81
274.249	251.81
274.481	229.81
274.713	245.81
274.945	221.81
275.176	229.81
275.408	226.81
275.64	247.81
275.872	231.81
276.104	227.81
276.335	232.81
276.567	235.81
276.799	263.81
277.031	272.81
277.262	288.81
277.494	277.81
277.726	252.81
277.957	243.81
278.189	254.81
278.421	239.81
278.652	247.81
278.884	241.81
279.115	235.81
279.347	224.81
279.579	233.81
279.81	259.81
280.042	217.81
280.273	243.81
280.505	226.81
280.736	227.81
280.968	226.81
281.199	213.81
281.431	240.81
281.662	235.81
281.894	233.81
282.125	249.81
282.356	239.81
282.588	276.81
282.819	296.81
283.051	257.81
283.282	229.81
283.513	246.81
283.745	238.81
283.976	244.81
284.207	260.81
284.439	263.81
284.67	242.81
284.901	243.81
285.132	245.81
285.364	238.81
285.595	250.81
285.826	248.81
286.057	261.81
286.288	245.81
286.52	242.81
286.751	250.81
286.982	245.81
287.213	239.81
287.444	245.81
287.675	247.81
287.906	234.81
288.138	277.81
288.369	258.81
288.6	272.81
288.831	256.81
289.062	247.81
289.293	266.81
289.524	247.81
289.755	258.81
289.986	264.81
290.217	249.81
290.448	249.81
290.679	241.81
290.91	244.81
291.141	255.81
291.371	274.81
291.602	231.81
291.833	254.81
292.064	248.81
292.295	242.81
292.526	252.81
292.757	249.81
292.987	241.81
293.218	251.81
293.449	243.81
293.68	261.81
293.91	261.81
294.141	255.81
294.372	251.81
294.603	243.81
294.833	251.81
295.064	247.81
295.295	283.81
295.525	249.81
295.756	249.81
295.987	258.81
296.217	290.81
296.448	299.81
296.679	292.81
296.909	262.81
297.14	246.81
297.37	244.81
297.601	260.81
297.831	271.81
298.062	252.81
298.292	264.81
298.523	261.81
298.753	259.81
298.984	254.81
299.214	271.81
299.445	271.81
299.675	261.81
299.905	279.81
300.136	279.81
300.366	274.81
300.597	282.81
300.827	273.81
301.057	280.81
301.288	284.81
301.518	286.81
301.748	291.81
301.979	279.81
302.209	288.81
302.439	282.81
302.669	277.81
302.9	287.81
303.13	280.81
303.36	306.81
303.59	291.81
303.82	294.81
304.051	306.81
304.281	311.81
304.511	295.81
304.741	280.81
304.971	286.81
305.201	287.81
305.431	279.81
305.661	284.81
305.891	279.81
306.121	291.81
306.352	286.81
306.582	303.81
306.812	293.81
307.042	297.81
307.272	293.81
307.502	278.81
307.731	292.81
307.961	293.81
308.191	287.81
308.421	278.81
308.651	298.81
308.881	278.81
309.111	302.81
309.341	292.81
309.571	321.81
309.8	310.81
310.03	304.81
310.26	324.81
310.49	344.81
310.72	348.81
310.949	364.81
311.179	357.81
311.409	343.81
311.639	340.81
311.868	346.81
312.098	341.81
312.328	349.81
312.557	360.81
312.787	370.81
313.017	336.81
313.246	356.81
313.476	355.81
313.706	331.81
313.935	337.81
314.165	351.81
314.394	358.81
314.624	348.81
314.853	351.81
315.083	343.81
315.312	333.81
315.542	326.81
315.771	338.81
316.001	322.81
316.23	329.81
316.46	342.81
316.689	310.81
316.919	337.81
317.148	355.81
317.377	326.81
317.607	341.81
317.836	351.81
318.065	318.81
318.295	339.81
318.524	315.81
318.753	315.81
318.983	335.81
319.212	353.81
319.441	356.81
319.67	358.81
319.9	332.81
320.129	336.81
320.358	353.81
320.587	333.81
320.816	359.81
321.046	328.81
321.275	352.81
321.504	353.81
321.733	371.81
321.962	368.81
322.191	384.81
322.42	408.81
322.649	412.81
322.878	426.81
323.108	432.81
323.337	453.81
323.566	467.81
323.795	522.81
324.024	558.81
324.253	676.81
324.482	1028.81
324.71	1540.81
324.939	2142.81
325.168	1795.81
325.397	920.81
325.626	624.81
325.855	525.81
326.084	467.81
326.313	468.81
326.542	472.81
326.77	514.81
326.999	635.81
327.228	897.81
327.457	1336.81
327.686	1570.81
327.914	1056.81
328.143	684.81
328.372	609.81
328.6	570.81
328.829	532.81
329.058	535.81
329.287	568.81
329.515	501.81
329.744	492.81
329.972	487.81
330.201	491.81
330.43	551.81
330.658	581.81
330.887	590.81
331.115	562.81
331.344	458.81
331.572	446.81
331.801	460.81
332.03	448.81
332.258	444.81
332.486	402.81
332.715	388.81
332.943	412.81
333.172	396.81
333.4	407.81
333.629	404.81
333.857	423.81
334.085	435.81
334.314	462.81
334.542	488.81
334.771	506.81
334.999	455.81
335.227	406.81
335.455	398.81
335.684	401.81
335.912	400.81
336.14	382.81
336.369	394.81
336.597	404.81
336.825	422.81
337.053	402.81
337.281	382.81
337.51	400.81
337.738	388.81
337.966	411.81
338.194	391.81
338.422	372.81
338.65	392.81
338.878	368.81
339.106	362.81
339.334	384.81
339.562	376.81
339.79	355.81
340.018	369.81
340.246	368.81
340.474	384.81
340.702	378.81
340.93	374.81
341.158	374.81
341.386	388.81
341.614	367.81
341.842	368.81
342.07	373.81
342.298	363.81
342.526	382.81
342.754	372.81
342.981	352.81
343.209	356.81
343.437	374.81
343.665	368.81
343.893	386.81
344.12	366.81
344.348	376.81
344.576	383.81
344.804	380.81
345.031	395.81
345.259	407.81
345.487	402.81
345.714	391.81
345.942	370.81
346.17	376.81
346.397	361.81
346.625	386.81
346.853	360.81
347.08	372.81
347.308	358.81
347.535	393.81
347.763	377.81
347.99	377.81
348.218	379.81
348.445	384.81
348.673	353.81
348.9	374.81
349.128	352.81
349.355	364.81
349.583	353.81
349.81	378.81
350.037	352.81
350.265	352.81
350.492	354.81
350.72	355.81
350.947	369.81
351.174	367.81
351.402	392.81
351.629	386.81
351.856	371.81
352.083	386.81
352.311	379.81
352.538	379.81
352.765	387.81
352.992	384.81
353.22	361.81
353.447	355.81
353.674	356.81
353.901	363.81
354.128	348.81
354.355	352.81
354.583	336.81
354.81	356.81
355.037	346.81
355.264	331.81
355.491	335.81
355.718	347.81
355.945	332.81
356.172	338.81
356.399	335.81
356.626	334.81
356.853	349.81
357.08	339.81
357.307	335.81
357.534	317.81
357.761	331.81
357.988	331.81
358.215	331.81
358.441	355.81
358.668	336.81
358.895	332.81
359.122	352.81
359.349	353.81
359.576	374.81
359.802	399.81
360.029	422.81
360.256	446.81
360.483	408.81
360.709	375.81
360.936	386.81
361.163	355.81
361.39	389.81
361.616	364.81
361.843	371.81
362.07	360.81
362.296	374.81
362.523	363.81
362.749	372.81
362.976	379.81
363.203	383.81
363.429	351.81
363.656	346.81
363.882	353.81
364.109	338.81
364.335	355.81
364.562	340.81
364.788	349.81
365.015	345.81
365.241	345.81
365.468	361.81
365.694	338.81
365.92	353.81
366.147	358.81
366.373	343.81
366.599	358.81
366.826	340.81
367.052	357.81
367.278	352.81
367.505	360.81
367.731	373.81
367.957	357.81
368.184	334.81
368.41	358.81
368.636	373.81
368.862	370.81
369.089	366.81
369.315	353.81
369.541	347.81
369.767	353.81
369.993	345.81
370.219	360.81
370.445	352.81
370.672	354.81
370.898	338.81
371.124	341.81
371.35	336.81
371.576	351.81
371.802	341.81
372.028	331.81
372.254	326.81
372.48	343.81
372.706	342.81
372.932	358.81
373.158	331.81
373.384	363.81
373.61	328.81
373.835	345.81
374.061	343.81
374.287	359.81
374.513	351.81
374.739	338.81
374.965	334.81
375.191	355.81
375.416	340.81
375.642	329.81
375.868	332.81
376.094	328.81
376.319	330.81
376.545	355.81
376.771	329.81
376.997	347.81
377.222	338.81
377.448	357.81
377.674	326.81
377.899	320.81
378.125	323.81
378.35	328.81
378.576	342.81
378.802	335.81
379.027	331.81
379.253	330.81
379.478	327.81
379.704	358.81
379.929	346.81
380.155	342.81
380.38	342.81
380.606	354.81
380.831	336.81
381.057	346.81
381.282	324.81
381.507	342.81
381.733	352.81
381.958	333.81
382.184	346.81
382.409	336.81
382.634	337.81
382.86	343.81
383.085	347.81
383.31	349.81
383.535	347.81
383.761	340.81
383.986	359.81
384.211	342.81
384.436	348.81
384.662	350.81
384.887	356.81
385.112	357.81
385.337	372.81
385.562	366.81
385.787	378.81
386.013	376.81
386.238	353.81
386.463	366.81
386.688	358.81
386.913	379.81
387.138	370.81
387.363	364.81
387.588	349.81
387.813	356.81
388.038	365.81
388.263	370.81
388.488	359.81
388.713	367.81
388.938	366.81
389.163	374.81
389.387	359.81
389.612	392.81
389.837	368.81
390.062	351.81
390.287	369.81
390.512	373.81
390.736	348.81
390.961	354.81
391.186	370.81
391.411	368.81
391.636	372.81
391.86	382.81
392.085	382.81
392.31	388.81
392.534	365.81
392.759	357.81
392.984	369.81
393.208	358.81
393.433	355.81
393.658	358.81
393.882	360.81
394.107	340.81
394.331	382.81
394.556	376.81
394.78	354.81
395.005	386.81
395.229	355.81
395.454	383.81
395.678	371.81
395.903	374.81
396.127	380.81
396.352	387.81
396.576	386.81
396.801	407.81
397.025	369.81
397.249	397.81
397.474	386.81
397.698	381.81
397.922	412.81
398.147	420.81
398.371	409.81
398.595	376.81
398.82	414.81
399.044	388.81
399.268	449.81
399.492	454.81
399.717	466.81
399.941	486.81
400.165	505.81
400.389	518.81
400.613	459.81
400.837	424.81
401.062	434.81
401.286	430.81
401.51	395.81
401.734	410.81
401.958	408.81
402.182	422.81
402.406	441.81
402.63	417.81
402.854	412.81
403.078	430.81
403.302	426.81
403.526	448.81
403.75	443.81
403.974	430.81
404.198	407.81
404.422	457.81
404.645	449.81
404.869	448.81
405.093	448.81
405.317	494.81
405.541	534.81
405.765	473.81
405.988	470.81
406.212	457.81
406.436	510.81
406.66	492.81
406.883	459.81
407.107	490.81
407.331	521.81
407.555	554.81
407.778	538.81
408.002	531.81
408.226	516.81
408.449	471.81
408.673	470.81
408.896	480.81
409.12	543.81
409.344	495.81
409.567	439.81
409.791	447.81
410.014	432.81
410.238	422.81
410.461	441.81
410.685	428.81
410.908	462.81
411.132	494.81
411.355	503.81
411.578	476.81
411.802	435.81
412.025	426.81
412.249	434.81
412.472	468.81
412.695	481.81
412.919	492.81
413.142	429.81
413.365	415.81
413.589	424.81
413.812	412.81
414.035	418.81
414.258	412.81
414.482	408.81
414.705	398.81
414.928	405.81
415.151	406.81
415.374	413.81
415.597	406.81
415.821	387.81
416.044	416.81
416.267	410.81
416.49	408.81
416.713	392.81
416.936	407.81
417.159	400.81
417.382	418.81
417.605	424.81
417.828	419.81
418.051	439.81
418.274	390.81
418.497	413.81
418.72	414.81
418.943	415.81
419.166	420.81
419.389	441.81
419.611	423.81
419.834	418.81
420.057	432.81
420.28	440.81
420.503	433.81
420.726	422.81
420.948	451.81
421.171	470.81
421.394	507.81
421.617	444.81
421.839	440.81
422.062	437.81
422.285	436.81
422.507	501.81
422.73	547.81
422.953	540.81
423.175	476.81
423.398	452.81
423.621	443.81
423.843	473.81
424.066	444.81
424.288	465.81
424.511	464.81
424.733	525.81
424.956	584.81
425.178	586.81
425.401	544.81
425.623	578.81
425.846	526.81
426.068	465.81
426.291	462.81
426.513	472.81
426.735	482.81
426.958	506.81
427.18	587.81
427.402	697.81
427.625	770.81
427.847	660.81
428.069	586.81
428.292	549.81
428.514	464.81
428.736	449.81
428.958	450.81
429.181	413.81
429.403	440.81
429.625	453.81
429.847	461.81
430.069	512.81
430.292	534.81
430.514	459.81
430.736	443.81
430.958	436.81
431.18	407.81
431.402	398.81
431.624	394.81
431.846	406.81
432.068	385.81
432.29	417.81
432.512	430.81
432.734	419.81
432.956	426.81
433.178	408.81
433.4	427.81
433.622	414.81
433.844	418.81
434.066	388.81
434.287	400.81
434.509	402.81
434.731	426.81
434.953	434.81
435.175	433.81
435.397	452.81
435.618	455.81
435.84	517.81
436.062	578.81
436.284	642.81
436.505	537.81
436.727	465.81
436.949	435.81
437.17	443.81
437.392	430.81
437.614	442.81
437.835	506.81
438.057	561.81
438.278	653.81
438.5	644.81
438.721	675.81
438.943	651.81
439.165	541.81
439.386	494.81
439.608	476.81
439.829	506.81
440.05	532.81
440.272	563.81
440.493	492.81
440.715	474.81
440.936	461.81
441.158	440.81
441.379	449.81
441.6	460.81
441.822	461.81
442.043	542.81
442.264	576.81
442.486	609.81
442.707	531.81
442.928	483.81
443.149	490.81
443.371	511.81
443.592	546.81
443.813	608.81
444.034	649.81
444.255	574.81
444.476	480.81
444.698	485.81
444.919	459.81
445.14	574.81
445.361	550.81
445.582	508.81
445.803	575.81
446.024	680.81
446.245	651.81
446.466	602.81
446.687	510.81
446.908	486.81
447.129	436.81
447.35	437.81
447.571	435.81
447.792	414.81
448.013	444.81
448.234	459.81
448.455	499.81
448.675	610.81
448.896	676.81
449.117	567.81
449.338	536.81
449.559	642.81
449.779	718.81
450	598.81
450.221	465.81
450.442	441.81
450.662	434.81
450.883	457.81
451.104	462.81
451.324	448.81
451.545	443.81
451.766	407.81
451.986	410.81
452.207	400.81
452.428	411.81
452.648	401.81
452.869	411.81
453.089	415.81
453.31	430.81
453.53	410.81
453.751	412.81
453.971	428.81
454.192	412.81
454.412	404.81
454.633	404.81
454.853	399.81
455.073	417.81
455.294	425.81
455.514	474.81
455.734	449.81
455.955	398.81
456.175	400.81
456.395	375.81
456.616	363.81
456.836	355.81
457.056	369.81
457.276	370.81
457.497	367.81
457.717	373.81
457.937	368.81
458.157	391.81
458.377	391.81
458.598	424.81
458.818	487.81
459.038	544.81
459.258	556.81
459.478	454.81
459.698	434.81
459.918	388.81
460.138	410.81
460.358	416.81
460.578	418.81
460.798	415.81
461.018	424.81
461.238	414.81
461.458	435.81
461.678	402.81
461.898	413.81
462.118	411.81
462.338	417.81
462.558	444.81
462.777	446.81
462.997	399.81
463.217	447.81
463.437	449.81
463.657	426.81
463.876	434.81
464.096	414.81
464.316	422.81
464.536	427.81
464.755	443.81
464.975	448.81
465.195	507.81
465.414	590.81
465.634	502.81
465.854	448.81
466.073	440.81
466.293	413.81
466.512	422.81
466.732	397.81
466.951	400.81
467.171	400.81
467.391	396.81
467.61	414.81
467.829	420.81
468.049	417.81
468.268	404.81
468.488	408.81
468.707	390.81
468.927	408.81
469.146	383.81
469.365	389.81
469.585	381.81
469.804	394.81
470.023	394.81
470.243	404.81
470.462	417.81
470.681	442.81
470.901	435.81
471.12	397.81
471.339	411.81
471.558	419.81
471.777	421.81
471.997	402.81
472.216	408.81
472.435	473.81
472.654	455.81
472.873	406.81
473.092	409.81
473.311	402.81
473.53	411.81
473.749	422.81
473.968	440.81
474.187	561.81
474.406	569.81
474.625	458.81
474.844	428.81
475.063	426.81
475.282	408.81
475.501	419.81
475.72	412.81
475.939	422.81
476.158	426.81
476.377	419.81
476.596	433.81
476.814	439.81
477.033	432.81
477.252	430.81
477.471	442.81
477.69	434.81
477.908	427.81
478.127	422.81
478.346	424.81
478.564	434.81
478.783	435.81
479.002	447.81
479.22	472.81
479.439	457.81
479.658	478.81
479.876	504.81
480.095	484.81
480.313	522.81
480.532	502.81
480.751	479.81
480.969	498.81
481.188	609.81
481.406	623.81
481.624	548.81
481.843	512.81
482.061	513.81
482.28	480.81
482.498	464.81
482.717	452.81
482.935	461.81
483.153	494.81
483.372	483.81
483.59	481.81
483.808	483.81
484.027	468.81
484.245	487.81
484.463	496.81
484.681	488.81
484.9	511.81
485.118	512.81
485.336	475.81
485.554	503.81
485.772	484.81
485.99	481.81
486.209	502.81
486.427	500.81
486.645	512.81
486.863	524.81
487.081	520.81
487.299	512.81
487.517	508.81
487.735	533.81
487.953	513.81
488.171	511.81
488.389	524.81
488.607	522.81
488.825	540.81
489.043	526.81
489.261	520.81
489.479	513.81
489.696	520.81
489.914	525.81
490.132	526.81
490.35	552.81
490.568	544.81
490.786	561.81
491.003	552.81
491.221	566.81
491.439	564.81
491.657	578.81
491.874	588.81
492.092	582.81
492.31	585.81
492.527	592.81
492.745	589.81
492.963	594.81
493.18	601.81
493.398	599.81
493.615	608.81
493.833	615.81
494.05	618.81
494.268	609.81
494.485	597.81
494.703	607.81
494.92	624.81
495.138	612.81
495.355	608.81
495.573	622.81
495.79	600.81
496.008	599.81
496.225	585.81
496.442	635.81
496.66	611.81
496.877	598.81
497.094	626.81
497.312	624.81
497.529	640.81
497.746	625.81
497.963	644.81
498.181	681.81
498.398	668.81
498.615	676.81
498.832	690.81
499.049	655.81
499.267	686.81
499.484	694.81
499.701	721.81
499.918	726.81
500.135	753.81
500.352	767.81
500.569	784.81
500.786	752.81
501.003	792.81
501.22	760.81
501.437	772.81
501.654	735.81
501.871	745.81
502.088	711.81
