Data from 1965.PennyLincolnUp.Lamp.En5.5.200Scan.071719.P1._HRD10591_14-09-17-911.txt Node
Date: Thu Jul 18 14:09:17 EDT 2019
User: cochatt
Spectrometer: HR+D1059
Trigger mode: 1
Integration Time (sec): 1.000000E-1
Scans to average: 1
Electric dark correction enabled: true
Nonlinearity correction enabled: false
Boxcar width: 0
XAxis mode: Wavelengths
Number of Pixels in Spectrum: 2048
>>>>>Begin Spectral Data<<<<<
223.165	-19.62
223.4	-19.62
223.635	-19.62
223.869	-15.62
224.104	-15.62
224.338	-14.62
224.573	-8.62
224.808	-6.62
225.042	-11.62
225.277	-9.62
225.511	0.38
225.746	13.38
225.98	7.38
226.215	8.38
226.449	17.38
226.683	4.38
226.918	32.38
227.152	18.38
227.387	46.38
227.621	38.38
227.856	44.38
228.09	35.38
228.324	46.38
228.559	54.38
228.793	75.38
229.027	94.38
229.262	93.38
229.496	114.38
229.73	119.38
229.964	138.38
230.199	127.38
230.433	92.38
230.667	110.38
230.901	112.38
231.136	102.38
231.37	100.38
231.604	103.38
231.838	107.38
232.072	109.38
232.306	111.38
232.541	104.38
232.775	108.38
233.009	107.38
233.243	109.38
233.477	107.38
233.711	108.38
233.945	109.38
234.179	93.38
234.413	105.38
234.647	106.38
234.881	109.38
235.115	109.38
235.349	104.38
235.583	109.38
235.817	115.38
236.051	115.38
236.285	113.38
236.519	124.38
236.753	119.38
236.987	139.38
237.221	168.38
237.455	217.38
237.689	170.38
237.922	116.38
238.156	115.38
238.39	135.38
238.624	103.38
238.858	119.38
239.091	120.38
239.325	101.38
239.559	124.38
239.793	129.38
240.027	120.38
240.26	120.38
240.494	170.38
240.728	152.38
240.961	136.38
241.195	134.38
241.429	120.38
241.662	116.38
241.896	110.38
242.13	126.38
242.363	115.38
242.597	130.38
242.83	140.38
243.064	126.38
243.298	119.38
243.531	127.38
243.765	126.38
243.998	132.38
244.232	122.38
244.465	117.38
244.699	110.38
244.932	133.38
245.166	102.38
245.399	138.38
245.633	146.38
245.866	129.38
246.099	127.38
246.333	124.38
246.566	125.38
246.8	141.38
247.033	155.38
247.266	159.38
247.5	140.38
247.733	146.38
247.966	142.38
248.2	139.38
248.433	166.38
248.666	151.38
248.899	143.38
249.133	171.38
249.366	172.38
249.599	177.38
249.832	169.38
250.066	171.38
250.299	180.38
250.532	180.38
250.765	177.38
250.998	205.38
251.231	202.38
251.465	186.38
251.698	189.38
251.931	163.38
252.164	183.38
252.397	179.38
252.63	191.38
252.863	174.38
253.096	174.38
253.329	193.38
253.562	203.38
253.795	196.38
254.028	181.38
254.261	184.38
254.494	216.38
254.727	229.38
254.96	255.38
255.193	228.38
255.426	215.38
255.659	206.38
255.892	201.38
256.124	198.38
256.357	214.38
256.59	206.38
256.823	192.38
257.056	192.38
257.289	200.38
257.521	182.38
257.754	193.38
257.987	172.38
258.22	174.38
258.452	197.38
258.685	184.38
258.918	180.38
259.151	195.38
259.383	192.38
259.616	184.38
259.849	204.38
260.081	218.38
260.314	224.38
260.547	243.38
260.779	214.38
261.012	211.38
261.244	206.38
261.477	196.38
261.71	205.38
261.942	216.38
262.175	197.38
262.407	192.38
262.64	188.38
262.872	198.38
263.105	192.38
263.337	202.38
263.57	167.38
263.802	166.38
264.035	189.38
264.267	196.38
264.499	187.38
264.732	178.38
264.964	184.38
265.197	182.38
265.429	200.38
265.661	174.38
265.894	188.38
266.126	178.38
266.358	201.38
266.591	192.38
266.823	195.38
267.055	215.38
267.287	197.38
267.52	205.38
267.752	197.38
267.984	206.38
268.216	222.38
268.448	213.38
268.681	213.38
268.913	232.38
269.145	240.38
269.377	254.38
269.609	243.38
269.841	236.38
270.073	238.38
270.306	262.38
270.538	276.38
270.77	270.38
271.002	252.38
271.234	267.38
271.466	279.38
271.698	276.38
271.93	257.38
272.162	246.38
272.394	274.38
272.626	264.38
272.858	269.38
273.09	252.38
273.322	268.38
273.553	240.38
273.785	228.38
274.017	216.38
274.249	246.38
274.481	232.38
274.713	238.38
274.945	244.38
275.176	228.38
275.408	255.38
275.64	232.38
275.872	229.38
276.104	228.38
276.335	250.38
276.567	219.38
276.799	236.38
277.031	263.38
277.262	274.38
277.494	294.38
277.726	275.38
277.957	257.38
278.189	248.38
278.421	236.38
278.652	243.38
278.884	253.38
279.115	244.38
279.347	225.38
279.579	232.38
279.81	218.38
280.042	224.38
280.273	227.38
280.505	237.38
280.736	234.38
280.968	220.38
281.199	238.38
281.431	250.38
281.662	243.38
281.894	241.38
282.125	220.38
282.356	264.38
282.588	272.38
282.819	264.38
283.051	228.38
283.282	235.38
283.513	234.38
283.745	245.38
283.976	240.38
284.207	233.38
284.439	244.38
284.67	240.38
284.901	245.38
285.132	228.38
285.364	236.38
285.595	232.38
285.826	239.38
286.057	248.38
286.288	243.38
286.52	236.38
286.751	263.38
286.982	243.38
287.213	226.38
287.444	257.38
287.675	250.38
287.906	267.38
288.138	249.38
288.369	269.38
288.6	261.38
288.831	260.38
289.062	250.38
289.293	249.38
289.524	244.38
289.755	242.38
289.986	236.38
290.217	242.38
290.448	242.38
290.679	244.38
290.91	251.38
291.141	231.38
291.371	243.38
291.602	256.38
291.833	251.38
292.064	246.38
292.295	253.38
292.526	240.38
292.757	236.38
292.987	264.38
293.218	244.38
293.449	243.38
293.68	259.38
293.91	240.38
294.141	244.38
294.372	245.38
294.603	260.38
294.833	250.38
295.064	256.38
295.295	256.38
295.525	257.38
295.756	264.38
295.987	258.38
296.217	298.38
296.448	298.38
296.679	260.38
296.909	269.38
297.14	265.38
297.37	264.38
297.601	258.38
297.831	258.38
298.062	260.38
298.292	252.38
298.523	252.38
298.753	266.38
298.984	284.38
299.214	265.38
299.445	269.38
299.675	269.38
299.905	267.38
300.136	270.38
300.366	261.38
300.597	253.38
300.827	294.38
301.057	280.38
301.288	292.38
301.518	284.38
301.748	264.38
301.979	267.38
302.209	280.38
302.439	274.38
302.669	295.38
302.9	282.38
303.13	281.38
303.36	294.38
303.59	283.38
303.82	308.38
304.051	293.38
304.281	282.38
304.511	264.38
304.741	297.38
304.971	282.38
305.201	277.38
305.431	293.38
305.661	262.38
305.891	271.38
306.121	275.38
306.352	289.38
306.582	286.38
306.812	295.38
307.042	280.38
307.272	286.38
307.502	297.38
307.731	275.38
307.961	274.38
308.191	281.38
308.421	289.38
308.651	282.38
308.881	296.38
309.111	300.38
309.341	310.38
309.571	300.38
309.8	328.38
310.03	321.38
310.26	339.38
310.49	344.38
310.72	350.38
310.949	348.38
311.179	369.38
311.409	333.38
311.639	342.38
311.868	342.38
312.098	335.38
312.328	362.38
312.557	337.38
312.787	380.38
313.017	360.38
313.246	345.38
313.476	331.38
313.706	348.38
313.935	340.38
314.165	350.38
314.394	352.38
314.624	349.38
314.853	327.38
315.083	336.38
315.312	333.38
315.542	330.38
315.771	332.38
316.001	340.38
316.23	310.38
316.46	324.38
316.689	342.38
316.919	352.38
317.148	359.38
317.377	347.38
317.607	354.38
317.836	335.38
318.065	351.38
318.295	333.38
318.524	332.38
318.753	325.38
318.983	323.38
319.212	332.38
319.441	343.38
319.67	368.38
319.9	320.38
320.129	316.38
320.358	354.38
320.587	334.38
320.816	356.38
321.046	357.38
321.275	359.38
321.504	359.38
321.733	349.38
321.962	392.38
322.191	390.38
322.42	409.38
322.649	411.38
322.878	420.38
323.108	421.38
323.337	430.38
323.566	461.38
323.795	488.38
324.024	550.38
324.253	686.38
324.482	974.38
324.71	1521.38
324.939	2061.38
325.168	1716.38
325.397	906.38
325.626	620.38
325.855	543.38
326.084	495.38
326.313	469.38
326.542	483.38
326.77	535.38
326.999	622.38
327.228	889.38
327.457	1308.38
327.686	1527.38
327.914	1024.38
328.143	701.38
328.372	612.38
328.6	567.38
328.829	530.38
329.058	544.38
329.287	576.38
329.515	486.38
329.744	480.38
329.972	484.38
330.201	489.38
330.43	529.38
330.658	577.38
330.887	570.38
331.115	570.38
331.344	485.38
331.572	473.38
331.801	457.38
332.03	420.38
332.258	396.38
332.486	434.38
332.715	394.38
332.943	402.38
333.172	398.38
333.4	407.38
333.629	402.38
333.857	405.38
334.085	432.38
334.314	427.38
334.542	472.38
334.771	502.38
334.999	450.38
335.227	412.38
335.455	410.38
335.684	395.38
335.912	400.38
336.14	392.38
336.369	381.38
336.597	388.38
336.825	398.38
337.053	381.38
337.281	364.38
337.51	382.38
337.738	398.38
337.966	387.38
338.194	380.38
338.422	397.38
338.65	375.38
338.878	388.38
339.106	370.38
339.334	382.38
339.562	370.38
339.79	361.38
340.018	351.38
340.246	397.38
340.474	384.38
340.702	369.38
340.93	389.38
341.158	375.38
341.386	385.38
341.614	376.38
341.842	378.38
342.07	366.38
342.298	366.38
342.526	369.38
342.754	368.38
342.981	363.38
343.209	371.38
343.437	374.38
343.665	358.38
343.893	360.38
344.12	357.38
344.348	350.38
344.576	386.38
344.804	408.38
345.031	390.38
345.259	414.38
345.487	393.38
345.714	380.38
345.942	378.38
346.17	370.38
346.397	365.38
346.625	366.38
346.853	360.38
347.08	379.38
347.308	370.38
347.535	365.38
347.763	384.38
347.99	383.38
348.218	379.38
348.445	386.38
348.673	379.38
348.9	373.38
349.128	376.38
349.355	362.38
349.583	353.38
349.81	360.38
350.037	357.38
350.265	362.38
350.492	359.38
350.72	359.38
350.947	348.38
351.174	366.38
351.402	398.38
351.629	360.38
351.856	380.38
352.083	360.38
352.311	389.38
352.538	394.38
352.765	388.38
352.992	375.38
353.22	360.38
353.447	343.38
353.674	344.38
353.901	336.38
354.128	351.38
354.355	351.38
354.583	324.38
354.81	336.38
355.037	348.38
355.264	325.38
355.491	334.38
355.718	342.38
355.945	313.38
356.172	326.38
356.399	325.38
356.626	341.38
356.853	331.38
357.08	330.38
357.307	333.38
357.534	345.38
357.761	331.38
357.988	330.38
358.215	342.38
358.441	345.38
358.668	348.38
358.895	354.38
359.122	344.38
359.349	369.38
359.576	364.38
359.802	395.38
360.029	421.38
360.256	416.38
360.483	413.38
360.709	378.38
360.936	370.38
361.163	375.38
361.39	376.38
361.616	359.38
361.843	370.38
362.07	380.38
362.296	360.38
362.523	355.38
362.749	360.38
362.976	364.38
363.203	350.38
363.429	350.38
363.656	381.38
363.882	358.38
364.109	350.38
364.335	354.38
364.562	341.38
364.788	334.38
365.015	341.38
365.241	344.38
365.468	358.38
365.694	357.38
365.92	350.38
366.147	362.38
366.373	363.38
366.599	352.38
366.826	343.38
367.052	344.38
367.278	337.38
367.505	344.38
367.731	340.38
367.957	339.38
368.184	342.38
368.41	361.38
368.636	348.38
368.862	374.38
369.089	359.38
369.315	343.38
369.541	345.38
369.767	361.38
369.993	343.38
370.219	350.38
370.445	355.38
370.672	347.38
370.898	334.38
371.124	335.38
371.35	324.38
371.576	321.38
371.802	340.38
372.028	331.38
372.254	331.38
372.48	354.38
372.706	352.38
372.932	344.38
373.158	356.38
373.384	333.38
373.61	358.38
373.835	328.38
374.061	348.38
374.287	351.38
374.513	347.38
374.739	378.38
374.965	349.38
375.191	329.38
375.416	358.38
375.642	330.38
375.868	337.38
376.094	345.38
376.319	316.38
376.545	329.38
376.771	343.38
376.997	343.38
377.222	333.38
377.448	349.38
377.674	347.38
377.899	356.38
378.125	332.38
378.35	344.38
378.576	327.38
378.802	325.38
379.027	328.38
379.253	339.38
379.478	335.38
379.704	341.38
379.929	334.38
380.155	355.38
380.38	328.38
380.606	328.38
380.831	347.38
381.057	346.38
381.282	346.38
381.507	336.38
381.733	355.38
381.958	354.38
382.184	347.38
382.409	357.38
382.634	353.38
382.86	340.38
383.085	345.38
383.31	347.38
383.535	341.38
383.761	355.38
383.986	361.38
384.211	369.38
384.436	341.38
384.662	378.38
384.887	371.38
385.112	351.38
385.337	361.38
385.562	357.38
385.787	369.38
386.013	370.38
386.238	354.38
386.463	364.38
386.688	371.38
386.913	348.38
387.138	348.38
387.363	370.38
387.588	373.38
387.813	359.38
388.038	356.38
388.263	352.38
388.488	372.38
388.713	371.38
388.938	354.38
389.163	357.38
389.387	345.38
389.612	356.38
389.837	373.38
390.062	366.38
390.287	359.38
390.512	363.38
390.736	338.38
390.961	365.38
391.186	376.38
391.411	350.38
391.636	366.38
391.86	358.38
392.085	377.38
392.31	362.38
392.534	360.38
392.759	382.38
392.984	378.38
393.208	378.38
393.433	362.38
393.658	374.38
393.882	372.38
394.107	372.38
394.331	370.38
394.556	361.38
394.78	357.38
395.005	369.38
395.229	370.38
395.454	392.38
395.678	372.38
395.903	379.38
396.127	394.38
396.352	400.38
396.576	377.38
396.801	391.38
397.025	387.38
397.249	378.38
397.474	399.38
397.698	384.38
397.922	391.38
398.147	408.38
398.371	410.38
398.595	388.38
398.82	395.38
399.044	404.38
399.268	433.38
399.492	432.38
399.717	435.38
399.941	468.38
400.165	493.38
400.389	513.38
400.613	470.38
400.837	462.38
401.062	429.38
401.286	420.38
401.51	419.38
401.734	406.38
401.958	420.38
402.182	420.38
402.406	439.38
402.63	434.38
402.854	439.38
403.078	443.38
403.302	441.38
403.526	457.38
403.75	449.38
403.974	412.38
404.198	423.38
404.422	451.38
404.645	442.38
404.869	440.38
405.093	457.38
405.317	469.38
405.541	514.38
405.765	474.38
405.988	459.38
406.212	464.38
406.436	477.38
406.66	510.38
406.883	473.38
407.107	489.38
407.331	502.38
407.555	552.38
407.778	548.38
408.002	521.38
408.226	462.38
408.449	461.38
408.673	481.38
408.896	497.38
409.12	523.38
409.344	514.38
409.567	448.38
409.791	444.38
410.014	448.38
410.238	449.38
410.461	435.38
410.685	439.38
410.908	433.38
411.132	477.38
411.355	503.38
411.578	483.38
411.802	437.38
412.025	426.38
412.249	436.38
412.472	438.38
412.695	465.38
412.919	474.38
413.142	438.38
413.365	438.38
413.589	402.38
413.812	385.38
414.035	439.38
414.258	432.38
414.482	419.38
414.705	386.38
414.928	402.38
415.151	404.38
415.374	388.38
415.597	394.38
415.821	403.38
416.044	384.38
416.267	412.38
416.49	395.38
416.713	397.38
416.936	397.38
417.159	401.38
417.382	416.38
417.605	417.38
417.828	440.38
418.051	428.38
418.274	430.38
418.497	382.38
418.72	404.38
418.943	406.38
419.166	429.38
419.389	434.38
419.611	434.38
419.834	418.38
420.057	426.38
420.28	410.38
420.503	429.38
420.726	436.38
420.948	418.38
421.171	459.38
421.394	483.38
421.617	435.38
421.839	427.38
422.062	448.38
422.285	448.38
422.507	499.38
422.73	541.38
422.953	513.38
423.175	449.38
423.398	438.38
423.621	458.38
423.843	469.38
424.066	467.38
424.288	467.38
424.511	475.38
424.733	514.38
424.956	574.38
425.178	562.38
425.401	577.38
425.623	579.38
425.846	520.38
426.068	480.38
426.291	457.38
426.513	456.38
426.735	480.38
426.958	501.38
427.18	576.38
427.402	664.38
427.625	706.38
427.847	660.38
428.069	585.38
428.292	526.38
428.514	470.38
428.736	445.38
428.958	430.38
429.181	435.38
429.403	437.38
429.625	465.38
429.847	487.38
430.069	524.38
430.292	528.38
430.514	444.38
430.736	441.38
430.958	413.38
431.18	443.38
431.402	409.38
431.624	420.38
431.846	401.38
432.068	396.38
432.29	408.38
432.512	414.38
432.734	420.38
432.956	424.38
433.178	428.38
433.4	422.38
433.622	409.38
433.844	419.38
434.066	411.38
434.287	404.38
434.509	414.38
434.731	410.38
434.953	432.38
435.175	438.38
435.397	417.38
435.618	440.38
435.84	487.38
436.062	601.38
436.284	650.38
436.505	552.38
436.727	521.38
436.949	455.38
437.17	432.38
437.392	432.38
437.614	461.38
437.835	520.38
438.057	594.38
438.278	647.38
438.5	632.38
438.721	684.38
438.943	664.38
439.165	516.38
439.386	497.38
439.608	498.38
439.829	483.38
440.05	506.38
440.272	546.38
440.493	521.38
440.715	481.38
440.936	455.38
441.158	459.38
441.379	426.38
441.6	458.38
441.822	484.38
442.043	507.38
442.264	564.38
442.486	593.38
442.707	517.38
442.928	481.38
443.149	480.38
443.371	544.38
443.592	537.38
443.813	624.38
444.034	640.38
444.255	547.38
444.476	488.38
444.698	470.38
444.919	466.38
445.14	582.38
445.361	537.38
445.582	514.38
445.803	569.38
446.024	667.38
446.245	650.38
446.466	617.38
446.687	535.38
446.908	477.38
447.129	440.38
447.35	437.38
447.571	424.38
447.792	433.38
448.013	448.38
448.234	457.38
448.455	520.38
448.675	611.38
448.896	688.38
449.117	606.38
449.338	578.38
449.559	648.38
449.779	695.38
450	581.38
450.221	472.38
450.442	455.38
450.662	439.38
450.883	421.38
451.104	451.38
451.324	473.38
451.545	426.38
451.766	401.38
451.986	395.38
452.207	402.38
452.428	398.38
452.648	380.38
452.869	395.38
453.089	395.38
453.31	409.38
453.53	419.38
453.751	408.38
453.971	405.38
454.192	432.38
454.412	412.38
454.633	391.38
454.853	397.38
455.073	410.38
455.294	422.38
455.514	485.38
455.734	469.38
455.955	390.38
456.175	393.38
456.395	368.38
456.616	380.38
456.836	362.38
457.056	364.38
457.276	359.38
457.497	374.38
457.717	374.38
457.937	370.38
458.157	384.38
458.377	390.38
458.598	413.38
458.818	469.38
459.038	534.38
459.258	541.38
459.478	471.38
459.698	419.38
459.918	393.38
460.138	398.38
460.358	412.38
460.578	400.38
460.798	427.38
461.018	421.38
461.238	404.38
461.458	413.38
461.678	403.38
461.898	421.38
462.118	403.38
462.338	410.38
462.558	400.38
462.777	425.38
462.997	426.38
463.217	452.38
463.437	427.38
463.657	435.38
463.876	434.38
464.096	433.38
464.316	439.38
464.536	451.38
464.755	430.38
464.975	448.38
465.195	492.38
465.414	590.38
465.634	497.38
465.854	449.38
466.073	432.38
466.293	420.38
466.512	396.38
466.732	418.38
466.951	416.38
467.171	403.38
467.391	425.38
467.61	422.38
467.829	404.38
468.049	434.38
468.268	402.38
468.488	392.38
468.707	391.38
468.927	379.38
469.146	391.38
469.365	386.38
469.585	391.38
469.804	418.38
470.023	414.38
470.243	412.38
470.462	413.38
470.681	444.38
470.901	446.38
471.12	414.38
471.339	424.38
471.558	405.38
471.777	418.38
471.997	398.38
472.216	412.38
472.435	466.38
472.654	428.38
472.873	415.38
473.092	417.38
473.311	405.38
473.53	412.38
473.749	417.38
473.968	482.38
474.187	522.38
474.406	558.38
474.625	447.38
474.844	416.38
475.063	432.38
475.282	405.38
475.501	420.38
475.72	425.38
475.939	407.38
476.158	413.38
476.377	426.38
476.596	427.38
476.814	449.38
477.033	412.38
477.252	414.38
477.471	425.38
477.69	434.38
477.908	429.38
478.127	434.38
478.346	446.38
478.564	429.38
478.783	448.38
479.002	459.38
479.22	457.38
479.439	477.38
479.658	472.38
479.876	491.38
480.095	484.38
480.313	516.38
480.532	511.38
480.751	487.38
480.969	519.38
481.188	593.38
481.406	624.38
481.624	530.38
481.843	519.38
482.061	481.38
482.28	484.38
482.498	472.38
482.717	480.38
482.935	462.38
483.153	482.38
483.372	482.38
483.59	483.38
483.808	481.38
484.027	498.38
484.245	466.38
484.463	480.38
484.681	499.38
484.9	477.38
485.118	497.38
485.336	484.38
485.554	488.38
485.772	511.38
485.99	483.38
486.209	519.38
486.427	512.38
486.645	505.38
486.863	527.38
487.081	538.38
487.299	515.38
487.517	494.38
487.735	526.38
487.953	500.38
488.171	526.38
488.389	507.38
488.607	522.38
488.825	514.38
489.043	537.38
489.261	527.38
489.479	531.38
489.696	536.38
489.914	533.38
490.132	513.38
490.35	522.38
490.568	537.38
490.786	548.38
491.003	544.38
491.221	580.38
491.439	591.38
491.657	588.38
491.874	598.38
492.092	599.38
492.31	577.38
492.527	603.38
492.745	600.38
492.963	586.38
493.18	608.38
493.398	580.38
493.615	606.38
493.833	591.38
494.05	604.38
494.268	614.38
494.485	594.38
494.703	593.38
494.92	601.38
495.138	613.38
495.355	609.38
495.573	623.38
495.79	617.38
496.008	615.38
496.225	604.38
496.442	619.38
496.66	613.38
496.877	609.38
497.094	623.38
497.312	609.38
497.529	636.38
497.746	635.38
497.963	650.38
498.181	680.38
498.398	653.38
498.615	658.38
498.832	699.38
499.049	680.38
499.267	700.38
499.484	693.38
499.701	721.38
499.918	730.38
500.135	763.38
500.352	788.38
500.569	803.38
500.786	774.38
501.003	783.38
501.22	770.38
501.437	758.38
501.654	745.38
501.871	746.38
502.088	708.38
