Data from 1965.PennyLincolnUp.Lamp.En5.5.200Scan.071719.P1._HRD10591_14-08-24-910.txt Node
Date: Thu Jul 18 14:08:24 EDT 2019
User: cochatt
Spectrometer: HR+D1059
Trigger mode: 1
Integration Time (sec): 1.000000E-1
Scans to average: 1
Electric dark correction enabled: true
Nonlinearity correction enabled: false
Boxcar width: 0
XAxis mode: Wavelengths
Number of Pixels in Spectrum: 2048
>>>>>Begin Spectral Data<<<<<
223.165	-18.06
223.4	-18.06
223.635	-18.06
223.869	-0.06
224.104	-11.06
224.338	-17.06
224.573	-17.06
224.808	-18.06
225.042	-5.06
225.277	-18.06
225.511	3.94
225.746	4.94
225.98	1.94
226.215	6.94
226.449	9.94
226.683	21.94
226.918	28.94
227.152	25.94
227.387	34.94
227.621	25.94
227.856	45.94
228.09	56.94
228.324	39.94
228.559	59.94
228.793	70.94
229.027	81.94
229.262	87.94
229.496	99.94
229.73	114.94
229.964	149.94
230.199	119.94
230.433	93.94
230.667	115.94
230.901	106.94
231.136	105.94
231.37	106.94
231.604	105.94
231.838	93.94
232.072	114.94
232.306	105.94
232.541	94.94
232.775	101.94
233.009	101.94
233.243	110.94
233.477	110.94
233.711	114.94
233.945	110.94
234.179	106.94
234.413	115.94
234.647	122.94
234.881	109.94
235.115	119.94
235.349	119.94
235.583	117.94
235.817	107.94
236.051	101.94
236.285	113.94
236.519	110.94
236.753	121.94
236.987	135.94
237.221	166.94
237.455	197.94
237.689	166.94
237.922	133.94
238.156	121.94
238.39	106.94
238.624	143.94
238.858	115.94
239.091	95.94
239.325	106.94
239.559	118.94
239.793	123.94
240.027	124.94
240.26	125.94
240.494	134.94
240.728	125.94
240.961	124.94
241.195	125.94
241.429	122.94
241.662	126.94
241.896	120.94
242.13	117.94
242.363	122.94
242.597	129.94
242.83	128.94
243.064	128.94
243.298	114.94
243.531	117.94
243.765	130.94
243.998	120.94
244.232	121.94
244.465	126.94
244.699	119.94
244.932	126.94
245.166	123.94
245.399	129.94
245.633	129.94
245.866	138.94
246.099	129.94
246.333	134.94
246.566	139.94
246.8	126.94
247.033	134.94
247.266	142.94
247.5	144.94
247.733	123.94
247.966	137.94
248.2	151.94
248.433	138.94
248.666	137.94
248.899	157.94
249.133	163.94
249.366	169.94
249.599	166.94
249.832	162.94
250.066	165.94
250.299	169.94
250.532	164.94
250.765	201.94
250.998	177.94
251.231	191.94
251.465	186.94
251.698	175.94
251.931	183.94
252.164	163.94
252.397	171.94
252.63	172.94
252.863	184.94
253.096	177.94
253.329	186.94
253.562	181.94
253.795	198.94
254.028	212.94
254.261	196.94
254.494	186.94
254.727	203.94
254.96	228.94
255.193	247.94
255.426	201.94
255.659	204.94
255.892	185.94
256.124	181.94
256.357	204.94
256.59	200.94
256.823	184.94
257.056	197.94
257.289	177.94
257.521	182.94
257.754	176.94
257.987	181.94
258.22	192.94
258.452	174.94
258.685	177.94
258.918	175.94
259.151	184.94
259.383	181.94
259.616	195.94
259.849	207.94
260.081	203.94
260.314	230.94
260.547	227.94
260.779	204.94
261.012	186.94
261.244	185.94
261.477	188.94
261.71	189.94
261.942	193.94
262.175	203.94
262.407	200.94
262.64	177.94
262.872	189.94
263.105	172.94
263.337	191.94
263.57	195.94
263.802	179.94
264.035	195.94
264.267	169.94
264.499	177.94
264.732	169.94
264.964	172.94
265.197	166.94
265.429	180.94
265.661	184.94
265.894	192.94
266.126	187.94
266.358	173.94
266.591	187.94
266.823	195.94
267.055	181.94
267.287	183.94
267.52	191.94
267.752	202.94
267.984	185.94
268.216	194.94
268.448	194.94
268.681	210.94
268.913	202.94
269.145	207.94
269.377	241.94
269.609	221.94
269.841	213.94
270.073	237.94
270.306	261.94
270.538	257.94
270.77	259.94
271.002	239.94
271.234	233.94
271.466	236.94
271.698	261.94
271.93	267.94
272.162	250.94
272.394	262.94
272.626	259.94
272.858	231.94
273.09	229.94
273.322	235.94
273.553	213.94
273.785	225.94
274.017	235.94
274.249	223.94
274.481	218.94
274.713	226.94
274.945	218.94
275.176	231.94
275.408	224.94
275.64	213.94
275.872	217.94
276.104	247.94
276.335	218.94
276.567	243.94
276.799	237.94
277.031	257.94
277.262	268.94
277.494	260.94
277.726	247.94
277.957	236.94
278.189	234.94
278.421	225.94
278.652	243.94
278.884	222.94
279.115	211.94
279.347	218.94
279.579	197.94
279.81	218.94
280.042	238.94
280.273	211.94
280.505	211.94
280.736	211.94
280.968	207.94
281.199	220.94
281.431	211.94
281.662	210.94
281.894	217.94
282.125	246.94
282.356	231.94
282.588	259.94
282.819	263.94
283.051	227.94
283.282	231.94
283.513	217.94
283.745	225.94
283.976	237.94
284.207	213.94
284.439	216.94
284.67	222.94
284.901	229.94
285.132	244.94
285.364	244.94
285.595	235.94
285.826	238.94
286.057	216.94
286.288	234.94
286.52	246.94
286.751	232.94
286.982	227.94
287.213	217.94
287.444	221.94
287.675	245.94
287.906	252.94
288.138	259.94
288.369	246.94
288.6	262.94
288.831	242.94
289.062	267.94
289.293	257.94
289.524	232.94
289.755	240.94
289.986	239.94
290.217	242.94
290.448	238.94
290.679	250.94
290.91	255.94
291.141	251.94
291.371	253.94
291.602	249.94
291.833	227.94
292.064	227.94
292.295	235.94
292.526	242.94
292.757	247.94
292.987	250.94
293.218	226.94
293.449	234.94
293.68	236.94
293.91	235.94
294.141	257.94
294.372	243.94
294.603	233.94
294.833	243.94
295.064	249.94
295.295	257.94
295.525	245.94
295.756	270.94
295.987	243.94
296.217	257.94
296.448	262.94
296.679	234.94
296.909	250.94
297.14	258.94
297.37	234.94
297.601	253.94
297.831	228.94
298.062	241.94
298.292	243.94
298.523	250.94
298.753	252.94
298.984	241.94
299.214	259.94
299.445	249.94
299.675	237.94
299.905	241.94
300.136	273.94
300.366	264.94
300.597	272.94
300.827	243.94
301.057	270.94
301.288	276.94
301.518	269.94
301.748	279.94
301.979	257.94
302.209	279.94
302.439	278.94
302.669	281.94
302.9	261.94
303.13	270.94
303.36	269.94
303.59	283.94
303.82	285.94
304.051	281.94
304.281	290.94
304.511	277.94
304.741	272.94
304.971	269.94
305.201	267.94
305.431	244.94
305.661	256.94
305.891	269.94
306.121	277.94
306.352	277.94
306.582	260.94
306.812	297.94
307.042	272.94
307.272	268.94
307.502	277.94
307.731	270.94
307.961	273.94
308.191	263.94
308.421	295.94
308.651	280.94
308.881	272.94
309.111	289.94
309.341	281.94
309.571	287.94
309.8	312.94
310.03	302.94
310.26	324.94
310.49	312.94
310.72	321.94
310.949	331.94
311.179	343.94
311.409	331.94
311.639	330.94
311.868	312.94
312.098	326.94
312.328	315.94
312.557	324.94
312.787	353.94
313.017	333.94
313.246	321.94
313.476	336.94
313.706	327.94
313.935	307.94
314.165	309.94
314.394	346.94
314.624	324.94
314.853	318.94
315.083	317.94
315.312	335.94
315.542	333.94
315.771	311.94
316.001	313.94
316.23	304.94
316.46	332.94
316.689	321.94
316.919	337.94
317.148	329.94
317.377	341.94
317.607	315.94
317.836	324.94
318.065	329.94
318.295	325.94
318.524	311.94
318.753	315.94
318.983	314.94
319.212	316.94
319.441	313.94
319.67	337.94
319.9	303.94
320.129	318.94
320.358	340.94
320.587	323.94
320.816	335.94
321.046	326.94
321.275	338.94
321.504	360.94
321.733	328.94
321.962	354.94
322.191	361.94
322.42	353.94
322.649	372.94
322.878	371.94
323.108	382.94
323.337	405.94
323.566	427.94
323.795	458.94
324.024	502.94
324.253	637.94
324.482	905.94
324.71	1378.94
324.939	1866.94
325.168	1589.94
325.397	841.94
325.626	562.94
325.855	473.94
326.084	442.94
326.313	451.94
326.542	440.94
326.77	483.94
326.999	580.94
327.228	805.94
327.457	1232.94
327.686	1397.94
327.914	947.94
328.143	629.94
328.372	556.94
328.6	527.94
328.829	477.94
329.058	519.94
329.287	499.94
329.515	453.94
329.744	454.94
329.972	450.94
330.201	438.94
330.43	472.94
330.658	525.94
330.887	535.94
331.115	538.94
331.344	440.94
331.572	408.94
331.801	402.94
332.03	414.94
332.258	394.94
332.486	382.94
332.715	375.94
332.943	374.94
333.172	383.94
333.4	373.94
333.629	380.94
333.857	385.94
334.085	407.94
334.314	413.94
334.542	449.94
334.771	471.94
334.999	405.94
335.227	396.94
335.455	373.94
335.684	357.94
335.912	354.94
336.14	371.94
336.369	362.94
336.597	379.94
336.825	372.94
337.053	344.94
337.281	370.94
337.51	355.94
337.738	367.94
337.966	357.94
338.194	365.94
338.422	365.94
338.65	370.94
338.878	360.94
339.106	348.94
339.334	343.94
339.562	328.94
339.79	358.94
340.018	350.94
340.246	369.94
340.474	369.94
340.702	367.94
340.93	327.94
341.158	349.94
341.386	363.94
341.614	363.94
341.842	361.94
342.07	349.94
342.298	355.94
342.526	344.94
342.754	357.94
342.981	358.94
343.209	340.94
343.437	315.94
343.665	356.94
343.893	335.94
344.12	348.94
344.348	357.94
344.576	364.94
344.804	354.94
345.031	372.94
345.259	383.94
345.487	374.94
345.714	354.94
345.942	345.94
346.17	325.94
346.397	366.94
346.625	373.94
346.853	351.94
347.08	344.94
347.308	340.94
347.535	353.94
347.763	363.94
347.99	361.94
348.218	351.94
348.445	359.94
348.673	382.94
348.9	350.94
349.128	324.94
349.355	324.94
349.583	339.94
349.81	346.94
350.037	323.94
350.265	343.94
350.492	346.94
350.72	340.94
350.947	355.94
351.174	349.94
351.402	382.94
351.629	351.94
351.856	361.94
352.083	367.94
352.311	370.94
352.538	371.94
352.765	372.94
352.992	361.94
353.22	370.94
353.447	351.94
353.674	350.94
353.901	345.94
354.128	330.94
354.355	348.94
354.583	331.94
354.81	315.94
355.037	331.94
355.264	285.94
355.491	309.94
355.718	311.94
355.945	322.94
356.172	324.94
356.399	329.94
356.626	321.94
356.853	324.94
357.08	312.94
357.307	308.94
357.534	346.94
357.761	335.94
357.988	331.94
358.215	310.94
358.441	318.94
358.668	332.94
358.895	355.94
359.122	342.94
359.349	352.94
359.576	346.94
359.802	369.94
360.029	411.94
360.256	408.94
360.483	380.94
360.709	357.94
360.936	363.94
361.163	364.94
361.39	358.94
361.616	345.94
361.843	345.94
362.07	342.94
362.296	349.94
362.523	353.94
362.749	359.94
362.976	338.94
363.203	351.94
363.429	342.94
363.656	346.94
363.882	329.94
364.109	349.94
364.335	322.94
364.562	358.94
364.788	335.94
365.015	332.94
365.241	313.94
365.468	346.94
365.694	335.94
365.92	341.94
366.147	343.94
366.373	332.94
366.599	329.94
366.826	330.94
367.052	325.94
367.278	334.94
367.505	341.94
367.731	337.94
367.957	340.94
368.184	335.94
368.41	359.94
368.636	363.94
368.862	336.94
369.089	338.94
369.315	346.94
369.541	327.94
369.767	339.94
369.993	334.94
370.219	333.94
370.445	333.94
370.672	348.94
370.898	296.94
371.124	323.94
371.35	333.94
371.576	338.94
371.802	318.94
372.028	326.94
372.254	316.94
372.48	329.94
372.706	314.94
372.932	315.94
373.158	327.94
373.384	322.94
373.61	331.94
373.835	338.94
374.061	321.94
374.287	325.94
374.513	328.94
374.739	339.94
374.965	338.94
375.191	333.94
375.416	322.94
375.642	324.94
375.868	329.94
376.094	350.94
376.319	328.94
376.545	334.94
376.771	318.94
376.997	325.94
377.222	346.94
377.448	315.94
377.674	318.94
377.899	306.94
378.125	334.94
378.35	313.94
378.576	328.94
378.802	319.94
379.027	322.94
379.253	313.94
379.478	314.94
379.704	342.94
379.929	329.94
380.155	335.94
380.38	317.94
380.606	335.94
380.831	331.94
381.057	327.94
381.282	316.94
381.507	306.94
381.733	337.94
381.958	332.94
382.184	335.94
382.409	349.94
382.634	333.94
382.86	334.94
383.085	338.94
383.31	328.94
383.535	337.94
383.761	339.94
383.986	341.94
384.211	354.94
384.436	328.94
384.662	351.94
384.887	335.94
385.112	335.94
385.337	360.94
385.562	341.94
385.787	372.94
386.013	353.94
386.238	339.94
386.463	358.94
386.688	355.94
386.913	349.94
387.138	362.94
387.363	344.94
387.588	354.94
387.813	345.94
388.038	347.94
388.263	364.94
388.488	349.94
388.713	340.94
388.938	340.94
389.163	352.94
389.387	373.94
389.612	373.94
389.837	343.94
390.062	357.94
390.287	347.94
390.512	363.94
390.736	355.94
390.961	350.94
391.186	341.94
391.411	343.94
391.636	356.94
391.86	371.94
392.085	360.94
392.31	356.94
392.534	365.94
392.759	356.94
392.984	334.94
393.208	364.94
393.433	339.94
393.658	353.94
393.882	346.94
394.107	342.94
394.331	351.94
394.556	333.94
394.78	347.94
395.005	378.94
395.229	345.94
395.454	358.94
395.678	358.94
395.903	345.94
396.127	386.94
396.352	414.94
396.576	352.94
396.801	366.94
397.025	365.94
397.249	374.94
397.474	362.94
397.698	360.94
397.922	378.94
398.147	394.94
398.371	402.94
398.595	388.94
398.82	393.94
399.044	397.94
399.268	397.94
399.492	416.94
399.717	450.94
399.941	462.94
400.165	487.94
400.389	488.94
400.613	439.94
400.837	414.94
401.062	415.94
401.286	393.94
401.51	401.94
401.734	395.94
401.958	401.94
402.182	409.94
402.406	434.94
402.63	417.94
402.854	408.94
403.078	395.94
403.302	402.94
403.526	405.94
403.75	423.94
403.974	400.94
404.198	405.94
404.422	395.94
404.645	409.94
404.869	427.94
405.093	418.94
405.317	451.94
405.541	487.94
405.765	441.94
405.988	441.94
406.212	438.94
406.436	447.94
406.66	465.94
406.883	464.94
407.107	486.94
407.331	489.94
407.555	542.94
407.778	525.94
408.002	482.94
408.226	462.94
408.449	439.94
408.673	458.94
408.896	475.94
409.12	501.94
409.344	467.94
409.567	418.94
409.791	413.94
410.014	389.94
410.238	403.94
410.461	432.94
410.685	421.94
410.908	415.94
411.132	465.94
411.355	459.94
411.578	464.94
411.802	437.94
412.025	426.94
412.249	414.94
412.472	433.94
412.695	452.94
412.919	445.94
413.142	415.94
413.365	409.94
413.589	406.94
413.812	385.94
414.035	399.94
414.258	404.94
414.482	388.94
414.705	389.94
414.928	384.94
415.151	370.94
415.374	390.94
415.597	408.94
415.821	374.94
416.044	387.94
416.267	398.94
416.49	378.94
416.713	369.94
416.936	391.94
417.159	387.94
417.382	398.94
417.605	406.94
417.828	404.94
418.051	405.94
418.274	403.94
418.497	391.94
418.72	377.94
418.943	410.94
419.166	405.94
419.389	428.94
419.611	420.94
419.834	394.94
420.057	397.94
420.28	398.94
420.503	393.94
420.726	405.94
420.948	446.94
421.171	465.94
421.394	476.94
421.617	425.94
421.839	412.94
422.062	442.94
422.285	427.94
422.507	463.94
422.73	540.94
422.953	505.94
423.175	441.94
423.398	426.94
423.621	421.94
423.843	446.94
424.066	431.94
424.288	453.94
424.511	450.94
424.733	492.94
424.956	561.94
425.178	531.94
425.401	537.94
425.623	551.94
425.846	466.94
426.068	441.94
426.291	435.94
426.513	463.94
426.735	436.94
426.958	475.94
427.18	527.94
427.402	661.94
427.625	707.94
427.847	617.94
428.069	563.94
428.292	482.94
428.514	445.94
428.736	421.94
428.958	423.94
429.181	414.94
429.403	413.94
429.625	433.94
429.847	452.94
430.069	479.94
430.292	495.94
430.514	434.94
430.736	383.94
430.958	429.94
431.18	397.94
431.402	382.94
431.624	387.94
431.846	388.94
432.068	392.94
432.29	373.94
432.512	384.94
432.734	394.94
432.956	381.94
433.178	393.94
433.4	395.94
433.622	390.94
433.844	393.94
434.066	381.94
434.287	387.94
434.509	397.94
434.731	411.94
434.953	403.94
435.175	394.94
435.397	438.94
435.618	447.94
435.84	472.94
436.062	557.94
436.284	579.94
436.505	494.94
436.727	451.94
436.949	455.94
437.17	412.94
437.392	418.94
437.614	425.94
437.835	450.94
438.057	540.94
438.278	612.94
438.5	620.94
438.721	664.94
438.943	617.94
439.165	503.94
439.386	465.94
439.608	469.94
439.829	450.94
440.05	473.94
440.272	541.94
440.493	489.94
440.715	425.94
440.936	434.94
441.158	438.94
441.379	425.94
441.6	425.94
441.822	434.94
442.043	492.94
442.264	544.94
442.486	579.94
442.707	488.94
442.928	457.94
443.149	467.94
443.371	477.94
443.592	540.94
443.813	605.94
444.034	606.94
444.255	515.94
444.476	437.94
444.698	425.94
444.919	446.94
445.14	530.94
445.361	480.94
445.582	485.94
445.803	554.94
446.024	605.94
446.245	618.94
446.466	573.94
446.687	504.94
446.908	454.94
447.129	417.94
447.35	426.94
447.571	415.94
447.792	391.94
448.013	431.94
448.234	440.94
448.455	475.94
448.675	568.94
448.896	660.94
449.117	563.94
449.338	541.94
449.559	603.94
449.779	669.94
450	546.94
450.221	467.94
450.442	418.94
450.662	406.94
450.883	416.94
451.104	431.94
451.324	434.94
451.545	410.94
451.766	365.94
451.986	377.94
452.207	398.94
452.428	379.94
452.648	390.94
452.869	383.94
453.089	389.94
453.31	396.94
453.53	377.94
453.751	387.94
453.971	394.94
454.192	381.94
454.412	381.94
454.633	379.94
454.853	365.94
455.073	379.94
455.294	387.94
455.514	449.94
455.734	439.94
455.955	364.94
456.175	379.94
456.395	360.94
456.616	359.94
456.836	361.94
457.056	355.94
457.276	326.94
457.497	355.94
457.717	357.94
457.937	360.94
458.157	354.94
458.377	394.94
458.598	403.94
458.818	455.94
459.038	521.94
459.258	497.94
459.478	430.94
459.698	405.94
459.918	401.94
460.138	374.94
460.358	399.94
460.578	388.94
460.798	405.94
461.018	395.94
461.238	394.94
461.458	386.94
461.678	385.94
461.898	411.94
462.118	397.94
462.338	395.94
462.558	422.94
462.777	416.94
462.997	422.94
463.217	420.94
463.437	403.94
463.657	381.94
463.876	409.94
464.096	394.94
464.316	423.94
464.536	413.94
464.755	423.94
464.975	446.94
465.195	481.94
465.414	539.94
465.634	483.94
465.854	421.94
466.073	396.94
466.293	404.94
466.512	370.94
466.732	368.94
466.951	374.94
467.171	389.94
467.391	377.94
467.61	395.94
467.829	405.94
468.049	399.94
468.268	388.94
468.488	408.94
468.707	374.94
468.927	359.94
469.146	371.94
469.365	381.94
469.585	375.94
469.804	373.94
470.023	397.94
470.243	395.94
470.462	390.94
470.681	410.94
470.901	409.94
471.12	400.94
471.339	407.94
471.558	398.94
471.777	395.94
471.997	389.94
472.216	384.94
472.435	405.94
472.654	407.94
472.873	403.94
473.092	395.94
473.311	389.94
473.53	403.94
473.749	405.94
473.968	424.94
474.187	499.94
474.406	526.94
474.625	450.94
474.844	411.94
475.063	387.94
475.282	389.94
475.501	381.94
475.72	389.94
475.939	401.94
476.158	399.94
476.377	397.94
476.596	410.94
476.814	399.94
477.033	425.94
477.252	410.94
477.471	418.94
477.69	419.94
477.908	393.94
478.127	407.94
478.346	414.94
478.564	419.94
478.783	435.94
479.002	436.94
479.22	425.94
479.439	447.94
479.658	487.94
479.876	476.94
480.095	469.94
480.313	499.94
480.532	463.94
480.751	467.94
480.969	475.94
481.188	537.94
481.406	598.94
481.624	523.94
481.843	475.94
482.061	494.94
482.28	454.94
482.498	460.94
482.717	474.94
482.935	473.94
483.153	438.94
483.372	454.94
483.59	456.94
483.808	456.94
484.027	473.94
484.245	460.94
484.463	446.94
484.681	438.94
484.9	494.94
485.118	470.94
485.336	459.94
485.554	477.94
485.772	468.94
485.99	470.94
486.209	478.94
486.427	464.94
486.645	519.94
486.863	528.94
487.081	492.94
487.299	501.94
487.517	498.94
487.735	472.94
487.953	483.94
488.171	483.94
488.389	483.94
488.607	508.94
488.825	487.94
489.043	487.94
489.261	488.94
489.479	495.94
489.696	483.94
489.914	505.94
490.132	508.94
490.35	500.94
490.568	502.94
490.786	534.94
491.003	512.94
491.221	532.94
491.439	539.94
491.657	561.94
491.874	545.94
492.092	543.94
492.31	557.94
492.527	539.94
492.745	546.94
492.963	568.94
493.18	555.94
493.398	555.94
493.615	573.94
493.833	565.94
494.05	572.94
494.268	586.94
494.485	551.94
494.703	558.94
494.92	557.94
495.138	582.94
495.355	569.94
495.573	586.94
495.79	569.94
496.008	580.94
496.225	555.94
496.442	558.94
496.66	586.94
496.877	562.94
497.094	579.94
497.312	598.94
497.529	569.94
497.746	601.94
497.963	601.94
498.181	641.94
498.398	603.94
498.615	618.94
498.832	644.94
499.049	629.94
499.267	652.94
499.484	668.94
499.701	680.94
499.918	690.94
500.135	717.94
500.352	750.94
500.569	749.94
500.786	721.94
501.003	739.94
501.22	725.94
501.437	727.94
501.654	709.94
501.871	682.94
502.088	679.94
