Data from 1965.PennyLincolnUp.Lamp.En5.5.200Scan.071719.P1._HRD10591_14-10-55-912.txt Node
Date: Thu Jul 18 14:10:55 EDT 2019
User: cochatt
Spectrometer: HR+D1059
Trigger mode: 1
Integration Time (sec): 1.000000E-1
Scans to average: 1
Electric dark correction enabled: true
Nonlinearity correction enabled: false
Boxcar width: 0
XAxis mode: Wavelengths
Number of Pixels in Spectrum: 2048
>>>>>Begin Spectral Data<<<<<
223.165	-2.44
223.4	-2.44
223.635	-2.44
223.869	-13.44
224.104	-18.44
224.338	-14.44
224.573	-13.44
224.808	-19.44
225.042	-7.44
225.277	-17.44
225.511	-12.44
225.746	10.56
225.98	13.56
226.215	5.56
226.449	12.56
226.683	2.56
226.918	27.56
227.152	46.56
227.387	40.56
227.621	48.56
227.856	33.56
228.09	51.56
228.324	46.56
228.559	51.56
228.793	69.56
229.027	93.56
229.262	100.56
229.496	111.56
229.73	126.56
229.964	145.56
230.199	133.56
230.433	117.56
230.667	91.56
230.901	110.56
231.136	109.56
231.37	122.56
231.604	104.56
231.838	102.56
232.072	107.56
232.306	98.56
232.541	129.56
232.775	116.56
233.009	118.56
233.243	107.56
233.477	107.56
233.711	109.56
233.945	112.56
234.179	117.56
234.413	117.56
234.647	125.56
234.881	116.56
235.115	101.56
235.349	123.56
235.583	123.56
235.817	121.56
236.051	124.56
236.285	121.56
236.519	118.56
236.753	121.56
236.987	153.56
237.221	171.56
237.455	223.56
237.689	173.56
237.922	152.56
238.156	107.56
238.39	142.56
238.624	115.56
238.858	110.56
239.091	122.56
239.325	126.56
239.559	138.56
239.793	118.56
240.027	124.56
240.26	129.56
240.494	149.56
240.728	139.56
240.961	121.56
241.195	127.56
241.429	119.56
241.662	131.56
241.896	128.56
242.13	124.56
242.363	126.56
242.597	129.56
242.83	115.56
243.064	126.56
243.298	116.56
243.531	122.56
243.765	126.56
243.998	138.56
244.232	135.56
244.465	136.56
244.699	129.56
244.932	136.56
245.166	148.56
245.399	134.56
245.633	133.56
245.866	124.56
246.099	133.56
246.333	147.56
246.566	127.56
246.8	132.56
247.033	139.56
247.266	134.56
247.5	153.56
247.733	161.56
247.966	157.56
248.2	167.56
248.433	163.56
248.666	154.56
248.899	168.56
249.133	202.56
249.366	185.56
249.599	197.56
249.832	177.56
250.066	174.56
250.299	157.56
250.532	193.56
250.765	205.56
250.998	223.56
251.231	205.56
251.465	205.56
251.698	205.56
251.931	193.56
252.164	186.56
252.397	194.56
252.63	191.56
252.863	171.56
253.096	209.56
253.329	203.56
253.562	198.56
253.795	198.56
254.028	195.56
254.261	202.56
254.494	217.56
254.727	238.56
254.96	267.56
255.193	259.56
255.426	246.56
255.659	213.56
255.892	223.56
256.124	227.56
256.357	222.56
256.59	218.56
256.823	211.56
257.056	212.56
257.289	210.56
257.521	197.56
257.754	196.56
257.987	195.56
258.22	183.56
258.452	198.56
258.685	186.56
258.918	178.56
259.151	211.56
259.383	206.56
259.616	211.56
259.849	213.56
260.081	221.56
260.314	241.56
260.547	252.56
260.779	232.56
261.012	217.56
261.244	210.56
261.477	210.56
261.71	207.56
261.942	216.56
262.175	202.56
262.407	204.56
262.64	205.56
262.872	187.56
263.105	207.56
263.337	187.56
263.57	201.56
263.802	215.56
264.035	200.56
264.267	179.56
264.499	189.56
264.732	212.56
264.964	199.56
265.197	200.56
265.429	171.56
265.661	198.56
265.894	180.56
266.126	203.56
266.358	215.56
266.591	220.56
266.823	202.56
267.055	211.56
267.287	203.56
267.52	200.56
267.752	201.56
267.984	211.56
268.216	236.56
268.448	212.56
268.681	225.56
268.913	224.56
269.145	245.56
269.377	253.56
269.609	267.56
269.841	255.56
270.073	245.56
270.306	271.56
270.538	299.56
270.77	306.56
271.002	288.56
271.234	279.56
271.466	281.56
271.698	280.56
271.93	295.56
272.162	304.56
272.394	299.56
272.626	302.56
272.858	277.56
273.09	265.56
273.322	249.56
273.553	251.56
273.785	251.56
274.017	244.56
274.249	234.56
274.481	253.56
274.713	250.56
274.945	238.56
275.176	242.56
275.408	241.56
275.64	258.56
275.872	242.56
276.104	244.56
276.335	242.56
276.567	238.56
276.799	277.56
277.031	299.56
277.262	295.56
277.494	278.56
277.726	285.56
277.957	285.56
278.189	279.56
278.421	247.56
278.652	227.56
278.884	257.56
279.115	250.56
279.347	223.56
279.579	237.56
279.81	236.56
280.042	242.56
280.273	239.56
280.505	248.56
280.736	237.56
280.968	236.56
281.199	243.56
281.431	233.56
281.662	253.56
281.894	238.56
282.125	260.56
282.356	270.56
282.588	289.56
282.819	310.56
283.051	277.56
283.282	267.56
283.513	252.56
283.745	249.56
283.976	250.56
284.207	252.56
284.439	237.56
284.67	239.56
284.901	254.56
285.132	271.56
285.364	253.56
285.595	261.56
285.826	248.56
286.057	251.56
286.288	263.56
286.52	273.56
286.751	260.56
286.982	254.56
287.213	248.56
287.444	246.56
287.675	271.56
287.906	265.56
288.138	256.56
288.369	265.56
288.6	269.56
288.831	267.56
289.062	267.56
289.293	267.56
289.524	259.56
289.755	261.56
289.986	282.56
290.217	257.56
290.448	265.56
290.679	258.56
290.91	264.56
291.141	268.56
291.371	257.56
291.602	262.56
291.833	254.56
292.064	248.56
292.295	275.56
292.526	249.56
292.757	238.56
292.987	261.56
293.218	261.56
293.449	260.56
293.68	262.56
293.91	264.56
294.141	261.56
294.372	247.56
294.603	271.56
294.833	251.56
295.064	273.56
295.295	259.56
295.525	257.56
295.756	271.56
295.987	278.56
296.217	311.56
296.448	297.56
296.679	289.56
296.909	263.56
297.14	257.56
297.37	267.56
297.601	262.56
297.831	265.56
298.062	271.56
298.292	269.56
298.523	265.56
298.753	282.56
298.984	274.56
299.214	285.56
299.445	267.56
299.675	276.56
299.905	273.56
300.136	285.56
300.366	279.56
300.597	288.56
300.827	281.56
301.057	285.56
301.288	293.56
301.518	300.56
301.748	296.56
301.979	289.56
302.209	286.56
302.439	298.56
302.669	277.56
302.9	295.56
303.13	297.56
303.36	295.56
303.59	297.56
303.82	297.56
304.051	294.56
304.281	313.56
304.511	285.56
304.741	282.56
304.971	275.56
305.201	294.56
305.431	298.56
305.661	286.56
305.891	302.56
306.121	315.56
306.352	298.56
306.582	279.56
306.812	300.56
307.042	312.56
307.272	302.56
307.502	324.56
307.731	307.56
307.961	293.56
308.191	295.56
308.421	295.56
308.651	299.56
308.881	281.56
309.111	313.56
309.341	305.56
309.571	324.56
309.8	318.56
310.03	333.56
310.26	349.56
310.49	350.56
310.72	343.56
310.949	371.56
311.179	387.56
311.409	360.56
311.639	355.56
311.868	359.56
312.098	368.56
312.328	375.56
312.557	377.56
312.787	386.56
313.017	396.56
313.246	357.56
313.476	350.56
313.706	349.56
313.935	362.56
314.165	382.56
314.394	386.56
314.624	380.56
314.853	391.56
315.083	349.56
315.312	343.56
315.542	335.56
315.771	336.56
316.001	337.56
316.23	337.56
316.46	342.56
316.689	349.56
316.919	347.56
317.148	376.56
317.377	385.56
317.607	354.56
317.836	355.56
318.065	363.56
318.295	345.56
318.524	343.56
318.753	344.56
318.983	326.56
319.212	350.56
319.441	379.56
319.67	340.56
319.9	356.56
320.129	345.56
320.358	340.56
320.587	364.56
320.816	386.56
321.046	377.56
321.275	376.56
321.504	373.56
321.733	375.56
321.962	384.56
322.191	380.56
322.42	409.56
322.649	417.56
322.878	437.56
323.108	442.56
323.337	462.56
323.566	494.56
323.795	542.56
324.024	574.56
324.253	753.56
324.482	1091.56
324.71	1665.56
324.939	2290.56
325.168	1886.56
325.397	975.56
325.626	681.56
325.855	565.56
326.084	505.56
326.313	515.56
326.542	501.56
326.77	565.56
326.999	669.56
327.228	943.56
327.457	1429.56
327.686	1708.56
327.914	1110.56
328.143	756.56
328.372	641.56
328.6	612.56
328.829	549.56
329.058	593.56
329.287	580.56
329.515	524.56
329.744	481.56
329.972	513.56
330.201	524.56
330.43	562.56
330.658	609.56
330.887	643.56
331.115	603.56
331.344	492.56
331.572	457.56
331.801	465.56
332.03	450.56
332.258	439.56
332.486	420.56
332.715	409.56
332.943	425.56
333.172	430.56
333.4	420.56
333.629	429.56
333.857	420.56
334.085	456.56
334.314	473.56
334.542	518.56
334.771	531.56
334.999	476.56
335.227	465.56
335.455	426.56
335.684	411.56
335.912	437.56
336.14	391.56
336.369	405.56
336.597	414.56
336.825	421.56
337.053	406.56
337.281	422.56
337.51	393.56
337.738	397.56
337.966	410.56
338.194	412.56
338.422	413.56
338.65	397.56
338.878	409.56
339.106	391.56
339.334	403.56
339.562	376.56
339.79	396.56
340.018	374.56
340.246	389.56
340.474	418.56
340.702	408.56
340.93	390.56
341.158	366.56
341.386	411.56
341.614	393.56
341.842	396.56
342.07	362.56
342.298	389.56
342.526	387.56
342.754	373.56
342.981	364.56
343.209	356.56
343.437	385.56
343.665	381.56
343.893	400.56
344.12	384.56
344.348	398.56
344.576	369.56
344.804	394.56
345.031	402.56
345.259	414.56
345.487	414.56
345.714	401.56
345.942	385.56
346.17	389.56
346.397	367.56
346.625	370.56
346.853	377.56
347.08	392.56
347.308	375.56
347.535	400.56
347.763	385.56
347.99	403.56
348.218	388.56
348.445	414.56
348.673	389.56
348.9	372.56
349.128	376.56
349.355	371.56
349.583	367.56
349.81	369.56
350.037	373.56
350.265	360.56
350.492	359.56
350.72	377.56
350.947	363.56
351.174	375.56
351.402	397.56
351.629	383.56
351.856	402.56
352.083	407.56
352.311	403.56
352.538	390.56
352.765	399.56
352.992	395.56
353.22	381.56
353.447	397.56
353.674	364.56
353.901	350.56
354.128	352.56
354.355	348.56
354.583	354.56
354.81	355.56
355.037	357.56
355.264	338.56
355.491	352.56
355.718	342.56
355.945	343.56
356.172	348.56
356.399	329.56
356.626	343.56
356.853	343.56
357.08	352.56
357.307	353.56
357.534	356.56
357.761	342.56
357.988	349.56
358.215	341.56
358.441	341.56
358.668	341.56
358.895	337.56
359.122	357.56
359.349	361.56
359.576	389.56
359.802	405.56
360.029	424.56
360.256	442.56
360.483	424.56
360.709	397.56
360.936	391.56
361.163	371.56
361.39	375.56
361.616	374.56
361.843	363.56
362.07	389.56
362.296	394.56
362.523	385.56
362.749	376.56
362.976	369.56
363.203	379.56
363.429	341.56
363.656	357.56
363.882	374.56
364.109	354.56
364.335	349.56
364.562	370.56
364.788	349.56
365.015	343.56
365.241	365.56
365.468	377.56
365.694	355.56
365.92	346.56
366.147	371.56
366.373	365.56
366.599	334.56
366.826	340.56
367.052	362.56
367.278	361.56
367.505	370.56
367.731	373.56
367.957	381.56
368.184	371.56
368.41	367.56
368.636	379.56
368.862	371.56
369.089	395.56
369.315	374.56
369.541	371.56
369.767	354.56
369.993	351.56
370.219	370.56
370.445	358.56
370.672	361.56
370.898	360.56
371.124	350.56
371.35	335.56
371.576	358.56
371.802	340.56
372.028	341.56
372.254	351.56
372.48	347.56
372.706	363.56
372.932	346.56
373.158	353.56
373.384	366.56
373.61	347.56
373.835	355.56
374.061	334.56
374.287	367.56
374.513	371.56
374.739	369.56
374.965	348.56
375.191	341.56
375.416	349.56
375.642	354.56
375.868	361.56
376.094	361.56
376.319	347.56
376.545	353.56
376.771	338.56
376.997	345.56
377.222	330.56
377.448	337.56
377.674	352.56
377.899	345.56
378.125	349.56
378.35	361.56
378.576	341.56
378.802	339.56
379.027	361.56
379.253	357.56
379.478	339.56
379.704	363.56
379.929	343.56
380.155	355.56
380.38	344.56
380.606	339.56
380.831	356.56
381.057	342.56
381.282	348.56
381.507	342.56
381.733	353.56
381.958	362.56
382.184	351.56
382.409	350.56
382.634	363.56
382.86	362.56
383.085	348.56
383.31	348.56
383.535	376.56
383.761	359.56
383.986	354.56
384.211	356.56
384.436	362.56
384.662	362.56
384.887	360.56
385.112	372.56
385.337	368.56
385.562	367.56
385.787	355.56
386.013	369.56
386.238	392.56
386.463	385.56
386.688	373.56
386.913	353.56
387.138	367.56
387.363	371.56
387.588	364.56
387.813	355.56
388.038	372.56
388.263	355.56
388.488	379.56
388.713	378.56
388.938	380.56
389.163	378.56
389.387	374.56
389.612	379.56
389.837	383.56
390.062	391.56
390.287	374.56
390.512	365.56
390.736	379.56
390.961	376.56
391.186	372.56
391.411	362.56
391.636	375.56
391.86	383.56
392.085	384.56
392.31	373.56
392.534	373.56
392.759	381.56
392.984	394.56
393.208	364.56
393.433	379.56
393.658	363.56
393.882	382.56
394.107	374.56
394.331	363.56
394.556	385.56
394.78	373.56
395.005	370.56
395.229	383.56
395.454	388.56
395.678	377.56
395.903	376.56
396.127	417.56
396.352	405.56
396.576	363.56
396.801	397.56
397.025	376.56
397.249	380.56
397.474	388.56
397.698	413.56
397.922	406.56
398.147	413.56
398.371	400.56
398.595	411.56
398.82	423.56
399.044	421.56
399.268	421.56
399.492	439.56
399.717	471.56
399.941	486.56
400.165	486.56
400.389	512.56
400.613	476.56
400.837	446.56
401.062	427.56
401.286	452.56
401.51	433.56
401.734	414.56
401.958	427.56
402.182	424.56
402.406	441.56
402.63	453.56
402.854	438.56
403.078	424.56
403.302	426.56
403.526	446.56
403.75	450.56
403.974	446.56
404.198	439.56
404.422	438.56
404.645	439.56
404.869	435.56
405.093	469.56
405.317	516.56
405.541	528.56
405.765	504.56
405.988	457.56
406.212	452.56
406.436	488.56
406.66	519.56
406.883	491.56
407.107	483.56
407.331	540.56
407.555	585.56
407.778	570.56
408.002	542.56
408.226	470.56
408.449	484.56
408.673	482.56
408.896	511.56
409.12	532.56
409.344	521.56
409.567	455.56
409.791	466.56
410.014	430.56
410.238	430.56
410.461	450.56
410.685	413.56
410.908	442.56
411.132	490.56
411.355	510.56
411.578	485.56
411.802	432.56
412.025	426.56
412.249	443.56
412.472	494.56
412.695	507.56
412.919	515.56
413.142	474.56
413.365	447.56
413.589	431.56
413.812	415.56
414.035	426.56
414.258	417.56
414.482	410.56
414.705	415.56
414.928	439.56
415.151	395.56
415.374	396.56
415.597	396.56
415.821	422.56
416.044	426.56
416.267	414.56
416.49	405.56
416.713	392.56
416.936	423.56
417.159	406.56
417.382	421.56
417.605	424.56
417.828	426.56
418.051	430.56
418.274	445.56
418.497	413.56
418.72	415.56
418.943	395.56
419.166	432.56
419.389	452.56
419.611	430.56
419.834	413.56
420.057	440.56
420.28	438.56
420.503	444.56
420.726	422.56
420.948	435.56
421.171	486.56
421.394	511.56
421.617	475.56
421.839	449.56
422.062	446.56
422.285	441.56
422.507	493.56
422.73	575.56
422.953	530.56
423.175	492.56
423.398	474.56
423.621	454.56
423.843	486.56
424.066	480.56
424.288	463.56
424.511	507.56
424.733	552.56
424.956	604.56
425.178	586.56
425.401	587.56
425.623	582.56
425.846	487.56
426.068	491.56
426.291	485.56
426.513	473.56
426.735	486.56
426.958	526.56
427.18	606.56
427.402	708.56
427.625	793.56
427.847	705.56
428.069	604.56
428.292	553.56
428.514	509.56
428.736	469.56
428.958	448.56
429.181	440.56
429.403	442.56
429.625	461.56
429.847	489.56
430.069	553.56
430.292	546.56
430.514	457.56
430.736	445.56
430.958	444.56
431.18	444.56
431.402	427.56
431.624	437.56
431.846	415.56
432.068	417.56
432.29	411.56
432.512	402.56
432.734	415.56
432.956	447.56
433.178	443.56
433.4	453.56
433.622	408.56
433.844	436.56
434.066	437.56
434.287	409.56
434.509	396.56
434.731	433.56
434.953	430.56
435.175	448.56
435.397	470.56
435.618	467.56
435.84	519.56
436.062	601.56
436.284	643.56
436.505	532.56
436.727	513.56
436.949	451.56
437.17	449.56
437.392	443.56
437.614	461.56
437.835	493.56
438.057	596.56
438.278	678.56
438.5	697.56
438.721	717.56
438.943	693.56
439.165	548.56
439.386	513.56
439.608	501.56
439.829	521.56
440.05	536.56
440.272	581.56
440.493	551.56
440.715	499.56
440.936	461.56
441.158	461.56
441.379	449.56
441.6	453.56
441.822	475.56
442.043	506.56
442.264	596.56
442.486	634.56
442.707	540.56
442.928	505.56
443.149	490.56
443.371	500.56
443.592	584.56
443.813	683.56
444.034	691.56
444.255	580.56
444.476	522.56
444.698	491.56
444.919	479.56
445.14	542.56
445.361	541.56
445.582	542.56
445.803	593.56
446.024	678.56
446.245	679.56
446.466	633.56
446.687	537.56
446.908	473.56
447.129	455.56
447.35	459.56
447.571	474.56
447.792	452.56
448.013	462.56
448.234	480.56
448.455	527.56
448.675	614.56
448.896	702.56
449.117	609.56
449.338	596.56
449.559	659.56
449.779	725.56
450	609.56
450.221	524.56
450.442	470.56
450.662	446.56
450.883	456.56
451.104	486.56
451.324	476.56
451.545	453.56
451.766	418.56
451.986	385.56
452.207	398.56
452.428	405.56
452.648	399.56
452.869	402.56
453.089	415.56
453.31	439.56
453.53	401.56
453.751	407.56
453.971	400.56
454.192	421.56
454.412	431.56
454.633	393.56
454.853	397.56
455.073	399.56
455.294	426.56
455.514	483.56
455.734	487.56
455.955	398.56
456.175	403.56
456.395	386.56
456.616	389.56
456.836	371.56
457.056	345.56
457.276	363.56
457.497	397.56
457.717	380.56
457.937	372.56
458.157	376.56
458.377	416.56
458.598	416.56
458.818	479.56
459.038	573.56
459.258	556.56
459.478	476.56
459.698	448.56
459.918	408.56
460.138	421.56
460.358	400.56
460.578	420.56
460.798	413.56
461.018	420.56
461.238	430.56
461.458	415.56
461.678	401.56
461.898	404.56
462.118	419.56
462.338	437.56
462.558	424.56
462.777	422.56
462.997	437.56
463.217	452.56
463.437	454.56
463.657	419.56
463.876	431.56
464.096	436.56
464.316	451.56
464.536	455.56
464.755	447.56
464.975	444.56
465.195	530.56
465.414	608.56
465.634	521.56
465.854	463.56
466.073	423.56
466.293	425.56
466.512	413.56
466.732	407.56
466.951	407.56
467.171	404.56
467.391	412.56
467.61	406.56
467.829	422.56
468.049	425.56
468.268	421.56
468.488	399.56
468.707	399.56
468.927	414.56
469.146	383.56
469.365	406.56
469.585	406.56
469.804	396.56
470.023	420.56
470.243	428.56
470.462	421.56
470.681	444.56
470.901	435.56
471.12	423.56
471.339	429.56
471.558	415.56
471.777	411.56
471.997	417.56
472.216	424.56
472.435	478.56
472.654	471.56
472.873	414.56
473.092	418.56
473.311	415.56
473.53	417.56
473.749	454.56
473.968	479.56
474.187	586.56
474.406	578.56
474.625	501.56
474.844	422.56
475.063	419.56
475.282	413.56
475.501	423.56
475.72	428.56
475.939	423.56
476.158	423.56
476.377	439.56
476.596	443.56
476.814	455.56
477.033	447.56
477.252	464.56
477.471	445.56
477.69	449.56
477.908	473.56
478.127	474.56
478.346	468.56
478.564	451.56
478.783	435.56
479.002	457.56
479.22	483.56
479.439	494.56
479.658	510.56
479.876	489.56
480.095	494.56
480.313	526.56
480.532	523.56
480.751	491.56
480.969	546.56
481.188	587.56
481.406	656.56
481.624	548.56
481.843	533.56
482.061	505.56
482.28	505.56
482.498	482.56
482.717	501.56
482.935	464.56
483.153	486.56
483.372	500.56
483.59	513.56
483.808	486.56
484.027	503.56
484.245	501.56
484.463	495.56
484.681	499.56
484.9	501.56
485.118	508.56
485.336	491.56
485.554	492.56
485.772	493.56
485.99	527.56
486.209	530.56
486.427	525.56
486.645	533.56
486.863	559.56
487.081	539.56
487.299	543.56
487.517	528.56
487.735	529.56
487.953	523.56
488.171	530.56
488.389	527.56
488.607	529.56
488.825	535.56
489.043	522.56
489.261	529.56
489.479	535.56
489.696	533.56
489.914	519.56
490.132	556.56
490.35	541.56
490.568	543.56
490.786	548.56
491.003	575.56
491.221	574.56
491.439	602.56
491.657	592.56
491.874	590.56
492.092	588.56
492.31	617.56
492.527	594.56
492.745	633.56
492.963	641.56
493.18	629.56
493.398	625.56
493.615	637.56
493.833	633.56
494.05	635.56
494.268	650.56
494.485	627.56
494.703	637.56
494.92	625.56
495.138	626.56
495.355	632.56
495.573	629.56
495.79	666.56
496.008	628.56
496.225	620.56
496.442	645.56
496.66	631.56
496.877	627.56
497.094	653.56
497.312	636.56
497.529	645.56
497.746	680.56
497.963	667.56
498.181	667.56
498.398	690.56
498.615	676.56
498.832	689.56
499.049	684.56
499.267	692.56
499.484	690.56
499.701	723.56
499.918	755.56
500.135	771.56
500.352	786.56
500.569	782.56
500.786	784.56
501.003	763.56
501.22	789.56
501.437	782.56
501.654	790.56
501.871	793.56
