Data from 1965.PennyLincolnUp.Lamp.En5.5.200Scan.071719.P1._HRD10591_14-08-03-910.txt Node
Date: Thu Jul 18 14:08:03 EDT 2019
User: cochatt
Spectrometer: HR+D1059
Trigger mode: 1
Integration Time (sec): 1.000000E-1
Scans to average: 1
Electric dark correction enabled: true
Nonlinearity correction enabled: false
Boxcar width: 0
XAxis mode: Wavelengths
Number of Pixels in Spectrum: 2048
>>>>>Begin Spectral Data<<<<<
223.165	-14.44
223.4	-14.44
223.635	-14.44
223.869	-19.44
224.104	-25.44
224.338	-12.44
224.573	-19.44
224.808	-14.44
225.042	0.56
225.277	-9.44
225.511	-8.44
225.746	4.56
225.98	16.56
226.215	23.56
226.449	2.56
226.683	22.56
226.918	18.56
227.152	34.56
227.387	36.56
227.621	42.56
227.856	39.56
228.09	54.56
228.324	31.56
228.559	54.56
228.793	61.56
229.027	67.56
229.262	79.56
229.496	108.56
229.73	110.56
229.964	136.56
230.199	125.56
230.433	99.56
230.667	107.56
230.901	111.56
231.136	119.56
231.37	101.56
231.604	94.56
231.838	101.56
232.072	109.56
232.306	89.56
232.541	101.56
232.775	95.56
233.009	99.56
233.243	107.56
233.477	91.56
233.711	104.56
233.945	107.56
234.179	115.56
234.413	113.56
234.647	110.56
234.881	124.56
235.115	119.56
235.349	100.56
235.583	103.56
235.817	126.56
236.051	130.56
236.285	115.56
236.519	121.56
236.753	122.56
236.987	110.56
237.221	142.56
237.455	193.56
237.689	159.56
237.922	107.56
238.156	111.56
238.39	105.56
238.624	104.56
238.858	108.56
239.091	103.56
239.325	96.56
239.559	119.56
239.793	110.56
240.027	140.56
240.26	109.56
240.494	132.56
240.728	119.56
240.961	128.56
241.195	129.56
241.429	121.56
241.662	126.56
241.896	109.56
242.13	112.56
242.363	127.56
242.597	122.56
242.83	118.56
243.064	123.56
243.298	114.56
243.531	114.56
243.765	122.56
243.998	120.56
244.232	117.56
244.465	135.56
244.699	115.56
244.932	123.56
245.166	112.56
245.399	122.56
245.633	126.56
245.866	130.56
246.099	124.56
246.333	126.56
246.566	114.56
246.8	134.56
247.033	130.56
247.266	139.56
247.5	147.56
247.733	142.56
247.966	164.56
248.2	143.56
248.433	144.56
248.666	146.56
248.899	159.56
249.133	158.56
249.366	155.56
249.599	159.56
249.832	152.56
250.066	154.56
250.299	164.56
250.532	177.56
250.765	169.56
250.998	179.56
251.231	177.56
251.465	191.56
251.698	160.56
251.931	174.56
252.164	169.56
252.397	164.56
252.63	167.56
252.863	175.56
253.096	192.56
253.329	188.56
253.562	194.56
253.795	179.56
254.028	158.56
254.261	161.56
254.494	180.56
254.727	194.56
254.96	221.56
255.193	204.56
255.426	198.56
255.659	200.56
255.892	195.56
256.124	199.56
256.357	208.56
256.59	174.56
256.823	189.56
257.056	199.56
257.289	182.56
257.521	174.56
257.754	176.56
257.987	180.56
258.22	178.56
258.452	160.56
258.685	185.56
258.918	171.56
259.151	168.56
259.383	178.56
259.616	190.56
259.849	192.56
260.081	174.56
260.314	216.56
260.547	198.56
260.779	215.56
261.012	194.56
261.244	169.56
261.477	177.56
261.71	188.56
261.942	195.56
262.175	192.56
262.407	194.56
262.64	186.56
262.872	190.56
263.105	191.56
263.337	187.56
263.57	164.56
263.802	189.56
264.035	194.56
264.267	183.56
264.499	176.56
264.732	165.56
264.964	171.56
265.197	186.56
265.429	180.56
265.661	188.56
265.894	172.56
266.126	170.56
266.358	182.56
266.591	180.56
266.823	188.56
267.055	181.56
267.287	167.56
267.52	193.56
267.752	199.56
267.984	191.56
268.216	208.56
268.448	201.56
268.681	190.56
268.913	210.56
269.145	208.56
269.377	203.56
269.609	226.56
269.841	200.56
270.073	224.56
270.306	253.56
270.538	238.56
270.77	248.56
271.002	246.56
271.234	225.56
271.466	236.56
271.698	244.56
271.93	239.56
272.162	244.56
272.394	255.56
272.626	253.56
272.858	236.56
273.09	239.56
273.322	218.56
273.553	210.56
273.785	203.56
274.017	217.56
274.249	236.56
274.481	214.56
274.713	221.56
274.945	222.56
275.176	229.56
275.408	226.56
275.64	200.56
275.872	207.56
276.104	202.56
276.335	213.56
276.567	221.56
276.799	247.56
277.031	258.56
277.262	251.56
277.494	242.56
277.726	225.56
277.957	222.56
278.189	221.56
278.421	221.56
278.652	212.56
278.884	234.56
279.115	215.56
279.347	212.56
279.579	221.56
279.81	225.56
280.042	215.56
280.273	222.56
280.505	211.56
280.736	212.56
280.968	208.56
281.199	227.56
281.431	216.56
281.662	217.56
281.894	234.56
282.125	234.56
282.356	229.56
282.588	229.56
282.819	238.56
283.051	226.56
283.282	218.56
283.513	231.56
283.745	229.56
283.976	243.56
284.207	224.56
284.439	210.56
284.67	223.56
284.901	218.56
285.132	217.56
285.364	205.56
285.595	214.56
285.826	228.56
286.057	226.56
286.288	236.56
286.52	234.56
286.751	247.56
286.982	218.56
287.213	227.56
287.444	239.56
287.675	234.56
287.906	245.56
288.138	239.56
288.369	242.56
288.6	258.56
288.831	239.56
289.062	234.56
289.293	233.56
289.524	219.56
289.755	234.56
289.986	214.56
290.217	234.56
290.448	227.56
290.679	234.56
290.91	230.56
291.141	231.56
291.371	224.56
291.602	232.56
291.833	227.56
292.064	246.56
292.295	240.56
292.526	236.56
292.757	237.56
292.987	244.56
293.218	244.56
293.449	239.56
293.68	248.56
293.91	230.56
294.141	228.56
294.372	244.56
294.603	217.56
294.833	236.56
295.064	230.56
295.295	235.56
295.525	242.56
295.756	256.56
295.987	244.56
296.217	268.56
296.448	270.56
296.679	246.56
296.909	259.56
297.14	224.56
297.37	230.56
297.601	255.56
297.831	247.56
298.062	239.56
298.292	238.56
298.523	243.56
298.753	254.56
298.984	244.56
299.214	236.56
299.445	255.56
299.675	276.56
299.905	262.56
300.136	265.56
300.366	254.56
300.597	246.56
300.827	267.56
301.057	245.56
301.288	258.56
301.518	258.56
301.748	261.56
301.979	261.56
302.209	283.56
302.439	273.56
302.669	282.56
302.9	247.56
303.13	268.56
303.36	262.56
303.59	262.56
303.82	284.56
304.051	265.56
304.281	259.56
304.511	273.56
304.741	266.56
304.971	263.56
305.201	260.56
305.431	262.56
305.661	258.56
305.891	286.56
306.121	267.56
306.352	280.56
306.582	274.56
306.812	278.56
307.042	282.56
307.272	274.56
307.502	248.56
307.731	263.56
307.961	279.56
308.191	267.56
308.421	278.56
308.651	275.56
308.881	284.56
309.111	262.56
309.341	273.56
309.571	276.56
309.8	280.56
310.03	283.56
310.26	303.56
310.49	310.56
310.72	306.56
310.949	312.56
311.179	312.56
311.409	304.56
311.639	301.56
311.868	294.56
312.098	308.56
312.328	325.56
312.557	325.56
312.787	328.56
313.017	336.56
313.246	306.56
313.476	308.56
313.706	324.56
313.935	317.56
314.165	310.56
314.394	327.56
314.624	308.56
314.853	297.56
315.083	319.56
315.312	304.56
315.542	319.56
315.771	314.56
316.001	318.56
316.23	307.56
316.46	295.56
316.689	301.56
316.919	291.56
317.148	302.56
317.377	319.56
317.607	305.56
317.836	286.56
318.065	318.56
318.295	315.56
318.524	308.56
318.753	300.56
318.983	326.56
319.212	319.56
319.441	320.56
319.67	312.56
319.9	309.56
320.129	314.56
320.358	317.56
320.587	309.56
320.816	314.56
321.046	324.56
321.275	330.56
321.504	333.56
321.733	326.56
321.962	349.56
322.191	327.56
322.42	354.56
322.649	352.56
322.878	370.56
323.108	382.56
323.337	397.56
323.566	413.56
323.795	439.56
324.024	440.56
324.253	551.56
324.482	780.56
324.71	1186.56
324.939	1623.56
325.168	1384.56
325.397	730.56
325.626	508.56
325.855	438.56
326.084	414.56
326.313	374.56
326.542	396.56
326.77	454.56
326.999	515.56
327.228	728.56
327.457	1034.56
327.686	1197.56
327.914	844.56
328.143	557.56
328.372	490.56
328.6	466.56
328.829	444.56
329.058	463.56
329.287	476.56
329.515	436.56
329.744	397.56
329.972	402.56
330.201	434.56
330.43	471.56
330.658	447.56
330.887	493.56
331.115	469.56
331.344	415.56
331.572	408.56
331.801	383.56
332.03	395.56
332.258	370.56
332.486	352.56
332.715	356.56
332.943	359.56
333.172	350.56
333.4	372.56
333.629	380.56
333.857	378.56
334.085	366.56
334.314	394.56
334.542	422.56
334.771	414.56
334.999	389.56
335.227	375.56
335.455	354.56
335.684	370.56
335.912	362.56
336.14	382.56
336.369	359.56
336.597	378.56
336.825	378.56
337.053	374.56
337.281	378.56
337.51	360.56
337.738	360.56
337.966	337.56
338.194	357.56
338.422	377.56
338.65	352.56
338.878	356.56
339.106	344.56
339.334	352.56
339.562	341.56
339.79	333.56
340.018	342.56
340.246	342.56
340.474	362.56
340.702	350.56
340.93	333.56
341.158	325.56
341.386	345.56
341.614	359.56
341.842	342.56
342.07	326.56
342.298	330.56
342.526	327.56
342.754	330.56
342.981	347.56
343.209	329.56
343.437	349.56
343.665	346.56
343.893	331.56
344.12	362.56
344.348	356.56
344.576	352.56
344.804	350.56
345.031	348.56
345.259	380.56
345.487	366.56
345.714	351.56
345.942	353.56
346.17	346.56
346.397	341.56
346.625	343.56
346.853	356.56
347.08	314.56
347.308	338.56
347.535	340.56
347.763	346.56
347.99	354.56
348.218	352.56
348.445	343.56
348.673	358.56
348.9	324.56
349.128	326.56
349.355	310.56
349.583	334.56
349.81	327.56
350.037	331.56
350.265	344.56
350.492	336.56
350.72	331.56
350.947	336.56
351.174	334.56
351.402	342.56
351.629	332.56
351.856	357.56
352.083	356.56
352.311	352.56
352.538	341.56
352.765	355.56
352.992	331.56
353.22	340.56
353.447	330.56
353.674	337.56
353.901	330.56
354.128	333.56
354.355	315.56
354.583	326.56
354.81	324.56
355.037	331.56
355.264	335.56
355.491	317.56
355.718	322.56
355.945	316.56
356.172	320.56
356.399	294.56
356.626	310.56
356.853	324.56
357.08	321.56
357.307	309.56
357.534	324.56
357.761	331.56
357.988	318.56
358.215	304.56
358.441	331.56
358.668	338.56
358.895	319.56
359.122	318.56
359.349	311.56
359.576	335.56
359.802	358.56
360.029	397.56
360.256	384.56
360.483	371.56
360.709	350.56
360.936	339.56
361.163	347.56
361.39	353.56
361.616	341.56
361.843	326.56
362.07	350.56
362.296	356.56
362.523	348.56
362.749	343.56
362.976	336.56
363.203	333.56
363.429	315.56
363.656	326.56
363.882	343.56
364.109	338.56
364.335	343.56
364.562	328.56
364.788	314.56
365.015	333.56
365.241	318.56
365.468	330.56
365.694	342.56
365.92	341.56
366.147	340.56
366.373	318.56
366.599	325.56
366.826	315.56
367.052	327.56
367.278	324.56
367.505	332.56
367.731	323.56
367.957	328.56
368.184	334.56
368.41	344.56
368.636	343.56
368.862	352.56
369.089	322.56
369.315	310.56
369.541	316.56
369.767	334.56
369.993	323.56
370.219	318.56
370.445	327.56
370.672	319.56
370.898	321.56
371.124	314.56
371.35	336.56
371.576	341.56
371.802	336.56
372.028	335.56
372.254	317.56
372.48	329.56
372.706	341.56
372.932	310.56
373.158	327.56
373.384	331.56
373.61	331.56
373.835	324.56
374.061	330.56
374.287	328.56
374.513	332.56
374.739	334.56
374.965	322.56
375.191	340.56
375.416	338.56
375.642	331.56
375.868	318.56
376.094	340.56
376.319	330.56
376.545	317.56
376.771	332.56
376.997	324.56
377.222	314.56
377.448	320.56
377.674	313.56
377.899	327.56
378.125	308.56
378.35	326.56
378.576	296.56
378.802	332.56
379.027	317.56
379.253	323.56
379.478	345.56
379.704	314.56
379.929	331.56
380.155	315.56
380.38	317.56
380.606	343.56
380.831	327.56
381.057	338.56
381.282	333.56
381.507	336.56
381.733	323.56
381.958	341.56
382.184	331.56
382.409	331.56
382.634	331.56
382.86	344.56
383.085	345.56
383.31	329.56
383.535	348.56
383.761	349.56
383.986	334.56
384.211	343.56
384.436	323.56
384.662	331.56
384.887	347.56
385.112	348.56
385.337	354.56
385.562	330.56
385.787	353.56
386.013	347.56
386.238	346.56
386.463	370.56
386.688	350.56
386.913	325.56
387.138	355.56
387.363	350.56
387.588	349.56
387.813	336.56
388.038	346.56
388.263	354.56
388.488	354.56
388.713	357.56
388.938	353.56
389.163	339.56
389.387	349.56
389.612	365.56
389.837	344.56
390.062	364.56
390.287	348.56
390.512	351.56
390.736	349.56
390.961	355.56
391.186	350.56
391.411	335.56
391.636	368.56
391.86	348.56
392.085	342.56
392.31	376.56
392.534	350.56
392.759	367.56
392.984	366.56
393.208	349.56
393.433	350.56
393.658	356.56
393.882	366.56
394.107	372.56
394.331	346.56
394.556	346.56
394.78	361.56
395.005	385.56
395.229	348.56
395.454	346.56
395.678	350.56
395.903	374.56
396.127	389.56
396.352	375.56
396.576	348.56
396.801	356.56
397.025	378.56
397.249	386.56
397.474	373.56
397.698	365.56
397.922	378.56
398.147	378.56
398.371	384.56
398.595	384.56
398.82	389.56
399.044	391.56
399.268	417.56
399.492	423.56
399.717	426.56
399.941	469.56
400.165	488.56
400.389	458.56
400.613	435.56
400.837	415.56
401.062	419.56
401.286	415.56
401.51	391.56
401.734	381.56
401.958	410.56
402.182	400.56
402.406	391.56
402.63	435.56
402.854	394.56
403.078	392.56
403.302	420.56
403.526	409.56
403.75	400.56
403.974	408.56
404.198	400.56
404.422	415.56
404.645	414.56
404.869	401.56
405.093	444.56
405.317	477.56
405.541	492.56
405.765	442.56
405.988	445.56
406.212	436.56
406.436	454.56
406.66	434.56
406.883	441.56
407.107	463.56
407.331	462.56
407.555	533.56
407.778	517.56
408.002	484.56
408.226	432.56
408.449	458.56
408.673	447.56
408.896	483.56
409.12	504.56
409.344	475.56
409.567	428.56
409.791	426.56
410.014	400.56
410.238	424.56
410.461	395.56
410.685	434.56
410.908	423.56
411.132	469.56
411.355	450.56
411.578	473.56
411.802	420.56
412.025	398.56
412.249	410.56
412.472	420.56
412.695	446.56
412.919	446.56
413.142	438.56
413.365	401.56
413.589	400.56
413.812	399.56
414.035	401.56
414.258	379.56
414.482	411.56
414.705	387.56
414.928	385.56
415.151	416.56
415.374	370.56
415.597	386.56
415.821	385.56
416.044	383.56
416.267	394.56
416.49	382.56
416.713	379.56
416.936	378.56
417.159	391.56
417.382	394.56
417.605	380.56
417.828	409.56
418.051	413.56
418.274	395.56
418.497	386.56
418.72	384.56
418.943	394.56
419.166	416.56
419.389	424.56
419.611	416.56
419.834	396.56
420.057	421.56
420.28	397.56
420.503	411.56
420.726	410.56
420.948	403.56
421.171	429.56
421.394	461.56
421.617	416.56
421.839	412.56
422.062	406.56
422.285	419.56
422.507	466.56
422.73	495.56
422.953	501.56
423.175	425.56
423.398	426.56
423.621	431.56
423.843	448.56
424.066	440.56
424.288	437.56
424.511	427.56
424.733	480.56
424.956	540.56
425.178	522.56
425.401	519.56
425.623	524.56
425.846	476.56
426.068	429.56
426.291	418.56
426.513	431.56
426.735	445.56
426.958	490.56
427.18	542.56
427.402	613.56
427.625	691.56
427.847	610.56
428.069	528.56
428.292	459.56
428.514	434.56
428.736	399.56
428.958	431.56
429.181	403.56
429.403	405.56
429.625	421.56
429.847	451.56
430.069	470.56
430.292	469.56
430.514	405.56
430.736	416.56
430.958	405.56
431.18	398.56
431.402	413.56
431.624	395.56
431.846	386.56
432.068	387.56
432.29	385.56
432.512	394.56
432.734	396.56
432.956	412.56
433.178	396.56
433.4	406.56
433.622	388.56
433.844	395.56
434.066	384.56
434.287	379.56
434.509	388.56
434.731	399.56
434.953	406.56
435.175	405.56
435.397	434.56
435.618	433.56
435.84	477.56
436.062	561.56
436.284	572.56
436.505	491.56
436.727	440.56
436.949	412.56
437.17	406.56
437.392	397.56
437.614	411.56
437.835	430.56
438.057	519.56
438.278	579.56
438.5	574.56
438.721	651.56
438.943	596.56
439.165	489.56
439.386	447.56
439.608	412.56
439.829	427.56
440.05	451.56
440.272	492.56
440.493	434.56
440.715	426.56
440.936	416.56
441.158	425.56
441.379	409.56
441.6	420.56
441.822	440.56
442.043	458.56
442.264	529.56
442.486	540.56
442.707	456.56
442.928	453.56
443.149	450.56
443.371	470.56
443.592	516.56
443.813	567.56
444.034	591.56
444.255	493.56
444.476	442.56
444.698	436.56
444.919	423.56
445.14	532.56
445.361	486.56
445.582	472.56
445.803	508.56
446.024	592.56
446.245	595.56
446.466	543.56
446.687	466.56
446.908	440.56
447.129	408.56
447.35	414.56
447.571	392.56
447.792	421.56
448.013	394.56
448.234	437.56
448.455	467.56
448.675	548.56
448.896	634.56
449.117	512.56
449.338	518.56
449.559	589.56
449.779	652.56
450	518.56
450.221	453.56
450.442	420.56
450.662	408.56
450.883	406.56
451.104	416.56
451.324	403.56
451.545	385.56
451.766	362.56
451.986	376.56
452.207	377.56
452.428	367.56
452.648	364.56
452.869	371.56
453.089	364.56
453.31	382.56
453.53	361.56
453.751	364.56
453.971	382.56
454.192	371.56
454.412	358.56
454.633	364.56
454.853	371.56
455.073	374.56
455.294	359.56
455.514	437.56
455.734	428.56
455.955	364.56
456.175	342.56
456.395	351.56
456.616	360.56
456.836	374.56
457.056	354.56
457.276	338.56
457.497	342.56
457.717	359.56
457.937	343.56
458.157	357.56
458.377	351.56
458.598	390.56
458.818	432.56
459.038	500.56
459.258	481.56
459.478	406.56
459.698	379.56
459.918	390.56
460.138	382.56
460.358	381.56
460.578	410.56
460.798	403.56
461.018	382.56
461.238	398.56
461.458	377.56
461.678	391.56
461.898	404.56
462.118	384.56
462.338	369.56
462.558	413.56
462.777	386.56
462.997	413.56
463.217	418.56
463.437	422.56
463.657	428.56
463.876	411.56
464.096	398.56
464.316	421.56
464.536	427.56
464.755	431.56
464.975	441.56
465.195	462.56
465.414	516.56
465.634	448.56
465.854	420.56
466.073	420.56
466.293	384.56
466.512	370.56
466.732	376.56
466.951	363.56
467.171	384.56
467.391	377.56
467.61	389.56
467.829	392.56
468.049	387.56
468.268	394.56
468.488	373.56
468.707	374.56
468.927	394.56
469.146	364.56
469.365	377.56
469.585	355.56
469.804	360.56
470.023	371.56
470.243	388.56
470.462	398.56
470.681	405.56
470.901	406.56
471.12	378.56
471.339	380.56
471.558	394.56
471.777	394.56
471.997	384.56
472.216	376.56
472.435	411.56
472.654	404.56
472.873	386.56
473.092	378.56
473.311	390.56
473.53	386.56
473.749	396.56
473.968	428.56
474.187	516.56
474.406	512.56
474.625	437.56
474.844	399.56
475.063	379.56
475.282	387.56
475.501	381.56
475.72	403.56
475.939	401.56
476.158	401.56
476.377	417.56
476.596	406.56
476.814	419.56
477.033	398.56
477.252	409.56
477.471	404.56
477.69	415.56
477.908	407.56
478.127	419.56
478.346	413.56
478.564	427.56
478.783	422.56
479.002	456.56
479.22	436.56
479.439	454.56
479.658	452.56
479.876	459.56
480.095	470.56
480.313	502.56
480.532	466.56
480.751	476.56
480.969	516.56
481.188	530.56
481.406	545.56
481.624	486.56
481.843	451.56
482.061	448.56
482.28	470.56
482.498	467.56
482.717	430.56
482.935	460.56
483.153	460.56
483.372	450.56
483.59	437.56
483.808	458.56
484.027	459.56
484.245	450.56
484.463	447.56
484.681	469.56
484.9	469.56
485.118	459.56
485.336	473.56
485.554	466.56
485.772	458.56
485.99	457.56
486.209	450.56
486.427	473.56
486.645	482.56
486.863	500.56
487.081	521.56
487.299	477.56
487.517	471.56
487.735	462.56
487.953	491.56
488.171	500.56
488.389	511.56
488.607	479.56
488.825	470.56
489.043	484.56
489.261	500.56
489.479	505.56
489.696	486.56
489.914	469.56
490.132	523.56
490.35	499.56
490.568	493.56
490.786	520.56
491.003	499.56
491.221	519.56
491.439	536.56
491.657	541.56
491.874	533.56
492.092	530.56
492.31	539.56
492.527	548.56
492.745	549.56
492.963	548.56
493.18	543.56
493.398	552.56
493.615	562.56
493.833	566.56
494.05	563.56
494.268	565.56
494.485	541.56
494.703	558.56
494.92	557.56
495.138	547.56
495.355	565.56
495.573	564.56
495.79	560.56
496.008	584.56
496.225	558.56
496.442	585.56
496.66	586.56
496.877	571.56
497.094	572.56
497.312	599.56
497.529	576.56
497.746	588.56
497.963	579.56
498.181	617.56
498.398	625.56
498.615	636.56
498.832	636.56
499.049	628.56
499.267	633.56
499.484	673.56
499.701	702.56
499.918	713.56
500.135	714.56
500.352	732.56
500.569	739.56
500.786	762.56
501.003	760.56
501.22	718.56
501.437	711.56
501.654	718.56
501.871	688.56
502.088	676.56
