Data from 1965.PennyLincolnUp.Lamp.En5.5.200Scan.071719.P1._HRD10591_14-07-50-910.txt Node
Date: Thu Jul 18 14:07:50 EDT 2019
User: cochatt
Spectrometer: HR+D1059
Trigger mode: 1
Integration Time (sec): 1.000000E-1
Scans to average: 1
Electric dark correction enabled: true
Nonlinearity correction enabled: false
Boxcar width: 0
XAxis mode: Wavelengths
Number of Pixels in Spectrum: 2048
>>>>>Begin Spectral Data<<<<<
223.165	-6.5
223.4	-6.5
223.635	-6.5
223.869	-25.5
224.104	-27.5
224.338	-18.5
224.573	-15.5
224.808	-16.5
225.042	-9.5
225.277	-3.5
225.511	-2.5
225.746	5.5
225.98	5.5
226.215	19.5
226.449	10.5
226.683	23.5
226.918	25.5
227.152	35.5
227.387	35.5
227.621	33.5
227.856	51.5
228.09	44.5
228.324	53.5
228.559	65.5
228.793	81.5
229.027	86.5
229.262	86.5
229.496	90.5
229.73	103.5
229.964	119.5
230.199	107.5
230.433	86.5
230.667	95.5
230.901	92.5
231.136	87.5
231.37	106.5
231.604	103.5
231.838	104.5
232.072	91.5
232.306	86.5
232.541	91.5
232.775	97.5
233.009	87.5
233.243	101.5
233.477	99.5
233.711	95.5
233.945	91.5
234.179	107.5
234.413	94.5
234.647	101.5
234.881	94.5
235.115	106.5
235.349	104.5
235.583	94.5
235.817	88.5
236.051	113.5
236.285	123.5
236.519	114.5
236.753	115.5
236.987	122.5
237.221	128.5
237.455	177.5
237.689	143.5
237.922	117.5
238.156	104.5
238.39	109.5
238.624	111.5
238.858	102.5
239.091	104.5
239.325	119.5
239.559	113.5
239.793	98.5
240.027	106.5
240.26	121.5
240.494	131.5
240.728	134.5
240.961	123.5
241.195	130.5
241.429	116.5
241.662	111.5
241.896	113.5
242.13	98.5
242.363	102.5
242.597	107.5
242.83	97.5
243.064	114.5
243.298	106.5
243.531	106.5
243.765	108.5
243.998	109.5
244.232	113.5
244.465	119.5
244.699	114.5
244.932	125.5
245.166	126.5
245.399	115.5
245.633	114.5
245.866	118.5
246.099	119.5
246.333	118.5
246.566	131.5
246.8	129.5
247.033	118.5
247.266	124.5
247.5	137.5
247.733	136.5
247.966	137.5
248.2	132.5
248.433	130.5
248.666	129.5
248.899	147.5
249.133	154.5
249.366	142.5
249.599	163.5
249.832	154.5
250.066	145.5
250.299	153.5
250.532	152.5
250.765	150.5
250.998	165.5
251.231	169.5
251.465	163.5
251.698	152.5
251.931	165.5
252.164	174.5
252.397	162.5
252.63	160.5
252.863	168.5
253.096	177.5
253.329	169.5
253.562	171.5
253.795	169.5
254.028	177.5
254.261	163.5
254.494	172.5
254.727	173.5
254.96	213.5
255.193	186.5
255.426	175.5
255.659	170.5
255.892	170.5
256.124	186.5
256.357	169.5
256.59	168.5
256.823	170.5
257.056	155.5
257.289	163.5
257.521	167.5
257.754	167.5
257.987	153.5
258.22	170.5
258.452	157.5
258.685	165.5
258.918	163.5
259.151	164.5
259.383	179.5
259.616	169.5
259.849	171.5
260.081	177.5
260.314	189.5
260.547	191.5
260.779	201.5
261.012	169.5
261.244	166.5
261.477	173.5
261.71	175.5
261.942	180.5
262.175	180.5
262.407	187.5
262.64	159.5
262.872	162.5
263.105	161.5
263.337	159.5
263.57	168.5
263.802	143.5
264.035	153.5
264.267	161.5
264.499	173.5
264.732	164.5
264.964	165.5
265.197	166.5
265.429	178.5
265.661	170.5
265.894	163.5
266.126	180.5
266.358	159.5
266.591	155.5
266.823	177.5
267.055	170.5
267.287	169.5
267.52	179.5
267.752	177.5
267.984	181.5
268.216	189.5
268.448	185.5
268.681	169.5
268.913	206.5
269.145	198.5
269.377	201.5
269.609	213.5
269.841	205.5
270.073	209.5
270.306	219.5
270.538	224.5
270.77	245.5
271.002	215.5
271.234	220.5
271.466	227.5
271.698	201.5
271.93	227.5
272.162	237.5
272.394	220.5
272.626	200.5
272.858	215.5
273.09	220.5
273.322	191.5
273.553	196.5
273.785	205.5
274.017	215.5
274.249	202.5
274.481	198.5
274.713	192.5
274.945	205.5
275.176	186.5
275.408	202.5
275.64	202.5
275.872	221.5
276.104	208.5
276.335	226.5
276.567	200.5
276.799	225.5
277.031	243.5
277.262	225.5
277.494	231.5
277.726	233.5
277.957	217.5
278.189	224.5
278.421	219.5
278.652	183.5
278.884	216.5
279.115	193.5
279.347	208.5
279.579	191.5
279.81	216.5
280.042	197.5
280.273	210.5
280.505	197.5
280.736	196.5
280.968	217.5
281.199	187.5
281.431	217.5
281.662	209.5
281.894	204.5
282.125	210.5
282.356	225.5
282.588	216.5
282.819	226.5
283.051	216.5
283.282	199.5
283.513	204.5
283.745	203.5
283.976	213.5
284.207	228.5
284.439	219.5
284.67	213.5
284.901	213.5
285.132	229.5
285.364	198.5
285.595	204.5
285.826	233.5
286.057	218.5
286.288	228.5
286.52	210.5
286.751	205.5
286.982	218.5
287.213	203.5
287.444	211.5
287.675	220.5
287.906	201.5
288.138	215.5
288.369	238.5
288.6	220.5
288.831	232.5
289.062	221.5
289.293	213.5
289.524	224.5
289.755	239.5
289.986	220.5
290.217	227.5
290.448	219.5
290.679	238.5
290.91	219.5
291.141	225.5
291.371	218.5
291.602	215.5
291.833	225.5
292.064	211.5
292.295	217.5
292.526	213.5
292.757	217.5
292.987	216.5
293.218	209.5
293.449	254.5
293.68	229.5
293.91	217.5
294.141	224.5
294.372	224.5
294.603	218.5
294.833	230.5
295.064	199.5
295.295	212.5
295.525	227.5
295.756	215.5
295.987	225.5
296.217	245.5
296.448	245.5
296.679	223.5
296.909	228.5
297.14	214.5
297.37	208.5
297.601	234.5
297.831	237.5
298.062	221.5
298.292	239.5
298.523	236.5
298.753	232.5
298.984	237.5
299.214	223.5
299.445	229.5
299.675	234.5
299.905	227.5
300.136	232.5
300.366	247.5
300.597	231.5
300.827	235.5
301.057	237.5
301.288	248.5
301.518	224.5
301.748	230.5
301.979	246.5
302.209	243.5
302.439	241.5
302.669	244.5
302.9	256.5
303.13	243.5
303.36	252.5
303.59	248.5
303.82	247.5
304.051	268.5
304.281	244.5
304.511	249.5
304.741	250.5
304.971	242.5
305.201	242.5
305.431	223.5
305.661	255.5
305.891	244.5
306.121	250.5
306.352	245.5
306.582	241.5
306.812	253.5
307.042	251.5
307.272	251.5
307.502	241.5
307.731	263.5
307.961	260.5
308.191	255.5
308.421	242.5
308.651	264.5
308.881	239.5
309.111	262.5
309.341	262.5
309.571	258.5
309.8	275.5
310.03	277.5
310.26	275.5
310.49	277.5
310.72	282.5
310.949	288.5
311.179	279.5
311.409	285.5
311.639	298.5
311.868	285.5
312.098	274.5
312.328	291.5
312.557	292.5
312.787	300.5
313.017	288.5
313.246	281.5
313.476	287.5
313.706	296.5
313.935	279.5
314.165	297.5
314.394	291.5
314.624	282.5
314.853	281.5
315.083	301.5
315.312	277.5
315.542	279.5
315.771	287.5
316.001	268.5
316.23	277.5
316.46	279.5
316.689	275.5
316.919	267.5
317.148	280.5
317.377	294.5
317.607	307.5
317.836	292.5
318.065	275.5
318.295	280.5
318.524	277.5
318.753	287.5
318.983	280.5
319.212	284.5
319.441	286.5
319.67	286.5
319.9	284.5
320.129	283.5
320.358	279.5
320.587	295.5
320.816	284.5
321.046	303.5
321.275	297.5
321.504	293.5
321.733	320.5
321.962	299.5
322.191	301.5
322.42	320.5
322.649	329.5
322.878	343.5
323.108	332.5
323.337	351.5
323.566	373.5
323.795	373.5
324.024	423.5
324.253	508.5
324.482	735.5
324.71	1081.5
324.939	1480.5
325.168	1202.5
325.397	659.5
325.626	470.5
325.855	393.5
326.084	367.5
326.313	384.5
326.542	377.5
326.77	411.5
326.999	466.5
327.228	636.5
327.457	949.5
327.686	1084.5
327.914	711.5
328.143	481.5
328.372	433.5
328.6	414.5
328.829	391.5
329.058	412.5
329.287	397.5
329.515	399.5
329.744	374.5
329.972	363.5
330.201	375.5
330.43	402.5
330.658	400.5
330.887	425.5
331.115	445.5
331.344	378.5
331.572	368.5
331.801	356.5
332.03	381.5
332.258	335.5
332.486	320.5
332.715	325.5
332.943	320.5
333.172	326.5
333.4	329.5
333.629	336.5
333.857	367.5
334.085	328.5
334.314	365.5
334.542	357.5
334.771	386.5
334.999	369.5
335.227	346.5
335.455	344.5
335.684	346.5
335.912	335.5
336.14	337.5
336.369	351.5
336.597	339.5
336.825	333.5
337.053	343.5
337.281	336.5
337.51	339.5
337.738	336.5
337.966	320.5
338.194	324.5
338.422	324.5
338.65	327.5
338.878	313.5
339.106	319.5
339.334	332.5
339.562	327.5
339.79	320.5
340.018	327.5
340.246	320.5
340.474	305.5
340.702	339.5
340.93	315.5
341.158	319.5
341.386	328.5
341.614	319.5
341.842	317.5
342.07	306.5
342.298	320.5
342.526	315.5
342.754	316.5
342.981	315.5
343.209	297.5
343.437	294.5
343.665	321.5
343.893	314.5
344.12	340.5
344.348	314.5
344.576	323.5
344.804	328.5
345.031	317.5
345.259	327.5
345.487	335.5
345.714	335.5
345.942	297.5
346.17	321.5
346.397	299.5
346.625	297.5
346.853	315.5
347.08	321.5
347.308	313.5
347.535	327.5
347.763	317.5
347.99	309.5
348.218	316.5
348.445	304.5
348.673	320.5
348.9	322.5
349.128	292.5
349.355	311.5
349.583	299.5
349.81	313.5
350.037	297.5
350.265	326.5
350.492	290.5
350.72	311.5
350.947	312.5
351.174	305.5
351.402	296.5
351.629	308.5
351.856	322.5
352.083	326.5
352.311	315.5
352.538	310.5
352.765	325.5
352.992	311.5
353.22	300.5
353.447	305.5
353.674	307.5
353.901	295.5
354.128	295.5
354.355	301.5
354.583	315.5
354.81	293.5
355.037	284.5
355.264	282.5
355.491	296.5
355.718	283.5
355.945	286.5
356.172	279.5
356.399	295.5
356.626	297.5
356.853	283.5
357.08	292.5
357.307	288.5
357.534	306.5
357.761	291.5
357.988	284.5
358.215	311.5
358.441	286.5
358.668	295.5
358.895	296.5
359.122	289.5
359.349	317.5
359.576	324.5
359.802	323.5
360.029	348.5
360.256	337.5
360.483	332.5
360.709	323.5
360.936	313.5
361.163	305.5
361.39	312.5
361.616	298.5
361.843	331.5
362.07	298.5
362.296	300.5
362.523	302.5
362.749	319.5
362.976	305.5
363.203	319.5
363.429	317.5
363.656	311.5
363.882	289.5
364.109	305.5
364.335	289.5
364.562	297.5
364.788	280.5
365.015	298.5
365.241	305.5
365.468	296.5
365.694	283.5
365.92	321.5
366.147	326.5
366.373	286.5
366.599	289.5
366.826	300.5
367.052	292.5
367.278	278.5
367.505	289.5
367.731	295.5
367.957	294.5
368.184	313.5
368.41	311.5
368.636	314.5
368.862	308.5
369.089	294.5
369.315	304.5
369.541	305.5
369.767	297.5
369.993	320.5
370.219	298.5
370.445	307.5
370.672	295.5
370.898	283.5
371.124	307.5
371.35	291.5
371.576	303.5
371.802	307.5
372.028	307.5
372.254	301.5
372.48	289.5
372.706	307.5
372.932	294.5
373.158	313.5
373.384	300.5
373.61	298.5
373.835	305.5
374.061	308.5
374.287	287.5
374.513	314.5
374.739	315.5
374.965	321.5
375.191	332.5
375.416	332.5
375.642	304.5
375.868	329.5
376.094	307.5
376.319	290.5
376.545	313.5
376.771	283.5
376.997	284.5
377.222	321.5
377.448	306.5
377.674	304.5
377.899	298.5
378.125	308.5
378.35	285.5
378.576	309.5
378.802	312.5
379.027	307.5
379.253	328.5
379.478	299.5
379.704	297.5
379.929	305.5
380.155	323.5
380.38	304.5
380.606	306.5
380.831	297.5
381.057	313.5
381.282	310.5
381.507	315.5
381.733	299.5
381.958	308.5
382.184	303.5
382.409	310.5
382.634	300.5
382.86	301.5
383.085	323.5
383.31	321.5
383.535	303.5
383.761	303.5
383.986	323.5
384.211	315.5
384.436	326.5
384.662	330.5
384.887	307.5
385.112	318.5
385.337	337.5
385.562	328.5
385.787	334.5
386.013	336.5
386.238	340.5
386.463	324.5
386.688	322.5
386.913	327.5
387.138	303.5
387.363	332.5
387.588	323.5
387.813	341.5
388.038	329.5
388.263	338.5
388.488	331.5
388.713	328.5
388.938	323.5
389.163	324.5
389.387	321.5
389.612	312.5
389.837	330.5
390.062	338.5
390.287	329.5
390.512	318.5
390.736	327.5
390.961	325.5
391.186	327.5
391.411	340.5
391.636	335.5
391.86	333.5
392.085	345.5
392.31	339.5
392.534	354.5
392.759	344.5
392.984	324.5
393.208	333.5
393.433	336.5
393.658	346.5
393.882	325.5
394.107	339.5
394.331	333.5
394.556	324.5
394.78	341.5
395.005	322.5
395.229	309.5
395.454	325.5
395.678	339.5
395.903	335.5
396.127	348.5
396.352	346.5
396.576	321.5
396.801	340.5
397.025	336.5
397.249	344.5
397.474	356.5
397.698	356.5
397.922	360.5
398.147	354.5
398.371	371.5
398.595	369.5
398.82	359.5
399.044	375.5
399.268	390.5
399.492	404.5
399.717	414.5
399.941	440.5
400.165	441.5
400.389	446.5
400.613	431.5
400.837	396.5
401.062	385.5
401.286	389.5
401.51	380.5
401.734	382.5
401.958	377.5
402.182	379.5
402.406	393.5
402.63	394.5
402.854	353.5
403.078	374.5
403.302	371.5
403.526	378.5
403.75	382.5
403.974	375.5
404.198	370.5
404.422	402.5
404.645	390.5
404.869	397.5
405.093	404.5
405.317	423.5
405.541	442.5
405.765	418.5
405.988	421.5
406.212	421.5
406.436	403.5
406.66	410.5
406.883	390.5
407.107	406.5
407.331	439.5
407.555	482.5
407.778	497.5
408.002	473.5
408.226	417.5
408.449	423.5
408.673	429.5
408.896	437.5
409.12	440.5
409.344	431.5
409.567	403.5
409.791	392.5
410.014	403.5
410.238	368.5
410.461	390.5
410.685	390.5
410.908	413.5
411.132	423.5
411.355	427.5
411.578	416.5
411.802	386.5
412.025	389.5
412.249	392.5
412.472	402.5
412.695	425.5
412.919	421.5
413.142	383.5
413.365	379.5
413.589	379.5
413.812	369.5
414.035	387.5
414.258	367.5
414.482	376.5
414.705	361.5
414.928	369.5
415.151	361.5
415.374	360.5
415.597	362.5
415.821	375.5
416.044	367.5
416.267	376.5
416.49	351.5
416.713	360.5
416.936	347.5
417.159	356.5
417.382	347.5
417.605	367.5
417.828	362.5
418.051	389.5
418.274	364.5
418.497	363.5
418.72	377.5
418.943	355.5
419.166	372.5
419.389	387.5
419.611	389.5
419.834	379.5
420.057	382.5
420.28	378.5
420.503	389.5
420.726	377.5
420.948	392.5
421.171	405.5
421.394	425.5
421.617	388.5
421.839	389.5
422.062	388.5
422.285	373.5
422.507	436.5
422.73	476.5
422.953	460.5
423.175	404.5
423.398	408.5
423.621	372.5
423.843	401.5
424.066	392.5
424.288	397.5
424.511	413.5
424.733	440.5
424.956	522.5
425.178	496.5
425.401	492.5
425.623	491.5
425.846	433.5
426.068	407.5
426.291	408.5
426.513	406.5
426.735	404.5
426.958	425.5
427.18	495.5
427.402	573.5
427.625	641.5
427.847	556.5
428.069	482.5
428.292	440.5
428.514	418.5
428.736	403.5
428.958	400.5
429.181	381.5
429.403	379.5
429.625	396.5
429.847	431.5
430.069	447.5
430.292	432.5
430.514	402.5
430.736	379.5
430.958	373.5
431.18	352.5
431.402	371.5
431.624	340.5
431.846	362.5
432.068	356.5
432.29	354.5
432.512	356.5
432.734	356.5
432.956	370.5
433.178	369.5
433.4	379.5
433.622	357.5
433.844	352.5
434.066	355.5
434.287	347.5
434.509	368.5
434.731	365.5
434.953	379.5
435.175	365.5
435.397	414.5
435.618	405.5
435.84	424.5
436.062	513.5
436.284	586.5
436.505	456.5
436.727	411.5
436.949	385.5
437.17	381.5
437.392	371.5
437.614	377.5
437.835	415.5
438.057	492.5
438.278	549.5
438.5	561.5
438.721	602.5
438.943	573.5
439.165	449.5
439.386	426.5
439.608	419.5
439.829	427.5
440.05	431.5
440.272	452.5
440.493	431.5
440.715	391.5
440.936	375.5
441.158	371.5
441.379	371.5
441.6	393.5
441.822	397.5
442.043	445.5
442.264	499.5
442.486	515.5
442.707	437.5
442.928	409.5
443.149	441.5
443.371	429.5
443.592	447.5
443.813	542.5
444.034	555.5
444.255	451.5
444.476	413.5
444.698	403.5
444.919	412.5
445.14	504.5
445.361	452.5
445.582	451.5
445.803	472.5
446.024	554.5
446.245	548.5
446.466	507.5
446.687	433.5
446.908	397.5
447.129	391.5
447.35	381.5
447.571	389.5
447.792	394.5
448.013	401.5
448.234	384.5
448.455	429.5
448.675	499.5
448.896	587.5
449.117	476.5
449.338	473.5
449.559	562.5
449.779	613.5
450	481.5
450.221	426.5
450.442	403.5
450.662	377.5
450.883	403.5
451.104	387.5
451.324	365.5
451.545	365.5
451.766	356.5
451.986	352.5
452.207	361.5
452.428	348.5
452.648	361.5
452.869	358.5
453.089	368.5
453.31	371.5
453.53	352.5
453.751	367.5
453.971	338.5
454.192	363.5
454.412	359.5
454.633	345.5
454.853	346.5
455.073	356.5
455.294	369.5
455.514	403.5
455.734	374.5
455.955	334.5
456.175	337.5
456.395	319.5
456.616	332.5
456.836	336.5
457.056	307.5
457.276	320.5
457.497	318.5
457.717	303.5
457.937	330.5
458.157	348.5
458.377	340.5
458.598	361.5
458.818	383.5
459.038	435.5
459.258	447.5
459.478	395.5
459.698	352.5
459.918	355.5
460.138	357.5
460.358	372.5
460.578	374.5
460.798	356.5
461.018	375.5
461.238	369.5
461.458	364.5
461.678	371.5
461.898	371.5
462.118	370.5
462.338	375.5
462.558	382.5
462.777	378.5
462.997	379.5
463.217	399.5
463.437	390.5
463.657	399.5
463.876	390.5
464.096	374.5
464.316	377.5
464.536	396.5
464.755	399.5
464.975	391.5
465.195	427.5
465.414	474.5
465.634	402.5
465.854	384.5
466.073	384.5
466.293	363.5
466.512	341.5
466.732	345.5
466.951	339.5
467.171	364.5
467.391	367.5
467.61	364.5
467.829	351.5
468.049	375.5
468.268	354.5
468.488	373.5
468.707	364.5
468.927	342.5
469.146	360.5
469.365	351.5
469.585	343.5
469.804	349.5
470.023	360.5
470.243	347.5
470.462	375.5
470.681	373.5
470.901	378.5
471.12	372.5
471.339	350.5
471.558	353.5
471.777	354.5
471.997	345.5
472.216	361.5
472.435	387.5
472.654	387.5
472.873	351.5
473.092	345.5
473.311	376.5
473.53	370.5
473.749	361.5
473.968	399.5
474.187	461.5
474.406	480.5
474.625	397.5
474.844	376.5
475.063	368.5
475.282	386.5
475.501	373.5
475.72	378.5
475.939	379.5
476.158	369.5
476.377	381.5
476.596	364.5
476.814	375.5
477.033	389.5
477.252	384.5
477.471	385.5
477.69	378.5
477.908	378.5
478.127	381.5
478.346	395.5
478.564	413.5
478.783	403.5
479.002	408.5
479.22	421.5
479.439	423.5
479.658	422.5
479.876	437.5
480.095	442.5
480.313	444.5
480.532	441.5
480.751	459.5
480.969	441.5
481.188	459.5
481.406	492.5
481.624	433.5
481.843	426.5
482.061	431.5
482.28	423.5
482.498	429.5
482.717	458.5
482.935	426.5
483.153	431.5
483.372	431.5
483.59	439.5
483.808	420.5
484.027	397.5
484.245	437.5
484.463	457.5
484.681	449.5
484.9	442.5
485.118	437.5
485.336	435.5
485.554	436.5
485.772	439.5
485.99	444.5
486.209	470.5
486.427	443.5
486.645	455.5
486.863	458.5
487.081	471.5
487.299	471.5
487.517	455.5
487.735	454.5
487.953	451.5
488.171	460.5
488.389	439.5
488.607	465.5
488.825	464.5
489.043	472.5
489.261	466.5
489.479	460.5
489.696	465.5
489.914	467.5
490.132	459.5
490.35	467.5
490.568	487.5
490.786	484.5
491.003	463.5
491.221	480.5
491.439	509.5
491.657	487.5
491.874	484.5
492.092	507.5
492.31	517.5
492.527	507.5
492.745	512.5
492.963	503.5
493.18	542.5
493.398	521.5
493.615	538.5
493.833	513.5
494.05	535.5
494.268	525.5
494.485	521.5
494.703	513.5
494.92	515.5
495.138	517.5
495.355	514.5
495.573	533.5
495.79	552.5
496.008	521.5
496.225	546.5
496.442	522.5
496.66	531.5
496.877	531.5
497.094	547.5
497.312	544.5
497.529	569.5
497.746	554.5
497.963	561.5
498.181	561.5
498.398	565.5
498.615	596.5
498.832	607.5
499.049	591.5
499.267	607.5
499.484	633.5
499.701	647.5
499.918	664.5
500.135	691.5
500.352	681.5
500.569	693.5
500.786	697.5
501.003	703.5
501.22	698.5
501.437	661.5
501.654	635.5
501.871	657.5
502.088	615.5
502.305	618.5
502.522	627.5
502.739	595.5
502.956	556.5
503.172	553.5
503.389	541.5
503.606	559.5
503.823	543.5
504.04	532.5
504.256	544.5
504.473	540.5
504.69	525.5
504.907	511.5
505.123	505.5
505.34	518.5
505.557	535.5
505.773	507.5
505.99	522.5
506.207	508.5
506.423	521.5
506.64	495.5
506.856	491.5
507.073	493.5
507.289	485.5
507.506	518.5
507.722	476.5
507.939	513.5
508.155	511.5
508.372	480.5
508.588	463.5
508.805	480.5
509.021	477.5
509.238	485.5
509.454	523.5
509.67	500.5
509.887	479.5
510.103	468.5
510.319	507.5
510.536	568.5
510.752	907.5
510.968	709.5
511.184	517.5
511.401	464.5
511.617	478.5
511.833	488.5
512.049	457.5
512.265	464.5
512.481	466.5
512.698	463.5
512.914	469.5
513.13	457.5
513.346	450.5
513.562	463.5
513.778	453.5
513.994	472.5
514.21	478.5
514.426	488.5
514.642	520.5
514.858	550.5
515.074	555.5
515.29	635.5
515.506	917.5
515.721	773.5
515.937	553.5
516.153	520.5
516.369	504.5
516.585	483.5
516.801	486.5
517.016	489.5
517.232	459.5
517.448	461.5
517.664	480.5
517.879	476.5
518.095	464.5
518.311	460.5
518.527	463.5
518.742	485.5
518.958	469.5
519.173	450.5
519.389	466.5
519.605	466.5
519.82	451.5
520.036	470.5
520.251	465.5
