Data from 1965.PennyLincolnUp.Lamp.En5.5.200Scan.071719.P1._HRD10591_14-08-41-912.txt Node
Date: Thu Jul 18 14:08:41 EDT 2019
User: cochatt
Spectrometer: HR+D1059
Trigger mode: 1
Integration Time (sec): 1.000000E-1
Scans to average: 1
Electric dark correction enabled: true
Nonlinearity correction enabled: false
Boxcar width: 0
XAxis mode: Wavelengths
Number of Pixels in Spectrum: 2048
>>>>>Begin Spectral Data<<<<<
223.165	-17.75
223.4	-17.75
223.635	-17.75
223.869	-22.75
224.104	-18.75
224.338	-16.75
224.573	-8.75
224.808	-17.75
225.042	-8.75
225.277	-1.75
225.511	14.25
225.746	-7.75
225.98	2.25
226.215	2.25
226.449	3.25
226.683	35.25
226.918	36.25
227.152	27.25
227.387	31.25
227.621	37.25
227.856	41.25
228.09	45.25
228.324	57.25
228.559	54.25
228.793	75.25
229.027	78.25
229.262	98.25
229.496	102.25
229.73	121.25
229.964	140.25
230.199	111.25
230.433	115.25
230.667	100.25
230.901	109.25
231.136	104.25
231.37	109.25
231.604	115.25
231.838	101.25
232.072	101.25
232.306	104.25
232.541	103.25
232.775	121.25
233.009	103.25
233.243	101.25
233.477	113.25
233.711	112.25
233.945	102.25
234.179	105.25
234.413	114.25
234.647	109.25
234.881	106.25
235.115	124.25
235.349	103.25
235.583	106.25
235.817	121.25
236.051	122.25
236.285	99.25
236.519	129.25
236.753	106.25
236.987	130.25
237.221	167.25
237.455	188.25
237.689	158.25
237.922	127.25
238.156	122.25
238.39	116.25
238.624	118.25
238.858	124.25
239.091	110.25
239.325	93.25
239.559	115.25
239.793	130.25
240.027	101.25
240.26	130.25
240.494	134.25
240.728	139.25
240.961	131.25
241.195	130.25
241.429	130.25
241.662	111.25
241.896	106.25
242.13	101.25
242.363	111.25
242.597	121.25
242.83	122.25
243.064	126.25
243.298	114.25
243.531	113.25
243.765	136.25
243.998	126.25
244.232	138.25
244.465	114.25
244.699	124.25
244.932	125.25
245.166	122.25
245.399	118.25
245.633	122.25
245.866	136.25
246.099	131.25
246.333	140.25
246.566	122.25
246.8	122.25
247.033	141.25
247.266	132.25
247.5	155.25
247.733	148.25
247.966	147.25
248.2	132.25
248.433	147.25
248.666	162.25
248.899	160.25
249.133	168.25
249.366	174.25
249.599	164.25
249.832	153.25
250.066	171.25
250.299	158.25
250.532	152.25
250.765	182.25
250.998	178.25
251.231	187.25
251.465	179.25
251.698	172.25
251.931	168.25
252.164	181.25
252.397	165.25
252.63	192.25
252.863	180.25
253.096	190.25
253.329	192.25
253.562	195.25
253.795	188.25
254.028	181.25
254.261	200.25
254.494	196.25
254.727	197.25
254.96	233.25
255.193	231.25
255.426	224.25
255.659	197.25
255.892	202.25
256.124	202.25
256.357	198.25
256.59	202.25
256.823	198.25
257.056	188.25
257.289	174.25
257.521	195.25
257.754	188.25
257.987	198.25
258.22	173.25
258.452	182.25
258.685	167.25
258.918	180.25
259.151	200.25
259.383	182.25
259.616	188.25
259.849	190.25
260.081	196.25
260.314	214.25
260.547	221.25
260.779	215.25
261.012	201.25
261.244	206.25
261.477	190.25
261.71	200.25
261.942	203.25
262.175	215.25
262.407	209.25
262.64	173.25
262.872	182.25
263.105	184.25
263.337	201.25
263.57	178.25
263.802	174.25
264.035	174.25
264.267	175.25
264.499	189.25
264.732	186.25
264.964	185.25
265.197	189.25
265.429	186.25
265.661	175.25
265.894	173.25
266.126	196.25
266.358	201.25
266.591	182.25
266.823	217.25
267.055	204.25
267.287	204.25
267.52	190.25
267.752	194.25
267.984	196.25
268.216	183.25
268.448	183.25
268.681	207.25
268.913	196.25
269.145	220.25
269.377	243.25
269.609	239.25
269.841	224.25
270.073	234.25
270.306	239.25
270.538	252.25
270.77	250.25
271.002	238.25
271.234	239.25
271.466	245.25
271.698	256.25
271.93	262.25
272.162	260.25
272.394	255.25
272.626	240.25
272.858	237.25
273.09	229.25
273.322	217.25
273.553	228.25
273.785	226.25
274.017	226.25
274.249	214.25
274.481	215.25
274.713	217.25
274.945	219.25
275.176	218.25
275.408	216.25
275.64	225.25
275.872	205.25
276.104	222.25
276.335	217.25
276.567	229.25
276.799	250.25
277.031	268.25
277.262	279.25
277.494	285.25
277.726	250.25
277.957	240.25
278.189	221.25
278.421	230.25
278.652	224.25
278.884	239.25
279.115	220.25
279.347	231.25
279.579	216.25
279.81	235.25
280.042	217.25
280.273	227.25
280.505	228.25
280.736	228.25
280.968	219.25
281.199	222.25
281.431	226.25
281.662	200.25
281.894	237.25
282.125	222.25
282.356	243.25
282.588	246.25
282.819	265.25
283.051	255.25
283.282	241.25
283.513	224.25
283.745	218.25
283.976	236.25
284.207	234.25
284.439	230.25
284.67	256.25
284.901	244.25
285.132	250.25
285.364	226.25
285.595	237.25
285.826	236.25
286.057	247.25
286.288	251.25
286.52	216.25
286.751	223.25
286.982	239.25
287.213	233.25
287.444	246.25
287.675	242.25
287.906	249.25
288.138	260.25
288.369	239.25
288.6	236.25
288.831	237.25
289.062	269.25
289.293	249.25
289.524	240.25
289.755	253.25
289.986	245.25
290.217	235.25
290.448	230.25
290.679	226.25
290.91	223.25
291.141	246.25
291.371	234.25
291.602	231.25
291.833	208.25
292.064	230.25
292.295	252.25
292.526	222.25
292.757	255.25
292.987	249.25
293.218	233.25
293.449	230.25
293.68	239.25
293.91	243.25
294.141	254.25
294.372	240.25
294.603	228.25
294.833	230.25
295.064	254.25
295.295	234.25
295.525	247.25
295.756	257.25
295.987	252.25
296.217	275.25
296.448	289.25
296.679	251.25
296.909	246.25
297.14	239.25
297.37	258.25
297.601	237.25
297.831	244.25
298.062	253.25
298.292	244.25
298.523	258.25
298.753	264.25
298.984	244.25
299.214	255.25
299.445	250.25
299.675	278.25
299.905	262.25
300.136	246.25
300.366	263.25
300.597	275.25
300.827	262.25
301.057	262.25
301.288	278.25
301.518	267.25
301.748	266.25
301.979	278.25
302.209	276.25
302.439	267.25
302.669	289.25
302.9	268.25
303.13	265.25
303.36	285.25
303.59	282.25
303.82	284.25
304.051	267.25
304.281	276.25
304.511	272.25
304.741	253.25
304.971	275.25
305.201	256.25
305.431	289.25
305.661	282.25
305.891	274.25
306.121	275.25
306.352	289.25
306.582	269.25
306.812	270.25
307.042	296.25
307.272	290.25
307.502	268.25
307.731	279.25
307.961	281.25
308.191	291.25
308.421	280.25
308.651	299.25
308.881	279.25
309.111	292.25
309.341	286.25
309.571	289.25
309.8	299.25
310.03	316.25
310.26	314.25
310.49	309.25
310.72	318.25
310.949	336.25
311.179	335.25
311.409	326.25
311.639	303.25
311.868	323.25
312.098	302.25
312.328	317.25
312.557	326.25
312.787	350.25
313.017	339.25
313.246	336.25
313.476	312.25
313.706	314.25
313.935	315.25
314.165	333.25
314.394	348.25
314.624	354.25
314.853	332.25
315.083	317.25
315.312	323.25
315.542	319.25
315.771	319.25
316.001	314.25
316.23	304.25
316.46	320.25
316.689	314.25
316.919	311.25
317.148	322.25
317.377	328.25
317.607	348.25
317.836	316.25
318.065	312.25
318.295	326.25
318.524	311.25
318.753	304.25
318.983	319.25
319.212	305.25
319.441	327.25
319.67	333.25
319.9	326.25
320.129	319.25
320.358	321.25
320.587	330.25
320.816	324.25
321.046	328.25
321.275	342.25
321.504	327.25
321.733	332.25
321.962	346.25
322.191	347.25
322.42	363.25
322.649	374.25
322.878	380.25
323.108	401.25
323.337	404.25
323.566	440.25
323.795	442.25
324.024	503.25
324.253	634.25
324.482	875.25
324.71	1366.25
324.939	1858.25
325.168	1618.25
325.397	832.25
325.626	574.25
325.855	479.25
326.084	435.25
326.313	422.25
326.542	453.25
326.77	474.25
326.999	579.25
327.228	798.25
327.457	1212.25
327.686	1387.25
327.914	960.25
328.143	650.25
328.372	574.25
328.6	546.25
328.829	490.25
329.058	500.25
329.287	503.25
329.515	471.25
329.744	452.25
329.972	441.25
330.201	452.25
330.43	496.25
330.658	511.25
330.887	552.25
331.115	514.25
331.344	454.25
331.572	442.25
331.801	411.25
332.03	395.25
332.258	395.25
332.486	401.25
332.715	374.25
332.943	392.25
333.172	374.25
333.4	379.25
333.629	372.25
333.857	411.25
334.085	405.25
334.314	402.25
334.542	436.25
334.771	466.25
334.999	418.25
335.227	397.25
335.455	362.25
335.684	394.25
335.912	375.25
336.14	378.25
336.369	366.25
336.597	367.25
336.825	380.25
337.053	346.25
337.281	348.25
337.51	366.25
337.738	368.25
337.966	364.25
338.194	359.25
338.422	378.25
338.65	379.25
338.878	358.25
339.106	344.25
339.334	350.25
339.562	335.25
339.79	336.25
340.018	382.25
340.246	374.25
340.474	352.25
340.702	348.25
340.93	347.25
341.158	353.25
341.386	373.25
341.614	357.25
341.842	336.25
342.07	354.25
342.298	350.25
342.526	335.25
342.754	321.25
342.981	355.25
343.209	347.25
343.437	329.25
343.665	350.25
343.893	359.25
344.12	376.25
344.348	354.25
344.576	350.25
344.804	360.25
345.031	370.25
345.259	386.25
345.487	375.25
345.714	358.25
345.942	341.25
346.17	352.25
346.397	356.25
346.625	338.25
346.853	333.25
347.08	335.25
347.308	365.25
347.535	362.25
347.763	359.25
347.99	371.25
348.218	356.25
348.445	361.25
348.673	343.25
348.9	341.25
349.128	340.25
349.355	323.25
349.583	321.25
349.81	330.25
350.037	337.25
350.265	325.25
350.492	313.25
350.72	328.25
350.947	325.25
351.174	349.25
351.402	364.25
351.629	348.25
351.856	362.25
352.083	367.25
352.311	355.25
352.538	351.25
352.765	366.25
352.992	367.25
353.22	382.25
353.447	344.25
353.674	340.25
353.901	329.25
354.128	312.25
354.355	318.25
354.583	316.25
354.81	332.25
355.037	316.25
355.264	319.25
355.491	315.25
355.718	322.25
355.945	326.25
356.172	312.25
356.399	325.25
356.626	304.25
356.853	316.25
357.08	319.25
357.307	320.25
357.534	312.25
357.761	303.25
357.988	331.25
358.215	315.25
358.441	323.25
358.668	327.25
358.895	325.25
359.122	326.25
359.349	342.25
359.576	324.25
359.802	362.25
360.029	394.25
360.256	395.25
360.483	381.25
360.709	349.25
360.936	342.25
361.163	364.25
361.39	353.25
361.616	366.25
361.843	354.25
362.07	354.25
362.296	331.25
362.523	331.25
362.749	337.25
362.976	338.25
363.203	350.25
363.429	333.25
363.656	320.25
363.882	326.25
364.109	330.25
364.335	328.25
364.562	323.25
364.788	326.25
365.015	341.25
365.241	340.25
365.468	326.25
365.694	343.25
365.92	335.25
366.147	326.25
366.373	340.25
366.599	322.25
366.826	334.25
367.052	333.25
367.278	329.25
367.505	350.25
367.731	347.25
367.957	331.25
368.184	335.25
368.41	331.25
368.636	349.25
368.862	348.25
369.089	364.25
369.315	327.25
369.541	340.25
369.767	352.25
369.993	343.25
370.219	337.25
370.445	329.25
370.672	316.25
370.898	307.25
371.124	318.25
371.35	335.25
371.576	314.25
371.802	326.25
372.028	325.25
372.254	324.25
372.48	328.25
372.706	330.25
372.932	316.25
373.158	329.25
373.384	329.25
373.61	318.25
373.835	332.25
374.061	348.25
374.287	339.25
374.513	330.25
374.739	336.25
374.965	343.25
375.191	325.25
375.416	333.25
375.642	345.25
375.868	346.25
376.094	324.25
376.319	330.25
376.545	339.25
376.771	318.25
376.997	334.25
377.222	321.25
377.448	316.25
377.674	314.25
377.899	322.25
378.125	332.25
378.35	322.25
378.576	341.25
378.802	329.25
379.027	315.25
379.253	326.25
379.478	343.25
379.704	314.25
379.929	316.25
380.155	328.25
380.38	321.25
380.606	322.25
380.831	344.25
381.057	333.25
381.282	298.25
381.507	321.25
381.733	322.25
381.958	336.25
382.184	329.25
382.409	327.25
382.634	327.25
382.86	313.25
383.085	327.25
383.31	336.25
383.535	324.25
383.761	322.25
383.986	336.25
384.211	345.25
384.436	344.25
384.662	342.25
384.887	335.25
385.112	322.25
385.337	328.25
385.562	342.25
385.787	350.25
386.013	358.25
386.238	342.25
386.463	366.25
386.688	357.25
386.913	345.25
387.138	350.25
387.363	339.25
387.588	347.25
387.813	345.25
388.038	346.25
388.263	347.25
388.488	342.25
388.713	349.25
388.938	346.25
389.163	338.25
389.387	339.25
389.612	336.25
389.837	343.25
390.062	342.25
390.287	329.25
390.512	353.25
390.736	360.25
390.961	340.25
391.186	358.25
391.411	370.25
391.636	357.25
391.86	352.25
392.085	360.25
392.31	350.25
392.534	352.25
392.759	357.25
392.984	331.25
393.208	343.25
393.433	336.25
393.658	370.25
393.882	336.25
394.107	343.25
394.331	334.25
394.556	331.25
394.78	346.25
395.005	354.25
395.229	348.25
395.454	336.25
395.678	363.25
395.903	371.25
396.127	376.25
396.352	374.25
396.576	381.25
396.801	381.25
397.025	368.25
397.249	373.25
397.474	373.25
397.698	358.25
397.922	364.25
398.147	370.25
398.371	394.25
398.595	373.25
398.82	375.25
399.044	383.25
399.268	404.25
399.492	414.25
399.717	436.25
399.941	443.25
400.165	456.25
400.389	484.25
400.613	444.25
400.837	430.25
401.062	404.25
401.286	396.25
401.51	385.25
401.734	398.25
401.958	395.25
402.182	417.25
402.406	431.25
402.63	387.25
402.854	394.25
403.078	394.25
403.302	399.25
403.526	420.25
403.75	397.25
403.974	412.25
404.198	377.25
404.422	399.25
404.645	419.25
404.869	432.25
405.093	436.25
405.317	449.25
405.541	503.25
405.765	454.25
405.988	428.25
406.212	434.25
406.436	466.25
406.66	446.25
406.883	437.25
407.107	457.25
407.331	488.25
407.555	534.25
407.778	532.25
408.002	470.25
408.226	449.25
408.449	438.25
408.673	444.25
408.896	472.25
409.12	477.25
409.344	481.25
409.567	423.25
409.791	418.25
410.014	402.25
410.238	389.25
410.461	418.25
410.685	413.25
410.908	444.25
411.132	439.25
411.355	465.25
411.578	460.25
411.802	390.25
412.025	426.25
412.249	409.25
412.472	425.25
412.695	452.25
412.919	458.25
413.142	436.25
413.365	387.25
413.589	407.25
413.812	394.25
414.035	398.25
414.258	391.25
414.482	382.25
414.705	397.25
414.928	397.25
415.151	387.25
415.374	390.25
415.597	377.25
415.821	373.25
416.044	382.25
416.267	383.25
416.49	380.25
416.713	388.25
416.936	386.25
417.159	382.25
417.382	389.25
417.605	392.25
417.828	399.25
418.051	404.25
418.274	400.25
418.497	385.25
418.72	386.25
418.943	384.25
419.166	385.25
419.389	420.25
419.611	392.25
419.834	380.25
420.057	424.25
420.28	406.25
420.503	390.25
420.726	395.25
420.948	424.25
421.171	454.25
421.394	467.25
421.617	406.25
421.839	392.25
422.062	385.25
422.285	426.25
422.507	452.25
422.73	503.25
422.953	489.25
423.175	450.25
423.398	424.25
423.621	428.25
423.843	447.25
424.066	435.25
424.288	438.25
424.511	453.25
424.733	484.25
424.956	566.25
425.178	542.25
425.401	528.25
425.623	558.25
425.846	475.25
426.068	421.25
426.291	438.25
426.513	439.25
426.735	463.25
426.958	489.25
427.18	545.25
427.402	632.25
427.625	694.25
427.847	638.25
428.069	566.25
428.292	487.25
428.514	438.25
428.736	421.25
428.958	428.25
429.181	415.25
429.403	410.25
429.625	404.25
429.847	443.25
430.069	480.25
430.292	485.25
430.514	446.25
430.736	414.25
430.958	403.25
431.18	386.25
431.402	398.25
431.624	379.25
431.846	379.25
432.068	387.25
432.29	385.25
432.512	401.25
432.734	401.25
432.956	389.25
433.178	394.25
433.4	380.25
433.622	392.25
433.844	376.25
434.066	407.25
434.287	399.25
434.509	400.25
434.731	382.25
434.953	399.25
435.175	411.25
435.397	428.25
435.618	451.25
435.84	460.25
436.062	546.25
436.284	574.25
436.505	506.25
436.727	450.25
436.949	412.25
437.17	404.25
437.392	404.25
437.614	445.25
437.835	466.25
438.057	543.25
438.278	618.25
438.5	602.25
438.721	637.25
438.943	598.25
439.165	479.25
439.386	464.25
439.608	453.25
439.829	452.25
440.05	458.25
440.272	502.25
440.493	489.25
440.715	444.25
440.936	436.25
441.158	393.25
441.379	431.25
441.6	425.25
441.822	430.25
442.043	449.25
442.264	540.25
442.486	575.25
442.707	478.25
442.928	457.25
443.149	449.25
443.371	484.25
443.592	540.25
443.813	563.25
444.034	597.25
444.255	520.25
444.476	484.25
444.698	443.25
444.919	441.25
445.14	504.25
445.361	495.25
445.582	485.25
445.803	536.25
446.024	611.25
446.245	630.25
446.466	563.25
446.687	497.25
446.908	444.25
447.129	428.25
447.35	434.25
447.571	435.25
447.792	412.25
448.013	404.25
448.234	443.25
448.455	462.25
448.675	566.25
448.896	641.25
449.117	550.25
449.338	532.25
449.559	601.25
449.779	651.25
450	543.25
450.221	467.25
450.442	396.25
450.662	417.25
450.883	444.25
451.104	423.25
451.324	420.25
451.545	388.25
451.766	383.25
451.986	379.25
452.207	371.25
452.428	383.25
452.648	374.25
452.869	382.25
453.089	383.25
453.31	385.25
453.53	392.25
453.751	389.25
453.971	382.25
454.192	388.25
454.412	367.25
454.633	374.25
454.853	382.25
455.073	380.25
455.294	403.25
455.514	435.25
455.734	443.25
455.955	365.25
456.175	365.25
456.395	365.25
456.616	358.25
456.836	363.25
457.056	357.25
457.276	356.25
457.497	352.25
457.717	342.25
457.937	344.25
458.157	377.25
458.377	365.25
458.598	395.25
458.818	450.25
459.038	481.25
459.258	492.25
459.478	449.25
459.698	375.25
459.918	391.25
460.138	392.25
460.358	402.25
460.578	402.25
460.798	405.25
461.018	394.25
461.238	397.25
461.458	394.25
461.678	387.25
461.898	378.25
462.118	383.25
462.338	399.25
462.558	408.25
462.777	402.25
462.997	392.25
463.217	424.25
463.437	413.25
463.657	421.25
463.876	397.25
464.096	409.25
464.316	391.25
464.536	421.25
464.755	416.25
464.975	424.25
465.195	491.25
465.414	558.25
465.634	480.25
465.854	424.25
466.073	422.25
466.293	393.25
466.512	358.25
466.732	381.25
466.951	366.25
467.171	382.25
467.391	380.25
467.61	407.25
467.829	382.25
468.049	414.25
468.268	387.25
468.488	384.25
468.707	391.25
468.927	373.25
469.146	354.25
469.365	385.25
469.585	352.25
469.804	373.25
470.023	406.25
470.243	395.25
470.462	388.25
470.681	408.25
470.901	406.25
471.12	391.25
471.339	384.25
471.558	390.25
471.777	386.25
471.997	399.25
472.216	398.25
472.435	428.25
472.654	416.25
472.873	398.25
473.092	383.25
473.311	375.25
473.53	401.25
473.749	384.25
473.968	434.25
474.187	522.25
474.406	514.25
474.625	449.25
474.844	408.25
475.063	393.25
475.282	378.25
475.501	395.25
475.72	408.25
475.939	402.25
476.158	392.25
476.377	411.25
476.596	390.25
476.814	412.25
477.033	408.25
477.252	413.25
477.471	413.25
477.69	414.25
477.908	391.25
478.127	416.25
478.346	415.25
478.564	422.25
478.783	437.25
479.002	428.25
479.22	437.25
479.439	427.25
479.658	462.25
479.876	461.25
480.095	477.25
480.313	504.25
480.532	467.25
480.751	477.25
480.969	510.25
481.188	540.25
481.406	572.25
481.624	506.25
481.843	461.25
482.061	471.25
482.28	462.25
482.498	462.25
482.717	425.25
482.935	448.25
483.153	454.25
483.372	446.25
483.59	462.25
483.808	452.25
484.027	454.25
484.245	452.25
484.463	461.25
484.681	469.25
484.9	444.25
485.118	495.25
485.336	487.25
485.554	462.25
485.772	463.25
485.99	484.25
486.209	464.25
486.427	478.25
486.645	492.25
486.863	490.25
487.081	486.25
487.299	474.25
487.517	483.25
487.735	490.25
487.953	470.25
488.171	469.25
488.389	460.25
488.607	485.25
488.825	503.25
489.043	476.25
489.261	506.25
489.479	479.25
489.696	509.25
489.914	506.25
490.132	508.25
490.35	492.25
490.568	502.25
490.786	520.25
491.003	513.25
491.221	534.25
491.439	538.25
491.657	563.25
491.874	535.25
492.092	545.25
492.31	556.25
492.527	560.25
492.745	542.25
492.963	563.25
493.18	572.25
493.398	564.25
493.615	566.25
493.833	560.25
494.05	571.25
494.268	562.25
494.485	576.25
494.703	572.25
494.92	562.25
495.138	587.25
495.355	584.25
495.573	566.25
495.79	551.25
496.008	592.25
496.225	587.25
496.442	593.25
496.66	574.25
496.877	570.25
497.094	575.25
497.312	583.25
497.529	601.25
497.746	591.25
497.963	580.25
498.181	606.25
498.398	590.25
498.615	629.25
498.832	650.25
499.049	623.25
499.267	648.25
499.484	652.25
499.701	675.25
499.918	686.25
500.135	718.25
500.352	749.25
500.569	699.25
500.786	725.25
501.003	724.25
501.22	713.25
501.437	698.25
501.654	694.25
501.871	696.25
502.088	687.25
