Data from 1965.PennyLincolnUp.Lamp.En5.5.200Scan.071719.P1._HRD10591_14-09-57-911.txt Node
Date: Thu Jul 18 14:09:57 EDT 2019
User: cochatt
Spectrometer: HR+D1059
Trigger mode: 1
Integration Time (sec): 1.000000E-1
Scans to average: 1
Electric dark correction enabled: true
Nonlinearity correction enabled: false
Boxcar width: 0
XAxis mode: Wavelengths
Number of Pixels in Spectrum: 2048
>>>>>Begin Spectral Data<<<<<
223.165	-14.5
223.4	-14.5
223.635	-14.5
223.869	-7.5
224.104	-31.5
224.338	-14.5
224.573	4.5
224.808	-23.5
225.042	-17.5
225.277	-5.5
225.511	-6.5
225.746	2.5
225.98	9.5
226.215	26.5
226.449	12.5
226.683	11.5
226.918	34.5
227.152	19.5
227.387	43.5
227.621	42.5
227.856	39.5
228.09	28.5
228.324	36.5
228.559	42.5
228.793	67.5
229.027	100.5
229.262	86.5
229.496	102.5
229.73	124.5
229.964	155.5
230.199	116.5
230.433	115.5
230.667	115.5
230.901	114.5
231.136	95.5
231.37	110.5
231.604	113.5
231.838	99.5
232.072	100.5
232.306	98.5
232.541	106.5
232.775	103.5
233.009	109.5
233.243	114.5
233.477	115.5
233.711	99.5
233.945	113.5
234.179	101.5
234.413	115.5
234.647	122.5
234.881	94.5
235.115	104.5
235.349	96.5
235.583	110.5
235.817	113.5
236.051	108.5
236.285	105.5
236.519	127.5
236.753	127.5
236.987	130.5
237.221	165.5
237.455	206.5
237.689	184.5
237.922	153.5
238.156	135.5
238.39	126.5
238.624	129.5
238.858	120.5
239.091	122.5
239.325	104.5
239.559	123.5
239.793	113.5
240.027	121.5
240.26	136.5
240.494	137.5
240.728	126.5
240.961	146.5
241.195	149.5
241.429	136.5
241.662	129.5
241.896	120.5
242.13	123.5
242.363	134.5
242.597	127.5
242.83	122.5
243.064	123.5
243.298	125.5
243.531	114.5
243.765	129.5
243.998	124.5
244.232	123.5
244.465	133.5
244.699	121.5
244.932	126.5
245.166	136.5
245.399	136.5
245.633	135.5
245.866	131.5
246.099	147.5
246.333	135.5
246.566	142.5
246.8	142.5
247.033	136.5
247.266	145.5
247.5	131.5
247.733	156.5
247.966	157.5
248.2	168.5
248.433	162.5
248.666	183.5
248.899	150.5
249.133	180.5
249.366	181.5
249.599	173.5
249.832	170.5
250.066	165.5
250.299	170.5
250.532	185.5
250.765	170.5
250.998	197.5
251.231	185.5
251.465	179.5
251.698	185.5
251.931	181.5
252.164	183.5
252.397	175.5
252.63	201.5
252.863	183.5
253.096	204.5
253.329	208.5
253.562	209.5
253.795	200.5
254.028	185.5
254.261	185.5
254.494	213.5
254.727	222.5
254.96	247.5
255.193	243.5
255.426	234.5
255.659	194.5
255.892	218.5
256.124	205.5
256.357	205.5
256.59	202.5
256.823	207.5
257.056	202.5
257.289	193.5
257.521	179.5
257.754	193.5
257.987	187.5
258.22	194.5
258.452	191.5
258.685	179.5
258.918	181.5
259.151	196.5
259.383	193.5
259.616	195.5
259.849	202.5
260.081	215.5
260.314	230.5
260.547	228.5
260.779	234.5
261.012	206.5
261.244	199.5
261.477	203.5
261.71	202.5
261.942	217.5
262.175	222.5
262.407	207.5
262.64	196.5
262.872	189.5
263.105	201.5
263.337	190.5
263.57	191.5
263.802	194.5
264.035	185.5
264.267	193.5
264.499	199.5
264.732	185.5
264.964	185.5
265.197	198.5
265.429	191.5
265.661	201.5
265.894	192.5
266.126	179.5
266.358	187.5
266.591	191.5
266.823	197.5
267.055	190.5
267.287	201.5
267.52	198.5
267.752	198.5
267.984	207.5
268.216	208.5
268.448	201.5
268.681	215.5
268.913	206.5
269.145	216.5
269.377	254.5
269.609	243.5
269.841	217.5
270.073	238.5
270.306	265.5
270.538	261.5
270.77	298.5
271.002	275.5
271.234	266.5
271.466	270.5
271.698	292.5
271.93	277.5
272.162	280.5
272.394	269.5
272.626	281.5
272.858	253.5
273.09	262.5
273.322	240.5
273.553	242.5
273.785	234.5
274.017	232.5
274.249	225.5
274.481	249.5
274.713	245.5
274.945	239.5
275.176	256.5
275.408	239.5
275.64	239.5
275.872	232.5
276.104	229.5
276.335	233.5
276.567	239.5
276.799	247.5
277.031	264.5
277.262	297.5
277.494	291.5
277.726	287.5
277.957	266.5
278.189	257.5
278.421	232.5
278.652	247.5
278.884	246.5
279.115	226.5
279.347	218.5
279.579	229.5
279.81	225.5
280.042	223.5
280.273	235.5
280.505	215.5
280.736	233.5
280.968	235.5
281.199	248.5
281.431	236.5
281.662	237.5
281.894	232.5
282.125	226.5
282.356	245.5
282.588	263.5
282.819	252.5
283.051	249.5
283.282	228.5
283.513	245.5
283.745	230.5
283.976	251.5
284.207	255.5
284.439	242.5
284.67	241.5
284.901	246.5
285.132	244.5
285.364	236.5
285.595	231.5
285.826	253.5
286.057	234.5
286.288	235.5
286.52	236.5
286.751	239.5
286.982	211.5
287.213	259.5
287.444	267.5
287.675	236.5
287.906	243.5
288.138	267.5
288.369	265.5
288.6	268.5
288.831	257.5
289.062	277.5
289.293	255.5
289.524	260.5
289.755	250.5
289.986	259.5
290.217	243.5
290.448	260.5
290.679	231.5
290.91	239.5
291.141	246.5
291.371	249.5
291.602	261.5
291.833	242.5
292.064	259.5
292.295	267.5
292.526	253.5
292.757	255.5
292.987	266.5
293.218	263.5
293.449	249.5
293.68	248.5
293.91	262.5
294.141	252.5
294.372	245.5
294.603	246.5
294.833	248.5
295.064	236.5
295.295	261.5
295.525	247.5
295.756	269.5
295.987	267.5
296.217	275.5
296.448	292.5
296.679	269.5
296.909	243.5
297.14	248.5
297.37	250.5
297.601	254.5
297.831	254.5
298.062	260.5
298.292	258.5
298.523	267.5
298.753	275.5
298.984	257.5
299.214	262.5
299.445	273.5
299.675	262.5
299.905	281.5
300.136	285.5
300.366	257.5
300.597	277.5
300.827	269.5
301.057	279.5
301.288	305.5
301.518	275.5
301.748	261.5
301.979	263.5
302.209	283.5
302.439	280.5
302.669	274.5
302.9	289.5
303.13	284.5
303.36	284.5
303.59	285.5
303.82	283.5
304.051	280.5
304.281	270.5
304.511	282.5
304.741	284.5
304.971	279.5
305.201	285.5
305.431	277.5
305.661	259.5
305.891	277.5
306.121	289.5
306.352	291.5
306.582	314.5
306.812	283.5
307.042	297.5
307.272	302.5
307.502	290.5
307.731	298.5
307.961	284.5
308.191	295.5
308.421	302.5
308.651	303.5
308.881	306.5
309.111	298.5
309.341	300.5
309.571	307.5
309.8	338.5
310.03	327.5
310.26	338.5
310.49	339.5
310.72	325.5
310.949	349.5
311.179	353.5
311.409	337.5
311.639	345.5
311.868	353.5
312.098	322.5
312.328	345.5
312.557	379.5
312.787	350.5
313.017	377.5
313.246	357.5
313.476	339.5
313.706	325.5
313.935	333.5
314.165	369.5
314.394	353.5
314.624	357.5
314.853	339.5
315.083	329.5
315.312	329.5
315.542	333.5
315.771	354.5
316.001	328.5
316.23	332.5
316.46	333.5
316.689	333.5
316.919	338.5
317.148	339.5
317.377	346.5
317.607	338.5
317.836	342.5
318.065	329.5
318.295	322.5
318.524	344.5
318.753	332.5
318.983	331.5
319.212	351.5
319.441	341.5
319.67	335.5
319.9	333.5
320.129	342.5
320.358	362.5
320.587	358.5
320.816	353.5
321.046	336.5
321.275	372.5
321.504	371.5
321.733	366.5
321.962	358.5
322.191	357.5
322.42	384.5
322.649	393.5
322.878	410.5
323.108	419.5
323.337	435.5
323.566	450.5
323.795	510.5
324.024	550.5
324.253	669.5
324.482	978.5
324.71	1461.5
324.939	2047.5
325.168	1719.5
325.397	929.5
325.626	621.5
325.855	511.5
326.084	488.5
326.313	462.5
326.542	446.5
326.77	519.5
326.999	638.5
327.228	879.5
327.457	1303.5
327.686	1537.5
327.914	1029.5
328.143	676.5
328.372	603.5
328.6	561.5
328.829	521.5
329.058	561.5
329.287	552.5
329.515	497.5
329.744	494.5
329.972	501.5
330.201	487.5
330.43	523.5
330.658	566.5
330.887	585.5
331.115	539.5
331.344	475.5
331.572	451.5
331.801	444.5
332.03	437.5
332.258	399.5
332.486	405.5
332.715	400.5
332.943	388.5
333.172	405.5
333.4	396.5
333.629	392.5
333.857	427.5
334.085	437.5
334.314	439.5
334.542	480.5
334.771	482.5
334.999	433.5
335.227	405.5
335.455	412.5
335.684	398.5
335.912	398.5
336.14	366.5
336.369	388.5
336.597	401.5
336.825	394.5
337.053	411.5
337.281	407.5
337.51	390.5
337.738	378.5
337.966	398.5
338.194	388.5
338.422	390.5
338.65	400.5
338.878	374.5
339.106	389.5
339.334	386.5
339.562	375.5
339.79	362.5
340.018	362.5
340.246	380.5
340.474	385.5
340.702	369.5
340.93	358.5
341.158	379.5
341.386	373.5
341.614	379.5
341.842	395.5
342.07	362.5
342.298	350.5
342.526	373.5
342.754	348.5
342.981	361.5
343.209	381.5
343.437	375.5
343.665	369.5
343.893	366.5
344.12	385.5
344.348	375.5
344.576	386.5
344.804	388.5
345.031	384.5
345.259	396.5
345.487	406.5
345.714	374.5
345.942	369.5
346.17	366.5
346.397	371.5
346.625	393.5
346.853	379.5
347.08	349.5
347.308	353.5
347.535	390.5
347.763	398.5
347.99	377.5
348.218	370.5
348.445	397.5
348.673	374.5
348.9	350.5
349.128	373.5
349.355	351.5
349.583	347.5
349.81	354.5
350.037	354.5
350.265	352.5
350.492	348.5
350.72	357.5
350.947	357.5
351.174	374.5
351.402	375.5
351.629	393.5
351.856	393.5
352.083	385.5
352.311	384.5
352.538	377.5
352.765	379.5
352.992	391.5
353.22	369.5
353.447	378.5
353.674	366.5
353.901	343.5
354.128	360.5
354.355	340.5
354.583	355.5
354.81	332.5
355.037	339.5
355.264	326.5
355.491	321.5
355.718	334.5
355.945	343.5
356.172	355.5
356.399	346.5
356.626	324.5
356.853	315.5
357.08	331.5
357.307	348.5
357.534	357.5
357.761	356.5
357.988	328.5
358.215	346.5
358.441	335.5
358.668	343.5
358.895	342.5
359.122	332.5
359.349	340.5
359.576	373.5
359.802	378.5
360.029	408.5
360.256	414.5
360.483	408.5
360.709	377.5
360.936	386.5
361.163	368.5
361.39	383.5
361.616	370.5
361.843	355.5
362.07	353.5
362.296	372.5
362.523	360.5
362.749	362.5
362.976	350.5
363.203	359.5
363.429	354.5
363.656	362.5
363.882	332.5
364.109	333.5
364.335	349.5
364.562	333.5
364.788	363.5
365.015	334.5
365.241	342.5
365.468	369.5
365.694	356.5
365.92	339.5
366.147	335.5
366.373	358.5
366.599	356.5
366.826	350.5
367.052	330.5
367.278	327.5
367.505	326.5
367.731	353.5
367.957	342.5
368.184	347.5
368.41	328.5
368.636	367.5
368.862	376.5
369.089	357.5
369.315	343.5
369.541	354.5
369.767	331.5
369.993	347.5
370.219	346.5
370.445	350.5
370.672	355.5
370.898	343.5
371.124	355.5
371.35	327.5
371.576	330.5
371.802	340.5
372.028	334.5
372.254	349.5
372.48	352.5
372.706	358.5
372.932	339.5
373.158	353.5
373.384	339.5
373.61	352.5
373.835	326.5
374.061	356.5
374.287	350.5
374.513	368.5
374.739	355.5
374.965	353.5
375.191	354.5
375.416	341.5
375.642	320.5
375.868	331.5
376.094	345.5
376.319	332.5
376.545	330.5
376.771	364.5
376.997	345.5
377.222	345.5
377.448	347.5
377.674	339.5
377.899	348.5
378.125	316.5
378.35	338.5
378.576	332.5
378.802	339.5
379.027	350.5
379.253	342.5
379.478	333.5
379.704	335.5
379.929	334.5
380.155	339.5
380.38	321.5
380.606	335.5
380.831	362.5
381.057	347.5
381.282	338.5
381.507	370.5
381.733	340.5
381.958	340.5
382.184	351.5
382.409	346.5
382.634	349.5
382.86	347.5
383.085	356.5
383.31	355.5
383.535	336.5
383.761	362.5
383.986	354.5
384.211	375.5
384.436	373.5
384.662	364.5
384.887	363.5
385.112	350.5
385.337	352.5
385.562	350.5
385.787	363.5
386.013	389.5
386.238	374.5
386.463	374.5
386.688	361.5
386.913	348.5
387.138	364.5
387.363	362.5
387.588	351.5
387.813	352.5
388.038	353.5
388.263	364.5
388.488	361.5
388.713	357.5
388.938	361.5
389.163	366.5
389.387	364.5
389.612	358.5
389.837	357.5
390.062	370.5
390.287	374.5
390.512	381.5
390.736	379.5
390.961	356.5
391.186	365.5
391.411	369.5
391.636	372.5
391.86	369.5
392.085	387.5
392.31	373.5
392.534	371.5
392.759	360.5
392.984	367.5
393.208	365.5
393.433	364.5
393.658	347.5
393.882	352.5
394.107	354.5
394.331	341.5
394.556	363.5
394.78	364.5
395.005	369.5
395.229	369.5
395.454	384.5
395.678	376.5
395.903	390.5
396.127	406.5
396.352	416.5
396.576	391.5
396.801	368.5
397.025	381.5
397.249	377.5
397.474	382.5
397.698	411.5
397.922	402.5
398.147	392.5
398.371	413.5
398.595	396.5
398.82	421.5
399.044	421.5
399.268	436.5
399.492	426.5
399.717	455.5
399.941	465.5
400.165	483.5
400.389	489.5
400.613	469.5
400.837	444.5
401.062	420.5
401.286	423.5
401.51	406.5
401.734	418.5
401.958	438.5
402.182	421.5
402.406	447.5
402.63	425.5
402.854	422.5
403.078	414.5
403.302	445.5
403.526	451.5
403.75	430.5
403.974	426.5
404.198	424.5
404.422	437.5
404.645	424.5
404.869	448.5
405.093	489.5
405.317	508.5
405.541	509.5
405.765	476.5
405.988	469.5
406.212	477.5
406.436	490.5
406.66	499.5
406.883	469.5
407.107	475.5
407.331	513.5
407.555	554.5
407.778	554.5
408.002	523.5
408.226	490.5
408.449	452.5
408.673	473.5
408.896	489.5
409.12	522.5
409.344	499.5
409.567	448.5
409.791	450.5
410.014	419.5
410.238	415.5
410.461	446.5
410.685	437.5
410.908	463.5
411.132	441.5
411.355	504.5
411.578	464.5
411.802	453.5
412.025	429.5
412.249	453.5
412.472	469.5
412.695	483.5
412.919	490.5
413.142	440.5
413.365	425.5
413.589	437.5
413.812	435.5
414.035	390.5
414.258	406.5
414.482	399.5
414.705	415.5
414.928	396.5
415.151	405.5
415.374	409.5
415.597	395.5
415.821	398.5
416.044	399.5
416.267	414.5
416.49	400.5
416.713	412.5
416.936	418.5
417.159	403.5
417.382	405.5
417.605	435.5
417.828	418.5
418.051	439.5
418.274	434.5
418.497	417.5
418.72	405.5
418.943	417.5
419.166	442.5
419.389	415.5
419.611	419.5
419.834	403.5
420.057	425.5
420.28	405.5
420.503	431.5
420.726	419.5
420.948	450.5
421.171	477.5
421.394	509.5
421.617	455.5
421.839	415.5
422.062	448.5
422.285	451.5
422.507	478.5
422.73	549.5
422.953	525.5
423.175	481.5
423.398	451.5
423.621	446.5
423.843	457.5
424.066	472.5
424.288	463.5
424.511	483.5
424.733	521.5
424.956	575.5
425.178	562.5
425.401	553.5
425.623	577.5
425.846	488.5
426.068	463.5
426.291	481.5
426.513	477.5
426.735	481.5
426.958	511.5
427.18	588.5
427.402	688.5
427.625	743.5
427.847	693.5
428.069	581.5
428.292	512.5
428.514	466.5
428.736	454.5
428.958	441.5
429.181	421.5
429.403	450.5
429.625	455.5
429.847	477.5
430.069	526.5
430.292	522.5
430.514	457.5
430.736	439.5
430.958	438.5
431.18	412.5
431.402	392.5
431.624	387.5
431.846	378.5
432.068	412.5
432.29	410.5
432.512	414.5
432.734	426.5
432.956	419.5
433.178	428.5
433.4	401.5
433.622	408.5
433.844	397.5
434.066	421.5
434.287	393.5
434.509	414.5
434.731	419.5
434.953	433.5
435.175	437.5
435.397	448.5
435.618	474.5
435.84	513.5
436.062	582.5
436.284	623.5
436.505	549.5
436.727	473.5
436.949	445.5
437.17	431.5
437.392	445.5
437.614	467.5
437.835	473.5
438.057	577.5
438.278	642.5
438.5	637.5
438.721	693.5
438.943	648.5
439.165	517.5
439.386	501.5
439.608	485.5
439.829	481.5
440.05	507.5
440.272	531.5
440.493	514.5
440.715	473.5
440.936	445.5
441.158	428.5
441.379	441.5
441.6	454.5
441.822	463.5
442.043	494.5
442.264	538.5
442.486	614.5
442.707	529.5
442.928	492.5
443.149	480.5
443.371	481.5
443.592	559.5
443.813	614.5
444.034	667.5
444.255	553.5
444.476	502.5
444.698	484.5
444.919	470.5
445.14	604.5
445.361	531.5
445.582	505.5
445.803	577.5
446.024	666.5
446.245	655.5
446.466	595.5
446.687	499.5
446.908	476.5
447.129	449.5
447.35	421.5
447.571	439.5
447.792	439.5
448.013	418.5
448.234	472.5
448.455	513.5
448.675	594.5
448.896	668.5
449.117	581.5
449.338	565.5
449.559	652.5
449.779	703.5
450	596.5
450.221	481.5
450.442	435.5
450.662	438.5
450.883	450.5
451.104	462.5
451.324	457.5
451.545	417.5
451.766	406.5
451.986	404.5
452.207	377.5
452.428	403.5
452.648	377.5
452.869	400.5
453.089	414.5
453.31	406.5
453.53	390.5
453.751	389.5
453.971	398.5
454.192	433.5
454.412	413.5
454.633	400.5
454.853	381.5
455.073	389.5
455.294	415.5
455.514	475.5
455.734	442.5
455.955	390.5
456.175	396.5
456.395	361.5
456.616	353.5
456.836	378.5
457.056	387.5
457.276	350.5
457.497	360.5
457.717	380.5
457.937	387.5
458.157	378.5
458.377	398.5
458.598	401.5
458.818	478.5
459.038	559.5
459.258	525.5
459.478	464.5
459.698	427.5
459.918	402.5
460.138	420.5
460.358	395.5
460.578	405.5
460.798	422.5
461.018	412.5
461.238	421.5
461.458	411.5
461.678	397.5
461.898	389.5
462.118	423.5
462.338	421.5
462.558	436.5
462.777	427.5
462.997	437.5
463.217	425.5
463.437	434.5
463.657	421.5
463.876	422.5
464.096	444.5
464.316	414.5
464.536	444.5
464.755	465.5
464.975	463.5
465.195	499.5
465.414	573.5
465.634	514.5
465.854	470.5
466.073	440.5
466.293	422.5
466.512	405.5
466.732	416.5
466.951	400.5
467.171	405.5
467.391	430.5
467.61	416.5
467.829	409.5
468.049	420.5
468.268	409.5
468.488	383.5
468.707	381.5
468.927	401.5
469.146	399.5
469.365	382.5
469.585	378.5
469.804	402.5
470.023	415.5
470.243	395.5
470.462	414.5
470.681	409.5
470.901	430.5
471.12	393.5
471.339	429.5
471.558	391.5
471.777	395.5
471.997	395.5
472.216	412.5
472.435	439.5
472.654	451.5
472.873	405.5
473.092	401.5
473.311	399.5
473.53	417.5
473.749	429.5
473.968	466.5
474.187	575.5
474.406	553.5
474.625	466.5
474.844	439.5
475.063	415.5
475.282	418.5
475.501	410.5
475.72	411.5
475.939	410.5
476.158	420.5
476.377	407.5
476.596	420.5
476.814	448.5
477.033	453.5
477.252	433.5
477.471	432.5
477.69	428.5
477.908	449.5
478.127	443.5
478.346	413.5
478.564	437.5
478.783	441.5
479.002	446.5
479.22	461.5
479.439	475.5
479.658	505.5
479.876	501.5
480.095	510.5
480.313	502.5
480.532	506.5
480.751	506.5
480.969	514.5
481.188	581.5
481.406	613.5
481.624	555.5
481.843	511.5
482.061	471.5
482.28	492.5
482.498	481.5
482.717	479.5
482.935	475.5
483.153	501.5
483.372	489.5
483.59	471.5
483.808	473.5
484.027	492.5
484.245	479.5
484.463	481.5
484.681	481.5
484.9	495.5
485.118	492.5
485.336	479.5
485.554	477.5
485.772	501.5
485.99	494.5
486.209	509.5
486.427	520.5
486.645	499.5
486.863	540.5
487.081	521.5
487.299	539.5
487.517	492.5
487.735	509.5
487.953	526.5
488.171	536.5
488.389	515.5
488.607	523.5
488.825	518.5
489.043	527.5
489.261	510.5
489.479	522.5
489.696	528.5
489.914	547.5
490.132	531.5
490.35	540.5
490.568	556.5
490.786	550.5
491.003	552.5
491.221	574.5
491.439	587.5
491.657	596.5
491.874	586.5
492.092	596.5
492.31	597.5
492.527	601.5
492.745	599.5
492.963	578.5
493.18	575.5
493.398	602.5
493.615	622.5
493.833	621.5
494.05	610.5
494.268	614.5
494.485	600.5
494.703	581.5
494.92	602.5
495.138	618.5
495.355	597.5
495.573	605.5
495.79	626.5
496.008	617.5
496.225	600.5
496.442	583.5
496.66	620.5
496.877	613.5
497.094	617.5
497.312	635.5
497.529	614.5
497.746	616.5
497.963	630.5
498.181	654.5
498.398	647.5
498.615	659.5
498.832	671.5
499.049	682.5
499.267	679.5
499.484	682.5
499.701	677.5
499.918	723.5
500.135	740.5
500.352	757.5
500.569	730.5
500.786	787.5
501.003	777.5
501.22	745.5
501.437	741.5
501.654	744.5
501.871	743.5
502.088	722.5
502.305	682.5
502.522	661.5
502.739	681.5
502.956	655.5
503.172	639.5
503.389	642.5
503.606	630.5
503.823	650.5
504.04	645.5
504.256	588.5
504.473	601.5
504.69	614.5
504.907	611.5
505.123	604.5
505.34	597.5
505.557	583.5
505.773	585.5
505.99	578.5
506.207	601.5
506.423	585.5
506.64	602.5
506.856	578.5
507.073	575.5
507.289	581.5
507.506	593.5
507.722	589.5
507.939	598.5
508.155	589.5
508.372	561.5
508.588	580.5
508.805	591.5
509.021	549.5
509.238	588.5
509.454	588.5
509.67	568.5
509.887	589.5
510.103	561.5
510.319	580.5
510.536	681.5
510.752	1182.5
510.968	963.5
511.184	591.5
511.401	571.5
511.617	552.5
511.833	551.5
512.049	555.5
512.265	537.5
512.481	540.5
512.698	548.5
512.914	548.5
513.13	563.5
513.346	546.5
513.562	545.5
513.778	542.5
513.994	563.5
514.21	566.5
514.426	576.5
514.642	621.5
514.858	658.5
515.074	709.5
515.29	871.5
515.506	1307.5
515.721	1031.5
515.937	680.5
516.153	607.5
516.369	581.5
516.585	566.5
516.801	552.5
517.016	539.5
517.232	557.5
517.448	560.5
517.664	563.5
517.879	554.5
518.095	526.5
518.311	535.5
518.527	550.5
518.742	524.5
518.958	527.5
519.173	522.5
519.389	531.5
519.605	549.5
519.82	556.5
