Data from 1965.PennyLincolnUp.Lamp.En5.5.200Scan.071719.P1._HRD10591_14-08-17-911.txt Node
Date: Thu Jul 18 14:08:17 EDT 2019
User: cochatt
Spectrometer: HR+D1059
Trigger mode: 1
Integration Time (sec): 1.000000E-1
Scans to average: 1
Electric dark correction enabled: true
Nonlinearity correction enabled: false
Boxcar width: 0
XAxis mode: Wavelengths
Number of Pixels in Spectrum: 2048
>>>>>Begin Spectral Data<<<<<
223.165	-4.56
223.4	-4.56
223.635	-4.56
223.869	-27.56
224.104	-18.56
224.338	1.44
224.573	-14.56
224.808	-13.56
225.042	-9.56
225.277	-10.56
225.511	7.44
225.746	14.44
225.98	10.44
226.215	2.44
226.449	2.44
226.683	24.44
226.918	6.44
227.152	29.44
227.387	30.44
227.621	46.44
227.856	50.44
228.09	33.44
228.324	45.44
228.559	46.44
228.793	59.44
229.027	95.44
229.262	94.44
229.496	92.44
229.73	123.44
229.964	145.44
230.199	109.44
230.433	91.44
230.667	104.44
230.901	103.44
231.136	101.44
231.37	115.44
231.604	106.44
231.838	91.44
232.072	106.44
232.306	103.44
232.541	123.44
232.775	113.44
233.009	113.44
233.243	103.44
233.477	106.44
233.711	100.44
233.945	105.44
234.179	110.44
234.413	94.44
234.647	102.44
234.881	105.44
235.115	107.44
235.349	97.44
235.583	109.44
235.817	116.44
236.051	124.44
236.285	110.44
236.519	123.44
236.753	126.44
236.987	137.44
237.221	161.44
237.455	185.44
237.689	155.44
237.922	112.44
238.156	123.44
238.39	126.44
238.624	121.44
238.858	117.44
239.091	109.44
239.325	125.44
239.559	110.44
239.793	133.44
240.027	127.44
240.26	125.44
240.494	130.44
240.728	131.44
240.961	131.44
241.195	120.44
241.429	125.44
241.662	102.44
241.896	113.44
242.13	108.44
242.363	131.44
242.597	110.44
242.83	119.44
243.064	118.44
243.298	121.44
243.531	118.44
243.765	138.44
243.998	124.44
244.232	125.44
244.465	123.44
244.699	130.44
244.932	127.44
245.166	133.44
245.399	120.44
245.633	135.44
245.866	129.44
246.099	138.44
246.333	133.44
246.566	128.44
246.8	129.44
247.033	126.44
247.266	131.44
247.5	129.44
247.733	156.44
247.966	135.44
248.2	149.44
248.433	146.44
248.666	158.44
248.899	175.44
249.133	174.44
249.366	165.44
249.599	158.44
249.832	174.44
250.066	147.44
250.299	158.44
250.532	162.44
250.765	167.44
250.998	169.44
251.231	190.44
251.465	179.44
251.698	181.44
251.931	157.44
252.164	170.44
252.397	168.44
252.63	172.44
252.863	166.44
253.096	182.44
253.329	185.44
253.562	188.44
253.795	181.44
254.028	180.44
254.261	199.44
254.494	202.44
254.727	201.44
254.96	227.44
255.193	208.44
255.426	211.44
255.659	188.44
255.892	206.44
256.124	185.44
256.357	186.44
256.59	193.44
256.823	175.44
257.056	179.44
257.289	183.44
257.521	172.44
257.754	170.44
257.987	172.44
258.22	186.44
258.452	181.44
258.685	154.44
258.918	171.44
259.151	175.44
259.383	189.44
259.616	175.44
259.849	183.44
260.081	194.44
260.314	207.44
260.547	208.44
260.779	197.44
261.012	179.44
261.244	178.44
261.477	195.44
261.71	193.44
261.942	198.44
262.175	187.44
262.407	201.44
262.64	177.44
262.872	188.44
263.105	174.44
263.337	186.44
263.57	174.44
263.802	190.44
264.035	173.44
264.267	183.44
264.499	182.44
264.732	177.44
264.964	177.44
265.197	168.44
265.429	188.44
265.661	174.44
265.894	193.44
266.126	173.44
266.358	177.44
266.591	174.44
266.823	181.44
267.055	168.44
267.287	177.44
267.52	185.44
267.752	185.44
267.984	199.44
268.216	183.44
268.448	205.44
268.681	211.44
268.913	197.44
269.145	210.44
269.377	221.44
269.609	212.44
269.841	212.44
270.073	215.44
270.306	220.44
270.538	262.44
270.77	240.44
271.002	244.44
271.234	234.44
271.466	238.44
271.698	232.44
271.93	253.44
272.162	241.44
272.394	253.44
272.626	242.44
272.858	255.44
273.09	221.44
273.322	223.44
273.553	230.44
273.785	222.44
274.017	218.44
274.249	215.44
274.481	225.44
274.713	234.44
274.945	239.44
275.176	215.44
275.408	215.44
275.64	213.44
275.872	213.44
276.104	213.44
276.335	220.44
276.567	223.44
276.799	230.44
277.031	264.44
277.262	256.44
277.494	247.44
277.726	235.44
277.957	223.44
278.189	218.44
278.421	236.44
278.652	223.44
278.884	231.44
279.115	229.44
279.347	217.44
279.579	228.44
279.81	220.44
280.042	204.44
280.273	217.44
280.505	234.44
280.736	221.44
280.968	219.44
281.199	199.44
281.431	205.44
281.662	213.44
281.894	217.44
282.125	222.44
282.356	255.44
282.588	252.44
282.819	263.44
283.051	234.44
283.282	211.44
283.513	212.44
283.745	203.44
283.976	226.44
284.207	218.44
284.439	209.44
284.67	227.44
284.901	206.44
285.132	231.44
285.364	214.44
285.595	242.44
285.826	228.44
286.057	213.44
286.288	220.44
286.52	221.44
286.751	230.44
286.982	210.44
287.213	239.44
287.444	233.44
287.675	241.44
287.906	237.44
288.138	252.44
288.369	241.44
288.6	247.44
288.831	229.44
289.062	217.44
289.293	206.44
289.524	225.44
289.755	236.44
289.986	234.44
290.217	222.44
290.448	229.44
290.679	217.44
290.91	223.44
291.141	233.44
291.371	228.44
291.602	237.44
291.833	235.44
292.064	219.44
292.295	236.44
292.526	236.44
292.757	238.44
292.987	235.44
293.218	228.44
293.449	229.44
293.68	241.44
293.91	235.44
294.141	227.44
294.372	239.44
294.603	213.44
294.833	225.44
295.064	237.44
295.295	216.44
295.525	227.44
295.756	234.44
295.987	248.44
296.217	265.44
296.448	280.44
296.679	231.44
296.909	241.44
297.14	232.44
297.37	245.44
297.601	241.44
297.831	248.44
298.062	238.44
298.292	255.44
298.523	245.44
298.753	246.44
298.984	229.44
299.214	254.44
299.445	259.44
299.675	231.44
299.905	231.44
300.136	247.44
300.366	238.44
300.597	259.44
300.827	260.44
301.057	261.44
301.288	269.44
301.518	260.44
301.748	269.44
301.979	273.44
302.209	257.44
302.439	264.44
302.669	265.44
302.9	267.44
303.13	270.44
303.36	263.44
303.59	273.44
303.82	270.44
304.051	262.44
304.281	284.44
304.511	270.44
304.741	268.44
304.971	270.44
305.201	278.44
305.431	258.44
305.661	271.44
305.891	271.44
306.121	268.44
306.352	250.44
306.582	267.44
306.812	269.44
307.042	256.44
307.272	262.44
307.502	247.44
307.731	281.44
307.961	261.44
308.191	267.44
308.421	255.44
308.651	274.44
308.881	262.44
309.111	276.44
309.341	278.44
309.571	288.44
309.8	297.44
310.03	293.44
310.26	309.44
310.49	329.44
310.72	293.44
310.949	321.44
311.179	319.44
311.409	291.44
311.639	309.44
311.868	311.44
312.098	300.44
312.328	314.44
312.557	307.44
312.787	345.44
313.017	318.44
313.246	325.44
313.476	318.44
313.706	317.44
313.935	314.44
314.165	315.44
314.394	319.44
314.624	329.44
314.853	321.44
315.083	327.44
315.312	304.44
315.542	294.44
315.771	282.44
316.001	313.44
316.23	321.44
316.46	308.44
316.689	311.44
316.919	315.44
317.148	328.44
317.377	314.44
317.607	313.44
317.836	304.44
318.065	331.44
318.295	319.44
318.524	301.44
318.753	298.44
318.983	307.44
319.212	313.44
319.441	308.44
319.67	317.44
319.9	321.44
320.129	312.44
320.358	318.44
320.587	325.44
320.816	315.44
321.046	332.44
321.275	336.44
321.504	324.44
321.733	302.44
321.962	329.44
322.191	342.44
322.42	364.44
322.649	373.44
322.878	375.44
323.108	389.44
323.337	402.44
323.566	422.44
323.795	439.44
324.024	476.44
324.253	571.44
324.482	847.44
324.71	1316.44
324.939	1752.44
325.168	1458.44
325.397	792.44
325.626	521.44
325.855	468.44
326.084	437.44
326.313	412.44
326.542	424.44
326.77	460.44
326.999	568.44
327.228	739.44
327.457	1105.44
327.686	1332.44
327.914	878.44
328.143	610.44
328.372	535.44
328.6	501.44
328.829	474.44
329.058	480.44
329.287	455.44
329.515	446.44
329.744	419.44
329.972	412.44
330.201	446.44
330.43	482.44
330.658	492.44
330.887	503.44
331.115	497.44
331.344	439.44
331.572	412.44
331.801	409.44
332.03	394.44
332.258	390.44
332.486	364.44
332.715	350.44
332.943	361.44
333.172	374.44
333.4	371.44
333.629	361.44
333.857	386.44
334.085	403.44
334.314	399.44
334.542	435.44
334.771	436.44
334.999	409.44
335.227	362.44
335.455	375.44
335.684	334.44
335.912	355.44
336.14	360.44
336.369	360.44
336.597	363.44
336.825	364.44
337.053	371.44
337.281	350.44
337.51	355.44
337.738	367.44
337.966	350.44
338.194	339.44
338.422	359.44
338.65	359.44
338.878	349.44
339.106	339.44
339.334	340.44
339.562	357.44
339.79	354.44
340.018	353.44
340.246	349.44
340.474	346.44
340.702	350.44
340.93	370.44
341.158	354.44
341.386	344.44
341.614	339.44
341.842	335.44
342.07	341.44
342.298	342.44
342.526	348.44
342.754	329.44
342.981	337.44
343.209	330.44
343.437	353.44
343.665	352.44
343.893	364.44
344.12	339.44
344.348	356.44
344.576	348.44
344.804	358.44
345.031	376.44
345.259	362.44
345.487	369.44
345.714	357.44
345.942	354.44
346.17	342.44
346.397	336.44
346.625	341.44
346.853	357.44
347.08	352.44
347.308	335.44
347.535	358.44
347.763	335.44
347.99	335.44
348.218	336.44
348.445	344.44
348.673	337.44
348.9	344.44
349.128	366.44
349.355	340.44
349.583	348.44
349.81	296.44
350.037	310.44
350.265	321.44
350.492	313.44
350.72	330.44
350.947	330.44
351.174	359.44
351.402	348.44
351.629	349.44
351.856	359.44
352.083	343.44
352.311	355.44
352.538	348.44
352.765	342.44
352.992	336.44
353.22	339.44
353.447	345.44
353.674	330.44
353.901	325.44
354.128	339.44
354.355	316.44
354.583	318.44
354.81	310.44
355.037	318.44
355.264	327.44
355.491	322.44
355.718	305.44
355.945	323.44
356.172	286.44
356.399	327.44
356.626	308.44
356.853	289.44
357.08	325.44
357.307	332.44
357.534	301.44
357.761	309.44
357.988	303.44
358.215	315.44
358.441	316.44
358.668	329.44
358.895	326.44
359.122	334.44
359.349	344.44
359.576	342.44
359.802	363.44
360.029	382.44
360.256	379.44
360.483	374.44
360.709	337.44
360.936	346.44
361.163	338.44
361.39	345.44
361.616	332.44
361.843	338.44
362.07	345.44
362.296	349.44
362.523	327.44
362.749	333.44
362.976	334.44
363.203	343.44
363.429	320.44
363.656	324.44
363.882	332.44
364.109	319.44
364.335	317.44
364.562	325.44
364.788	329.44
365.015	330.44
365.241	343.44
365.468	327.44
365.694	357.44
365.92	325.44
366.147	319.44
366.373	340.44
366.599	309.44
366.826	330.44
367.052	332.44
367.278	322.44
367.505	311.44
367.731	312.44
367.957	342.44
368.184	327.44
368.41	326.44
368.636	329.44
368.862	355.44
369.089	328.44
369.315	321.44
369.541	337.44
369.767	336.44
369.993	328.44
370.219	306.44
370.445	315.44
370.672	297.44
370.898	324.44
371.124	315.44
371.35	317.44
371.576	331.44
371.802	317.44
372.028	301.44
372.254	308.44
372.48	311.44
372.706	314.44
372.932	321.44
373.158	321.44
373.384	327.44
373.61	338.44
373.835	321.44
374.061	324.44
374.287	308.44
374.513	311.44
374.739	332.44
374.965	343.44
375.191	315.44
375.416	319.44
375.642	333.44
375.868	313.44
376.094	310.44
376.319	329.44
376.545	323.44
376.771	326.44
376.997	315.44
377.222	325.44
377.448	318.44
377.674	317.44
377.899	315.44
378.125	325.44
378.35	318.44
378.576	291.44
378.802	312.44
379.027	306.44
379.253	325.44
379.478	321.44
379.704	316.44
379.929	326.44
380.155	329.44
380.38	318.44
380.606	334.44
380.831	317.44
381.057	331.44
381.282	345.44
381.507	324.44
381.733	335.44
381.958	335.44
382.184	316.44
382.409	317.44
382.634	329.44
382.86	317.44
383.085	333.44
383.31	339.44
383.535	323.44
383.761	322.44
383.986	314.44
384.211	336.44
384.436	338.44
384.662	342.44
384.887	334.44
385.112	327.44
385.337	329.44
385.562	319.44
385.787	325.44
386.013	357.44
386.238	372.44
386.463	345.44
386.688	355.44
386.913	321.44
387.138	364.44
387.363	360.44
387.588	340.44
387.813	343.44
388.038	335.44
388.263	333.44
388.488	335.44
388.713	351.44
388.938	342.44
389.163	355.44
389.387	326.44
389.612	344.44
389.837	361.44
390.062	350.44
390.287	379.44
390.512	358.44
390.736	346.44
390.961	329.44
391.186	352.44
391.411	325.44
391.636	338.44
391.86	355.44
392.085	342.44
392.31	350.44
392.534	347.44
392.759	351.44
392.984	347.44
393.208	361.44
393.433	353.44
393.658	369.44
393.882	334.44
394.107	349.44
394.331	361.44
394.556	334.44
394.78	333.44
395.005	356.44
395.229	346.44
395.454	352.44
395.678	342.44
395.903	382.44
396.127	369.44
396.352	369.44
396.576	352.44
396.801	353.44
397.025	359.44
397.249	352.44
397.474	352.44
397.698	348.44
397.922	377.44
398.147	394.44
398.371	408.44
398.595	381.44
398.82	382.44
399.044	400.44
399.268	397.44
399.492	424.44
399.717	435.44
399.941	442.44
400.165	443.44
400.389	458.44
400.613	437.44
400.837	428.44
401.062	396.44
401.286	388.44
401.51	402.44
401.734	391.44
401.958	417.44
402.182	397.44
402.406	402.44
402.63	413.44
402.854	413.44
403.078	412.44
403.302	395.44
403.526	410.44
403.75	403.44
403.974	404.44
404.198	389.44
404.422	380.44
404.645	407.44
404.869	400.44
405.093	417.44
405.317	461.44
405.541	468.44
405.765	437.44
405.988	415.44
406.212	439.44
406.436	457.44
406.66	454.44
406.883	441.44
407.107	462.44
407.331	473.44
407.555	522.44
407.778	533.44
408.002	501.44
408.226	450.44
408.449	435.44
408.673	445.44
408.896	471.44
409.12	501.44
409.344	454.44
409.567	420.44
409.791	415.44
410.014	389.44
410.238	409.44
410.461	420.44
410.685	414.44
410.908	422.44
411.132	444.44
411.355	454.44
411.578	437.44
411.802	402.44
412.025	419.44
412.249	397.44
412.472	419.44
412.695	443.44
412.919	451.44
413.142	428.44
413.365	389.44
413.589	409.44
413.812	417.44
414.035	390.44
414.258	375.44
414.482	371.44
414.705	387.44
414.928	381.44
415.151	398.44
415.374	380.44
415.597	372.44
415.821	377.44
416.044	396.44
416.267	401.44
416.49	391.44
416.713	367.44
416.936	379.44
417.159	377.44
417.382	378.44
417.605	408.44
417.828	394.44
418.051	410.44
418.274	399.44
418.497	377.44
418.72	388.44
418.943	390.44
419.166	392.44
419.389	403.44
419.611	393.44
419.834	405.44
420.057	399.44
420.28	397.44
420.503	380.44
420.726	385.44
420.948	402.44
421.171	446.44
421.394	467.44
421.617	413.44
421.839	417.44
422.062	394.44
422.285	413.44
422.507	448.44
422.73	505.44
422.953	478.44
423.175	432.44
423.398	420.44
423.621	414.44
423.843	429.44
424.066	405.44
424.288	417.44
424.511	440.44
424.733	492.44
424.956	533.44
425.178	531.44
425.401	531.44
425.623	543.44
425.846	475.44
426.068	457.44
426.291	445.44
426.513	404.44
426.735	419.44
426.958	469.44
427.18	521.44
427.402	639.44
427.625	686.44
427.847	617.44
428.069	528.44
428.292	486.44
428.514	425.44
428.736	413.44
428.958	417.44
429.181	410.44
429.403	425.44
429.625	425.44
429.847	439.44
430.069	489.44
430.292	483.44
430.514	429.44
430.736	401.44
430.958	393.44
431.18	387.44
431.402	378.44
431.624	384.44
431.846	370.44
432.068	365.44
432.29	397.44
432.512	390.44
432.734	395.44
432.956	391.44
433.178	413.44
433.4	415.44
433.622	394.44
433.844	399.44
434.066	375.44
434.287	382.44
434.509	398.44
434.731	403.44
434.953	390.44
435.175	419.44
435.397	443.44
435.618	437.44
435.84	484.44
436.062	538.44
436.284	577.44
436.505	497.44
436.727	460.44
436.949	417.44
437.17	423.44
437.392	403.44
437.614	425.44
437.835	452.44
438.057	531.44
438.278	594.44
438.5	595.44
438.721	645.44
438.943	601.44
439.165	482.44
439.386	459.44
439.608	464.44
439.829	469.44
440.05	449.44
440.272	488.44
440.493	470.44
440.715	439.44
440.936	430.44
441.158	414.44
441.379	413.44
441.6	426.44
441.822	441.44
442.043	472.44
442.264	530.44
442.486	545.44
442.707	488.44
442.928	437.44
443.149	446.44
443.371	475.44
443.592	523.44
443.813	545.44
444.034	589.44
444.255	523.44
444.476	446.44
444.698	443.44
444.919	436.44
445.14	510.44
445.361	486.44
445.582	467.44
445.803	528.44
446.024	591.44
446.245	589.44
446.466	520.44
446.687	460.44
446.908	455.44
447.129	418.44
447.35	414.44
447.571	400.44
447.792	422.44
448.013	394.44
448.234	424.44
448.455	454.44
448.675	546.44
448.896	589.44
449.117	541.44
449.338	502.44
449.559	586.44
449.779	654.44
450	519.44
450.221	448.44
450.442	421.44
450.662	391.44
450.883	388.44
451.104	425.44
451.324	420.44
451.545	396.44
451.766	372.44
451.986	372.44
452.207	359.44
452.428	374.44
452.648	366.44
452.869	361.44
453.089	387.44
453.31	399.44
453.53	372.44
453.751	377.44
453.971	376.44
454.192	387.44
454.412	383.44
454.633	366.44
454.853	352.44
455.073	379.44
455.294	392.44
455.514	451.44
455.734	423.44
455.955	378.44
456.175	359.44
456.395	347.44
456.616	354.44
456.836	347.44
457.056	367.44
457.276	354.44
457.497	350.44
457.717	362.44
457.937	372.44
458.157	354.44
458.377	369.44
458.598	386.44
458.818	409.44
459.038	517.44
459.258	492.44
459.478	418.44
459.698	405.44
459.918	369.44
460.138	382.44
460.358	392.44
460.578	374.44
460.798	413.44
461.018	391.44
461.238	375.44
461.458	400.44
461.678	376.44
461.898	387.44
462.118	402.44
462.338	387.44
462.558	391.44
462.777	390.44
462.997	403.44
463.217	406.44
463.437	408.44
463.657	421.44
463.876	403.44
464.096	412.44
464.316	422.44
464.536	421.44
464.755	420.44
464.975	399.44
465.195	473.44
465.414	521.44
465.634	471.44
465.854	450.44
466.073	416.44
466.293	388.44
466.512	379.44
466.732	381.44
466.951	364.44
467.171	381.44
467.391	385.44
467.61	378.44
467.829	381.44
468.049	392.44
468.268	396.44
468.488	379.44
468.707	376.44
468.927	383.44
469.146	362.44
469.365	366.44
469.585	352.44
469.804	379.44
470.023	385.44
470.243	382.44
470.462	400.44
470.681	412.44
470.901	399.44
471.12	364.44
471.339	387.44
471.558	388.44
471.777	402.44
471.997	367.44
472.216	389.44
472.435	419.44
472.654	401.44
472.873	378.44
473.092	397.44
473.311	379.44
473.53	385.44
473.749	396.44
473.968	428.44
474.187	523.44
474.406	514.44
474.625	441.44
474.844	409.44
475.063	392.44
475.282	401.44
475.501	391.44
475.72	403.44
475.939	402.44
476.158	383.44
476.377	383.44
476.596	391.44
476.814	416.44
477.033	405.44
477.252	393.44
477.471	409.44
477.69	425.44
477.908	412.44
478.127	414.44
478.346	417.44
478.564	419.44
478.783	433.44
479.002	425.44
479.22	429.44
479.439	463.44
479.658	467.44
479.876	471.44
480.095	484.44
480.313	468.44
480.532	481.44
480.751	454.44
480.969	487.44
481.188	554.44
481.406	567.44
481.624	469.44
481.843	481.44
482.061	466.44
482.28	454.44
482.498	443.44
482.717	453.44
482.935	429.44
483.153	418.44
483.372	454.44
483.59	455.44
483.808	457.44
484.027	436.44
484.245	427.44
484.463	461.44
484.681	470.44
484.9	463.44
485.118	453.44
485.336	450.44
485.554	462.44
485.772	460.44
485.99	475.44
486.209	458.44
486.427	469.44
486.645	452.44
486.863	503.44
487.081	497.44
487.299	482.44
487.517	483.44
487.735	478.44
487.953	472.44
488.171	468.44
488.389	467.44
488.607	444.44
488.825	474.44
489.043	492.44
489.261	497.44
489.479	486.44
489.696	491.44
489.914	487.44
490.132	500.44
490.35	497.44
490.568	497.44
490.786	531.44
491.003	518.44
491.221	529.44
491.439	526.44
491.657	521.44
491.874	529.44
492.092	532.44
492.31	548.44
492.527	536.44
492.745	555.44
492.963	559.44
493.18	566.44
493.398	567.44
493.615	558.44
493.833	569.44
494.05	578.44
494.268	565.44
494.485	572.44
494.703	554.44
494.92	549.44
495.138	566.44
495.355	558.44
495.573	544.44
495.79	569.44
496.008	555.44
496.225	556.44
496.442	576.44
496.66	566.44
496.877	556.44
497.094	563.44
497.312	582.44
497.529	569.44
497.746	557.44
497.963	571.44
498.181	626.44
498.398	609.44
498.615	623.44
498.832	616.44
499.049	615.44
499.267	633.44
499.484	669.44
499.701	691.44
499.918	684.44
500.135	719.44
500.352	720.44
500.569	729.44
500.786	750.44
501.003	742.44
501.22	720.44
501.437	701.44
501.654	669.44
501.871	716.44
502.088	703.44
