Data from 1965.PennyLincolnUp.Lamp.En5.5.200Scan.071719.P1._HRD10591_14-07-43-910.txt Node
Date: Thu Jul 18 14:07:43 EDT 2019
User: cochatt
Spectrometer: HR+D1059
Trigger mode: 1
Integration Time (sec): 1.000000E-1
Scans to average: 1
Electric dark correction enabled: true
Nonlinearity correction enabled: false
Boxcar width: 0
XAxis mode: Wavelengths
Number of Pixels in Spectrum: 2048
>>>>>Begin Spectral Data<<<<<
223.165	-23.88
223.4	-23.88
223.635	-23.88
223.869	-13.88
224.104	-36.88
224.338	-11.88
224.573	-11.88
224.808	-6.88
225.042	0.12
225.277	3.12
225.511	6.12
225.746	-0.88
225.98	6.12
226.215	18.12
226.449	5.12
226.683	11.12
226.918	22.12
227.152	34.12
227.387	41.12
227.621	42.12
227.856	45.12
228.09	44.12
228.324	50.12
228.559	56.12
228.793	60.12
229.027	97.12
229.262	101.12
229.496	101.12
229.73	103.12
229.964	139.12
230.199	124.12
230.433	106.12
230.667	98.12
230.901	114.12
231.136	99.12
231.37	107.12
231.604	88.12
231.838	111.12
232.072	112.12
232.306	107.12
232.541	100.12
232.775	103.12
233.009	102.12
233.243	104.12
233.477	100.12
233.711	115.12
233.945	112.12
234.179	117.12
234.413	92.12
234.647	106.12
234.881	105.12
235.115	107.12
235.349	102.12
235.583	113.12
235.817	114.12
236.051	115.12
236.285	108.12
236.519	112.12
236.753	114.12
236.987	141.12
237.221	162.12
237.455	197.12
237.689	165.12
237.922	113.12
238.156	113.12
238.39	113.12
238.624	132.12
238.858	112.12
239.091	121.12
239.325	104.12
239.559	113.12
239.793	108.12
240.027	121.12
240.26	126.12
240.494	131.12
240.728	153.12
240.961	133.12
241.195	129.12
241.429	118.12
241.662	128.12
241.896	126.12
242.13	120.12
242.363	114.12
242.597	109.12
242.83	116.12
243.064	130.12
243.298	117.12
243.531	111.12
243.765	107.12
243.998	117.12
244.232	126.12
244.465	124.12
244.699	104.12
244.932	119.12
245.166	128.12
245.399	129.12
245.633	119.12
245.866	142.12
246.099	137.12
246.333	125.12
246.566	130.12
246.8	128.12
247.033	137.12
247.266	122.12
247.5	151.12
247.733	147.12
247.966	140.12
248.2	145.12
248.433	140.12
248.666	143.12
248.899	176.12
249.133	156.12
249.366	169.12
249.599	171.12
249.832	156.12
250.066	149.12
250.299	156.12
250.532	154.12
250.765	184.12
250.998	184.12
251.231	193.12
251.465	163.12
251.698	180.12
251.931	162.12
252.164	162.12
252.397	169.12
252.63	179.12
252.863	180.12
253.096	187.12
253.329	184.12
253.562	181.12
253.795	188.12
254.028	189.12
254.261	182.12
254.494	188.12
254.727	203.12
254.96	221.12
255.193	227.12
255.426	211.12
255.659	194.12
255.892	168.12
256.124	178.12
256.357	191.12
256.59	171.12
256.823	182.12
257.056	185.12
257.289	176.12
257.521	173.12
257.754	179.12
257.987	183.12
258.22	173.12
258.452	174.12
258.685	164.12
258.918	181.12
259.151	187.12
259.383	183.12
259.616	186.12
259.849	189.12
260.081	182.12
260.314	217.12
260.547	203.12
260.779	197.12
261.012	179.12
261.244	191.12
261.477	169.12
261.71	177.12
261.942	194.12
262.175	198.12
262.407	189.12
262.64	190.12
262.872	183.12
263.105	172.12
263.337	170.12
263.57	177.12
263.802	189.12
264.035	183.12
264.267	187.12
264.499	187.12
264.732	180.12
264.964	194.12
265.197	199.12
265.429	178.12
265.661	175.12
265.894	166.12
266.126	181.12
266.358	182.12
266.591	177.12
266.823	177.12
267.055	198.12
267.287	182.12
267.52	195.12
267.752	186.12
267.984	196.12
268.216	182.12
268.448	190.12
268.681	197.12
268.913	227.12
269.145	232.12
269.377	218.12
269.609	226.12
269.841	222.12
270.073	215.12
270.306	233.12
270.538	245.12
270.77	245.12
271.002	250.12
271.234	244.12
271.466	241.12
271.698	240.12
271.93	247.12
272.162	245.12
272.394	248.12
272.626	239.12
272.858	230.12
273.09	244.12
273.322	211.12
273.553	224.12
273.785	233.12
274.017	213.12
274.249	229.12
274.481	203.12
274.713	216.12
274.945	215.12
275.176	218.12
275.408	212.12
275.64	222.12
275.872	214.12
276.104	224.12
276.335	220.12
276.567	232.12
276.799	254.12
277.031	256.12
277.262	250.12
277.494	257.12
277.726	245.12
277.957	238.12
278.189	214.12
278.421	226.12
278.652	209.12
278.884	224.12
279.115	217.12
279.347	233.12
279.579	217.12
279.81	225.12
280.042	216.12
280.273	227.12
280.505	223.12
280.736	209.12
280.968	211.12
281.199	204.12
281.431	213.12
281.662	221.12
281.894	211.12
282.125	234.12
282.356	246.12
282.588	247.12
282.819	264.12
283.051	214.12
283.282	224.12
283.513	206.12
283.745	214.12
283.976	230.12
284.207	226.12
284.439	225.12
284.67	248.12
284.901	227.12
285.132	234.12
285.364	237.12
285.595	216.12
285.826	232.12
286.057	223.12
286.288	236.12
286.52	232.12
286.751	218.12
286.982	219.12
287.213	222.12
287.444	224.12
287.675	243.12
287.906	240.12
288.138	246.12
288.369	243.12
288.6	242.12
288.831	228.12
289.062	246.12
289.293	228.12
289.524	229.12
289.755	243.12
289.986	224.12
290.217	229.12
290.448	238.12
290.679	238.12
290.91	237.12
291.141	232.12
291.371	237.12
291.602	230.12
291.833	225.12
292.064	222.12
292.295	231.12
292.526	233.12
292.757	234.12
292.987	225.12
293.218	229.12
293.449	237.12
293.68	247.12
293.91	231.12
294.141	245.12
294.372	242.12
294.603	228.12
294.833	228.12
295.064	234.12
295.295	240.12
295.525	225.12
295.756	235.12
295.987	244.12
296.217	268.12
296.448	274.12
296.679	246.12
296.909	245.12
297.14	236.12
297.37	256.12
297.601	219.12
297.831	244.12
298.062	253.12
298.292	250.12
298.523	251.12
298.753	244.12
298.984	274.12
299.214	246.12
299.445	250.12
299.675	260.12
299.905	263.12
300.136	240.12
300.366	251.12
300.597	245.12
300.827	266.12
301.057	263.12
301.288	265.12
301.518	265.12
301.748	249.12
301.979	273.12
302.209	264.12
302.439	263.12
302.669	248.12
302.9	263.12
303.13	265.12
303.36	286.12
303.59	275.12
303.82	260.12
304.051	280.12
304.281	282.12
304.511	281.12
304.741	251.12
304.971	259.12
305.201	262.12
305.431	280.12
305.661	271.12
305.891	264.12
306.121	264.12
306.352	291.12
306.582	283.12
306.812	264.12
307.042	276.12
307.272	277.12
307.502	272.12
307.731	282.12
307.961	269.12
308.191	275.12
308.421	277.12
308.651	276.12
308.881	275.12
309.111	287.12
309.341	267.12
309.571	296.12
309.8	295.12
310.03	297.12
310.26	297.12
310.49	305.12
310.72	304.12
310.949	341.12
311.179	327.12
311.409	308.12
311.639	308.12
311.868	311.12
312.098	305.12
312.328	330.12
312.557	321.12
312.787	354.12
313.017	341.12
313.246	311.12
313.476	317.12
313.706	320.12
313.935	326.12
314.165	321.12
314.394	323.12
314.624	325.12
314.853	304.12
315.083	312.12
315.312	295.12
315.542	312.12
315.771	299.12
316.001	316.12
316.23	317.12
316.46	301.12
316.689	300.12
316.919	307.12
317.148	310.12
317.377	310.12
317.607	339.12
317.836	338.12
318.065	309.12
318.295	300.12
318.524	306.12
318.753	310.12
318.983	314.12
319.212	305.12
319.441	315.12
319.67	327.12
319.9	322.12
320.129	309.12
320.358	308.12
320.587	312.12
320.816	327.12
321.046	315.12
321.275	325.12
321.504	326.12
321.733	333.12
321.962	339.12
322.191	347.12
322.42	376.12
322.649	377.12
322.878	374.12
323.108	375.12
323.337	384.12
323.566	430.12
323.795	443.12
324.024	512.12
324.253	623.12
324.482	954.12
324.71	1435.12
324.939	1919.12
325.168	1601.12
325.397	838.12
325.626	573.12
325.855	494.12
326.084	420.12
326.313	425.12
326.542	436.12
326.77	484.12
326.999	574.12
327.228	818.12
327.457	1205.12
327.686	1406.12
327.914	914.12
328.143	616.12
328.372	548.12
328.6	489.12
328.829	497.12
329.058	474.12
329.287	514.12
329.515	454.12
329.744	430.12
329.972	421.12
330.201	423.12
330.43	481.12
330.658	514.12
330.887	525.12
331.115	530.12
331.344	447.12
331.572	421.12
331.801	418.12
332.03	403.12
332.258	397.12
332.486	362.12
332.715	361.12
332.943	368.12
333.172	359.12
333.4	386.12
333.629	377.12
333.857	413.12
334.085	379.12
334.314	401.12
334.542	417.12
334.771	421.12
334.999	405.12
335.227	379.12
335.455	364.12
335.684	376.12
335.912	347.12
336.14	354.12
336.369	354.12
336.597	360.12
336.825	348.12
337.053	335.12
337.281	322.12
337.51	344.12
337.738	347.12
337.966	355.12
338.194	362.12
338.422	360.12
338.65	357.12
338.878	341.12
339.106	360.12
339.334	365.12
339.562	334.12
339.79	344.12
340.018	332.12
340.246	363.12
340.474	353.12
340.702	345.12
340.93	341.12
341.158	330.12
341.386	346.12
341.614	353.12
341.842	357.12
342.07	337.12
342.298	355.12
342.526	340.12
342.754	359.12
342.981	352.12
343.209	321.12
343.437	340.12
343.665	330.12
343.893	339.12
344.12	365.12
344.348	360.12
344.576	352.12
344.804	350.12
345.031	371.12
345.259	366.12
345.487	367.12
345.714	349.12
345.942	350.12
346.17	341.12
346.397	341.12
346.625	330.12
346.853	334.12
347.08	337.12
347.308	321.12
347.535	355.12
347.763	348.12
347.99	361.12
348.218	350.12
348.445	365.12
348.673	356.12
348.9	331.12
349.128	369.12
349.355	338.12
349.583	340.12
349.81	347.12
350.037	322.12
350.265	356.12
350.492	333.12
350.72	345.12
350.947	356.12
351.174	366.12
351.402	350.12
351.629	370.12
351.856	352.12
352.083	368.12
352.311	355.12
352.538	353.12
352.765	361.12
352.992	351.12
353.22	334.12
353.447	350.12
353.674	347.12
353.901	333.12
354.128	324.12
354.355	312.12
354.583	313.12
354.81	321.12
355.037	312.12
355.264	312.12
355.491	312.12
355.718	317.12
355.945	330.12
356.172	336.12
356.399	300.12
356.626	306.12
356.853	316.12
357.08	318.12
357.307	310.12
357.534	312.12
357.761	318.12
357.988	323.12
358.215	308.12
358.441	316.12
358.668	322.12
358.895	328.12
359.122	326.12
359.349	339.12
359.576	358.12
359.802	374.12
360.029	406.12
360.256	390.12
360.483	382.12
360.709	348.12
360.936	345.12
361.163	361.12
361.39	328.12
361.616	334.12
361.843	336.12
362.07	331.12
362.296	346.12
362.523	336.12
362.749	350.12
362.976	333.12
363.203	341.12
363.429	328.12
363.656	312.12
363.882	319.12
364.109	331.12
364.335	329.12
364.562	338.12
364.788	324.12
365.015	330.12
365.241	312.12
365.468	324.12
365.694	327.12
365.92	338.12
366.147	329.12
366.373	325.12
366.599	320.12
366.826	325.12
367.052	323.12
367.278	320.12
367.505	334.12
367.731	353.12
367.957	317.12
368.184	307.12
368.41	345.12
368.636	329.12
368.862	339.12
369.089	325.12
369.315	324.12
369.541	332.12
369.767	323.12
369.993	325.12
370.219	326.12
370.445	312.12
370.672	337.12
370.898	335.12
371.124	312.12
371.35	318.12
371.576	322.12
371.802	314.12
372.028	312.12
372.254	330.12
372.48	324.12
372.706	313.12
372.932	325.12
373.158	317.12
373.384	335.12
373.61	341.12
373.835	337.12
374.061	316.12
374.287	339.12
374.513	327.12
374.739	324.12
374.965	314.12
375.191	325.12
375.416	320.12
375.642	336.12
375.868	344.12
376.094	327.12
376.319	335.12
376.545	331.12
376.771	335.12
376.997	318.12
377.222	340.12
377.448	314.12
377.674	306.12
377.899	321.12
378.125	320.12
378.35	337.12
378.576	326.12
378.802	313.12
379.027	310.12
379.253	316.12
379.478	319.12
379.704	326.12
379.929	317.12
380.155	313.12
380.38	331.12
380.606	337.12
380.831	315.12
381.057	332.12
381.282	308.12
381.507	326.12
381.733	318.12
381.958	314.12
382.184	326.12
382.409	334.12
382.634	331.12
382.86	319.12
383.085	339.12
383.31	323.12
383.535	322.12
383.761	314.12
383.986	333.12
384.211	334.12
384.436	358.12
384.662	357.12
384.887	346.12
385.112	330.12
385.337	343.12
385.562	352.12
385.787	342.12
386.013	352.12
386.238	337.12
386.463	340.12
386.688	353.12
386.913	353.12
387.138	355.12
387.363	340.12
387.588	348.12
387.813	325.12
388.038	362.12
388.263	340.12
388.488	328.12
388.713	353.12
388.938	368.12
389.163	352.12
389.387	342.12
389.612	358.12
389.837	361.12
390.062	327.12
390.287	343.12
390.512	341.12
390.736	345.12
390.961	346.12
391.186	362.12
391.411	345.12
391.636	363.12
391.86	357.12
392.085	363.12
392.31	344.12
392.534	352.12
392.759	349.12
392.984	357.12
393.208	377.12
393.433	396.12
393.658	380.12
393.882	361.12
394.107	345.12
394.331	369.12
394.556	360.12
394.78	336.12
395.005	338.12
395.229	331.12
395.454	361.12
395.678	361.12
395.903	372.12
396.127	394.12
396.352	369.12
396.576	377.12
396.801	373.12
397.025	386.12
397.249	388.12
397.474	378.12
397.698	400.12
397.922	387.12
398.147	384.12
398.371	401.12
398.595	395.12
398.82	397.12
399.044	385.12
399.268	381.12
399.492	413.12
399.717	422.12
399.941	455.12
400.165	449.12
400.389	467.12
400.613	435.12
400.837	405.12
401.062	414.12
401.286	389.12
401.51	396.12
401.734	378.12
401.958	402.12
402.182	404.12
402.406	414.12
402.63	415.12
402.854	399.12
403.078	409.12
403.302	395.12
403.526	411.12
403.75	393.12
403.974	404.12
404.198	394.12
404.422	410.12
404.645	412.12
404.869	390.12
405.093	433.12
405.317	455.12
405.541	467.12
405.765	444.12
405.988	419.12
406.212	443.12
406.436	458.12
406.66	474.12
406.883	460.12
407.107	478.12
407.331	480.12
407.555	547.12
407.778	524.12
408.002	473.12
408.226	467.12
408.449	448.12
408.673	439.12
408.896	469.12
409.12	494.12
409.344	465.12
409.567	432.12
409.791	416.12
410.014	415.12
410.238	408.12
410.461	394.12
410.685	426.12
410.908	421.12
411.132	443.12
411.355	469.12
411.578	457.12
411.802	417.12
412.025	391.12
412.249	398.12
412.472	415.12
412.695	456.12
412.919	452.12
413.142	412.12
413.365	393.12
413.589	393.12
413.812	391.12
414.035	380.12
414.258	387.12
414.482	373.12
414.705	397.12
414.928	372.12
415.151	367.12
415.374	384.12
415.597	380.12
415.821	374.12
416.044	391.12
416.267	396.12
416.49	385.12
416.713	377.12
416.936	359.12
417.159	372.12
417.382	387.12
417.605	376.12
417.828	389.12
418.051	436.12
418.274	416.12
418.497	395.12
418.72	383.12
418.943	399.12
419.166	376.12
419.389	419.12
419.611	401.12
419.834	398.12
420.057	409.12
420.28	403.12
420.503	382.12
420.726	397.12
420.948	406.12
421.171	438.12
421.394	457.12
421.617	409.12
421.839	418.12
422.062	389.12
422.285	401.12
422.507	438.12
422.73	510.12
422.953	517.12
423.175	442.12
423.398	414.12
423.621	433.12
423.843	415.12
424.066	424.12
424.288	428.12
424.511	449.12
424.733	498.12
424.956	555.12
425.178	504.12
425.401	521.12
425.623	548.12
425.846	475.12
426.068	432.12
426.291	435.12
426.513	419.12
426.735	448.12
426.958	485.12
427.18	524.12
427.402	642.12
427.625	684.12
427.847	616.12
428.069	536.12
428.292	465.12
428.514	450.12
428.736	423.12
428.958	429.12
429.181	399.12
429.403	418.12
429.625	390.12
429.847	435.12
430.069	488.12
430.292	492.12
430.514	430.12
430.736	412.12
430.958	420.12
431.18	373.12
431.402	396.12
431.624	366.12
431.846	388.12
432.068	389.12
432.29	394.12
432.512	368.12
432.734	397.12
432.956	393.12
433.178	380.12
433.4	394.12
433.622	370.12
433.844	373.12
434.066	379.12
434.287	393.12
434.509	394.12
434.731	394.12
434.953	384.12
435.175	421.12
435.397	421.12
435.618	433.12
435.84	458.12
436.062	549.12
436.284	568.12
436.505	489.12
436.727	456.12
436.949	433.12
437.17	422.12
437.392	431.12
437.614	436.12
437.835	483.12
438.057	555.12
438.278	585.12
438.5	630.12
438.721	630.12
438.943	606.12
439.165	516.12
439.386	449.12
439.608	459.12
439.829	447.12
440.05	481.12
440.272	504.12
440.493	464.12
440.715	445.12
440.936	430.12
441.158	416.12
441.379	384.12
441.6	424.12
441.822	417.12
442.043	487.12
442.264	536.12
442.486	567.12
442.707	490.12
442.928	454.12
443.149	458.12
443.371	480.12
443.592	509.12
443.813	582.12
444.034	600.12
444.255	506.12
444.476	484.12
444.698	456.12
444.919	433.12
445.14	514.12
445.361	477.12
445.582	474.12
445.803	542.12
446.024	624.12
446.245	619.12
446.466	540.12
446.687	458.12
446.908	458.12
447.129	426.12
447.35	403.12
447.571	402.12
447.792	386.12
448.013	419.12
448.234	417.12
448.455	470.12
448.675	538.12
448.896	626.12
449.117	553.12
449.338	529.12
449.559	617.12
449.779	684.12
450	546.12
450.221	437.12
450.442	420.12
450.662	401.12
450.883	404.12
451.104	452.12
451.324	432.12
451.545	403.12
451.766	380.12
451.986	368.12
452.207	374.12
452.428	367.12
452.648	365.12
452.869	359.12
453.089	379.12
453.31	386.12
453.53	362.12
453.751	386.12
453.971	389.12
454.192	389.12
454.412	404.12
454.633	378.12
454.853	370.12
455.073	371.12
455.294	382.12
455.514	457.12
455.734	422.12
455.955	388.12
456.175	378.12
456.395	326.12
456.616	334.12
456.836	351.12
457.056	353.12
457.276	350.12
457.497	347.12
457.717	352.12
457.937	348.12
458.157	369.12
458.377	360.12
458.598	384.12
458.818	433.12
459.038	505.12
459.258	503.12
459.478	435.12
459.698	399.12
459.918	389.12
460.138	378.12
460.358	390.12
460.578	383.12
460.798	419.12
461.018	387.12
461.238	376.12
461.458	384.12
461.678	376.12
461.898	390.12
462.118	377.12
462.338	374.12
462.558	400.12
462.777	390.12
462.997	402.12
463.217	416.12
463.437	407.12
463.657	422.12
463.876	398.12
464.096	410.12
464.316	419.12
464.536	420.12
464.755	405.12
464.975	420.12
465.195	482.12
465.414	564.12
465.634	476.12
465.854	435.12
466.073	398.12
466.293	410.12
466.512	384.12
466.732	372.12
466.951	379.12
467.171	386.12
467.391	392.12
467.61	373.12
467.829	419.12
468.049	379.12
468.268	387.12
468.488	378.12
468.707	377.12
468.927	389.12
469.146	381.12
469.365	373.12
469.585	362.12
469.804	376.12
470.023	385.12
470.243	378.12
470.462	399.12
470.681	407.12
470.901	409.12
471.12	387.12
471.339	378.12
471.558	365.12
471.777	374.12
471.997	392.12
472.216	396.12
472.435	419.12
472.654	421.12
472.873	384.12
473.092	392.12
473.311	398.12
473.53	388.12
473.749	387.12
473.968	424.12
474.187	500.12
474.406	520.12
474.625	416.12
474.844	391.12
475.063	405.12
475.282	397.12
475.501	392.12
475.72	389.12
475.939	389.12
476.158	404.12
476.377	419.12
476.596	402.12
476.814	414.12
477.033	441.12
477.252	398.12
477.471	433.12
477.69	412.12
477.908	416.12
478.127	423.12
478.346	420.12
478.564	419.12
478.783	436.12
479.002	440.12
479.22	441.12
479.439	462.12
479.658	460.12
479.876	473.12
480.095	458.12
480.313	493.12
480.532	485.12
480.751	473.12
480.969	469.12
481.188	542.12
481.406	565.12
481.624	486.12
481.843	461.12
482.061	464.12
482.28	469.12
482.498	459.12
482.717	468.12
482.935	483.12
483.153	466.12
483.372	454.12
483.59	458.12
483.808	438.12
484.027	449.12
484.245	448.12
484.463	441.12
484.681	464.12
484.9	469.12
485.118	477.12
485.336	470.12
485.554	504.12
485.772	480.12
485.99	471.12
486.209	462.12
486.427	472.12
486.645	493.12
486.863	530.12
487.081	532.12
487.299	523.12
487.517	525.12
487.735	496.12
487.953	494.12
488.171	474.12
488.389	480.12
488.607	470.12
488.825	512.12
489.043	494.12
489.261	496.12
489.479	504.12
489.696	493.12
489.914	497.12
490.132	496.12
490.35	502.12
490.568	518.12
490.786	540.12
491.003	502.12
491.221	528.12
491.439	553.12
491.657	541.12
491.874	554.12
492.092	533.12
492.31	566.12
492.527	560.12
492.745	568.12
492.963	563.12
493.18	552.12
493.398	561.12
493.615	571.12
493.833	567.12
494.05	541.12
494.268	565.12
494.485	578.12
494.703	567.12
494.92	551.12
495.138	554.12
495.355	557.12
495.573	568.12
495.79	588.12
496.008	585.12
496.225	582.12
496.442	555.12
496.66	581.12
496.877	596.12
497.094	585.12
497.312	590.12
497.529	596.12
497.746	598.12
497.963	571.12
498.181	610.12
498.398	622.12
498.615	633.12
498.832	636.12
499.049	642.12
499.267	645.12
499.484	656.12
499.701	668.12
499.918	700.12
500.135	733.12
500.352	719.12
500.569	712.12
500.786	732.12
501.003	723.12
501.22	724.12
501.437	696.12
501.654	677.12
501.871	695.12
502.088	681.12
