Data from 1965.PennyLincolnUp.Lamp.En5.5.200Scan.071719.P1._HRD10591_14-07-51-910.txt Node
Date: Thu Jul 18 14:07:51 EDT 2019
User: cochatt
Spectrometer: HR+D1059
Trigger mode: 1
Integration Time (sec): 1.000000E-1
Scans to average: 1
Electric dark correction enabled: true
Nonlinearity correction enabled: false
Boxcar width: 0
XAxis mode: Wavelengths
Number of Pixels in Spectrum: 2048
>>>>>Begin Spectral Data<<<<<
223.165	-11
223.4	-11
223.635	-11
223.869	-22
224.104	-25
224.338	-23
224.573	-4
224.808	-24
225.042	-7
225.277	-9
225.511	3
225.746	6
225.98	6
226.215	17
226.449	24
226.683	27
226.918	21
227.152	21
227.387	37
227.621	31
227.856	45
228.09	68
228.324	46
228.559	38
228.793	73
229.027	76
229.262	78
229.496	101
229.73	123
229.964	125
230.199	116
230.433	102
230.667	91
230.901	95
231.136	96
231.37	99
231.604	109
231.838	91
232.072	113
232.306	101
232.541	97
232.775	103
233.009	91
233.243	90
233.477	107
233.711	108
233.945	105
234.179	89
234.413	96
234.647	105
234.881	97
235.115	91
235.349	109
235.583	117
235.817	107
236.051	104
236.285	103
236.519	108
236.753	119
236.987	133
237.221	141
237.455	189
237.689	145
237.922	120
238.156	130
238.39	95
238.624	111
238.858	119
239.091	103
239.325	114
239.559	112
239.793	112
240.027	116
240.26	131
240.494	134
240.728	128
240.961	125
241.195	118
241.429	125
241.662	105
241.896	112
242.13	117
242.363	106
242.597	121
242.83	118
243.064	121
243.298	111
243.531	131
243.765	118
243.998	105
244.232	108
244.465	127
244.699	121
244.932	119
245.166	112
245.399	126
245.633	125
245.866	126
246.099	122
246.333	135
246.566	129
246.8	131
247.033	128
247.266	134
247.5	129
247.733	129
247.966	148
248.2	145
248.433	145
248.666	138
248.899	153
249.133	174
249.366	155
249.599	155
249.832	156
250.066	154
250.299	149
250.532	153
250.765	157
250.998	162
251.231	170
251.465	170
251.698	165
251.931	157
252.164	163
252.397	157
252.63	155
252.863	161
253.096	172
253.329	186
253.562	177
253.795	176
254.028	172
254.261	170
254.494	195
254.727	199
254.96	216
255.193	208
255.426	195
255.659	189
255.892	183
256.124	173
256.357	179
256.59	184
256.823	165
257.056	174
257.289	175
257.521	161
257.754	167
257.987	173
258.22	183
258.452	169
258.685	176
258.918	169
259.151	173
259.383	177
259.616	172
259.849	192
260.081	183
260.314	194
260.547	198
260.779	199
261.012	184
261.244	192
261.477	187
261.71	187
261.942	177
262.175	175
262.407	182
262.64	187
262.872	181
263.105	163
263.337	185
263.57	163
263.802	174
264.035	168
264.267	176
264.499	169
264.732	161
264.964	188
265.197	158
265.429	167
265.661	165
265.894	172
266.126	169
266.358	151
266.591	159
266.823	181
267.055	181
267.287	170
267.52	183
267.752	181
267.984	179
268.216	182
268.448	179
268.681	188
268.913	204
269.145	199
269.377	213
269.609	204
269.841	210
270.073	191
270.306	209
270.538	243
270.77	230
271.002	237
271.234	208
271.466	224
271.698	231
271.93	220
272.162	245
272.394	236
272.626	226
272.858	215
273.09	201
273.322	219
273.553	214
273.785	195
274.017	199
274.249	219
274.481	195
274.713	198
274.945	193
275.176	199
275.408	216
275.64	195
275.872	200
276.104	215
276.335	206
276.567	216
276.799	217
277.031	232
277.262	240
277.494	220
277.726	204
277.957	222
278.189	196
278.421	212
278.652	211
278.884	193
279.115	197
279.347	216
279.579	212
279.81	186
280.042	202
280.273	221
280.505	204
280.736	212
280.968	200
281.199	204
281.431	219
281.662	213
281.894	227
282.125	213
282.356	221
282.588	236
282.819	234
283.051	212
283.282	221
283.513	204
283.745	230
283.976	219
284.207	219
284.439	220
284.67	202
284.901	215
285.132	215
285.364	217
285.595	206
285.826	202
286.057	221
286.288	215
286.52	228
286.751	215
286.982	220
287.213	217
287.444	218
287.675	213
287.906	211
288.138	229
288.369	240
288.6	236
288.831	239
289.062	221
289.293	222
289.524	226
289.755	215
289.986	219
290.217	221
290.448	232
290.679	216
290.91	219
291.141	215
291.371	201
291.602	211
291.833	229
292.064	235
292.295	224
292.526	231
292.757	234
292.987	234
293.218	224
293.449	235
293.68	218
293.91	239
294.141	220
294.372	205
294.603	243
294.833	237
295.064	220
295.295	225
295.525	238
295.756	236
295.987	227
296.217	253
296.448	240
296.679	232
296.909	222
297.14	215
297.37	216
297.601	225
297.831	233
298.062	253
298.292	231
298.523	235
298.753	227
298.984	228
299.214	253
299.445	232
299.675	237
299.905	243
300.136	245
300.366	241
300.597	237
300.827	238
301.057	253
301.288	260
301.518	257
301.748	262
301.979	253
302.209	260
302.439	240
302.669	257
302.9	234
303.13	237
303.36	237
303.59	254
303.82	254
304.051	248
304.281	264
304.511	267
304.741	247
304.971	247
305.201	247
305.431	264
305.661	230
305.891	259
306.121	265
306.352	260
306.582	263
306.812	241
307.042	248
307.272	245
307.502	249
307.731	260
307.961	261
308.191	262
308.421	256
308.651	246
308.881	263
309.111	268
309.341	254
309.571	255
309.8	268
310.03	264
310.26	302
310.49	275
310.72	301
310.949	305
311.179	291
311.409	283
311.639	282
311.868	279
312.098	292
312.328	293
312.557	307
312.787	333
313.017	312
313.246	300
313.476	289
313.706	296
313.935	273
314.165	308
314.394	301
314.624	291
314.853	287
315.083	298
315.312	289
315.542	283
315.771	282
316.001	280
316.23	281
316.46	289
316.689	284
316.919	290
317.148	296
317.377	295
317.607	289
317.836	292
318.065	299
318.295	313
318.524	305
318.753	277
318.983	283
319.212	283
319.441	302
319.67	281
319.9	280
320.129	293
320.358	294
320.587	305
320.816	308
321.046	315
321.275	302
321.504	311
321.733	303
321.962	300
322.191	321
322.42	317
322.649	326
322.878	349
323.108	364
323.337	350
323.566	368
323.795	359
324.024	401
324.253	509
324.482	723
324.71	1092
324.939	1491
325.168	1247
325.397	646
325.626	472
325.855	404
326.084	359
326.313	378
326.542	368
326.77	394
326.999	475
327.228	654
327.457	955
327.686	1112
327.914	712
328.143	481
328.372	437
328.6	416
328.829	414
329.058	416
329.287	405
329.515	395
329.744	394
329.972	376
330.201	391
330.43	410
330.658	435
330.887	449
331.115	424
331.344	379
331.572	353
331.801	368
332.03	377
332.258	351
332.486	344
332.715	342
332.943	358
333.172	325
333.4	331
333.629	343
333.857	352
334.085	353
334.314	368
334.542	373
334.771	382
334.999	377
335.227	362
335.455	335
335.684	337
335.912	336
336.14	337
336.369	328
336.597	354
336.825	349
337.053	336
337.281	311
337.51	321
337.738	314
337.966	327
338.194	329
338.422	348
338.65	344
338.878	319
339.106	296
339.334	315
339.562	309
339.79	340
340.018	337
340.246	332
340.474	320
340.702	336
340.93	308
341.158	294
341.386	301
341.614	323
341.842	323
342.07	336
342.298	316
342.526	317
342.754	331
342.981	310
343.209	316
343.437	327
343.665	319
343.893	327
344.12	324
344.348	336
344.576	355
344.804	325
345.031	335
345.259	347
345.487	340
345.714	335
345.942	335
346.17	308
346.397	313
346.625	315
346.853	291
347.08	318
347.308	330
347.535	311
347.763	303
347.99	311
348.218	319
348.445	344
348.673	318
348.9	326
349.128	303
349.355	307
349.583	312
349.81	301
350.037	313
350.265	296
350.492	311
350.72	304
350.947	309
351.174	311
351.402	304
351.629	299
351.856	315
352.083	330
352.311	336
352.538	327
352.765	323
352.992	331
353.22	315
353.447	320
353.674	296
353.901	307
354.128	299
354.355	293
354.583	303
354.81	312
355.037	309
355.264	287
355.491	308
355.718	307
355.945	297
356.172	316
356.399	307
356.626	297
356.853	291
357.08	295
357.307	293
357.534	293
357.761	304
357.988	314
358.215	290
358.441	295
358.668	318
358.895	324
359.122	311
359.349	313
359.576	323
359.802	327
360.029	344
360.256	358
360.483	335
360.709	335
360.936	317
361.163	312
361.39	327
361.616	329
361.843	289
362.07	311
362.296	319
362.523	310
362.749	335
362.976	319
363.203	321
363.429	317
363.656	316
363.882	310
364.109	316
364.335	313
364.562	301
364.788	323
365.015	315
365.241	307
365.468	304
365.694	303
365.92	330
366.147	310
366.373	295
366.599	304
366.826	301
367.052	308
367.278	323
367.505	302
367.731	321
367.957	304
368.184	309
368.41	287
368.636	309
368.862	331
369.089	319
369.315	295
369.541	311
369.767	308
369.993	312
370.219	315
370.445	298
370.672	313
370.898	303
371.124	311
371.35	297
371.576	292
371.802	327
372.028	308
372.254	304
372.48	299
372.706	291
372.932	303
373.158	304
373.384	324
373.61	309
373.835	316
374.061	318
374.287	297
374.513	313
374.739	307
374.965	305
375.191	304
375.416	304
375.642	305
375.868	318
376.094	304
376.319	318
376.545	300
376.771	303
376.997	301
377.222	304
377.448	311
377.674	299
377.899	312
378.125	300
378.35	315
378.576	295
378.802	307
379.027	327
379.253	318
379.478	301
379.704	305
379.929	310
380.155	325
380.38	326
380.606	307
380.831	313
381.057	325
381.282	290
381.507	317
381.733	316
381.958	294
382.184	297
382.409	321
382.634	330
382.86	308
383.085	317
383.31	321
383.535	332
383.761	312
383.986	327
384.211	320
384.436	328
384.662	320
384.887	336
385.112	320
385.337	323
385.562	342
385.787	344
386.013	338
386.238	342
386.463	348
386.688	350
386.913	311
387.138	325
387.363	315
387.588	351
387.813	335
388.038	318
388.263	340
388.488	347
388.713	335
388.938	319
389.163	332
389.387	341
389.612	323
389.837	345
390.062	355
390.287	322
390.512	321
390.736	331
390.961	328
391.186	347
391.411	351
391.636	342
391.86	318
392.085	332
392.31	340
392.534	336
392.759	350
392.984	322
393.208	331
393.433	344
393.658	320
393.882	349
394.107	333
394.331	350
394.556	327
394.78	334
395.005	330
395.229	328
395.454	360
395.678	348
395.903	343
396.127	367
396.352	366
396.576	347
396.801	344
397.025	341
397.249	349
397.474	362
397.698	367
397.922	363
398.147	358
398.371	371
398.595	361
398.82	368
399.044	381
399.268	396
399.492	414
399.717	410
399.941	418
400.165	440
400.389	449
400.613	425
400.837	387
401.062	371
401.286	387
401.51	375
401.734	391
401.958	360
402.182	379
402.406	385
402.63	387
402.854	371
403.078	392
403.302	375
403.526	383
403.75	378
403.974	383
404.198	367
404.422	385
404.645	394
404.869	379
405.093	434
405.317	430
405.541	467
405.765	419
405.988	411
406.212	416
406.436	395
406.66	425
406.883	414
407.107	402
407.331	433
407.555	514
407.778	484
408.002	466
408.226	403
408.449	396
408.673	421
408.896	449
409.12	467
409.344	441
409.567	397
409.791	404
410.014	395
410.238	377
410.461	384
410.685	392
410.908	417
411.132	449
411.355	442
411.578	427
411.802	391
412.025	419
412.249	379
412.472	402
412.695	424
412.919	410
413.142	381
413.365	381
413.589	383
413.812	377
414.035	399
414.258	375
414.482	387
414.705	373
414.928	349
415.151	374
415.374	351
415.597	379
415.821	354
416.044	366
416.267	364
416.49	377
416.713	354
416.936	367
417.159	371
417.382	363
417.605	366
417.828	364
418.051	382
418.274	374
418.497	358
418.72	380
418.943	363
419.166	385
419.389	375
419.611	399
419.834	382
420.057	384
420.28	381
420.503	361
420.726	389
420.948	410
421.171	411
421.394	425
421.617	396
421.839	381
422.062	383
422.285	374
422.507	434
422.73	484
422.953	459
423.175	431
423.398	406
423.621	401
423.843	407
424.066	404
424.288	381
424.511	409
424.733	463
424.956	507
425.178	485
425.401	491
425.623	489
425.846	428
426.068	407
426.291	395
426.513	412
426.735	421
426.958	454
427.18	506
427.402	598
427.625	637
427.847	560
428.069	514
428.292	427
428.514	401
428.736	410
428.958	402
429.181	378
429.403	359
429.625	391
429.847	408
430.069	464
430.292	452
430.514	401
430.736	383
430.958	373
431.18	374
431.402	367
431.624	360
431.846	344
432.068	356
432.29	365
432.512	371
432.734	358
432.956	348
433.178	375
433.4	387
433.622	366
433.844	362
434.066	381
434.287	379
434.509	363
434.731	376
434.953	372
435.175	391
435.397	415
435.618	417
435.84	427
436.062	498
436.284	539
436.505	456
436.727	420
436.949	398
437.17	381
437.392	403
437.614	401
437.835	405
438.057	474
438.278	553
438.5	564
438.721	579
438.943	589
439.165	445
439.386	422
439.608	408
439.829	447
440.05	423
440.272	457
440.493	440
440.715	415
440.936	391
441.158	392
441.379	409
441.6	385
441.822	404
442.043	424
442.264	502
442.486	526
442.707	472
442.928	415
443.149	434
443.371	442
443.592	469
443.813	517
444.034	553
444.255	452
444.476	421
444.698	422
444.919	427
445.14	483
445.361	452
445.582	442
445.803	477
446.024	560
446.245	559
446.466	519
446.687	437
446.908	406
447.129	389
447.35	385
447.571	384
447.792	373
448.013	373
448.234	375
448.455	450
448.675	529
448.896	601
449.117	488
449.338	500
449.559	549
449.779	601
450	503
450.221	432
450.442	401
450.662	385
450.883	377
451.104	390
451.324	378
451.545	365
451.766	368
451.986	346
452.207	344
452.428	349
452.648	357
452.869	341
453.089	377
453.31	353
453.53	339
453.751	364
453.971	361
454.192	367
454.412	360
454.633	357
454.853	342
455.073	340
455.294	379
455.514	408
455.734	418
455.955	357
456.175	335
456.395	343
456.616	332
456.836	334
457.056	331
457.276	327
457.497	324
457.717	328
457.937	315
458.157	350
458.377	355
458.598	373
458.818	407
459.038	415
459.258	430
459.478	393
459.698	387
459.918	363
460.138	356
460.358	358
460.578	384
460.798	377
461.018	378
461.238	369
461.458	377
461.678	366
461.898	371
462.118	395
462.338	385
462.558	375
462.777	373
462.997	383
463.217	379
463.437	392
463.657	373
463.876	374
464.096	408
464.316	389
464.536	391
464.755	391
464.975	397
465.195	422
465.414	470
465.634	433
465.854	379
466.073	371
466.293	367
466.512	373
466.732	357
466.951	348
467.171	366
467.391	366
467.61	369
467.829	387
468.049	357
468.268	373
468.488	361
468.707	366
468.927	373
469.146	353
469.365	356
469.585	357
469.804	361
470.023	377
470.243	344
470.462	373
470.681	379
470.901	379
471.12	378
471.339	376
471.558	367
471.777	375
471.997	366
472.216	372
472.435	385
472.654	402
472.873	371
473.092	369
473.311	375
473.53	364
473.749	371
473.968	399
474.187	490
474.406	487
474.625	416
474.844	383
475.063	371
475.282	373
475.501	381
475.72	372
475.939	361
476.158	383
476.377	382
476.596	387
476.814	400
477.033	385
477.252	396
477.471	382
477.69	379
477.908	400
478.127	391
478.346	391
478.564	416
478.783	411
479.002	427
479.22	415
479.439	411
479.658	434
479.876	450
480.095	443
480.313	450
480.532	450
480.751	447
480.969	426
481.188	483
481.406	502
481.624	462
481.843	431
482.061	457
482.28	433
482.498	431
482.717	413
482.935	422
483.153	440
483.372	425
483.59	427
483.808	433
484.027	426
484.245	437
484.463	417
484.681	441
484.9	433
485.118	445
485.336	457
485.554	444
485.772	441
485.99	442
486.209	455
486.427	448
486.645	467
486.863	468
487.081	457
487.299	458
487.517	474
487.735	468
487.953	441
488.171	438
488.389	467
488.607	463
488.825	448
489.043	462
489.261	471
489.479	487
489.696	451
489.914	455
490.132	475
490.35	476
490.568	476
490.786	472
491.003	471
491.221	483
491.439	495
491.657	506
491.874	504
492.092	529
492.31	500
492.527	530
492.745	512
492.963	513
493.18	506
493.398	501
493.615	500
493.833	529
494.05	529
494.268	552
494.485	524
494.703	510
494.92	517
495.138	519
495.355	513
495.573	536
495.79	525
496.008	532
496.225	540
496.442	547
496.66	543
496.877	557
497.094	536
497.312	543
497.529	552
497.746	559
497.963	573
498.181	577
498.398	589
498.615	607
498.832	584
499.049	606
499.267	624
499.484	623
499.701	641
499.918	671
500.135	655
500.352	681
500.569	725
500.786	716
501.003	702
501.22	689
501.437	670
501.654	660
501.871	664
502.088	650
502.305	653
502.522	591
502.739	592
502.956	586
503.172	558
503.389	579
503.606	573
503.823	555
504.04	539
504.256	546
504.473	553
504.69	516
504.907	536
505.123	539
505.34	504
505.557	535
505.773	525
505.99	529
506.207	491
506.423	502
506.64	490
506.856	515
507.073	495
507.289	501
507.506	509
507.722	527
507.939	540
508.155	512
508.372	491
508.588	471
508.805	500
509.021	494
509.238	499
509.454	517
509.67	479
509.887	485
510.103	483
510.319	487
510.536	554
510.752	891
510.968	717
511.184	480
511.401	471
511.617	475
511.833	457
512.049	455
512.265	455
512.481	461
512.698	442
512.914	467
513.13	460
513.346	456
513.562	458
513.778	444
513.994	466
514.21	478
514.426	508
514.642	508
514.858	520
515.074	564
515.29	656
515.506	932
515.721	799
515.937	547
516.153	509
516.369	494
516.585	509
516.801	487
517.016	481
517.232	494
517.448	478
517.664	473
517.879	495
518.095	456
518.311	477
518.527	446
518.742	481
518.958	466
519.173	453
519.389	455
519.605	448
519.82	472
520.036	476
520.251	479
520.467	506
520.682	497
520.898	483
521.113	530
521.329	541
521.544	611
521.76	760
521.975	1211
522.19	1210
522.406	671
522.621	508
522.836	482
523.052	472
523.267	446
523.482	442
523.698	423
523.913	419
524.128	425
524.343	444
524.559	418
524.774	437
524.989	424
525.204	425
525.419	400
525.634	417
525.849	417
526.064	391
526.28	383
526.495	384
526.71	405
526.925	394
527.14	389
527.355	377
527.57	380
527.785	379
527.999	397
528.214	405
528.429	391
528.644	382
528.859	383
529.074	397
529.289	428
529.503	471
529.718	438
529.933	402
530.148	397
530.363	386
530.577	396
530.792	380
531.007	374
531.221	391
531.436	373
531.651	374
531.865	389
532.08	364
532.295	387
532.509	368
532.724	383
532.938	371
533.153	366
533.367	373
533.582	371
533.796	373
534.011	363
534.225	368
534.44	377
534.654	365
534.868	359
535.083	379
535.297	371
535.511	378
535.726	394
535.94	379
536.154	360
536.369	371
536.583	362
536.797	366
537.011	361
537.225	364
537.44	354
537.654	362
537.868	357
538.082	344
538.296	348
538.51	354
538.724	365
538.938	368
539.153	364
539.367	352
539.581	366
539.795	350
540.009	362
540.222	372
540.436	346
540.65	373
540.864	361
541.078	390
541.292	369
541.506	359
541.72	348
541.934	358
542.147	359
542.361	350
542.575	353
542.789	351
543.002	361
543.216	349
543.43	350
543.644	361
543.857	345
544.071	363
544.285	358
544.498	342
544.712	337
544.925	338
545.139	361
545.352	341
545.566	336
545.779	359
545.993	341
546.206	343
546.42	339
546.633	352
546.847	340
547.06	352
547.274	329
547.487	363
547.7	330
547.914	332
548.127	367
548.34	327
548.554	333
548.767	341
548.98	324
549.193	332
549.407	347
549.62	340
549.833	334
550.046	342
550.259	344
550.473	328
550.686	358
550.899	346
551.112	353
551.325	359
551.538	331
551.751	339
551.964	338
552.177	338
552.39	345
552.603	333
552.816	338
553.029	341
553.242	326
553.455	337
553.667	342
553.88	361
554.093	342
554.306	342
554.519	350
554.732	331
554.944	342
555.157	311
555.37	320
555.583	335
555.795	309
556.008	336
556.221	312
556.433	326
556.646	306
556.859	316
557.071	324
557.284	310
557.496	304
557.709	291
557.921	312
558.134	306
558.346	324
558.559	319
558.771	294
558.984	312
559.196	297
559.409	300
559.621	313
559.833	291
560.046	297
560.258	299
560.47	300
560.683	324
560.895	308
561.107	313
561.32	292
561.532	311
561.744	294
561.956	298
562.168	307
562.381	305
562.593	295
562.805	303
563.017	313
563.229	315
563.441	301
563.653	304
563.865	315
