Data from 1965.PennyLincolnUp.Lamp.En5.5.200Scan.071719.P1._HRD10591_14-11-00-912.txt Node
Date: Thu Jul 18 14:11:00 EDT 2019
User: cochatt
Spectrometer: HR+D1059
Trigger mode: 1
Integration Time (sec): 1.000000E-1
Scans to average: 1
Electric dark correction enabled: true
Nonlinearity correction enabled: false
Boxcar width: 0
XAxis mode: Wavelengths
Number of Pixels in Spectrum: 2048
>>>>>Begin Spectral Data<<<<<
223.165	-14.31
223.4	-14.31
223.635	-14.31
223.869	-16.31
224.104	-8.31
224.338	-20.31
224.573	-24.31
224.808	-9.31
225.042	-21.31
225.277	-11.31
225.511	-3.31
225.746	4.69
225.98	20.69
226.215	8.69
226.449	23.69
226.683	20.69
226.918	21.69
227.152	28.69
227.387	34.69
227.621	29.69
227.856	30.69
228.09	39.69
228.324	45.69
228.559	54.69
228.793	68.69
229.027	93.69
229.262	103.69
229.496	115.69
229.73	125.69
229.964	134.69
230.199	133.69
230.433	104.69
230.667	105.69
230.901	109.69
231.136	108.69
231.37	109.69
231.604	89.69
231.838	101.69
232.072	120.69
232.306	119.69
232.541	126.69
232.775	110.69
233.009	93.69
233.243	94.69
233.477	105.69
233.711	101.69
233.945	116.69
234.179	108.69
234.413	128.69
234.647	116.69
234.881	123.69
235.115	98.69
235.349	117.69
235.583	112.69
235.817	119.69
236.051	122.69
236.285	124.69
236.519	134.69
236.753	130.69
236.987	134.69
237.221	169.69
237.455	195.69
237.689	181.69
237.922	132.69
238.156	138.69
238.39	128.69
238.624	124.69
238.858	116.69
239.091	115.69
239.325	125.69
239.559	116.69
239.793	142.69
240.027	134.69
240.26	133.69
240.494	143.69
240.728	159.69
240.961	138.69
241.195	120.69
241.429	141.69
241.662	130.69
241.896	134.69
242.13	124.69
242.363	107.69
242.597	124.69
242.83	134.69
243.064	126.69
243.298	121.69
243.531	126.69
243.765	126.69
243.998	134.69
244.232	138.69
244.465	132.69
244.699	122.69
244.932	134.69
245.166	128.69
245.399	128.69
245.633	127.69
245.866	126.69
246.099	143.69
246.333	161.69
246.566	136.69
246.8	139.69
247.033	157.69
247.266	147.69
247.5	152.69
247.733	146.69
247.966	163.69
248.2	162.69
248.433	173.69
248.666	172.69
248.899	187.69
249.133	175.69
249.366	210.69
249.599	188.69
249.832	170.69
250.066	174.69
250.299	182.69
250.532	180.69
250.765	174.69
250.998	202.69
251.231	203.69
251.465	207.69
251.698	200.69
251.931	192.69
252.164	180.69
252.397	195.69
252.63	193.69
252.863	180.69
253.096	218.69
253.329	217.69
253.562	208.69
253.795	202.69
254.028	227.69
254.261	215.69
254.494	223.69
254.727	234.69
254.96	266.69
255.193	239.69
255.426	224.69
255.659	222.69
255.892	223.69
256.124	208.69
256.357	213.69
256.59	229.69
256.823	206.69
257.056	197.69
257.289	189.69
257.521	200.69
257.754	198.69
257.987	190.69
258.22	191.69
258.452	188.69
258.685	201.69
258.918	189.69
259.151	198.69
259.383	209.69
259.616	205.69
259.849	216.69
260.081	216.69
260.314	233.69
260.547	240.69
260.779	226.69
261.012	228.69
261.244	218.69
261.477	214.69
261.71	212.69
261.942	219.69
262.175	222.69
262.407	231.69
262.64	186.69
262.872	199.69
263.105	200.69
263.337	187.69
263.57	205.69
263.802	193.69
264.035	197.69
264.267	191.69
264.499	179.69
264.732	192.69
264.964	203.69
265.197	197.69
265.429	204.69
265.661	195.69
265.894	192.69
266.126	205.69
266.358	184.69
266.591	217.69
266.823	207.69
267.055	213.69
267.287	237.69
267.52	207.69
267.752	214.69
267.984	218.69
268.216	206.69
268.448	221.69
268.681	220.69
268.913	211.69
269.145	230.69
269.377	266.69
269.609	257.69
269.841	262.69
270.073	252.69
270.306	278.69
270.538	306.69
270.77	280.69
271.002	292.69
271.234	269.69
271.466	280.69
271.698	287.69
271.93	300.69
272.162	311.69
272.394	295.69
272.626	280.69
272.858	259.69
273.09	256.69
273.322	242.69
273.553	247.69
273.785	277.69
274.017	250.69
274.249	249.69
274.481	237.69
274.713	239.69
274.945	265.69
275.176	246.69
275.408	263.69
275.64	248.69
275.872	240.69
276.104	252.69
276.335	264.69
276.567	249.69
276.799	267.69
277.031	279.69
277.262	288.69
277.494	291.69
277.726	266.69
277.957	277.69
278.189	267.69
278.421	249.69
278.652	242.69
278.884	228.69
279.115	240.69
279.347	244.69
279.579	243.69
279.81	233.69
280.042	229.69
280.273	223.69
280.505	238.69
280.736	251.69
280.968	231.69
281.199	228.69
281.431	246.69
281.662	238.69
281.894	238.69
282.125	248.69
282.356	252.69
282.588	268.69
282.819	259.69
283.051	264.69
283.282	249.69
283.513	260.69
283.745	234.69
283.976	250.69
284.207	267.69
284.439	266.69
284.67	253.69
284.901	249.69
285.132	235.69
285.364	233.69
285.595	256.69
285.826	259.69
286.057	265.69
286.288	258.69
286.52	250.69
286.751	263.69
286.982	247.69
287.213	227.69
287.444	274.69
287.675	249.69
287.906	263.69
288.138	274.69
288.369	272.69
288.6	291.69
288.831	262.69
289.062	252.69
289.293	271.69
289.524	254.69
289.755	259.69
289.986	278.69
290.217	251.69
290.448	243.69
290.679	257.69
290.91	258.69
291.141	268.69
291.371	271.69
291.602	268.69
291.833	246.69
292.064	269.69
292.295	262.69
292.526	263.69
292.757	270.69
292.987	270.69
293.218	254.69
293.449	266.69
293.68	246.69
293.91	264.69
294.141	275.69
294.372	270.69
294.603	247.69
294.833	268.69
295.064	256.69
295.295	274.69
295.525	258.69
295.756	271.69
295.987	287.69
296.217	303.69
296.448	296.69
296.679	289.69
296.909	264.69
297.14	270.69
297.37	277.69
297.601	274.69
297.831	267.69
298.062	252.69
298.292	279.69
298.523	257.69
298.753	278.69
298.984	286.69
299.214	290.69
299.445	290.69
299.675	288.69
299.905	280.69
300.136	270.69
300.366	279.69
300.597	276.69
300.827	293.69
301.057	300.69
301.288	310.69
301.518	292.69
301.748	274.69
301.979	284.69
302.209	293.69
302.439	302.69
302.669	293.69
302.9	308.69
303.13	282.69
303.36	278.69
303.59	312.69
303.82	313.69
304.051	314.69
304.281	300.69
304.511	271.69
304.741	280.69
304.971	301.69
305.201	296.69
305.431	290.69
305.661	283.69
305.891	298.69
306.121	290.69
306.352	301.69
306.582	316.69
306.812	286.69
307.042	294.69
307.272	301.69
307.502	294.69
307.731	316.69
307.961	284.69
308.191	292.69
308.421	304.69
308.651	311.69
308.881	306.69
309.111	301.69
309.341	320.69
309.571	333.69
309.8	325.69
310.03	342.69
310.26	345.69
310.49	352.69
310.72	356.69
310.949	367.69
311.179	372.69
311.409	361.69
311.639	324.69
311.868	345.69
312.098	350.69
312.328	348.69
312.557	382.69
312.787	378.69
313.017	389.69
313.246	383.69
313.476	359.69
313.706	351.69
313.935	347.69
314.165	358.69
314.394	366.69
314.624	379.69
314.853	366.69
315.083	344.69
315.312	365.69
315.542	350.69
315.771	344.69
316.001	346.69
316.23	359.69
316.46	341.69
316.689	338.69
316.919	347.69
317.148	346.69
317.377	354.69
317.607	338.69
317.836	359.69
318.065	352.69
318.295	349.69
318.524	336.69
318.753	340.69
318.983	323.69
319.212	318.69
319.441	348.69
319.67	338.69
319.9	359.69
320.129	344.69
320.358	374.69
320.587	356.69
320.816	372.69
321.046	383.69
321.275	384.69
321.504	373.69
321.733	376.69
321.962	380.69
322.191	398.69
322.42	406.69
322.649	434.69
322.878	444.69
323.108	464.69
323.337	444.69
323.566	487.69
323.795	505.69
324.024	595.69
324.253	742.69
324.482	1059.69
324.71	1586.69
324.939	2187.69
325.168	1846.69
325.397	978.69
325.626	652.69
325.855	542.69
326.084	510.69
326.313	486.69
326.542	505.69
326.77	559.69
326.999	671.69
327.228	939.69
327.457	1385.69
327.686	1651.69
327.914	1074.69
328.143	720.69
328.372	657.69
328.6	584.69
328.829	574.69
329.058	570.69
329.287	583.69
329.515	544.69
329.744	518.69
329.972	483.69
330.201	530.69
330.43	546.69
330.658	594.69
330.887	606.69
331.115	588.69
331.344	502.69
331.572	466.69
331.801	475.69
332.03	438.69
332.258	436.69
332.486	430.69
332.715	427.69
332.943	414.69
333.172	430.69
333.4	402.69
333.629	442.69
333.857	440.69
334.085	457.69
334.314	484.69
334.542	506.69
334.771	514.69
334.999	455.69
335.227	442.69
335.455	428.69
335.684	409.69
335.912	421.69
336.14	408.69
336.369	382.69
336.597	410.69
336.825	414.69
337.053	391.69
337.281	376.69
337.51	397.69
337.738	400.69
337.966	387.69
338.194	414.69
338.422	430.69
338.65	392.69
338.878	376.69
339.106	362.69
339.334	392.69
339.562	367.69
339.79	385.69
340.018	398.69
340.246	383.69
340.474	413.69
340.702	398.69
340.93	416.69
341.158	394.69
341.386	411.69
341.614	376.69
341.842	395.69
342.07	392.69
342.298	380.69
342.526	385.69
342.754	376.69
342.981	366.69
343.209	388.69
343.437	398.69
343.665	382.69
343.893	369.69
344.12	383.69
344.348	384.69
344.576	380.69
344.804	406.69
345.031	412.69
345.259	436.69
345.487	418.69
345.714	387.69
345.942	392.69
346.17	399.69
346.397	384.69
346.625	395.69
346.853	382.69
347.08	379.69
347.308	395.69
347.535	393.69
347.763	403.69
347.99	391.69
348.218	394.69
348.445	409.69
348.673	388.69
348.9	380.69
349.128	382.69
349.355	367.69
349.583	348.69
349.81	360.69
350.037	351.69
350.265	380.69
350.492	366.69
350.72	371.69
350.947	391.69
351.174	395.69
351.402	391.69
351.629	396.69
351.856	370.69
352.083	411.69
352.311	414.69
352.538	412.69
352.765	383.69
352.992	399.69
353.22	384.69
353.447	398.69
353.674	377.69
353.901	355.69
354.128	364.69
354.355	360.69
354.583	367.69
354.81	350.69
355.037	358.69
355.264	356.69
355.491	351.69
355.718	339.69
355.945	363.69
356.172	360.69
356.399	339.69
356.626	348.69
356.853	351.69
357.08	362.69
357.307	344.69
357.534	361.69
357.761	340.69
357.988	347.69
358.215	371.69
358.441	340.69
358.668	358.69
358.895	348.69
359.122	367.69
359.349	357.69
359.576	387.69
359.802	423.69
360.029	440.69
360.256	446.69
360.483	412.69
360.709	394.69
360.936	398.69
361.163	396.69
361.39	387.69
361.616	392.69
361.843	382.69
362.07	382.69
362.296	391.69
362.523	374.69
362.749	403.69
362.976	374.69
363.203	384.69
363.429	349.69
363.656	349.69
363.882	361.69
364.109	352.69
364.335	354.69
364.562	342.69
364.788	348.69
365.015	364.69
365.241	358.69
365.468	366.69
365.694	382.69
365.92	372.69
366.147	356.69
366.373	363.69
366.599	356.69
366.826	365.69
367.052	355.69
367.278	367.69
367.505	347.69
367.731	370.69
367.957	364.69
368.184	372.69
368.41	356.69
368.636	387.69
368.862	362.69
369.089	382.69
369.315	357.69
369.541	379.69
369.767	352.69
369.993	357.69
370.219	368.69
370.445	365.69
370.672	344.69
370.898	351.69
371.124	347.69
371.35	361.69
371.576	350.69
371.802	359.69
372.028	352.69
372.254	365.69
372.48	339.69
372.706	375.69
372.932	364.69
373.158	364.69
373.384	368.69
373.61	359.69
373.835	369.69
374.061	374.69
374.287	361.69
374.513	358.69
374.739	364.69
374.965	356.69
375.191	367.69
375.416	365.69
375.642	344.69
375.868	357.69
376.094	357.69
376.319	360.69
376.545	358.69
376.771	355.69
376.997	354.69
377.222	366.69
377.448	354.69
377.674	342.69
377.899	354.69
378.125	352.69
378.35	345.69
378.576	338.69
378.802	349.69
379.027	335.69
379.253	337.69
379.478	347.69
379.704	346.69
379.929	344.69
380.155	346.69
380.38	358.69
380.606	330.69
380.831	350.69
381.057	366.69
381.282	348.69
381.507	358.69
381.733	360.69
381.958	365.69
382.184	356.69
382.409	358.69
382.634	359.69
382.86	366.69
383.085	365.69
383.31	361.69
383.535	355.69
383.761	360.69
383.986	363.69
384.211	363.69
384.436	371.69
384.662	365.69
384.887	375.69
385.112	351.69
385.337	384.69
385.562	374.69
385.787	371.69
386.013	380.69
386.238	372.69
386.463	390.69
386.688	382.69
386.913	368.69
387.138	384.69
387.363	364.69
387.588	370.69
387.813	370.69
388.038	355.69
388.263	382.69
388.488	378.69
388.713	384.69
388.938	372.69
389.163	379.69
389.387	392.69
389.612	376.69
389.837	391.69
390.062	356.69
390.287	384.69
390.512	378.69
390.736	370.69
390.961	385.69
391.186	389.69
391.411	390.69
391.636	370.69
391.86	363.69
392.085	392.69
392.31	378.69
392.534	379.69
392.759	387.69
392.984	382.69
393.208	396.69
393.433	370.69
393.658	375.69
393.882	378.69
394.107	379.69
394.331	383.69
394.556	382.69
394.78	370.69
395.005	374.69
395.229	378.69
395.454	380.69
395.678	386.69
395.903	416.69
396.127	413.69
396.352	407.69
396.576	395.69
396.801	390.69
397.025	393.69
397.249	410.69
397.474	405.69
397.698	381.69
397.922	419.69
398.147	425.69
398.371	411.69
398.595	400.69
398.82	432.69
399.044	426.69
399.268	414.69
399.492	471.69
399.717	459.69
399.941	489.69
400.165	519.69
400.389	524.69
400.613	501.69
400.837	436.69
401.062	430.69
401.286	445.69
401.51	428.69
401.734	425.69
401.958	420.69
402.182	423.69
402.406	438.69
402.63	434.69
402.854	435.69
403.078	423.69
403.302	436.69
403.526	446.69
403.75	453.69
403.974	445.69
404.198	436.69
404.422	462.69
404.645	448.69
404.869	488.69
405.093	491.69
405.317	514.69
405.541	542.69
405.765	491.69
405.988	473.69
406.212	482.69
406.436	512.69
406.66	514.69
406.883	498.69
407.107	502.69
407.331	549.69
407.555	588.69
407.778	566.69
408.002	528.69
408.226	490.69
408.449	494.69
408.673	477.69
408.896	510.69
409.12	537.69
409.344	506.69
409.567	461.69
409.791	471.69
410.014	456.69
410.238	433.69
410.461	432.69
410.685	434.69
410.908	456.69
411.132	471.69
411.355	520.69
411.578	478.69
411.802	440.69
412.025	466.69
412.249	462.69
412.472	485.69
412.695	512.69
412.919	510.69
413.142	467.69
413.365	435.69
413.589	452.69
413.812	420.69
414.035	439.69
414.258	434.69
414.482	408.69
414.705	403.69
414.928	421.69
415.151	418.69
415.374	424.69
415.597	403.69
415.821	412.69
416.044	422.69
416.267	421.69
416.49	420.69
416.713	393.69
416.936	396.69
417.159	411.69
417.382	431.69
417.605	434.69
417.828	422.69
418.051	435.69
418.274	452.69
418.497	423.69
418.72	429.69
418.943	413.69
419.166	401.69
419.389	451.69
419.611	436.69
419.834	440.69
420.057	458.69
420.28	452.69
420.503	441.69
420.726	450.69
420.948	456.69
421.171	508.69
421.394	493.69
421.617	451.69
421.839	452.69
422.062	443.69
422.285	470.69
422.507	511.69
422.73	555.69
422.953	528.69
423.175	475.69
423.398	452.69
423.621	436.69
423.843	461.69
424.066	460.69
424.288	457.69
424.511	509.69
424.733	542.69
424.956	581.69
425.178	602.69
425.401	599.69
425.623	588.69
425.846	520.69
426.068	490.69
426.291	479.69
426.513	490.69
426.735	493.69
426.958	535.69
427.18	612.69
427.402	704.69
427.625	772.69
427.847	705.69
428.069	616.69
428.292	540.69
428.514	490.69
428.736	456.69
428.958	449.69
429.181	429.69
429.403	439.69
429.625	479.69
429.847	518.69
430.069	554.69
430.292	548.69
430.514	496.69
430.736	456.69
430.958	451.69
431.18	427.69
431.402	438.69
431.624	422.69
431.846	420.69
432.068	427.69
432.29	404.69
432.512	436.69
432.734	444.69
432.956	434.69
433.178	450.69
433.4	447.69
433.622	447.69
433.844	439.69
434.066	434.69
434.287	406.69
434.509	440.69
434.731	426.69
434.953	442.69
435.175	457.69
435.397	474.69
435.618	479.69
435.84	536.69
436.062	587.69
436.284	648.69
436.505	546.69
436.727	468.69
436.949	476.69
437.17	463.69
437.392	456.69
437.614	484.69
437.835	509.69
438.057	589.69
438.278	665.69
438.5	678.69
438.721	727.69
438.943	708.69
439.165	560.69
439.386	512.69
439.608	493.69
439.829	498.69
440.05	508.69
440.272	579.69
440.493	543.69
440.715	485.69
440.936	464.69
441.158	454.69
441.379	455.69
441.6	460.69
441.822	511.69
442.043	523.69
442.264	606.69
442.486	636.69
442.707	548.69
442.928	528.69
443.149	509.69
443.371	511.69
443.592	564.69
443.813	630.69
444.034	660.69
444.255	571.69
444.476	495.69
444.698	475.69
444.919	461.69
445.14	588.69
445.361	550.69
445.582	541.69
445.803	605.69
446.024	681.69
446.245	684.69
446.466	608.69
446.687	542.69
446.908	512.69
447.129	457.69
447.35	451.69
447.571	445.69
447.792	454.69
448.013	441.69
448.234	485.69
448.455	540.69
448.675	622.69
448.896	700.69
449.117	594.69
449.338	594.69
449.559	674.69
449.779	724.69
450	619.69
450.221	500.69
450.442	463.69
450.662	473.69
450.883	469.69
451.104	455.69
451.324	472.69
451.545	430.69
451.766	420.69
451.986	441.69
452.207	408.69
452.428	414.69
452.648	409.69
452.869	408.69
453.089	430.69
453.31	430.69
453.53	418.69
453.751	401.69
453.971	407.69
454.192	424.69
454.412	407.69
454.633	410.69
454.853	389.69
455.073	402.69
455.294	437.69
455.514	500.69
455.734	468.69
455.955	397.69
456.175	390.69
456.395	384.69
456.616	383.69
456.836	392.69
457.056	395.69
457.276	352.69
457.497	380.69
457.717	379.69
457.937	390.69
458.157	410.69
458.377	404.69
458.598	426.69
458.818	490.69
459.038	575.69
459.258	535.69
459.478	482.69
459.698	424.69
459.918	428.69
460.138	419.69
460.358	420.69
460.578	437.69
460.798	418.69
461.018	421.69
461.238	411.69
461.458	410.69
461.678	395.69
461.898	424.69
462.118	440.69
462.338	439.69
462.558	440.69
462.777	437.69
462.997	440.69
463.217	436.69
463.437	443.69
463.657	432.69
463.876	443.69
464.096	432.69
464.316	429.69
464.536	450.69
464.755	455.69
464.975	458.69
465.195	543.69
465.414	611.69
465.634	515.69
465.854	449.69
466.073	462.69
466.293	434.69
466.512	411.69
466.732	412.69
466.951	411.69
467.171	444.69
467.391	412.69
467.61	422.69
467.829	431.69
468.049	436.69
468.268	424.69
468.488	393.69
468.707	385.69
468.927	406.69
469.146	394.69
469.365	391.69
469.585	397.69
469.804	404.69
470.023	415.69
470.243	398.69
470.462	412.69
470.681	442.69
470.901	444.69
471.12	427.69
471.339	425.69
471.558	429.69
471.777	424.69
471.997	418.69
472.216	427.69
472.435	461.69
472.654	459.69
472.873	408.69
473.092	435.69
473.311	423.69
473.53	436.69
473.749	418.69
473.968	469.69
474.187	596.69
474.406	574.69
474.625	469.69
474.844	438.69
475.063	419.69
475.282	416.69
475.501	415.69
475.72	412.69
475.939	439.69
476.158	444.69
476.377	428.69
476.596	424.69
476.814	445.69
477.033	448.69
477.252	443.69
477.471	471.69
477.69	439.69
477.908	456.69
478.127	424.69
478.346	453.69
478.564	455.69
478.783	456.69
479.002	472.69
479.22	478.69
479.439	481.69
479.658	505.69
479.876	506.69
480.095	532.69
480.313	515.69
480.532	505.69
480.751	528.69
480.969	550.69
481.188	616.69
481.406	656.69
481.624	556.69
481.843	528.69
482.061	508.69
482.28	498.69
482.498	510.69
482.717	485.69
482.935	472.69
483.153	511.69
483.372	489.69
483.59	488.69
483.808	486.69
484.027	490.69
484.245	507.69
484.463	512.69
484.681	495.69
484.9	509.69
485.118	505.69
485.336	513.69
485.554	515.69
485.772	504.69
485.99	486.69
486.209	521.69
486.427	523.69
486.645	499.69
486.863	534.69
487.081	534.69
487.299	543.69
487.517	556.69
487.735	526.69
487.953	522.69
488.171	533.69
488.389	522.69
488.607	512.69
488.825	536.69
489.043	536.69
489.261	544.69
489.479	552.69
489.696	526.69
489.914	559.69
490.132	558.69
490.35	558.69
490.568	577.69
490.786	564.69
491.003	551.69
491.221	584.69
491.439	600.69
491.657	620.69
491.874	595.69
492.092	624.69
492.31	620.69
492.527	618.69
492.745	616.69
492.963	623.69
493.18	611.69
493.398	615.69
493.615	595.69
493.833	628.69
494.05	606.69
494.268	632.69
494.485	641.69
494.703	620.69
494.92	625.69
495.138	615.69
495.355	632.69
495.573	627.69
495.79	626.69
496.008	635.69
496.225	594.69
496.442	610.69
496.66	634.69
496.877	609.69
497.094	650.69
497.312	647.69
497.529	657.69
497.746	640.69
497.963	660.69
498.181	717.69
498.398	662.69
498.615	692.69
498.832	679.69
499.049	696.69
499.267	729.69
499.484	711.69
499.701	730.69
499.918	743.69
500.135	751.69
500.352	801.69
500.569	760.69
500.786	777.69
501.003	836.69
501.22	771.69
501.437	787.69
501.654	741.69
501.871	769.69
