Data from 1965.PennyLincolnUp.Lamp.En5.5.200Scan.071719.P1._HRD10591_14-07-53-911.txt Node
Date: Thu Jul 18 14:07:53 EDT 2019
User: cochatt
Spectrometer: HR+D1059
Trigger mode: 1
Integration Time (sec): 1.000000E-1
Scans to average: 1
Electric dark correction enabled: true
Nonlinearity correction enabled: false
Boxcar width: 0
XAxis mode: Wavelengths
Number of Pixels in Spectrum: 2048
>>>>>Begin Spectral Data<<<<<
223.165	-7.19
223.4	-7.19
223.635	-7.19
223.869	-15.19
224.104	-14.19
224.338	-7.19
224.573	-5.19
224.808	-6.19
225.042	-9.19
225.277	-14.19
225.511	-10.19
225.746	0.81
225.98	0.81
226.215	-4.19
226.449	10.81
226.683	14.81
226.918	26.81
227.152	38.81
227.387	26.81
227.621	39.81
227.856	48.81
228.09	43.81
228.324	50.81
228.559	48.81
228.793	72.81
229.027	100.81
229.262	100.81
229.496	95.81
229.73	111.81
229.964	124.81
230.199	109.81
230.433	98.81
230.667	100.81
230.901	113.81
231.136	111.81
231.37	105.81
231.604	106.81
231.838	96.81
232.072	104.81
232.306	108.81
232.541	98.81
232.775	109.81
233.009	95.81
233.243	124.81
233.477	116.81
233.711	118.81
233.945	113.81
234.179	96.81
234.413	103.81
234.647	98.81
234.881	95.81
235.115	112.81
235.349	111.81
235.583	117.81
235.817	107.81
236.051	110.81
236.285	107.81
236.519	109.81
236.753	123.81
236.987	131.81
237.221	152.81
237.455	201.81
237.689	160.81
237.922	114.81
238.156	110.81
238.39	125.81
238.624	120.81
238.858	126.81
239.091	122.81
239.325	117.81
239.559	105.81
239.793	118.81
240.027	108.81
240.26	122.81
240.494	141.81
240.728	122.81
240.961	118.81
241.195	125.81
241.429	126.81
241.662	113.81
241.896	123.81
242.13	102.81
242.363	120.81
242.597	106.81
242.83	108.81
243.064	111.81
243.298	106.81
243.531	129.81
243.765	107.81
243.998	130.81
244.232	119.81
244.465	126.81
244.699	121.81
244.932	112.81
245.166	116.81
245.399	129.81
245.633	120.81
245.866	123.81
246.099	134.81
246.333	125.81
246.566	134.81
246.8	138.81
247.033	122.81
247.266	135.81
247.5	127.81
247.733	146.81
247.966	148.81
248.2	140.81
248.433	143.81
248.666	139.81
248.899	159.81
249.133	180.81
249.366	164.81
249.599	174.81
249.832	155.81
250.066	155.81
250.299	144.81
250.532	144.81
250.765	153.81
250.998	184.81
251.231	166.81
251.465	144.81
251.698	160.81
251.931	160.81
252.164	152.81
252.397	168.81
252.63	162.81
252.863	172.81
253.096	151.81
253.329	169.81
253.562	180.81
253.795	164.81
254.028	169.81
254.261	171.81
254.494	189.81
254.727	207.81
254.96	208.81
255.193	211.81
255.426	196.81
255.659	193.81
255.892	188.81
256.124	187.81
256.357	180.81
256.59	194.81
256.823	193.81
257.056	196.81
257.289	180.81
257.521	166.81
257.754	176.81
257.987	178.81
258.22	157.81
258.452	166.81
258.685	177.81
258.918	164.81
259.151	171.81
259.383	177.81
259.616	172.81
259.849	181.81
260.081	189.81
260.314	184.81
260.547	200.81
260.779	193.81
261.012	190.81
261.244	186.81
261.477	184.81
261.71	165.81
261.942	166.81
262.175	190.81
262.407	196.81
262.64	172.81
262.872	181.81
263.105	178.81
263.337	167.81
263.57	185.81
263.802	170.81
264.035	164.81
264.267	167.81
264.499	172.81
264.732	181.81
264.964	186.81
265.197	169.81
265.429	180.81
265.661	178.81
265.894	184.81
266.126	180.81
266.358	178.81
266.591	182.81
266.823	156.81
267.055	183.81
267.287	194.81
267.52	187.81
267.752	191.81
267.984	190.81
268.216	181.81
268.448	173.81
268.681	199.81
268.913	195.81
269.145	207.81
269.377	236.81
269.609	198.81
269.841	197.81
270.073	207.81
270.306	220.81
270.538	240.81
270.77	236.81
271.002	231.81
271.234	235.81
271.466	221.81
271.698	229.81
271.93	235.81
272.162	242.81
272.394	231.81
272.626	228.81
272.858	234.81
273.09	220.81
273.322	221.81
273.553	189.81
273.785	207.81
274.017	201.81
274.249	202.81
274.481	184.81
274.713	199.81
274.945	218.81
275.176	224.81
275.408	207.81
275.64	210.81
275.872	207.81
276.104	196.81
276.335	198.81
276.567	204.81
276.799	223.81
277.031	236.81
277.262	250.81
277.494	215.81
277.726	216.81
277.957	207.81
278.189	217.81
278.421	212.81
278.652	209.81
278.884	202.81
279.115	208.81
279.347	224.81
279.579	210.81
279.81	203.81
280.042	227.81
280.273	216.81
280.505	219.81
280.736	219.81
280.968	207.81
281.199	222.81
281.431	214.81
281.662	209.81
281.894	226.81
282.125	215.81
282.356	222.81
282.588	238.81
282.819	221.81
283.051	206.81
283.282	209.81
283.513	208.81
283.745	209.81
283.976	216.81
284.207	205.81
284.439	207.81
284.67	217.81
284.901	213.81
285.132	207.81
285.364	218.81
285.595	192.81
285.826	205.81
286.057	223.81
286.288	220.81
286.52	211.81
286.751	223.81
286.982	206.81
287.213	239.81
287.444	213.81
287.675	216.81
287.906	230.81
288.138	236.81
288.369	235.81
288.6	230.81
288.831	235.81
289.062	230.81
289.293	227.81
289.524	224.81
289.755	240.81
289.986	225.81
290.217	214.81
290.448	209.81
290.679	217.81
290.91	211.81
291.141	229.81
291.371	219.81
291.602	219.81
291.833	224.81
292.064	229.81
292.295	220.81
292.526	217.81
292.757	216.81
292.987	252.81
293.218	214.81
293.449	218.81
293.68	226.81
293.91	229.81
294.141	241.81
294.372	221.81
294.603	225.81
294.833	233.81
295.064	244.81
295.295	232.81
295.525	222.81
295.756	235.81
295.987	246.81
296.217	250.81
296.448	260.81
296.679	228.81
296.909	216.81
297.14	235.81
297.37	219.81
297.601	222.81
297.831	238.81
298.062	215.81
298.292	224.81
298.523	247.81
298.753	220.81
298.984	223.81
299.214	238.81
299.445	239.81
299.675	233.81
299.905	255.81
300.136	250.81
300.366	229.81
300.597	274.81
300.827	252.81
301.057	257.81
301.288	234.81
301.518	251.81
301.748	258.81
301.979	257.81
302.209	241.81
302.439	261.81
302.669	238.81
302.9	246.81
303.13	257.81
303.36	259.81
303.59	260.81
303.82	248.81
304.051	267.81
304.281	249.81
304.511	270.81
304.741	245.81
304.971	233.81
305.201	244.81
305.431	259.81
305.661	250.81
305.891	243.81
306.121	251.81
306.352	239.81
306.582	247.81
306.812	240.81
307.042	248.81
307.272	250.81
307.502	274.81
307.731	282.81
307.961	266.81
308.191	239.81
308.421	257.81
308.651	268.81
308.881	257.81
309.111	248.81
309.341	274.81
309.571	278.81
309.8	281.81
310.03	283.81
310.26	288.81
310.49	290.81
310.72	274.81
310.949	293.81
311.179	294.81
311.409	294.81
311.639	289.81
311.868	289.81
312.098	284.81
312.328	286.81
312.557	285.81
312.787	299.81
313.017	305.81
313.246	309.81
313.476	284.81
313.706	293.81
313.935	305.81
314.165	296.81
314.394	309.81
314.624	305.81
314.853	301.81
315.083	274.81
315.312	298.81
315.542	273.81
315.771	296.81
316.001	295.81
316.23	287.81
316.46	288.81
316.689	288.81
316.919	284.81
317.148	297.81
317.377	293.81
317.607	295.81
317.836	274.81
318.065	283.81
318.295	301.81
318.524	278.81
318.753	278.81
318.983	302.81
319.212	288.81
319.441	300.81
319.67	299.81
319.9	309.81
320.129	298.81
320.358	300.81
320.587	289.81
320.816	319.81
321.046	300.81
321.275	304.81
321.504	320.81
321.733	304.81
321.962	301.81
322.191	332.81
322.42	330.81
322.649	336.81
322.878	349.81
323.108	367.81
323.337	378.81
323.566	366.81
323.795	396.81
324.024	445.81
324.253	505.81
324.482	757.81
324.71	1130.81
324.939	1569.81
325.168	1298.81
325.397	693.81
325.626	475.81
325.855	414.81
326.084	395.81
326.313	385.81
326.542	372.81
326.77	411.81
326.999	493.81
327.228	687.81
327.457	978.81
327.686	1160.81
327.914	751.81
328.143	512.81
328.372	454.81
328.6	438.81
328.829	411.81
329.058	429.81
329.287	434.81
329.515	386.81
329.744	383.81
329.972	386.81
330.201	397.81
330.43	415.81
330.658	408.81
330.887	452.81
331.115	438.81
331.344	389.81
331.572	372.81
331.801	352.81
332.03	369.81
332.258	345.81
332.486	340.81
332.715	325.81
332.943	329.81
333.172	334.81
333.4	349.81
333.629	351.81
333.857	358.81
334.085	351.81
334.314	374.81
334.542	397.81
334.771	409.81
334.999	376.81
335.227	356.81
335.455	363.81
335.684	325.81
335.912	343.81
336.14	329.81
336.369	332.81
336.597	349.81
336.825	357.81
337.053	337.81
337.281	336.81
337.51	330.81
337.738	324.81
337.966	332.81
338.194	325.81
338.422	338.81
338.65	342.81
338.878	322.81
339.106	336.81
339.334	327.81
339.562	304.81
339.79	325.81
340.018	338.81
340.246	331.81
340.474	326.81
340.702	349.81
340.93	330.81
341.158	330.81
341.386	349.81
341.614	329.81
341.842	321.81
342.07	336.81
342.298	317.81
342.526	319.81
342.754	308.81
342.981	319.81
343.209	308.81
343.437	315.81
343.665	323.81
343.893	324.81
344.12	337.81
344.348	344.81
344.576	326.81
344.804	321.81
345.031	347.81
345.259	342.81
345.487	341.81
345.714	337.81
345.942	319.81
346.17	327.81
346.397	328.81
346.625	316.81
346.853	298.81
347.08	320.81
347.308	328.81
347.535	325.81
347.763	318.81
347.99	321.81
348.218	315.81
348.445	330.81
348.673	316.81
348.9	316.81
349.128	312.81
349.355	311.81
349.583	323.81
349.81	314.81
350.037	298.81
350.265	301.81
350.492	318.81
350.72	319.81
350.947	296.81
351.174	325.81
351.402	312.81
351.629	325.81
351.856	309.81
352.083	329.81
352.311	339.81
352.538	331.81
352.765	325.81
352.992	321.81
353.22	323.81
353.447	323.81
353.674	320.81
353.901	310.81
354.128	287.81
354.355	311.81
354.583	292.81
354.81	308.81
355.037	297.81
355.264	300.81
355.491	280.81
355.718	305.81
355.945	299.81
356.172	291.81
356.399	281.81
356.626	284.81
356.853	304.81
357.08	289.81
357.307	294.81
357.534	286.81
357.761	282.81
357.988	299.81
358.215	305.81
358.441	301.81
358.668	316.81
358.895	304.81
359.122	280.81
359.349	328.81
359.576	318.81
359.802	324.81
360.029	349.81
360.256	350.81
360.483	353.81
360.709	328.81
360.936	332.81
361.163	341.81
361.39	315.81
361.616	314.81
361.843	309.81
362.07	318.81
362.296	320.81
362.523	317.81
362.749	311.81
362.976	316.81
363.203	312.81
363.429	305.81
363.656	294.81
363.882	304.81
364.109	290.81
364.335	309.81
364.562	320.81
364.788	300.81
365.015	312.81
365.241	322.81
365.468	300.81
365.694	312.81
365.92	309.81
366.147	317.81
366.373	317.81
366.599	317.81
366.826	312.81
367.052	301.81
367.278	307.81
367.505	316.81
367.731	313.81
367.957	310.81
368.184	310.81
368.41	298.81
368.636	337.81
368.862	318.81
369.089	308.81
369.315	306.81
369.541	310.81
369.767	314.81
369.993	308.81
370.219	288.81
370.445	304.81
370.672	292.81
370.898	298.81
371.124	320.81
371.35	300.81
371.576	317.81
371.802	327.81
372.028	314.81
372.254	315.81
372.48	322.81
372.706	316.81
372.932	307.81
373.158	319.81
373.384	311.81
373.61	321.81
373.835	327.81
374.061	316.81
374.287	315.81
374.513	306.81
374.739	330.81
374.965	298.81
375.191	325.81
375.416	303.81
375.642	313.81
375.868	305.81
376.094	313.81
376.319	320.81
376.545	312.81
376.771	301.81
376.997	301.81
377.222	297.81
377.448	295.81
377.674	316.81
377.899	304.81
378.125	307.81
378.35	306.81
378.576	308.81
378.802	281.81
379.027	305.81
379.253	297.81
379.478	308.81
379.704	316.81
379.929	309.81
380.155	294.81
380.38	310.81
380.606	312.81
380.831	316.81
381.057	330.81
381.282	325.81
381.507	307.81
381.733	300.81
381.958	297.81
382.184	320.81
382.409	306.81
382.634	328.81
382.86	316.81
383.085	308.81
383.31	302.81
383.535	316.81
383.761	322.81
383.986	333.81
384.211	328.81
384.436	320.81
384.662	333.81
384.887	306.81
385.112	325.81
385.337	325.81
385.562	327.81
385.787	312.81
386.013	332.81
386.238	342.81
386.463	356.81
386.688	338.81
386.913	323.81
387.138	312.81
387.363	344.81
387.588	329.81
387.813	325.81
388.038	340.81
388.263	326.81
388.488	337.81
388.713	338.81
388.938	337.81
389.163	324.81
389.387	337.81
389.612	342.81
389.837	326.81
390.062	346.81
390.287	323.81
390.512	325.81
390.736	330.81
390.961	336.81
391.186	341.81
391.411	324.81
391.636	336.81
391.86	347.81
392.085	344.81
392.31	335.81
392.534	344.81
392.759	328.81
392.984	331.81
393.208	349.81
393.433	335.81
393.658	330.81
393.882	329.81
394.107	314.81
394.331	339.81
394.556	334.81
394.78	346.81
395.005	320.81
395.229	344.81
395.454	345.81
395.678	325.81
395.903	358.81
396.127	390.81
396.352	376.81
396.576	349.81
396.801	345.81
397.025	358.81
397.249	345.81
397.474	360.81
397.698	357.81
397.922	368.81
398.147	377.81
398.371	374.81
398.595	380.81
398.82	363.81
399.044	381.81
399.268	374.81
399.492	427.81
399.717	433.81
399.941	426.81
400.165	449.81
400.389	463.81
400.613	421.81
400.837	409.81
401.062	401.81
401.286	381.81
401.51	367.81
401.734	376.81
401.958	362.81
402.182	378.81
402.406	402.81
402.63	372.81
402.854	390.81
403.078	361.81
403.302	381.81
403.526	400.81
403.75	390.81
403.974	397.81
404.198	399.81
404.422	385.81
404.645	389.81
404.869	404.81
405.093	396.81
405.317	426.81
405.541	466.81
405.765	412.81
405.988	408.81
406.212	418.81
406.436	426.81
406.66	428.81
406.883	440.81
407.107	428.81
407.331	472.81
407.555	493.81
407.778	476.81
408.002	440.81
408.226	421.81
408.449	422.81
408.673	430.81
408.896	444.81
409.12	465.81
409.344	451.81
409.567	394.81
409.791	386.81
410.014	414.81
410.238	387.81
410.461	395.81
410.685	408.81
410.908	372.81
411.132	417.81
411.355	452.81
411.578	440.81
411.802	407.81
412.025	379.81
412.249	386.81
412.472	408.81
412.695	422.81
412.919	422.81
413.142	383.81
413.365	368.81
413.589	368.81
413.812	349.81
414.035	362.81
414.258	366.81
414.482	381.81
414.705	358.81
414.928	382.81
415.151	384.81
415.374	374.81
415.597	359.81
415.821	384.81
416.044	369.81
416.267	360.81
416.49	374.81
416.713	353.81
416.936	363.81
417.159	379.81
417.382	381.81
417.605	368.81
417.828	351.81
418.051	397.81
418.274	385.81
418.497	349.81
418.72	353.81
418.943	373.81
419.166	375.81
419.389	374.81
419.611	387.81
419.834	385.81
420.057	378.81
420.28	380.81
420.503	377.81
420.726	390.81
420.948	390.81
421.171	422.81
421.394	433.81
421.617	406.81
421.839	383.81
422.062	389.81
422.285	404.81
422.507	436.81
422.73	493.81
422.953	446.81
423.175	418.81
423.398	408.81
423.621	397.81
423.843	401.81
424.066	426.81
424.288	399.81
424.511	435.81
424.733	470.81
424.956	501.81
425.178	491.81
425.401	495.81
425.623	509.81
425.846	419.81
426.068	409.81
426.291	406.81
426.513	409.81
426.735	417.81
426.958	439.81
427.18	494.81
427.402	584.81
427.625	645.81
427.847	578.81
428.069	497.81
428.292	436.81
428.514	429.81
428.736	402.81
428.958	363.81
429.181	387.81
429.403	369.81
429.625	392.81
429.847	408.81
430.069	449.81
430.292	448.81
430.514	394.81
430.736	374.81
430.958	384.81
431.18	370.81
431.402	344.81
431.624	356.81
431.846	352.81
432.068	366.81
432.29	360.81
432.512	360.81
432.734	377.81
432.956	367.81
433.178	384.81
433.4	376.81
433.622	377.81
433.844	352.81
434.066	371.81
434.287	369.81
434.509	375.81
434.731	362.81
434.953	382.81
435.175	376.81
435.397	409.81
435.618	422.81
435.84	431.81
436.062	506.81
436.284	559.81
436.505	488.81
436.727	424.81
436.949	405.81
437.17	376.81
437.392	352.81
437.614	406.81
437.835	442.81
438.057	494.81
438.278	546.81
438.5	562.81
438.721	604.81
438.943	579.81
439.165	470.81
439.386	421.81
439.608	442.81
439.829	407.81
440.05	423.81
440.272	462.81
440.493	430.81
440.715	418.81
440.936	382.81
441.158	394.81
441.379	360.81
441.6	399.81
441.822	408.81
442.043	441.81
442.264	496.81
442.486	528.81
442.707	432.81
442.928	430.81
443.149	431.81
443.371	452.81
443.592	488.81
443.813	532.81
444.034	589.81
444.255	500.81
444.476	454.81
444.698	418.81
444.919	427.81
445.14	494.81
445.361	455.81
445.582	452.81
445.803	500.81
446.024	543.81
446.245	567.81
446.466	500.81
446.687	421.81
446.908	416.81
447.129	391.81
447.35	395.81
447.571	382.81
447.792	392.81
448.013	402.81
448.234	398.81
448.455	425.81
448.675	495.81
448.896	580.81
449.117	508.81
449.338	469.81
449.559	577.81
449.779	600.81
450	497.81
450.221	413.81
450.442	372.81
450.662	397.81
450.883	383.81
451.104	402.81
451.324	386.81
451.545	368.81
451.766	356.81
451.986	344.81
452.207	344.81
452.428	367.81
452.648	341.81
452.869	342.81
453.089	358.81
453.31	366.81
453.53	351.81
453.751	361.81
453.971	366.81
454.192	380.81
454.412	352.81
454.633	348.81
454.853	333.81
455.073	328.81
455.294	371.81
455.514	412.81
455.734	403.81
455.955	349.81
456.175	345.81
456.395	319.81
456.616	321.81
456.836	331.81
457.056	331.81
457.276	328.81
457.497	340.81
457.717	322.81
457.937	362.81
458.157	347.81
458.377	343.81
458.598	377.81
458.818	411.81
459.038	455.81
459.258	448.81
459.478	420.81
459.698	380.81
459.918	356.81
460.138	368.81
460.358	364.81
460.578	388.81
460.798	380.81
461.018	380.81
461.238	374.81
461.458	364.81
461.678	362.81
461.898	366.81
462.118	368.81
462.338	390.81
462.558	393.81
462.777	386.81
462.997	391.81
463.217	385.81
463.437	397.81
463.657	408.81
463.876	382.81
464.096	396.81
464.316	401.81
464.536	396.81
464.755	378.81
464.975	403.81
465.195	440.81
465.414	465.81
465.634	443.81
465.854	402.81
466.073	370.81
466.293	384.81
466.512	376.81
466.732	346.81
466.951	345.81
467.171	360.81
467.391	360.81
467.61	370.81
467.829	382.81
468.049	364.81
468.268	377.81
468.488	376.81
468.707	343.81
468.927	340.81
469.146	343.81
469.365	357.81
469.585	340.81
469.804	363.81
470.023	384.81
470.243	356.81
470.462	364.81
470.681	385.81
470.901	388.81
471.12	370.81
471.339	373.81
471.558	369.81
471.777	374.81
471.997	375.81
472.216	363.81
472.435	384.81
472.654	379.81
472.873	366.81
473.092	363.81
473.311	361.81
473.53	361.81
473.749	359.81
473.968	391.81
474.187	466.81
474.406	465.81
474.625	418.81
474.844	383.81
475.063	365.81
475.282	356.81
475.501	354.81
475.72	379.81
475.939	376.81
476.158	374.81
476.377	388.81
476.596	395.81
476.814	377.81
477.033	386.81
477.252	396.81
477.471	385.81
477.69	379.81
477.908	399.81
478.127	402.81
478.346	391.81
478.564	414.81
478.783	380.81
479.002	397.81
479.22	410.81
479.439	431.81
479.658	440.81
479.876	438.81
480.095	436.81
480.313	453.81
480.532	451.81
480.751	441.81
480.969	445.81
481.188	495.81
481.406	500.81
481.624	457.81
481.843	458.81
482.061	427.81
482.28	427.81
482.498	436.81
482.717	416.81
482.935	409.81
483.153	416.81
483.372	425.81
483.59	450.81
483.808	424.81
484.027	449.81
484.245	449.81
484.463	449.81
484.681	440.81
484.9	430.81
485.118	425.81
485.336	432.81
485.554	449.81
485.772	431.81
485.99	430.81
486.209	439.81
486.427	451.81
486.645	458.81
486.863	489.81
487.081	469.81
487.299	462.81
487.517	457.81
487.735	437.81
487.953	466.81
488.171	462.81
488.389	446.81
488.607	463.81
488.825	458.81
489.043	471.81
489.261	446.81
489.479	454.81
489.696	474.81
489.914	450.81
490.132	481.81
490.35	479.81
490.568	479.81
490.786	483.81
491.003	498.81
491.221	482.81
491.439	496.81
491.657	498.81
491.874	509.81
492.092	504.81
492.31	500.81
492.527	524.81
492.745	522.81
492.963	508.81
493.18	514.81
493.398	514.81
493.615	533.81
493.833	505.81
494.05	505.81
494.268	517.81
494.485	534.81
494.703	521.81
494.92	540.81
495.138	523.81
495.355	524.81
495.573	540.81
495.79	539.81
496.008	539.81
496.225	537.81
496.442	539.81
496.66	534.81
496.877	550.81
497.094	533.81
497.312	523.81
497.529	561.81
497.746	546.81
497.963	568.81
498.181	573.81
498.398	588.81
498.615	573.81
498.832	585.81
499.049	601.81
499.267	636.81
499.484	617.81
499.701	621.81
499.918	658.81
500.135	658.81
500.352	714.81
500.569	715.81
500.786	695.81
501.003	680.81
501.22	696.81
501.437	673.81
501.654	658.81
501.871	636.81
502.088	621.81
