Data from 1965.PennyLincolnUp.Lamp.En5.5.200Scan.071719.P1._HRD10591_14-08-38-911.txt Node
Date: Thu Jul 18 14:08:38 EDT 2019
User: cochatt
Spectrometer: HR+D1059
Trigger mode: 1
Integration Time (sec): 1.000000E-1
Scans to average: 1
Electric dark correction enabled: true
Nonlinearity correction enabled: false
Boxcar width: 0
XAxis mode: Wavelengths
Number of Pixels in Spectrum: 2048
>>>>>Begin Spectral Data<<<<<
223.165	-24.56
223.4	-24.56
223.635	-24.56
223.869	-17.56
224.104	-16.56
224.338	5.44
224.573	-7.56
224.808	-10.56
225.042	-18.56
225.277	-17.56
225.511	-7.56
225.746	-5.56
225.98	11.44
226.215	19.44
226.449	20.44
226.683	13.44
226.918	23.44
227.152	32.44
227.387	45.44
227.621	40.44
227.856	36.44
228.09	44.44
228.324	54.44
228.559	67.44
228.793	52.44
229.027	90.44
229.262	91.44
229.496	113.44
229.73	131.44
229.964	128.44
230.199	129.44
230.433	117.44
230.667	102.44
230.901	111.44
231.136	115.44
231.37	103.44
231.604	92.44
231.838	107.44
232.072	108.44
232.306	99.44
232.541	89.44
232.775	109.44
233.009	120.44
233.243	86.44
233.477	113.44
233.711	116.44
233.945	110.44
234.179	120.44
234.413	94.44
234.647	108.44
234.881	89.44
235.115	102.44
235.349	110.44
235.583	117.44
235.817	100.44
236.051	99.44
236.285	108.44
236.519	106.44
236.753	113.44
236.987	147.44
237.221	166.44
237.455	218.44
237.689	163.44
237.922	137.44
238.156	116.44
238.39	113.44
238.624	87.44
238.858	120.44
239.091	125.44
239.325	105.44
239.559	116.44
239.793	137.44
240.027	132.44
240.26	132.44
240.494	151.44
240.728	138.44
240.961	131.44
241.195	136.44
241.429	126.44
241.662	111.44
241.896	126.44
242.13	122.44
242.363	114.44
242.597	112.44
242.83	125.44
243.064	120.44
243.298	126.44
243.531	128.44
243.765	136.44
243.998	120.44
244.232	124.44
244.465	133.44
244.699	137.44
244.932	118.44
245.166	123.44
245.399	124.44
245.633	140.44
245.866	121.44
246.099	135.44
246.333	141.44
246.566	137.44
246.8	145.44
247.033	150.44
247.266	127.44
247.5	143.44
247.733	154.44
247.966	153.44
248.2	146.44
248.433	155.44
248.666	142.44
248.899	157.44
249.133	163.44
249.366	170.44
249.599	174.44
249.832	163.44
250.066	163.44
250.299	170.44
250.532	163.44
250.765	167.44
250.998	191.44
251.231	204.44
251.465	169.44
251.698	164.44
251.931	173.44
252.164	176.44
252.397	179.44
252.63	177.44
252.863	181.44
253.096	203.44
253.329	195.44
253.562	194.44
253.795	180.44
254.028	198.44
254.261	198.44
254.494	192.44
254.727	216.44
254.96	236.44
255.193	236.44
255.426	214.44
255.659	205.44
255.892	236.44
256.124	203.44
256.357	208.44
256.59	195.44
256.823	195.44
257.056	183.44
257.289	180.44
257.521	194.44
257.754	192.44
257.987	183.44
258.22	181.44
258.452	178.44
258.685	172.44
258.918	183.44
259.151	172.44
259.383	197.44
259.616	202.44
259.849	184.44
260.081	190.44
260.314	205.44
260.547	213.44
260.779	217.44
261.012	206.44
261.244	203.44
261.477	210.44
261.71	186.44
261.942	207.44
262.175	200.44
262.407	197.44
262.64	197.44
262.872	185.44
263.105	182.44
263.337	189.44
263.57	173.44
263.802	177.44
264.035	166.44
264.267	183.44
264.499	201.44
264.732	191.44
264.964	196.44
265.197	187.44
265.429	200.44
265.661	195.44
265.894	182.44
266.126	193.44
266.358	196.44
266.591	189.44
266.823	193.44
267.055	213.44
267.287	193.44
267.52	185.44
267.752	193.44
267.984	181.44
268.216	213.44
268.448	213.44
268.681	191.44
268.913	207.44
269.145	217.44
269.377	213.44
269.609	228.44
269.841	216.44
270.073	223.44
270.306	230.44
270.538	263.44
270.77	252.44
271.002	261.44
271.234	240.44
271.466	273.44
271.698	271.44
271.93	263.44
272.162	282.44
272.394	267.44
272.626	267.44
272.858	251.44
273.09	246.44
273.322	228.44
273.553	240.44
273.785	218.44
274.017	231.44
274.249	221.44
274.481	213.44
274.713	237.44
274.945	247.44
275.176	225.44
275.408	238.44
275.64	228.44
275.872	232.44
276.104	211.44
276.335	223.44
276.567	226.44
276.799	266.44
277.031	262.44
277.262	237.44
277.494	253.44
277.726	242.44
277.957	243.44
278.189	245.44
278.421	225.44
278.652	237.44
278.884	239.44
279.115	216.44
279.347	227.44
279.579	218.44
279.81	216.44
280.042	221.44
280.273	234.44
280.505	242.44
280.736	221.44
280.968	236.44
281.199	215.44
281.431	225.44
281.662	229.44
281.894	259.44
282.125	240.44
282.356	239.44
282.588	239.44
282.819	267.44
283.051	256.44
283.282	221.44
283.513	245.44
283.745	233.44
283.976	241.44
284.207	257.44
284.439	229.44
284.67	232.44
284.901	247.44
285.132	234.44
285.364	243.44
285.595	238.44
285.826	248.44
286.057	264.44
286.288	231.44
286.52	225.44
286.751	254.44
286.982	250.44
287.213	262.44
287.444	254.44
287.675	224.44
287.906	237.44
288.138	236.44
288.369	234.44
288.6	251.44
288.831	258.44
289.062	247.44
289.293	261.44
289.524	243.44
289.755	255.44
289.986	251.44
290.217	254.44
290.448	238.44
290.679	255.44
290.91	243.44
291.141	234.44
291.371	248.44
291.602	236.44
291.833	236.44
292.064	241.44
292.295	258.44
292.526	223.44
292.757	243.44
292.987	271.44
293.218	247.44
293.449	246.44
293.68	239.44
293.91	256.44
294.141	252.44
294.372	233.44
294.603	251.44
294.833	251.44
295.064	236.44
295.295	247.44
295.525	263.44
295.756	250.44
295.987	267.44
296.217	285.44
296.448	309.44
296.679	270.44
296.909	263.44
297.14	238.44
297.37	267.44
297.601	257.44
297.831	267.44
298.062	259.44
298.292	238.44
298.523	269.44
298.753	251.44
298.984	236.44
299.214	247.44
299.445	265.44
299.675	276.44
299.905	275.44
300.136	268.44
300.366	258.44
300.597	245.44
300.827	273.44
301.057	269.44
301.288	280.44
301.518	281.44
301.748	278.44
301.979	283.44
302.209	281.44
302.439	275.44
302.669	280.44
302.9	280.44
303.13	275.44
303.36	278.44
303.59	290.44
303.82	284.44
304.051	288.44
304.281	280.44
304.511	278.44
304.741	278.44
304.971	270.44
305.201	289.44
305.431	271.44
305.661	279.44
305.891	273.44
306.121	294.44
306.352	313.44
306.582	278.44
306.812	265.44
307.042	286.44
307.272	289.44
307.502	283.44
307.731	274.44
307.961	300.44
308.191	278.44
308.421	277.44
308.651	295.44
308.881	291.44
309.111	289.44
309.341	290.44
309.571	308.44
309.8	310.44
310.03	304.44
310.26	315.44
310.49	311.44
310.72	336.44
310.949	345.44
311.179	347.44
311.409	345.44
311.639	321.44
311.868	302.44
312.098	318.44
312.328	320.44
312.557	335.44
312.787	356.44
313.017	325.44
313.246	355.44
313.476	323.44
313.706	317.44
313.935	338.44
314.165	324.44
314.394	353.44
314.624	345.44
314.853	318.44
315.083	334.44
315.312	318.44
315.542	323.44
315.771	311.44
316.001	311.44
316.23	316.44
316.46	346.44
316.689	329.44
316.919	321.44
317.148	341.44
317.377	322.44
317.607	330.44
317.836	337.44
318.065	327.44
318.295	315.44
318.524	322.44
318.753	328.44
318.983	327.44
319.212	335.44
319.441	352.44
319.67	331.44
319.9	323.44
320.129	327.44
320.358	336.44
320.587	336.44
320.816	349.44
321.046	334.44
321.275	356.44
321.504	364.44
321.733	346.44
321.962	364.44
322.191	358.44
322.42	370.44
322.649	389.44
322.878	393.44
323.108	404.44
323.337	425.44
323.566	429.44
323.795	460.44
324.024	508.44
324.253	621.44
324.482	900.44
324.71	1387.44
324.939	1919.44
325.168	1597.44
325.397	849.44
325.626	553.44
325.855	500.44
326.084	443.44
326.313	431.44
326.542	428.44
326.77	493.44
326.999	567.44
327.228	815.44
327.457	1198.44
327.686	1387.44
327.914	947.44
328.143	640.44
328.372	567.44
328.6	534.44
328.829	500.44
329.058	531.44
329.287	537.44
329.515	477.44
329.744	445.44
329.972	456.44
330.201	469.44
330.43	500.44
330.658	505.44
330.887	521.44
331.115	537.44
331.344	463.44
331.572	426.44
331.801	425.44
332.03	431.44
332.258	426.44
332.486	393.44
332.715	366.44
332.943	385.44
333.172	385.44
333.4	383.44
333.629	410.44
333.857	405.44
334.085	397.44
334.314	439.44
334.542	453.44
334.771	495.44
334.999	426.44
335.227	396.44
335.455	407.44
335.684	382.44
335.912	403.44
336.14	378.44
336.369	383.44
336.597	378.44
336.825	391.44
337.053	379.44
337.281	374.44
337.51	373.44
337.738	368.44
337.966	356.44
338.194	392.44
338.422	384.44
338.65	360.44
338.878	354.44
339.106	368.44
339.334	363.44
339.562	364.44
339.79	375.44
340.018	357.44
340.246	380.44
340.474	375.44
340.702	383.44
340.93	366.44
341.158	358.44
341.386	366.44
341.614	357.44
341.842	364.44
342.07	353.44
342.298	345.44
342.526	349.44
342.754	355.44
342.981	346.44
343.209	340.44
343.437	359.44
343.665	357.44
343.893	352.44
344.12	374.44
344.348	371.44
344.576	353.44
344.804	362.44
345.031	375.44
345.259	372.44
345.487	386.44
345.714	364.44
345.942	344.44
346.17	356.44
346.397	342.44
346.625	359.44
346.853	340.44
347.08	361.44
347.308	364.44
347.535	365.44
347.763	368.44
347.99	359.44
348.218	380.44
348.445	359.44
348.673	359.44
348.9	356.44
349.128	371.44
349.355	334.44
349.583	347.44
349.81	354.44
350.037	333.44
350.265	336.44
350.492	340.44
350.72	336.44
350.947	367.44
351.174	340.44
351.402	383.44
351.629	364.44
351.856	377.44
352.083	355.44
352.311	381.44
352.538	366.44
352.765	397.44
352.992	383.44
353.22	375.44
353.447	375.44
353.674	356.44
353.901	333.44
354.128	344.44
354.355	344.44
354.583	329.44
354.81	339.44
355.037	334.44
355.264	313.44
355.491	320.44
355.718	311.44
355.945	332.44
356.172	336.44
356.399	319.44
356.626	325.44
356.853	341.44
357.08	328.44
357.307	315.44
357.534	324.44
357.761	334.44
357.988	323.44
358.215	320.44
358.441	341.44
358.668	323.44
358.895	337.44
359.122	323.44
359.349	351.44
359.576	346.44
359.802	377.44
360.029	413.44
360.256	420.44
360.483	392.44
360.709	348.44
360.936	355.44
361.163	356.44
361.39	360.44
361.616	367.44
361.843	356.44
362.07	377.44
362.296	365.44
362.523	372.44
362.749	343.44
362.976	344.44
363.203	354.44
363.429	347.44
363.656	344.44
363.882	354.44
364.109	337.44
364.335	328.44
364.562	342.44
364.788	340.44
365.015	341.44
365.241	353.44
365.468	337.44
365.694	366.44
365.92	349.44
366.147	328.44
366.373	324.44
366.599	319.44
366.826	335.44
367.052	339.44
367.278	338.44
367.505	346.44
367.731	330.44
367.957	340.44
368.184	332.44
368.41	346.44
368.636	355.44
368.862	343.44
369.089	335.44
369.315	342.44
369.541	338.44
369.767	341.44
369.993	339.44
370.219	340.44
370.445	328.44
370.672	333.44
370.898	324.44
371.124	330.44
371.35	332.44
371.576	325.44
371.802	332.44
372.028	325.44
372.254	340.44
372.48	331.44
372.706	336.44
372.932	334.44
373.158	339.44
373.384	327.44
373.61	352.44
373.835	342.44
374.061	345.44
374.287	341.44
374.513	330.44
374.739	334.44
374.965	341.44
375.191	358.44
375.416	337.44
375.642	355.44
375.868	345.44
376.094	322.44
376.319	347.44
376.545	348.44
376.771	334.44
376.997	318.44
377.222	344.44
377.448	336.44
377.674	321.44
377.899	334.44
378.125	319.44
378.35	347.44
378.576	315.44
378.802	322.44
379.027	327.44
379.253	333.44
379.478	343.44
379.704	325.44
379.929	333.44
380.155	352.44
380.38	329.44
380.606	343.44
380.831	322.44
381.057	345.44
381.282	333.44
381.507	325.44
381.733	340.44
381.958	309.44
382.184	337.44
382.409	321.44
382.634	330.44
382.86	343.44
383.085	365.44
383.31	347.44
383.535	352.44
383.761	346.44
383.986	351.44
384.211	347.44
384.436	363.44
384.662	349.44
384.887	348.44
385.112	343.44
385.337	361.44
385.562	373.44
385.787	354.44
386.013	360.44
386.238	359.44
386.463	360.44
386.688	364.44
386.913	356.44
387.138	378.44
387.363	362.44
387.588	331.44
387.813	344.44
388.038	368.44
388.263	349.44
388.488	349.44
388.713	361.44
388.938	363.44
389.163	346.44
389.387	359.44
389.612	356.44
389.837	342.44
390.062	341.44
390.287	365.44
390.512	359.44
390.736	360.44
390.961	336.44
391.186	351.44
391.411	364.44
391.636	361.44
391.86	381.44
392.085	358.44
392.31	353.44
392.534	366.44
392.759	366.44
392.984	349.44
393.208	358.44
393.433	360.44
393.658	361.44
393.882	362.44
394.107	350.44
394.331	354.44
394.556	381.44
394.78	356.44
395.005	371.44
395.229	375.44
395.454	376.44
395.678	362.44
395.903	377.44
396.127	393.44
396.352	392.44
396.576	381.44
396.801	356.44
397.025	375.44
397.249	370.44
397.474	388.44
397.698	385.44
397.922	389.44
398.147	420.44
398.371	396.44
398.595	379.44
398.82	406.44
399.044	409.44
399.268	403.44
399.492	443.44
399.717	442.44
399.941	443.44
400.165	492.44
400.389	458.44
400.613	432.44
400.837	412.44
401.062	397.44
401.286	419.44
401.51	399.44
401.734	393.44
401.958	418.44
402.182	415.44
402.406	425.44
402.63	447.44
402.854	413.44
403.078	394.44
403.302	412.44
403.526	407.44
403.75	417.44
403.974	416.44
404.198	409.44
404.422	428.44
404.645	423.44
404.869	443.44
405.093	455.44
405.317	474.44
405.541	503.44
405.765	444.44
405.988	433.44
406.212	456.44
406.436	471.44
406.66	469.44
406.883	459.44
407.107	475.44
407.331	511.44
407.555	520.44
407.778	521.44
408.002	481.44
408.226	467.44
408.449	476.44
408.673	464.44
408.896	472.44
409.12	517.44
409.344	493.44
409.567	429.44
409.791	430.44
410.014	417.44
410.238	412.44
410.461	423.44
410.685	415.44
410.908	448.44
411.132	465.44
411.355	478.44
411.578	449.44
411.802	417.44
412.025	412.44
412.249	447.44
412.472	456.44
412.695	474.44
412.919	455.44
413.142	421.44
413.365	418.44
413.589	415.44
413.812	392.44
414.035	388.44
414.258	394.44
414.482	406.44
414.705	396.44
414.928	393.44
415.151	399.44
415.374	399.44
415.597	392.44
415.821	398.44
416.044	419.44
416.267	391.44
416.49	398.44
416.713	398.44
416.936	395.44
417.159	408.44
417.382	409.44
417.605	401.44
417.828	413.44
418.051	433.44
418.274	436.44
418.497	398.44
418.72	401.44
418.943	397.44
419.166	399.44
419.389	435.44
419.611	411.44
419.834	426.44
420.057	429.44
420.28	393.44
420.503	423.44
420.726	394.44
420.948	423.44
421.171	460.44
421.394	488.44
421.617	436.44
421.839	416.44
422.062	415.44
422.285	440.44
422.507	472.44
422.73	490.44
422.953	503.44
423.175	482.44
423.398	452.44
423.621	455.44
423.843	469.44
424.066	456.44
424.288	439.44
424.511	437.44
424.733	499.44
424.956	574.44
425.178	548.44
425.401	546.44
425.623	552.44
425.846	464.44
426.068	456.44
426.291	455.44
426.513	441.44
426.735	457.44
426.958	491.44
427.18	561.44
427.402	657.44
427.625	713.44
427.847	662.44
428.069	540.44
428.292	517.44
428.514	447.44
428.736	433.44
428.958	452.44
429.181	414.44
429.403	441.44
429.625	440.44
429.847	442.44
430.069	509.44
430.292	525.44
430.514	427.44
430.736	432.44
430.958	402.44
431.18	387.44
431.402	402.44
431.624	398.44
431.846	385.44
432.068	406.44
432.29	396.44
432.512	389.44
432.734	411.44
432.956	413.44
433.178	417.44
433.4	404.44
433.622	400.44
433.844	412.44
434.066	379.44
434.287	409.44
434.509	409.44
434.731	409.44
434.953	406.44
435.175	412.44
435.397	436.44
435.618	456.44
435.84	492.44
436.062	579.44
436.284	592.44
436.505	496.44
436.727	465.44
436.949	436.44
437.17	418.44
437.392	426.44
437.614	417.44
437.835	472.44
438.057	541.44
438.278	610.44
438.5	597.44
438.721	661.44
438.943	631.44
439.165	507.44
439.386	459.44
439.608	467.44
439.829	468.44
440.05	480.44
440.272	521.44
440.493	503.44
440.715	460.44
440.936	398.44
441.158	431.44
441.379	407.44
441.6	445.44
441.822	441.44
442.043	479.44
442.264	551.44
442.486	583.44
442.707	467.44
442.928	477.44
443.149	491.44
443.371	490.44
443.592	543.44
443.813	581.44
444.034	620.44
444.255	545.44
444.476	481.44
444.698	449.44
444.919	445.44
445.14	528.44
445.361	508.44
445.582	508.44
445.803	533.44
446.024	630.44
446.245	625.44
446.466	590.44
446.687	482.44
446.908	480.44
447.129	442.44
447.35	423.44
447.571	416.44
447.792	398.44
448.013	431.44
448.234	428.44
448.455	492.44
448.675	572.44
448.896	655.44
449.117	552.44
449.338	533.44
449.559	633.44
449.779	703.44
450	563.44
450.221	469.44
450.442	446.44
450.662	435.44
450.883	426.44
451.104	455.44
451.324	416.44
451.545	385.44
451.766	384.44
451.986	389.44
452.207	375.44
452.428	387.44
452.648	372.44
452.869	404.44
453.089	375.44
453.31	409.44
453.53	396.44
453.751	408.44
453.971	383.44
454.192	407.44
454.412	402.44
454.633	373.44
454.853	362.44
455.073	387.44
455.294	383.44
455.514	470.44
455.734	451.44
455.955	399.44
456.175	362.44
456.395	366.44
456.616	374.44
456.836	367.44
457.056	350.44
457.276	349.44
457.497	355.44
457.717	356.44
457.937	379.44
458.157	377.44
458.377	362.44
458.598	398.44
458.818	457.44
459.038	509.44
459.258	518.44
459.478	430.44
459.698	422.44
459.918	395.44
460.138	390.44
460.358	400.44
460.578	398.44
460.798	400.44
461.018	412.44
461.238	389.44
461.458	418.44
461.678	401.44
461.898	403.44
462.118	398.44
462.338	409.44
462.558	401.44
462.777	417.44
462.997	416.44
463.217	448.44
463.437	438.44
463.657	437.44
463.876	430.44
464.096	413.44
464.316	409.44
464.536	425.44
464.755	433.44
464.975	423.44
465.195	476.44
465.414	543.44
465.634	482.44
465.854	453.44
466.073	402.44
466.293	413.44
466.512	389.44
466.732	393.44
466.951	391.44
467.171	379.44
467.391	379.44
467.61	414.44
467.829	403.44
468.049	395.44
468.268	423.44
468.488	399.44
468.707	387.44
468.927	363.44
469.146	371.44
469.365	365.44
469.585	380.44
469.804	404.44
470.023	390.44
470.243	404.44
470.462	402.44
470.681	414.44
470.901	426.44
471.12	376.44
471.339	396.44
471.558	399.44
471.777	410.44
471.997	391.44
472.216	412.44
472.435	437.44
472.654	432.44
472.873	404.44
473.092	401.44
473.311	395.44
473.53	413.44
473.749	433.44
473.968	442.44
474.187	531.44
474.406	532.44
474.625	447.44
474.844	433.44
475.063	408.44
475.282	389.44
475.501	395.44
475.72	401.44
475.939	432.44
476.158	408.44
476.377	404.44
476.596	381.44
476.814	421.44
477.033	441.44
477.252	414.44
477.471	407.44
477.69	445.44
477.908	440.44
478.127	433.44
478.346	417.44
478.564	432.44
478.783	424.44
479.002	442.44
479.22	461.44
479.439	471.44
479.658	491.44
479.876	477.44
480.095	505.44
480.313	487.44
480.532	494.44
480.751	483.44
480.969	476.44
481.188	541.44
481.406	589.44
481.624	495.44
481.843	473.44
482.061	470.44
482.28	462.44
482.498	471.44
482.717	484.44
482.935	464.44
483.153	463.44
483.372	457.44
483.59	442.44
483.808	431.44
484.027	453.44
484.245	473.44
484.463	445.44
484.681	465.44
484.9	487.44
485.118	483.44
485.336	475.44
485.554	474.44
485.772	483.44
485.99	462.44
486.209	494.44
486.427	492.44
486.645	488.44
486.863	508.44
487.081	515.44
487.299	503.44
487.517	507.44
487.735	505.44
487.953	496.44
488.171	502.44
488.389	501.44
488.607	508.44
488.825	502.44
489.043	495.44
489.261	516.44
489.479	490.44
489.696	496.44
489.914	526.44
490.132	510.44
490.35	516.44
490.568	507.44
490.786	529.44
491.003	527.44
491.221	544.44
491.439	545.44
491.657	566.44
491.874	567.44
492.092	566.44
492.31	576.44
492.527	573.44
492.745	555.44
492.963	571.44
493.18	572.44
493.398	567.44
493.615	565.44
493.833	573.44
494.05	578.44
494.268	579.44
494.485	578.44
494.703	574.44
494.92	570.44
495.138	584.44
495.355	583.44
495.573	602.44
495.79	567.44
496.008	572.44
496.225	589.44
496.442	597.44
496.66	587.44
496.877	573.44
497.094	581.44
497.312	595.44
497.529	596.44
497.746	603.44
497.963	609.44
498.181	623.44
498.398	617.44
498.615	649.44
498.832	663.44
499.049	667.44
499.267	645.44
499.484	678.44
499.701	681.44
499.918	720.44
500.135	711.44
500.352	709.44
500.569	763.44
500.786	768.44
501.003	762.44
501.22	722.44
501.437	738.44
501.654	715.44
501.871	734.44
502.088	713.44
