Data from 1965.PennyLincolnUp.Lamp.En5.5.200Scan.071719.P1._HRD10591_14-08-10-910.txt Node
Date: Thu Jul 18 14:08:10 EDT 2019
User: cochatt
Spectrometer: HR+D1059
Trigger mode: 1
Integration Time (sec): 1.000000E-1
Scans to average: 1
Electric dark correction enabled: true
Nonlinearity correction enabled: false
Boxcar width: 0
XAxis mode: Wavelengths
Number of Pixels in Spectrum: 2048
>>>>>Begin Spectral Data<<<<<
223.165	-14.88
223.4	-14.88
223.635	-14.88
223.869	-13.88
224.104	-6.88
224.338	-1.88
224.573	-3.88
224.808	-4.88
225.042	-11.88
225.277	-17.88
225.511	-8.88
225.746	-0.88
225.98	1.12
226.215	16.12
226.449	5.12
226.683	24.12
226.918	17.12
227.152	22.12
227.387	34.12
227.621	55.12
227.856	46.12
228.09	46.12
228.324	50.12
228.559	63.12
228.793	73.12
229.027	78.12
229.262	107.12
229.496	86.12
229.73	118.12
229.964	156.12
230.199	115.12
230.433	114.12
230.667	106.12
230.901	97.12
231.136	94.12
231.37	108.12
231.604	102.12
231.838	109.12
232.072	109.12
232.306	96.12
232.541	107.12
232.775	107.12
233.009	116.12
233.243	103.12
233.477	102.12
233.711	110.12
233.945	118.12
234.179	105.12
234.413	108.12
234.647	97.12
234.881	114.12
235.115	99.12
235.349	116.12
235.583	112.12
235.817	118.12
236.051	106.12
236.285	116.12
236.519	116.12
236.753	117.12
236.987	124.12
237.221	157.12
237.455	213.12
237.689	159.12
237.922	140.12
238.156	125.12
238.39	113.12
238.624	111.12
238.858	104.12
239.091	113.12
239.325	106.12
239.559	113.12
239.793	105.12
240.027	101.12
240.26	121.12
240.494	126.12
240.728	113.12
240.961	109.12
241.195	127.12
241.429	122.12
241.662	103.12
241.896	97.12
242.13	115.12
242.363	104.12
242.597	117.12
242.83	141.12
243.064	136.12
243.298	124.12
243.531	142.12
243.765	126.12
243.998	122.12
244.232	125.12
244.465	140.12
244.699	141.12
244.932	156.12
245.166	146.12
245.399	127.12
245.633	126.12
245.866	121.12
246.099	134.12
246.333	132.12
246.566	137.12
246.8	140.12
247.033	122.12
247.266	139.12
247.5	146.12
247.733	132.12
247.966	136.12
248.2	150.12
248.433	139.12
248.666	128.12
248.899	148.12
249.133	181.12
249.366	161.12
249.599	166.12
249.832	164.12
250.066	153.12
250.299	170.12
250.532	166.12
250.765	155.12
250.998	180.12
251.231	192.12
251.465	175.12
251.698	183.12
251.931	162.12
252.164	165.12
252.397	163.12
252.63	175.12
252.863	178.12
253.096	200.12
253.329	175.12
253.562	174.12
253.795	177.12
254.028	183.12
254.261	173.12
254.494	195.12
254.727	203.12
254.96	234.12
255.193	228.12
255.426	201.12
255.659	192.12
255.892	192.12
256.124	190.12
256.357	194.12
256.59	190.12
256.823	185.12
257.056	182.12
257.289	192.12
257.521	183.12
257.754	192.12
257.987	189.12
258.22	162.12
258.452	184.12
258.685	173.12
258.918	182.12
259.151	186.12
259.383	174.12
259.616	184.12
259.849	199.12
260.081	197.12
260.314	201.12
260.547	220.12
260.779	198.12
261.012	194.12
261.244	197.12
261.477	184.12
261.71	192.12
261.942	198.12
262.175	201.12
262.407	180.12
262.64	180.12
262.872	175.12
263.105	178.12
263.337	175.12
263.57	172.12
263.802	168.12
264.035	191.12
264.267	190.12
264.499	195.12
264.732	183.12
264.964	177.12
265.197	181.12
265.429	173.12
265.661	201.12
265.894	184.12
266.126	190.12
266.358	188.12
266.591	183.12
266.823	185.12
267.055	188.12
267.287	187.12
267.52	177.12
267.752	196.12
267.984	205.12
268.216	198.12
268.448	188.12
268.681	197.12
268.913	188.12
269.145	216.12
269.377	219.12
269.609	212.12
269.841	205.12
270.073	226.12
270.306	237.12
270.538	252.12
270.77	249.12
271.002	241.12
271.234	247.12
271.466	257.12
271.698	233.12
271.93	246.12
272.162	248.12
272.394	250.12
272.626	234.12
272.858	243.12
273.09	221.12
273.322	224.12
273.553	218.12
273.785	224.12
274.017	222.12
274.249	217.12
274.481	213.12
274.713	230.12
274.945	235.12
275.176	222.12
275.408	225.12
275.64	223.12
275.872	209.12
276.104	230.12
276.335	232.12
276.567	217.12
276.799	231.12
277.031	251.12
277.262	260.12
277.494	246.12
277.726	252.12
277.957	240.12
278.189	240.12
278.421	222.12
278.652	215.12
278.884	226.12
279.115	229.12
279.347	217.12
279.579	221.12
279.81	224.12
280.042	209.12
280.273	209.12
280.505	224.12
280.736	242.12
280.968	232.12
281.199	224.12
281.431	217.12
281.662	214.12
281.894	221.12
282.125	198.12
282.356	234.12
282.588	240.12
282.819	250.12
283.051	228.12
283.282	216.12
283.513	230.12
283.745	208.12
283.976	225.12
284.207	237.12
284.439	234.12
284.67	228.12
284.901	217.12
285.132	237.12
285.364	238.12
285.595	222.12
285.826	223.12
286.057	232.12
286.288	230.12
286.52	236.12
286.751	223.12
286.982	238.12
287.213	228.12
287.444	239.12
287.675	231.12
287.906	228.12
288.138	239.12
288.369	249.12
288.6	247.12
288.831	223.12
289.062	246.12
289.293	227.12
289.524	244.12
289.755	243.12
289.986	235.12
290.217	246.12
290.448	230.12
290.679	231.12
290.91	236.12
291.141	239.12
291.371	233.12
291.602	246.12
291.833	236.12
292.064	230.12
292.295	233.12
292.526	233.12
292.757	229.12
292.987	255.12
293.218	249.12
293.449	225.12
293.68	250.12
293.91	244.12
294.141	230.12
294.372	251.12
294.603	240.12
294.833	241.12
295.064	245.12
295.295	255.12
295.525	239.12
295.756	242.12
295.987	231.12
296.217	252.12
296.448	270.12
296.679	251.12
296.909	249.12
297.14	258.12
297.37	239.12
297.601	238.12
297.831	237.12
298.062	238.12
298.292	268.12
298.523	247.12
298.753	244.12
298.984	227.12
299.214	250.12
299.445	256.12
299.675	287.12
299.905	260.12
300.136	253.12
300.366	244.12
300.597	238.12
300.827	267.12
301.057	270.12
301.288	263.12
301.518	289.12
301.748	264.12
301.979	263.12
302.209	266.12
302.439	274.12
302.669	258.12
302.9	260.12
303.13	239.12
303.36	281.12
303.59	263.12
303.82	273.12
304.051	280.12
304.281	286.12
304.511	268.12
304.741	276.12
304.971	256.12
305.201	255.12
305.431	256.12
305.661	265.12
305.891	269.12
306.121	284.12
306.352	273.12
306.582	278.12
306.812	273.12
307.042	283.12
307.272	272.12
307.502	269.12
307.731	260.12
307.961	280.12
308.191	273.12
308.421	272.12
308.651	287.12
308.881	269.12
309.111	282.12
309.341	296.12
309.571	295.12
309.8	296.12
310.03	284.12
310.26	310.12
310.49	306.12
310.72	313.12
310.949	312.12
311.179	327.12
311.409	311.12
311.639	297.12
311.868	318.12
312.098	327.12
312.328	331.12
312.557	324.12
312.787	336.12
313.017	330.12
313.246	317.12
313.476	305.12
313.706	312.12
313.935	301.12
314.165	330.12
314.394	312.12
314.624	319.12
314.853	331.12
315.083	327.12
315.312	304.12
315.542	293.12
315.771	289.12
316.001	299.12
316.23	287.12
316.46	296.12
316.689	311.12
316.919	312.12
317.148	321.12
317.377	314.12
317.607	320.12
317.836	322.12
318.065	314.12
318.295	303.12
318.524	324.12
318.753	313.12
318.983	316.12
319.212	316.12
319.441	315.12
319.67	306.12
319.9	303.12
320.129	324.12
320.358	328.12
320.587	320.12
320.816	317.12
321.046	328.12
321.275	347.12
321.504	342.12
321.733	316.12
321.962	341.12
322.191	347.12
322.42	346.12
322.649	362.12
322.878	361.12
323.108	378.12
323.337	410.12
323.566	383.12
323.795	450.12
324.024	486.12
324.253	572.12
324.482	826.12
324.71	1262.12
324.939	1705.12
325.168	1420.12
325.397	751.12
325.626	534.12
325.855	444.12
326.084	420.12
326.313	409.12
326.542	425.12
326.77	449.12
326.999	528.12
327.228	740.12
327.457	1103.12
327.686	1286.12
327.914	859.12
328.143	579.12
328.372	494.12
328.6	478.12
328.829	469.12
329.058	471.12
329.287	508.12
329.515	449.12
329.744	425.12
329.972	415.12
330.201	440.12
330.43	458.12
330.658	465.12
330.887	514.12
331.115	479.12
331.344	438.12
331.572	399.12
331.801	397.12
332.03	416.12
332.258	388.12
332.486	373.12
332.715	360.12
332.943	362.12
333.172	351.12
333.4	358.12
333.629	385.12
333.857	372.12
334.085	394.12
334.314	390.12
334.542	421.12
334.771	422.12
334.999	422.12
335.227	386.12
335.455	347.12
335.684	366.12
335.912	357.12
336.14	353.12
336.369	354.12
336.597	362.12
336.825	357.12
337.053	353.12
337.281	342.12
337.51	365.12
337.738	354.12
337.966	342.12
338.194	362.12
338.422	352.12
338.65	362.12
338.878	344.12
339.106	359.12
339.334	331.12
339.562	345.12
339.79	354.12
340.018	371.12
340.246	337.12
340.474	335.12
340.702	344.12
340.93	363.12
341.158	336.12
341.386	351.12
341.614	352.12
341.842	350.12
342.07	346.12
342.298	335.12
342.526	330.12
342.754	311.12
342.981	338.12
343.209	335.12
343.437	344.12
343.665	339.12
343.893	338.12
344.12	366.12
344.348	351.12
344.576	363.12
344.804	367.12
345.031	366.12
345.259	369.12
345.487	376.12
345.714	366.12
345.942	331.12
346.17	336.12
346.397	329.12
346.625	349.12
346.853	335.12
347.08	331.12
347.308	343.12
347.535	368.12
347.763	361.12
347.99	326.12
348.218	345.12
348.445	353.12
348.673	337.12
348.9	339.12
349.128	340.12
349.355	337.12
349.583	330.12
349.81	345.12
350.037	337.12
350.265	330.12
350.492	331.12
350.72	334.12
350.947	333.12
351.174	339.12
351.402	350.12
351.629	342.12
351.856	345.12
352.083	351.12
352.311	348.12
352.538	346.12
352.765	349.12
352.992	338.12
353.22	338.12
353.447	324.12
353.674	333.12
353.901	338.12
354.128	324.12
354.355	323.12
354.583	313.12
354.81	349.12
355.037	320.12
355.264	322.12
355.491	314.12
355.718	304.12
355.945	306.12
356.172	328.12
356.399	320.12
356.626	320.12
356.853	326.12
357.08	321.12
357.307	310.12
357.534	314.12
357.761	313.12
357.988	316.12
358.215	331.12
358.441	329.12
358.668	336.12
358.895	325.12
359.122	338.12
359.349	336.12
359.576	327.12
359.802	372.12
360.029	372.12
360.256	377.12
360.483	381.12
360.709	358.12
360.936	360.12
361.163	336.12
361.39	340.12
361.616	344.12
361.843	339.12
362.07	343.12
362.296	352.12
362.523	342.12
362.749	334.12
362.976	336.12
363.203	336.12
363.429	329.12
363.656	311.12
363.882	325.12
364.109	321.12
364.335	330.12
364.562	330.12
364.788	304.12
365.015	324.12
365.241	340.12
365.468	342.12
365.694	331.12
365.92	352.12
366.147	348.12
366.373	320.12
366.599	320.12
366.826	320.12
367.052	326.12
367.278	318.12
367.505	324.12
367.731	325.12
367.957	326.12
368.184	343.12
368.41	339.12
368.636	335.12
368.862	336.12
369.089	333.12
369.315	331.12
369.541	336.12
369.767	336.12
369.993	326.12
370.219	334.12
370.445	348.12
370.672	314.12
370.898	308.12
371.124	318.12
371.35	331.12
371.576	333.12
371.802	313.12
372.028	332.12
372.254	318.12
372.48	312.12
372.706	313.12
372.932	326.12
373.158	327.12
373.384	320.12
373.61	316.12
373.835	319.12
374.061	318.12
374.287	314.12
374.513	322.12
374.739	325.12
374.965	322.12
375.191	344.12
375.416	328.12
375.642	328.12
375.868	340.12
376.094	332.12
376.319	330.12
376.545	325.12
376.771	330.12
376.997	322.12
377.222	341.12
377.448	310.12
377.674	320.12
377.899	329.12
378.125	324.12
378.35	311.12
378.576	326.12
378.802	344.12
379.027	325.12
379.253	312.12
379.478	320.12
379.704	321.12
379.929	332.12
380.155	326.12
380.38	319.12
380.606	354.12
380.831	340.12
381.057	334.12
381.282	336.12
381.507	330.12
381.733	315.12
381.958	320.12
382.184	318.12
382.409	342.12
382.634	329.12
382.86	334.12
383.085	336.12
383.31	343.12
383.535	326.12
383.761	346.12
383.986	329.12
384.211	344.12
384.436	336.12
384.662	330.12
384.887	337.12
385.112	340.12
385.337	356.12
385.562	346.12
385.787	348.12
386.013	365.12
386.238	344.12
386.463	357.12
386.688	360.12
386.913	334.12
387.138	335.12
387.363	345.12
387.588	342.12
387.813	335.12
388.038	356.12
388.263	350.12
388.488	348.12
388.713	340.12
388.938	357.12
389.163	357.12
389.387	342.12
389.612	352.12
389.837	330.12
390.062	359.12
390.287	360.12
390.512	341.12
390.736	340.12
390.961	361.12
391.186	362.12
391.411	362.12
391.636	368.12
391.86	377.12
392.085	361.12
392.31	362.12
392.534	349.12
392.759	378.12
392.984	359.12
393.208	356.12
393.433	361.12
393.658	332.12
393.882	342.12
394.107	336.12
394.331	368.12
394.556	359.12
394.78	345.12
395.005	354.12
395.229	352.12
395.454	363.12
395.678	360.12
395.903	383.12
396.127	388.12
396.352	401.12
396.576	369.12
396.801	369.12
397.025	364.12
397.249	349.12
397.474	382.12
397.698	379.12
397.922	358.12
398.147	382.12
398.371	384.12
398.595	404.12
398.82	398.12
399.044	384.12
399.268	403.12
399.492	401.12
399.717	445.12
399.941	459.12
400.165	493.12
400.389	498.12
400.613	461.12
400.837	422.12
401.062	392.12
401.286	400.12
401.51	410.12
401.734	392.12
401.958	415.12
402.182	417.12
402.406	409.12
402.63	423.12
402.854	403.12
403.078	386.12
403.302	405.12
403.526	440.12
403.75	421.12
403.974	408.12
404.198	392.12
404.422	416.12
404.645	413.12
404.869	419.12
405.093	439.12
405.317	468.12
405.541	492.12
405.765	448.12
405.988	430.12
406.212	447.12
406.436	460.12
406.66	465.12
406.883	472.12
407.107	460.12
407.331	491.12
407.555	538.12
407.778	519.12
408.002	486.12
408.226	459.12
408.449	464.12
408.673	450.12
408.896	473.12
409.12	493.12
409.344	471.12
409.567	434.12
409.791	427.12
410.014	401.12
410.238	403.12
410.461	410.12
410.685	418.12
410.908	407.12
411.132	438.12
411.355	463.12
411.578	440.12
411.802	413.12
412.025	409.12
412.249	423.12
412.472	412.12
412.695	448.12
412.919	459.12
413.142	392.12
413.365	389.12
413.589	409.12
413.812	386.12
414.035	380.12
414.258	380.12
414.482	405.12
414.705	389.12
414.928	383.12
415.151	387.12
415.374	381.12
415.597	392.12
415.821	389.12
416.044	395.12
416.267	405.12
416.49	390.12
416.713	374.12
416.936	374.12
417.159	385.12
417.382	406.12
417.605	393.12
417.828	396.12
418.051	389.12
418.274	383.12
418.497	390.12
418.72	401.12
418.943	392.12
419.166	385.12
419.389	407.12
419.611	401.12
419.834	395.12
420.057	397.12
420.28	400.12
420.503	394.12
420.726	409.12
420.948	412.12
421.171	446.12
421.394	455.12
421.617	409.12
421.839	397.12
422.062	405.12
422.285	403.12
422.507	453.12
422.73	498.12
422.953	507.12
423.175	448.12
423.398	416.12
423.621	430.12
423.843	416.12
424.066	430.12
424.288	440.12
424.511	430.12
424.733	491.12
424.956	542.12
425.178	537.12
425.401	510.12
425.623	528.12
425.846	453.12
426.068	444.12
426.291	446.12
426.513	452.12
426.735	433.12
426.958	477.12
427.18	527.12
427.402	617.12
427.625	680.12
427.847	615.12
428.069	522.12
428.292	468.12
428.514	425.12
428.736	416.12
428.958	431.12
429.181	412.12
429.403	417.12
429.625	410.12
429.847	426.12
430.069	488.12
430.292	460.12
430.514	427.12
430.736	412.12
430.958	414.12
431.18	402.12
431.402	395.12
431.624	396.12
431.846	393.12
432.068	406.12
432.29	373.12
432.512	371.12
432.734	397.12
432.956	395.12
433.178	397.12
433.4	406.12
433.622	394.12
433.844	388.12
434.066	379.12
434.287	395.12
434.509	376.12
434.731	394.12
434.953	400.12
435.175	412.12
435.397	425.12
435.618	449.12
435.84	477.12
436.062	539.12
436.284	577.12
436.505	486.12
436.727	456.12
436.949	446.12
437.17	415.12
437.392	412.12
437.614	425.12
437.835	444.12
438.057	530.12
438.278	598.12
438.5	600.12
438.721	639.12
438.943	598.12
439.165	499.12
439.386	464.12
439.608	446.12
439.829	466.12
440.05	458.12
440.272	510.12
440.493	482.12
440.715	445.12
440.936	400.12
441.158	402.12
441.379	417.12
441.6	432.12
441.822	442.12
442.043	462.12
442.264	533.12
442.486	566.12
442.707	471.12
442.928	471.12
443.149	480.12
443.371	485.12
443.592	484.12
443.813	557.12
444.034	586.12
444.255	493.12
444.476	458.12
444.698	438.12
444.919	440.12
445.14	513.12
445.361	489.12
445.582	459.12
445.803	514.12
446.024	595.12
446.245	580.12
446.466	548.12
446.687	470.12
446.908	419.12
447.129	412.12
447.35	396.12
447.571	426.12
447.792	427.12
448.013	403.12
448.234	430.12
448.455	454.12
448.675	549.12
448.896	646.12
449.117	537.12
449.338	512.12
449.559	595.12
449.779	673.12
450	526.12
450.221	444.12
450.442	412.12
450.662	398.12
450.883	412.12
451.104	409.12
451.324	400.12
451.545	390.12
451.766	414.12
451.986	384.12
452.207	361.12
452.428	367.12
452.648	382.12
452.869	367.12
453.089	369.12
453.31	369.12
453.53	359.12
453.751	376.12
453.971	382.12
454.192	385.12
454.412	381.12
454.633	373.12
454.853	370.12
455.073	356.12
455.294	381.12
455.514	446.12
455.734	409.12
455.955	372.12
456.175	357.12
456.395	353.12
456.616	364.12
456.836	380.12
457.056	376.12
457.276	347.12
457.497	334.12
457.717	348.12
457.937	363.12
458.157	372.12
458.377	360.12
458.598	386.12
458.818	418.12
459.038	490.12
459.258	491.12
459.478	425.12
459.698	401.12
459.918	402.12
460.138	380.12
460.358	384.12
460.578	383.12
460.798	365.12
461.018	390.12
461.238	400.12
461.458	392.12
461.678	386.12
461.898	379.12
462.118	401.12
462.338	411.12
462.558	412.12
462.777	423.12
462.997	420.12
463.217	394.12
463.437	418.12
463.657	425.12
463.876	412.12
464.096	426.12
464.316	421.12
464.536	432.12
464.755	433.12
464.975	446.12
465.195	454.12
465.414	514.12
465.634	462.12
465.854	429.12
466.073	398.12
466.293	388.12
466.512	373.12
466.732	381.12
466.951	379.12
467.171	367.12
467.391	376.12
467.61	400.12
467.829	396.12
468.049	386.12
468.268	397.12
468.488	386.12
468.707	368.12
468.927	370.12
469.146	385.12
469.365	364.12
469.585	369.12
469.804	388.12
470.023	380.12
470.243	383.12
470.462	397.12
470.681	417.12
470.901	402.12
471.12	382.12
471.339	357.12
471.558	374.12
471.777	396.12
471.997	370.12
472.216	392.12
472.435	426.12
472.654	410.12
472.873	387.12
473.092	388.12
473.311	387.12
473.53	374.12
473.749	398.12
473.968	426.12
474.187	517.12
474.406	509.12
474.625	437.12
474.844	393.12
475.063	398.12
475.282	397.12
475.501	394.12
475.72	385.12
475.939	410.12
476.158	412.12
476.377	385.12
476.596	380.12
476.814	396.12
477.033	394.12
477.252	417.12
477.471	413.12
477.69	413.12
477.908	424.12
478.127	415.12
478.346	412.12
478.564	417.12
478.783	429.12
479.002	433.12
479.22	439.12
479.439	453.12
479.658	443.12
479.876	442.12
480.095	484.12
480.313	469.12
480.532	497.12
480.751	462.12
480.969	453.12
481.188	519.12
481.406	550.12
481.624	500.12
481.843	474.12
482.061	464.12
482.28	480.12
482.498	452.12
482.717	465.12
482.935	457.12
483.153	457.12
483.372	439.12
483.59	432.12
483.808	463.12
484.027	435.12
484.245	438.12
484.463	470.12
484.681	450.12
484.9	478.12
485.118	458.12
485.336	466.12
485.554	475.12
485.772	478.12
485.99	465.12
486.209	469.12
486.427	480.12
486.645	492.12
486.863	495.12
487.081	498.12
487.299	493.12
487.517	495.12
487.735	465.12
487.953	479.12
488.171	516.12
488.389	483.12
488.607	481.12
488.825	486.12
489.043	489.12
489.261	478.12
489.479	492.12
489.696	484.12
489.914	501.12
490.132	486.12
490.35	488.12
490.568	510.12
490.786	520.12
491.003	516.12
491.221	517.12
491.439	526.12
491.657	525.12
491.874	546.12
492.092	544.12
492.31	533.12
492.527	550.12
492.745	522.12
492.963	544.12
493.18	553.12
493.398	534.12
493.615	572.12
493.833	572.12
494.05	542.12
494.268	542.12
494.485	551.12
494.703	531.12
494.92	538.12
495.138	560.12
495.355	550.12
495.573	573.12
495.79	571.12
496.008	578.12
496.225	571.12
496.442	569.12
496.66	570.12
496.877	570.12
497.094	575.12
497.312	594.12
497.529	577.12
497.746	606.12
497.963	611.12
498.181	608.12
498.398	591.12
498.615	625.12
498.832	649.12
499.049	638.12
499.267	626.12
499.484	670.12
499.701	664.12
499.918	687.12
500.135	692.12
500.352	716.12
500.569	711.12
500.786	731.12
501.003	735.12
501.22	731.12
501.437	699.12
501.654	708.12
501.871	673.12
502.088	667.12
