Data from 1965.PennyLincolnUp.Lamp.En5.5.200Scan.071719.P1._HRD10591_14-09-28-911.txt Node
Date: Thu Jul 18 14:09:28 EDT 2019
User: cochatt
Spectrometer: HR+D1059
Trigger mode: 1
Integration Time (sec): 1.000000E-1
Scans to average: 1
Electric dark correction enabled: true
Nonlinearity correction enabled: false
Boxcar width: 0
XAxis mode: Wavelengths
Number of Pixels in Spectrum: 2048
>>>>>Begin Spectral Data<<<<<
223.165	-28.38
223.4	-28.38
223.635	-28.38
223.869	-30.38
224.104	-15.38
224.338	-22.38
224.573	-1.38
224.808	-18.38
225.042	-3.38
225.277	-6.38
225.511	4.62
225.746	14.62
225.98	6.62
226.215	10.62
226.449	29.62
226.683	16.62
226.918	22.62
227.152	20.62
227.387	32.62
227.621	26.62
227.856	48.62
228.09	51.62
228.324	49.62
228.559	54.62
228.793	71.62
229.027	97.62
229.262	108.62
229.496	110.62
229.73	138.62
229.964	154.62
230.199	122.62
230.433	114.62
230.667	105.62
230.901	109.62
231.136	117.62
231.37	113.62
231.604	103.62
231.838	112.62
232.072	110.62
232.306	109.62
232.541	108.62
232.775	110.62
233.009	105.62
233.243	108.62
233.477	110.62
233.711	103.62
233.945	101.62
234.179	94.62
234.413	109.62
234.647	113.62
234.881	112.62
235.115	98.62
235.349	118.62
235.583	119.62
235.817	116.62
236.051	116.62
236.285	122.62
236.519	116.62
236.753	109.62
236.987	140.62
237.221	161.62
237.455	210.62
237.689	168.62
237.922	119.62
238.156	119.62
238.39	116.62
238.624	100.62
238.858	119.62
239.091	131.62
239.325	118.62
239.559	121.62
239.793	119.62
240.027	134.62
240.26	139.62
240.494	139.62
240.728	147.62
240.961	144.62
241.195	122.62
241.429	129.62
241.662	134.62
241.896	120.62
242.13	118.62
242.363	133.62
242.597	125.62
242.83	126.62
243.064	118.62
243.298	140.62
243.531	128.62
243.765	114.62
243.998	136.62
244.232	134.62
244.465	137.62
244.699	130.62
244.932	140.62
245.166	150.62
245.399	139.62
245.633	126.62
245.866	141.62
246.099	137.62
246.333	135.62
246.566	139.62
246.8	143.62
247.033	157.62
247.266	144.62
247.5	141.62
247.733	148.62
247.966	148.62
248.2	158.62
248.433	163.62
248.666	183.62
248.899	192.62
249.133	178.62
249.366	202.62
249.599	184.62
249.832	158.62
250.066	164.62
250.299	167.62
250.532	178.62
250.765	202.62
250.998	204.62
251.231	185.62
251.465	187.62
251.698	176.62
251.931	172.62
252.164	165.62
252.397	172.62
252.63	177.62
252.863	193.62
253.096	197.62
253.329	207.62
253.562	206.62
253.795	197.62
254.028	194.62
254.261	187.62
254.494	213.62
254.727	214.62
254.96	242.62
255.193	218.62
255.426	226.62
255.659	206.62
255.892	200.62
256.124	204.62
256.357	196.62
256.59	198.62
256.823	208.62
257.056	205.62
257.289	214.62
257.521	191.62
257.754	182.62
257.987	186.62
258.22	191.62
258.452	211.62
258.685	183.62
258.918	190.62
259.151	191.62
259.383	192.62
259.616	189.62
259.849	201.62
260.081	220.62
260.314	224.62
260.547	219.62
260.779	226.62
261.012	214.62
261.244	201.62
261.477	212.62
261.71	197.62
261.942	194.62
262.175	202.62
262.407	213.62
262.64	200.62
262.872	194.62
263.105	212.62
263.337	185.62
263.57	181.62
263.802	197.62
264.035	185.62
264.267	192.62
264.499	197.62
264.732	172.62
264.964	192.62
265.197	183.62
265.429	196.62
265.661	188.62
265.894	170.62
266.126	198.62
266.358	203.62
266.591	214.62
266.823	204.62
267.055	210.62
267.287	192.62
267.52	174.62
267.752	202.62
267.984	192.62
268.216	197.62
268.448	198.62
268.681	209.62
268.913	226.62
269.145	224.62
269.377	252.62
269.609	251.62
269.841	237.62
270.073	235.62
270.306	264.62
270.538	270.62
270.77	288.62
271.002	279.62
271.234	243.62
271.466	280.62
271.698	282.62
271.93	286.62
272.162	286.62
272.394	283.62
272.626	272.62
272.858	248.62
273.09	254.62
273.322	251.62
273.553	228.62
273.785	245.62
274.017	210.62
274.249	249.62
274.481	237.62
274.713	215.62
274.945	245.62
275.176	246.62
275.408	234.62
275.64	240.62
275.872	240.62
276.104	227.62
276.335	250.62
276.567	243.62
276.799	268.62
277.031	263.62
277.262	287.62
277.494	266.62
277.726	291.62
277.957	270.62
278.189	268.62
278.421	222.62
278.652	237.62
278.884	249.62
279.115	256.62
279.347	245.62
279.579	236.62
279.81	246.62
280.042	208.62
280.273	233.62
280.505	227.62
280.736	221.62
280.968	234.62
281.199	222.62
281.431	244.62
281.662	232.62
281.894	235.62
282.125	236.62
282.356	250.62
282.588	294.62
282.819	264.62
283.051	238.62
283.282	231.62
283.513	240.62
283.745	237.62
283.976	249.62
284.207	241.62
284.439	264.62
284.67	271.62
284.901	236.62
285.132	237.62
285.364	246.62
285.595	241.62
285.826	228.62
286.057	257.62
286.288	237.62
286.52	241.62
286.751	271.62
286.982	251.62
287.213	241.62
287.444	256.62
287.675	250.62
287.906	251.62
288.138	274.62
288.369	268.62
288.6	281.62
288.831	274.62
289.062	263.62
289.293	236.62
289.524	268.62
289.755	252.62
289.986	253.62
290.217	242.62
290.448	260.62
290.679	256.62
290.91	262.62
291.141	253.62
291.371	238.62
291.602	245.62
291.833	259.62
292.064	245.62
292.295	257.62
292.526	251.62
292.757	244.62
292.987	262.62
293.218	262.62
293.449	268.62
293.68	253.62
293.91	267.62
294.141	240.62
294.372	239.62
294.603	268.62
294.833	276.62
295.064	245.62
295.295	265.62
295.525	249.62
295.756	257.62
295.987	273.62
296.217	293.62
296.448	298.62
296.679	265.62
296.909	265.62
297.14	264.62
297.37	254.62
297.601	274.62
297.831	260.62
298.062	257.62
298.292	259.62
298.523	266.62
298.753	258.62
298.984	270.62
299.214	274.62
299.445	256.62
299.675	267.62
299.905	271.62
300.136	279.62
300.366	258.62
300.597	280.62
300.827	287.62
301.057	272.62
301.288	289.62
301.518	291.62
301.748	287.62
301.979	295.62
302.209	300.62
302.439	274.62
302.669	286.62
302.9	282.62
303.13	275.62
303.36	321.62
303.59	297.62
303.82	284.62
304.051	301.62
304.281	282.62
304.511	293.62
304.741	285.62
304.971	292.62
305.201	279.62
305.431	296.62
305.661	262.62
305.891	282.62
306.121	296.62
306.352	290.62
306.582	299.62
306.812	288.62
307.042	290.62
307.272	300.62
307.502	301.62
307.731	294.62
307.961	293.62
308.191	309.62
308.421	309.62
308.651	286.62
308.881	292.62
309.111	322.62
309.341	302.62
309.571	321.62
309.8	337.62
310.03	331.62
310.26	341.62
310.49	342.62
310.72	341.62
310.949	350.62
311.179	355.62
311.409	337.62
311.639	342.62
311.868	342.62
312.098	340.62
312.328	336.62
312.557	352.62
312.787	378.62
313.017	373.62
313.246	349.62
313.476	330.62
313.706	342.62
313.935	346.62
314.165	350.62
314.394	359.62
314.624	363.62
314.853	332.62
315.083	333.62
315.312	332.62
315.542	341.62
315.771	327.62
316.001	319.62
316.23	328.62
316.46	335.62
316.689	355.62
316.919	356.62
317.148	336.62
317.377	336.62
317.607	337.62
317.836	351.62
318.065	326.62
318.295	330.62
318.524	341.62
318.753	342.62
318.983	326.62
319.212	333.62
319.441	344.62
319.67	380.62
319.9	342.62
320.129	347.62
320.358	331.62
320.587	362.62
320.816	367.62
321.046	368.62
321.275	359.62
321.504	358.62
321.733	369.62
321.962	392.62
322.191	393.62
322.42	408.62
322.649	411.62
322.878	417.62
323.108	411.62
323.337	425.62
323.566	471.62
323.795	481.62
324.024	523.62
324.253	710.62
324.482	1006.62
324.71	1472.62
324.939	2104.62
325.168	1730.62
325.397	934.62
325.626	628.62
325.855	546.62
326.084	491.62
326.313	475.62
326.542	472.62
326.77	523.62
326.999	650.62
327.228	874.62
327.457	1338.62
327.686	1535.62
327.914	1006.62
328.143	654.62
328.372	612.62
328.6	560.62
328.829	550.62
329.058	537.62
329.287	571.62
329.515	506.62
329.744	487.62
329.972	495.62
330.201	506.62
330.43	557.62
330.658	587.62
330.887	585.62
331.115	558.62
331.344	496.62
331.572	436.62
331.801	429.62
332.03	448.62
332.258	428.62
332.486	411.62
332.715	398.62
332.943	406.62
333.172	417.62
333.4	416.62
333.629	404.62
333.857	407.62
334.085	438.62
334.314	472.62
334.542	495.62
334.771	494.62
334.999	463.62
335.227	434.62
335.455	400.62
335.684	403.62
335.912	394.62
336.14	386.62
336.369	402.62
336.597	386.62
336.825	398.62
337.053	389.62
337.281	385.62
337.51	397.62
337.738	405.62
337.966	402.62
338.194	404.62
338.422	394.62
338.65	387.62
338.878	384.62
339.106	380.62
339.334	378.62
339.562	377.62
339.79	378.62
340.018	379.62
340.246	386.62
340.474	402.62
340.702	394.62
340.93	384.62
341.158	364.62
341.386	380.62
341.614	369.62
341.842	374.62
342.07	364.62
342.298	391.62
342.526	365.62
342.754	384.62
342.981	372.62
343.209	372.62
343.437	368.62
343.665	360.62
343.893	384.62
344.12	374.62
344.348	384.62
344.576	398.62
344.804	389.62
345.031	404.62
345.259	404.62
345.487	396.62
345.714	383.62
345.942	378.62
346.17	367.62
346.397	369.62
346.625	378.62
346.853	372.62
347.08	372.62
347.308	372.62
347.535	392.62
347.763	387.62
347.99	378.62
348.218	382.62
348.445	390.62
348.673	402.62
348.9	397.62
349.128	369.62
349.355	341.62
349.583	356.62
349.81	353.62
350.037	346.62
350.265	346.62
350.492	347.62
350.72	371.62
350.947	359.62
351.174	374.62
351.402	380.62
351.629	380.62
351.856	394.62
352.083	386.62
352.311	375.62
352.538	397.62
352.765	397.62
352.992	385.62
353.22	405.62
353.447	366.62
353.674	350.62
353.901	371.62
354.128	364.62
354.355	345.62
354.583	343.62
354.81	330.62
355.037	356.62
355.264	329.62
355.491	337.62
355.718	344.62
355.945	346.62
356.172	349.62
356.399	325.62
356.626	343.62
356.853	332.62
357.08	340.62
357.307	336.62
357.534	332.62
357.761	331.62
357.988	329.62
358.215	343.62
358.441	354.62
358.668	343.62
358.895	342.62
359.122	357.62
359.349	373.62
359.576	376.62
359.802	394.62
360.029	441.62
360.256	437.62
360.483	439.62
360.709	387.62
360.936	386.62
361.163	390.62
361.39	368.62
361.616	368.62
361.843	366.62
362.07	366.62
362.296	390.62
362.523	363.62
362.749	364.62
362.976	363.62
363.203	366.62
363.429	357.62
363.656	363.62
363.882	356.62
364.109	348.62
364.335	352.62
364.562	363.62
364.788	351.62
365.015	356.62
365.241	367.62
365.468	356.62
365.694	374.62
365.92	354.62
366.147	349.62
366.373	358.62
366.599	339.62
366.826	362.62
367.052	356.62
367.278	342.62
367.505	366.62
367.731	363.62
367.957	356.62
368.184	346.62
368.41	367.62
368.636	363.62
368.862	368.62
369.089	363.62
369.315	353.62
369.541	374.62
369.767	346.62
369.993	329.62
370.219	342.62
370.445	339.62
370.672	357.62
370.898	347.62
371.124	349.62
371.35	346.62
371.576	336.62
371.802	337.62
372.028	342.62
372.254	347.62
372.48	330.62
372.706	337.62
372.932	356.62
373.158	350.62
373.384	359.62
373.61	345.62
373.835	343.62
374.061	346.62
374.287	353.62
374.513	360.62
374.739	356.62
374.965	359.62
375.191	351.62
375.416	338.62
375.642	351.62
375.868	341.62
376.094	353.62
376.319	334.62
376.545	369.62
376.771	329.62
376.997	350.62
377.222	340.62
377.448	337.62
377.674	342.62
377.899	366.62
378.125	344.62
378.35	342.62
378.576	333.62
378.802	334.62
379.027	325.62
379.253	337.62
379.478	354.62
379.704	375.62
379.929	356.62
380.155	333.62
380.38	337.62
380.606	349.62
380.831	344.62
381.057	348.62
381.282	330.62
381.507	333.62
381.733	356.62
381.958	342.62
382.184	355.62
382.409	344.62
382.634	357.62
382.86	346.62
383.085	354.62
383.31	369.62
383.535	361.62
383.761	361.62
383.986	360.62
384.211	358.62
384.436	373.62
384.662	378.62
384.887	359.62
385.112	374.62
385.337	356.62
385.562	344.62
385.787	361.62
386.013	355.62
386.238	362.62
386.463	376.62
386.688	376.62
386.913	364.62
387.138	367.62
387.363	368.62
387.588	359.62
387.813	381.62
388.038	394.62
388.263	383.62
388.488	361.62
388.713	386.62
388.938	387.62
389.163	380.62
389.387	386.62
389.612	385.62
389.837	370.62
390.062	380.62
390.287	375.62
390.512	371.62
390.736	389.62
390.961	365.62
391.186	363.62
391.411	380.62
391.636	378.62
391.86	363.62
392.085	376.62
392.31	363.62
392.534	380.62
392.759	382.62
392.984	386.62
393.208	361.62
393.433	378.62
393.658	358.62
393.882	368.62
394.107	362.62
394.331	358.62
394.556	369.62
394.78	368.62
395.005	393.62
395.229	396.62
395.454	386.62
395.678	389.62
395.903	393.62
396.127	390.62
396.352	411.62
396.576	395.62
396.801	395.62
397.025	348.62
397.249	390.62
397.474	402.62
397.698	387.62
397.922	400.62
398.147	402.62
398.371	405.62
398.595	423.62
398.82	407.62
399.044	411.62
399.268	438.62
399.492	455.62
399.717	457.62
399.941	474.62
400.165	509.62
400.389	505.62
400.613	483.62
400.837	432.62
401.062	446.62
401.286	424.62
401.51	433.62
401.734	416.62
401.958	417.62
402.182	426.62
402.406	440.62
402.63	452.62
402.854	454.62
403.078	432.62
403.302	442.62
403.526	449.62
403.75	422.62
403.974	431.62
404.198	446.62
404.422	434.62
404.645	464.62
404.869	451.62
405.093	470.62
405.317	522.62
405.541	519.62
405.765	473.62
405.988	424.62
406.212	470.62
406.436	502.62
406.66	503.62
406.883	481.62
407.107	500.62
407.331	529.62
407.555	590.62
407.778	570.62
408.002	511.62
408.226	479.62
408.449	476.62
408.673	487.62
408.896	516.62
409.12	528.62
409.344	514.62
409.567	478.62
409.791	434.62
410.014	438.62
410.238	428.62
410.461	444.62
410.685	421.62
410.908	464.62
411.132	485.62
411.355	512.62
411.578	484.62
411.802	432.62
412.025	429.62
412.249	454.62
412.472	447.62
412.695	496.62
412.919	483.62
413.142	433.62
413.365	436.62
413.589	426.62
413.812	422.62
414.035	402.62
414.258	424.62
414.482	393.62
414.705	427.62
414.928	423.62
415.151	412.62
415.374	399.62
415.597	410.62
415.821	411.62
416.044	428.62
416.267	420.62
416.49	431.62
416.713	400.62
416.936	418.62
417.159	429.62
417.382	416.62
417.605	416.62
417.828	425.62
418.051	436.62
418.274	420.62
418.497	418.62
418.72	408.62
418.943	408.62
419.166	417.62
419.389	444.62
419.611	448.62
419.834	438.62
420.057	442.62
420.28	421.62
420.503	420.62
420.726	433.62
420.948	456.62
421.171	470.62
421.394	501.62
421.617	478.62
421.839	435.62
422.062	444.62
422.285	427.62
422.507	493.62
422.73	540.62
422.953	529.62
423.175	495.62
423.398	445.62
423.621	446.62
423.843	472.62
424.066	465.62
424.288	455.62
424.511	487.62
424.733	515.62
424.956	594.62
425.178	558.62
425.401	567.62
425.623	571.62
425.846	504.62
426.068	465.62
426.291	473.62
426.513	466.62
426.735	494.62
426.958	506.62
427.18	610.62
427.402	696.62
427.625	752.62
427.847	684.62
428.069	573.62
428.292	514.62
428.514	487.62
428.736	463.62
428.958	453.62
429.181	450.62
429.403	444.62
429.625	440.62
429.847	462.62
430.069	546.62
430.292	525.62
430.514	449.62
430.736	454.62
430.958	438.62
431.18	443.62
431.402	420.62
431.624	418.62
431.846	398.62
432.068	416.62
432.29	417.62
432.512	420.62
432.734	416.62
432.956	430.62
433.178	442.62
433.4	423.62
433.622	432.62
433.844	432.62
434.066	400.62
434.287	404.62
434.509	442.62
434.731	434.62
434.953	441.62
435.175	446.62
435.397	469.62
435.618	451.62
435.84	518.62
436.062	607.62
436.284	644.62
436.505	539.62
436.727	490.62
436.949	453.62
437.17	453.62
437.392	446.62
437.614	451.62
437.835	504.62
438.057	573.62
438.278	648.62
438.5	663.62
438.721	710.62
438.943	656.62
439.165	536.62
439.386	484.62
439.608	504.62
439.829	518.62
440.05	502.62
440.272	552.62
440.493	487.62
440.715	484.62
440.936	450.62
441.158	443.62
441.379	431.62
441.6	466.62
441.822	487.62
442.043	513.62
442.264	600.62
442.486	613.62
442.707	530.62
442.928	504.62
443.149	489.62
443.371	495.62
443.592	544.62
443.813	632.62
444.034	665.62
444.255	553.62
444.476	488.62
444.698	487.62
444.919	484.62
445.14	584.62
445.361	536.62
445.582	509.62
445.803	584.62
446.024	640.62
446.245	664.62
446.466	588.62
446.687	505.62
446.908	475.62
447.129	474.62
447.35	435.62
447.571	444.62
447.792	451.62
448.013	446.62
448.234	478.62
448.455	510.62
448.675	610.62
448.896	686.62
449.117	583.62
449.338	571.62
449.559	662.62
449.779	724.62
450	585.62
450.221	500.62
450.442	459.62
450.662	446.62
450.883	447.62
451.104	471.62
451.324	427.62
451.545	429.62
451.766	431.62
451.986	420.62
452.207	402.62
452.428	394.62
452.648	400.62
452.869	425.62
453.089	431.62
453.31	434.62
453.53	416.62
453.751	401.62
453.971	411.62
454.192	416.62
454.412	394.62
454.633	410.62
454.853	382.62
455.073	401.62
455.294	415.62
455.514	481.62
455.734	454.62
455.955	413.62
456.175	406.62
456.395	388.62
456.616	367.62
456.836	380.62
457.056	364.62
457.276	378.62
457.497	379.62
457.717	372.62
457.937	398.62
458.157	387.62
458.377	392.62
458.598	414.62
458.818	481.62
459.038	550.62
459.258	553.62
459.478	466.62
459.698	423.62
459.918	421.62
460.138	391.62
460.358	398.62
460.578	414.62
460.798	394.62
461.018	418.62
461.238	399.62
461.458	409.62
461.678	384.62
461.898	392.62
462.118	392.62
462.338	415.62
462.558	415.62
462.777	421.62
462.997	434.62
463.217	465.62
463.437	439.62
463.657	426.62
463.876	444.62
464.096	421.62
464.316	433.62
464.536	461.62
464.755	453.62
464.975	452.62
465.195	504.62
465.414	593.62
465.634	512.62
465.854	450.62
466.073	438.62
466.293	409.62
466.512	415.62
466.732	421.62
466.951	397.62
467.171	397.62
467.391	389.62
467.61	408.62
467.829	400.62
468.049	420.62
468.268	408.62
468.488	384.62
468.707	400.62
468.927	406.62
469.146	384.62
469.365	383.62
469.585	382.62
469.804	398.62
470.023	407.62
470.243	420.62
470.462	417.62
470.681	457.62
470.901	424.62
471.12	428.62
471.339	410.62
471.558	416.62
471.777	426.62
471.997	411.62
472.216	438.62
472.435	479.62
472.654	427.62
472.873	392.62
473.092	418.62
473.311	409.62
473.53	411.62
473.749	435.62
473.968	472.62
474.187	566.62
474.406	558.62
474.625	475.62
474.844	446.62
475.063	400.62
475.282	417.62
475.501	406.62
475.72	410.62
475.939	424.62
476.158	433.62
476.377	420.62
476.596	439.62
476.814	447.62
477.033	446.62
477.252	426.62
477.471	442.62
477.69	437.62
477.908	447.62
478.127	437.62
478.346	441.62
478.564	439.62
478.783	449.62
479.002	479.62
479.22	461.62
479.439	497.62
479.658	482.62
479.876	492.62
480.095	496.62
480.313	528.62
480.532	506.62
480.751	512.62
480.969	524.62
481.188	585.62
481.406	616.62
481.624	539.62
481.843	517.62
482.061	489.62
482.28	482.62
482.498	495.62
482.717	501.62
482.935	504.62
483.153	488.62
483.372	490.62
483.59	503.62
483.808	496.62
484.027	478.62
484.245	486.62
484.463	494.62
484.681	509.62
484.9	493.62
485.118	491.62
485.336	481.62
485.554	489.62
485.772	486.62
485.99	501.62
486.209	489.62
486.427	502.62
486.645	524.62
486.863	540.62
487.081	523.62
487.299	519.62
487.517	524.62
487.735	534.62
487.953	535.62
488.171	537.62
488.389	507.62
488.607	538.62
488.825	527.62
489.043	518.62
489.261	526.62
489.479	535.62
489.696	543.62
489.914	541.62
490.132	540.62
490.35	566.62
490.568	562.62
490.786	558.62
491.003	539.62
491.221	574.62
491.439	584.62
491.657	613.62
491.874	596.62
492.092	610.62
492.31	598.62
492.527	615.62
492.745	593.62
492.963	610.62
493.18	635.62
493.398	596.62
493.615	606.62
493.833	616.62
494.05	600.62
494.268	609.62
494.485	617.62
494.703	577.62
494.92	594.62
495.138	620.62
495.355	616.62
495.573	625.62
495.79	602.62
496.008	625.62
496.225	623.62
496.442	610.62
496.66	602.62
496.877	603.62
497.094	607.62
497.312	641.62
497.529	625.62
497.746	627.62
497.963	640.62
498.181	649.62
498.398	663.62
498.615	668.62
498.832	659.62
499.049	692.62
499.267	698.62
499.484	697.62
499.701	688.62
499.918	759.62
500.135	761.62
500.352	764.62
500.569	758.62
500.786	774.62
501.003	774.62
501.22	775.62
501.437	736.62
501.654	744.62
501.871	756.62
