Data from 1965.PennyLincolnUp.Lamp.En5.5.200Scan.071719.P1._HRD10591_14-08-34-911.txt Node
Date: Thu Jul 18 14:08:34 EDT 2019
User: cochatt
Spectrometer: HR+D1059
Trigger mode: 1
Integration Time (sec): 1.000000E-1
Scans to average: 1
Electric dark correction enabled: true
Nonlinearity correction enabled: false
Boxcar width: 0
XAxis mode: Wavelengths
Number of Pixels in Spectrum: 2048
>>>>>Begin Spectral Data<<<<<
223.165	-6.5
223.4	-6.5
223.635	-6.5
223.869	-12.5
224.104	-29.5
224.338	-27.5
224.573	-21.5
224.808	-14.5
225.042	3.5
225.277	6.5
225.511	-2.5
225.746	-3.5
225.98	14.5
226.215	5.5
226.449	24.5
226.683	13.5
226.918	21.5
227.152	28.5
227.387	34.5
227.621	33.5
227.856	38.5
228.09	57.5
228.324	49.5
228.559	63.5
228.793	62.5
229.027	91.5
229.262	83.5
229.496	91.5
229.73	123.5
229.964	132.5
230.199	110.5
230.433	105.5
230.667	116.5
230.901	99.5
231.136	113.5
231.37	84.5
231.604	101.5
231.838	113.5
232.072	115.5
232.306	101.5
232.541	123.5
232.775	97.5
233.009	101.5
233.243	118.5
233.477	104.5
233.711	113.5
233.945	110.5
234.179	96.5
234.413	112.5
234.647	99.5
234.881	102.5
235.115	111.5
235.349	110.5
235.583	122.5
235.817	111.5
236.051	107.5
236.285	108.5
236.519	113.5
236.753	115.5
236.987	138.5
237.221	165.5
237.455	204.5
237.689	169.5
237.922	135.5
238.156	125.5
238.39	119.5
238.624	116.5
238.858	128.5
239.091	118.5
239.325	108.5
239.559	118.5
239.793	121.5
240.027	116.5
240.26	129.5
240.494	130.5
240.728	140.5
240.961	131.5
241.195	133.5
241.429	109.5
241.662	116.5
241.896	126.5
242.13	126.5
242.363	110.5
242.597	125.5
242.83	122.5
243.064	132.5
243.298	125.5
243.531	127.5
243.765	116.5
243.998	127.5
244.232	107.5
244.465	128.5
244.699	139.5
244.932	133.5
245.166	129.5
245.399	118.5
245.633	136.5
245.866	129.5
246.099	140.5
246.333	127.5
246.566	121.5
246.8	145.5
247.033	139.5
247.266	137.5
247.5	142.5
247.733	147.5
247.966	150.5
248.2	150.5
248.433	159.5
248.666	148.5
248.899	158.5
249.133	173.5
249.366	175.5
249.599	174.5
249.832	136.5
250.066	163.5
250.299	163.5
250.532	170.5
250.765	162.5
250.998	201.5
251.231	204.5
251.465	188.5
251.698	179.5
251.931	179.5
252.164	179.5
252.397	185.5
252.63	163.5
252.863	168.5
253.096	195.5
253.329	201.5
253.562	178.5
253.795	196.5
254.028	191.5
254.261	169.5
254.494	187.5
254.727	173.5
254.96	228.5
255.193	217.5
255.426	211.5
255.659	196.5
255.892	189.5
256.124	191.5
256.357	214.5
256.59	200.5
256.823	177.5
257.056	194.5
257.289	178.5
257.521	170.5
257.754	192.5
257.987	189.5
258.22	169.5
258.452	177.5
258.685	174.5
258.918	194.5
259.151	186.5
259.383	188.5
259.616	184.5
259.849	198.5
260.081	194.5
260.314	214.5
260.547	231.5
260.779	199.5
261.012	196.5
261.244	189.5
261.477	206.5
261.71	182.5
261.942	210.5
262.175	215.5
262.407	194.5
262.64	211.5
262.872	185.5
263.105	193.5
263.337	192.5
263.57	169.5
263.802	184.5
264.035	159.5
264.267	181.5
264.499	180.5
264.732	178.5
264.964	179.5
265.197	186.5
265.429	170.5
265.661	182.5
265.894	201.5
266.126	182.5
266.358	188.5
266.591	171.5
266.823	195.5
267.055	191.5
267.287	201.5
267.52	188.5
267.752	209.5
267.984	188.5
268.216	193.5
268.448	193.5
268.681	208.5
268.913	196.5
269.145	226.5
269.377	229.5
269.609	228.5
269.841	221.5
270.073	237.5
270.306	261.5
270.538	265.5
270.77	242.5
271.002	262.5
271.234	253.5
271.466	241.5
271.698	261.5
271.93	258.5
272.162	267.5
272.394	264.5
272.626	242.5
272.858	237.5
273.09	233.5
273.322	238.5
273.553	228.5
273.785	227.5
274.017	211.5
274.249	216.5
274.481	222.5
274.713	214.5
274.945	228.5
275.176	219.5
275.408	221.5
275.64	238.5
275.872	217.5
276.104	214.5
276.335	239.5
276.567	222.5
276.799	235.5
277.031	277.5
277.262	257.5
277.494	265.5
277.726	239.5
277.957	232.5
278.189	234.5
278.421	227.5
278.652	225.5
278.884	223.5
279.115	223.5
279.347	231.5
279.579	226.5
279.81	219.5
280.042	225.5
280.273	217.5
280.505	235.5
280.736	229.5
280.968	220.5
281.199	223.5
281.431	219.5
281.662	210.5
281.894	209.5
282.125	214.5
282.356	247.5
282.588	261.5
282.819	273.5
283.051	242.5
283.282	212.5
283.513	241.5
283.745	227.5
283.976	237.5
284.207	239.5
284.439	237.5
284.67	229.5
284.901	247.5
285.132	223.5
285.364	221.5
285.595	232.5
285.826	225.5
286.057	222.5
286.288	242.5
286.52	217.5
286.751	213.5
286.982	237.5
287.213	232.5
287.444	252.5
287.675	230.5
287.906	238.5
288.138	238.5
288.369	255.5
288.6	233.5
288.831	245.5
289.062	257.5
289.293	257.5
289.524	260.5
289.755	225.5
289.986	236.5
290.217	236.5
290.448	226.5
290.679	243.5
290.91	227.5
291.141	246.5
291.371	238.5
291.602	222.5
291.833	246.5
292.064	250.5
292.295	254.5
292.526	257.5
292.757	241.5
292.987	246.5
293.218	232.5
293.449	258.5
293.68	264.5
293.91	251.5
294.141	248.5
294.372	254.5
294.603	247.5
294.833	237.5
295.064	246.5
295.295	236.5
295.525	248.5
295.756	260.5
295.987	235.5
296.217	261.5
296.448	288.5
296.679	264.5
296.909	262.5
297.14	232.5
297.37	259.5
297.601	257.5
297.831	241.5
298.062	253.5
298.292	248.5
298.523	250.5
298.753	230.5
298.984	261.5
299.214	253.5
299.445	270.5
299.675	273.5
299.905	267.5
300.136	269.5
300.366	272.5
300.597	236.5
300.827	281.5
301.057	278.5
301.288	257.5
301.518	261.5
301.748	267.5
301.979	274.5
302.209	268.5
302.439	281.5
302.669	284.5
302.9	254.5
303.13	263.5
303.36	291.5
303.59	278.5
303.82	291.5
304.051	277.5
304.281	269.5
304.511	289.5
304.741	274.5
304.971	289.5
305.201	262.5
305.431	270.5
305.661	282.5
305.891	276.5
306.121	277.5
306.352	268.5
306.582	261.5
306.812	284.5
307.042	281.5
307.272	281.5
307.502	270.5
307.731	251.5
307.961	270.5
308.191	280.5
308.421	290.5
308.651	298.5
308.881	290.5
309.111	305.5
309.341	290.5
309.571	295.5
309.8	311.5
310.03	303.5
310.26	296.5
310.49	299.5
310.72	324.5
310.949	329.5
311.179	318.5
311.409	329.5
311.639	303.5
311.868	321.5
312.098	324.5
312.328	337.5
312.557	341.5
312.787	359.5
313.017	346.5
313.246	310.5
313.476	327.5
313.706	329.5
313.935	324.5
314.165	319.5
314.394	316.5
314.624	337.5
314.853	327.5
315.083	328.5
315.312	318.5
315.542	303.5
315.771	299.5
316.001	321.5
316.23	309.5
316.46	301.5
316.689	313.5
316.919	326.5
317.148	332.5
317.377	311.5
317.607	321.5
317.836	326.5
318.065	338.5
318.295	300.5
318.524	307.5
318.753	315.5
318.983	323.5
319.212	302.5
319.441	325.5
319.67	322.5
319.9	305.5
320.129	319.5
320.358	317.5
320.587	321.5
320.816	328.5
321.046	302.5
321.275	340.5
321.504	331.5
321.733	350.5
321.962	343.5
322.191	372.5
322.42	379.5
322.649	371.5
322.878	383.5
323.108	383.5
323.337	407.5
323.566	423.5
323.795	450.5
324.024	540.5
324.253	634.5
324.482	908.5
324.71	1410.5
324.939	1900.5
325.168	1573.5
325.397	833.5
325.626	570.5
325.855	467.5
326.084	439.5
326.313	442.5
326.542	445.5
326.77	498.5
326.999	594.5
327.228	809.5
327.457	1225.5
327.686	1377.5
327.914	930.5
328.143	605.5
328.372	552.5
328.6	528.5
328.829	506.5
329.058	506.5
329.287	494.5
329.515	465.5
329.744	449.5
329.972	456.5
330.201	452.5
330.43	492.5
330.658	492.5
330.887	533.5
331.115	522.5
331.344	470.5
331.572	417.5
331.801	442.5
332.03	428.5
332.258	391.5
332.486	398.5
332.715	391.5
332.943	369.5
333.172	398.5
333.4	387.5
333.629	366.5
333.857	387.5
334.085	405.5
334.314	433.5
334.542	430.5
334.771	482.5
334.999	413.5
335.227	397.5
335.455	372.5
335.684	379.5
335.912	372.5
336.14	361.5
336.369	354.5
336.597	374.5
336.825	377.5
337.053	365.5
337.281	353.5
337.51	374.5
337.738	376.5
337.966	364.5
338.194	371.5
338.422	373.5
338.65	363.5
338.878	357.5
339.106	344.5
339.334	387.5
339.562	362.5
339.79	345.5
340.018	358.5
340.246	354.5
340.474	362.5
340.702	359.5
340.93	359.5
341.158	363.5
341.386	347.5
341.614	358.5
341.842	371.5
342.07	357.5
342.298	347.5
342.526	331.5
342.754	324.5
342.981	339.5
343.209	342.5
343.437	340.5
343.665	353.5
343.893	338.5
344.12	354.5
344.348	367.5
344.576	361.5
344.804	367.5
345.031	374.5
345.259	375.5
345.487	376.5
345.714	370.5
345.942	340.5
346.17	339.5
346.397	344.5
346.625	345.5
346.853	350.5
347.08	340.5
347.308	348.5
347.535	365.5
347.763	369.5
347.99	365.5
348.218	356.5
348.445	365.5
348.673	357.5
348.9	332.5
349.128	345.5
349.355	340.5
349.583	338.5
349.81	352.5
350.037	360.5
350.265	355.5
350.492	346.5
350.72	349.5
350.947	346.5
351.174	339.5
351.402	367.5
351.629	390.5
351.856	357.5
352.083	364.5
352.311	370.5
352.538	358.5
352.765	371.5
352.992	357.5
353.22	376.5
353.447	364.5
353.674	345.5
353.901	338.5
354.128	337.5
354.355	334.5
354.583	327.5
354.81	329.5
355.037	309.5
355.264	312.5
355.491	335.5
355.718	322.5
355.945	319.5
356.172	335.5
356.399	319.5
356.626	314.5
356.853	326.5
357.08	302.5
357.307	323.5
357.534	318.5
357.761	301.5
357.988	323.5
358.215	324.5
358.441	328.5
358.668	322.5
358.895	323.5
359.122	338.5
359.349	348.5
359.576	354.5
359.802	373.5
360.029	397.5
360.256	397.5
360.483	393.5
360.709	350.5
360.936	361.5
361.163	350.5
361.39	338.5
361.616	358.5
361.843	339.5
362.07	338.5
362.296	350.5
362.523	362.5
362.749	357.5
362.976	344.5
363.203	353.5
363.429	344.5
363.656	345.5
363.882	327.5
364.109	335.5
364.335	329.5
364.562	326.5
364.788	333.5
365.015	352.5
365.241	333.5
365.468	331.5
365.694	338.5
365.92	353.5
366.147	334.5
366.373	343.5
366.599	327.5
366.826	325.5
367.052	317.5
367.278	327.5
367.505	345.5
367.731	355.5
367.957	325.5
368.184	325.5
368.41	338.5
368.636	323.5
368.862	354.5
369.089	347.5
369.315	335.5
369.541	331.5
369.767	327.5
369.993	314.5
370.219	342.5
370.445	333.5
370.672	323.5
370.898	323.5
371.124	334.5
371.35	342.5
371.576	339.5
371.802	324.5
372.028	319.5
372.254	341.5
372.48	311.5
372.706	336.5
372.932	335.5
373.158	335.5
373.384	325.5
373.61	321.5
373.835	362.5
374.061	330.5
374.287	356.5
374.513	333.5
374.739	332.5
374.965	331.5
375.191	314.5
375.416	333.5
375.642	343.5
375.868	318.5
376.094	333.5
376.319	316.5
376.545	330.5
376.771	338.5
376.997	331.5
377.222	325.5
377.448	325.5
377.674	311.5
377.899	324.5
378.125	296.5
378.35	303.5
378.576	317.5
378.802	327.5
379.027	332.5
379.253	317.5
379.478	310.5
379.704	310.5
379.929	330.5
380.155	339.5
380.38	319.5
380.606	324.5
380.831	329.5
381.057	338.5
381.282	345.5
381.507	330.5
381.733	339.5
381.958	330.5
382.184	331.5
382.409	338.5
382.634	328.5
382.86	335.5
383.085	339.5
383.31	324.5
383.535	323.5
383.761	346.5
383.986	336.5
384.211	335.5
384.436	344.5
384.662	338.5
384.887	339.5
385.112	353.5
385.337	343.5
385.562	359.5
385.787	332.5
386.013	360.5
386.238	355.5
386.463	364.5
386.688	337.5
386.913	326.5
387.138	355.5
387.363	355.5
387.588	354.5
387.813	347.5
388.038	347.5
388.263	344.5
388.488	335.5
388.713	341.5
388.938	352.5
389.163	347.5
389.387	351.5
389.612	346.5
389.837	354.5
390.062	353.5
390.287	354.5
390.512	354.5
390.736	337.5
390.961	359.5
391.186	372.5
391.411	354.5
391.636	343.5
391.86	354.5
392.085	347.5
392.31	373.5
392.534	352.5
392.759	354.5
392.984	338.5
393.208	349.5
393.433	354.5
393.658	351.5
393.882	363.5
394.107	358.5
394.331	345.5
394.556	352.5
394.78	346.5
395.005	361.5
395.229	346.5
395.454	358.5
395.678	361.5
395.903	371.5
396.127	389.5
396.352	386.5
396.576	381.5
396.801	357.5
397.025	364.5
397.249	359.5
397.474	375.5
397.698	371.5
397.922	370.5
398.147	398.5
398.371	408.5
398.595	399.5
398.82	371.5
399.044	384.5
399.268	409.5
399.492	423.5
399.717	436.5
399.941	463.5
400.165	473.5
400.389	463.5
400.613	442.5
400.837	405.5
401.062	401.5
401.286	417.5
401.51	398.5
401.734	393.5
401.958	403.5
402.182	399.5
402.406	409.5
402.63	402.5
402.854	405.5
403.078	403.5
403.302	419.5
403.526	426.5
403.75	400.5
403.974	407.5
404.198	397.5
404.422	413.5
404.645	413.5
404.869	418.5
405.093	428.5
405.317	481.5
405.541	477.5
405.765	451.5
405.988	443.5
406.212	432.5
406.436	460.5
406.66	472.5
406.883	445.5
407.107	477.5
407.331	486.5
407.555	539.5
407.778	531.5
408.002	491.5
408.226	460.5
408.449	451.5
408.673	455.5
408.896	489.5
409.12	516.5
409.344	482.5
409.567	425.5
409.791	406.5
410.014	410.5
410.238	406.5
410.461	422.5
410.685	404.5
410.908	427.5
411.132	459.5
411.355	458.5
411.578	454.5
411.802	410.5
412.025	420.5
412.249	429.5
412.472	450.5
412.695	451.5
412.919	457.5
413.142	404.5
413.365	421.5
413.589	427.5
413.812	399.5
414.035	394.5
414.258	402.5
414.482	379.5
414.705	387.5
414.928	383.5
415.151	389.5
415.374	393.5
415.597	385.5
415.821	376.5
416.044	385.5
416.267	395.5
416.49	385.5
416.713	383.5
416.936	388.5
417.159	381.5
417.382	406.5
417.605	388.5
417.828	419.5
418.051	410.5
418.274	410.5
418.497	391.5
418.72	379.5
418.943	410.5
419.166	402.5
419.389	399.5
419.611	417.5
419.834	392.5
420.057	406.5
420.28	415.5
420.503	417.5
420.726	404.5
420.948	415.5
421.171	424.5
421.394	475.5
421.617	438.5
421.839	401.5
422.062	415.5
422.285	425.5
422.507	445.5
422.73	517.5
422.953	498.5
423.175	450.5
423.398	422.5
423.621	419.5
423.843	452.5
424.066	415.5
424.288	453.5
424.511	441.5
424.733	491.5
424.956	547.5
425.178	532.5
425.401	547.5
425.623	562.5
425.846	482.5
426.068	458.5
426.291	448.5
426.513	442.5
426.735	439.5
426.958	479.5
427.18	545.5
427.402	619.5
427.625	699.5
427.847	650.5
428.069	571.5
428.292	499.5
428.514	443.5
428.736	408.5
428.958	418.5
429.181	424.5
429.403	402.5
429.625	419.5
429.847	451.5
430.069	505.5
430.292	482.5
430.514	441.5
430.736	415.5
430.958	414.5
431.18	389.5
431.402	389.5
431.624	374.5
431.846	393.5
432.068	383.5
432.29	380.5
432.512	388.5
432.734	406.5
432.956	398.5
433.178	398.5
433.4	407.5
433.622	389.5
433.844	407.5
434.066	385.5
434.287	389.5
434.509	395.5
434.731	414.5
434.953	385.5
435.175	396.5
435.397	449.5
435.618	449.5
435.84	500.5
436.062	533.5
436.284	585.5
436.505	499.5
436.727	455.5
436.949	425.5
437.17	407.5
437.392	417.5
437.614	444.5
437.835	468.5
438.057	525.5
438.278	607.5
438.5	606.5
438.721	650.5
438.943	598.5
439.165	496.5
439.386	464.5
439.608	470.5
439.829	439.5
440.05	477.5
440.272	506.5
440.493	475.5
440.715	462.5
440.936	424.5
441.158	415.5
441.379	403.5
441.6	414.5
441.822	447.5
442.043	480.5
442.264	526.5
442.486	582.5
442.707	483.5
442.928	469.5
443.149	449.5
443.371	501.5
443.592	480.5
443.813	593.5
444.034	622.5
444.255	501.5
444.476	462.5
444.698	454.5
444.919	458.5
445.14	534.5
445.361	505.5
445.582	491.5
445.803	539.5
446.024	602.5
446.245	620.5
446.466	571.5
446.687	465.5
446.908	446.5
447.129	425.5
447.35	433.5
447.571	412.5
447.792	413.5
448.013	414.5
448.234	440.5
448.455	478.5
448.675	566.5
448.896	659.5
449.117	555.5
449.338	516.5
449.559	584.5
449.779	684.5
450	566.5
450.221	462.5
450.442	417.5
450.662	413.5
450.883	421.5
451.104	445.5
451.324	420.5
451.545	404.5
451.766	389.5
451.986	396.5
452.207	383.5
452.428	359.5
452.648	364.5
452.869	389.5
453.089	393.5
453.31	390.5
453.53	383.5
453.751	387.5
453.971	395.5
454.192	412.5
454.412	374.5
454.633	367.5
454.853	374.5
455.073	375.5
455.294	403.5
455.514	452.5
455.734	446.5
455.955	364.5
456.175	383.5
456.395	354.5
456.616	343.5
456.836	358.5
457.056	354.5
457.276	335.5
457.497	353.5
457.717	351.5
457.937	359.5
458.157	366.5
458.377	375.5
458.598	412.5
458.818	437.5
459.038	507.5
459.258	523.5
459.478	444.5
459.698	401.5
459.918	400.5
460.138	384.5
460.358	380.5
460.578	377.5
460.798	405.5
461.018	402.5
461.238	384.5
461.458	388.5
461.678	393.5
461.898	395.5
462.118	392.5
462.338	397.5
462.558	406.5
462.777	408.5
462.997	423.5
463.217	409.5
463.437	410.5
463.657	413.5
463.876	416.5
464.096	404.5
464.316	418.5
464.536	407.5
464.755	433.5
464.975	421.5
465.195	472.5
465.414	541.5
465.634	457.5
465.854	413.5
466.073	420.5
466.293	386.5
466.512	383.5
466.732	388.5
466.951	379.5
467.171	390.5
467.391	410.5
467.61	409.5
467.829	379.5
468.049	393.5
468.268	406.5
468.488	390.5
468.707	383.5
468.927	384.5
469.146	368.5
469.365	366.5
469.585	385.5
469.804	385.5
470.023	394.5
470.243	382.5
470.462	393.5
470.681	419.5
470.901	411.5
471.12	391.5
471.339	372.5
471.558	391.5
471.777	403.5
471.997	398.5
472.216	373.5
472.435	427.5
472.654	406.5
472.873	386.5
473.092	403.5
473.311	387.5
473.53	379.5
473.749	394.5
473.968	428.5
474.187	528.5
474.406	517.5
474.625	434.5
474.844	384.5
475.063	380.5
475.282	374.5
475.501	391.5
475.72	402.5
475.939	394.5
476.158	391.5
476.377	399.5
476.596	399.5
476.814	400.5
477.033	399.5
477.252	402.5
477.471	409.5
477.69	416.5
477.908	409.5
478.127	425.5
478.346	426.5
478.564	423.5
478.783	414.5
479.002	422.5
479.22	455.5
479.439	425.5
479.658	466.5
479.876	477.5
480.095	482.5
480.313	507.5
480.532	456.5
480.751	460.5
480.969	457.5
481.188	547.5
481.406	596.5
481.624	526.5
481.843	476.5
482.061	454.5
482.28	469.5
482.498	452.5
482.717	450.5
482.935	447.5
483.153	457.5
483.372	441.5
483.59	439.5
483.808	468.5
484.027	462.5
484.245	449.5
484.463	461.5
484.681	477.5
484.9	453.5
485.118	457.5
485.336	474.5
485.554	470.5
485.772	470.5
485.99	477.5
486.209	467.5
486.427	497.5
486.645	488.5
486.863	513.5
487.081	492.5
487.299	480.5
487.517	498.5
487.735	494.5
487.953	497.5
488.171	499.5
488.389	499.5
488.607	487.5
488.825	507.5
489.043	487.5
489.261	495.5
489.479	503.5
489.696	475.5
489.914	503.5
490.132	498.5
490.35	494.5
490.568	499.5
490.786	505.5
491.003	535.5
491.221	544.5
491.439	549.5
491.657	536.5
491.874	547.5
492.092	562.5
492.31	540.5
492.527	547.5
492.745	549.5
492.963	543.5
493.18	555.5
493.398	573.5
493.615	569.5
493.833	565.5
494.05	580.5
494.268	570.5
494.485	584.5
494.703	550.5
494.92	584.5
495.138	559.5
495.355	594.5
495.573	586.5
495.79	600.5
496.008	571.5
496.225	586.5
496.442	590.5
496.66	580.5
496.877	580.5
497.094	588.5
497.312	597.5
497.529	591.5
497.746	603.5
497.963	589.5
498.181	616.5
498.398	621.5
498.615	628.5
498.832	645.5
499.049	648.5
499.267	665.5
499.484	671.5
499.701	697.5
499.918	695.5
500.135	722.5
500.352	727.5
500.569	746.5
500.786	750.5
501.003	738.5
501.22	742.5
501.437	708.5
501.654	709.5
501.871	705.5
502.088	691.5
502.305	661.5
502.522	644.5
502.739	627.5
502.956	617.5
503.172	599.5
503.389	575.5
503.606	597.5
503.823	603.5
504.04	596.5
504.256	593.5
504.473	573.5
504.69	574.5
504.907	590.5
505.123	576.5
505.34	546.5
505.557	544.5
505.773	540.5
505.99	578.5
506.207	572.5
506.423	552.5
506.64	547.5
506.856	546.5
507.073	553.5
507.289	530.5
507.506	561.5
507.722	557.5
507.939	563.5
508.155	535.5
508.372	562.5
508.588	531.5
508.805	538.5
509.021	528.5
509.238	554.5
509.454	564.5
509.67	535.5
509.887	526.5
510.103	525.5
510.319	550.5
510.536	642.5
510.752	1124.5
510.968	897.5
511.184	578.5
511.401	513.5
511.617	521.5
511.833	511.5
512.049	524.5
512.265	513.5
512.481	515.5
512.698	486.5
512.914	509.5
513.13	483.5
513.346	521.5
513.562	522.5
513.778	500.5
513.994	501.5
514.21	516.5
514.426	531.5
514.642	596.5
514.858	610.5
515.074	662.5
515.29	803.5
515.506	1249.5
515.721	1025.5
515.937	666.5
516.153	597.5
516.369	549.5
516.585	526.5
516.801	538.5
517.016	538.5
517.232	517.5
517.448	505.5
517.664	513.5
517.879	530.5
518.095	533.5
518.311	515.5
518.527	525.5
518.742	502.5
518.958	511.5
519.173	536.5
519.389	525.5
519.605	517.5
519.82	516.5
520.036	534.5
