Data from 1965.PennyLincolnUp.Lamp.En5.5.200Scan.071719.P1._HRD10591_14-09-16-911.txt Node
Date: Thu Jul 18 14:09:16 EDT 2019
User: cochatt
Spectrometer: HR+D1059
Trigger mode: 1
Integration Time (sec): 1.000000E-1
Scans to average: 1
Electric dark correction enabled: true
Nonlinearity correction enabled: false
Boxcar width: 0
XAxis mode: Wavelengths
Number of Pixels in Spectrum: 2048
>>>>>Begin Spectral Data<<<<<
223.165	-21.56
223.4	-21.56
223.635	-21.56
223.869	-18.56
224.104	-19.56
224.338	1.44
224.573	-7.56
224.808	-8.56
225.042	2.44
225.277	4.44
225.511	-1.56
225.746	-0.56
225.98	-2.56
226.215	3.44
226.449	16.44
226.683	20.44
226.918	17.44
227.152	14.44
227.387	35.44
227.621	40.44
227.856	44.44
228.09	34.44
228.324	32.44
228.559	44.44
228.793	68.44
229.027	96.44
229.262	103.44
229.496	106.44
229.73	141.44
229.964	158.44
230.199	134.44
230.433	118.44
230.667	111.44
230.901	122.44
231.136	100.44
231.37	103.44
231.604	114.44
231.838	132.44
232.072	114.44
232.306	104.44
232.541	109.44
232.775	119.44
233.009	127.44
233.243	122.44
233.477	108.44
233.711	107.44
233.945	117.44
234.179	120.44
234.413	121.44
234.647	111.44
234.881	96.44
235.115	116.44
235.349	128.44
235.583	129.44
235.817	120.44
236.051	118.44
236.285	123.44
236.519	126.44
236.753	117.44
236.987	146.44
237.221	171.44
237.455	210.44
237.689	169.44
237.922	138.44
238.156	122.44
238.39	126.44
238.624	124.44
238.858	131.44
239.091	128.44
239.325	125.44
239.559	136.44
239.793	128.44
240.027	132.44
240.26	145.44
240.494	148.44
240.728	146.44
240.961	143.44
241.195	132.44
241.429	128.44
241.662	125.44
241.896	128.44
242.13	105.44
242.363	128.44
242.597	120.44
242.83	129.44
243.064	136.44
243.298	121.44
243.531	133.44
243.765	126.44
243.998	126.44
244.232	145.44
244.465	121.44
244.699	126.44
244.932	134.44
245.166	136.44
245.399	123.44
245.633	133.44
245.866	148.44
246.099	137.44
246.333	142.44
246.566	132.44
246.8	144.44
247.033	151.44
247.266	136.44
247.5	165.44
247.733	156.44
247.966	161.44
248.2	148.44
248.433	155.44
248.666	161.44
248.899	165.44
249.133	184.44
249.366	170.44
249.599	166.44
249.832	169.44
250.066	171.44
250.299	161.44
250.532	183.44
250.765	188.44
250.998	195.44
251.231	214.44
251.465	199.44
251.698	199.44
251.931	199.44
252.164	185.44
252.397	174.44
252.63	180.44
252.863	177.44
253.096	204.44
253.329	208.44
253.562	199.44
253.795	184.44
254.028	189.44
254.261	190.44
254.494	217.44
254.727	239.44
254.96	258.44
255.193	251.44
255.426	225.44
255.659	216.44
255.892	200.44
256.124	216.44
256.357	222.44
256.59	192.44
256.823	203.44
257.056	215.44
257.289	202.44
257.521	197.44
257.754	183.44
257.987	208.44
258.22	186.44
258.452	185.44
258.685	189.44
258.918	185.44
259.151	181.44
259.383	189.44
259.616	199.44
259.849	205.44
260.081	214.44
260.314	219.44
260.547	227.44
260.779	226.44
261.012	223.44
261.244	193.44
261.477	209.44
261.71	215.44
261.942	220.44
262.175	232.44
262.407	216.44
262.64	194.44
262.872	205.44
263.105	189.44
263.337	210.44
263.57	194.44
263.802	203.44
264.035	177.44
264.267	207.44
264.499	204.44
264.732	198.44
264.964	190.44
265.197	197.44
265.429	197.44
265.661	188.44
265.894	202.44
266.126	220.44
266.358	193.44
266.591	184.44
266.823	214.44
267.055	203.44
267.287	217.44
267.52	208.44
267.752	199.44
267.984	201.44
268.216	202.44
268.448	218.44
268.681	216.44
268.913	223.44
269.145	232.44
269.377	272.44
269.609	233.44
269.841	240.44
270.073	261.44
270.306	246.44
270.538	273.44
270.77	303.44
271.002	288.44
271.234	265.44
271.466	282.44
271.698	281.44
271.93	280.44
272.162	270.44
272.394	295.44
272.626	278.44
272.858	262.44
273.09	246.44
273.322	247.44
273.553	234.44
273.785	233.44
274.017	237.44
274.249	225.44
274.481	247.44
274.713	260.44
274.945	253.44
275.176	238.44
275.408	235.44
275.64	247.44
275.872	224.44
276.104	245.44
276.335	229.44
276.567	249.44
276.799	259.44
277.031	263.44
277.262	276.44
277.494	301.44
277.726	285.44
277.957	271.44
278.189	261.44
278.421	250.44
278.652	245.44
278.884	240.44
279.115	242.44
279.347	254.44
279.579	232.44
279.81	239.44
280.042	252.44
280.273	249.44
280.505	249.44
280.736	235.44
280.968	242.44
281.199	245.44
281.431	258.44
281.662	244.44
281.894	244.44
282.125	247.44
282.356	252.44
282.588	279.44
282.819	276.44
283.051	224.44
283.282	246.44
283.513	230.44
283.745	237.44
283.976	253.44
284.207	264.44
284.439	251.44
284.67	268.44
284.901	258.44
285.132	244.44
285.364	246.44
285.595	235.44
285.826	248.44
286.057	231.44
286.288	252.44
286.52	260.44
286.751	256.44
286.982	254.44
287.213	240.44
287.444	256.44
287.675	269.44
287.906	264.44
288.138	258.44
288.369	263.44
288.6	270.44
288.831	279.44
289.062	258.44
289.293	264.44
289.524	265.44
289.755	265.44
289.986	240.44
290.217	255.44
290.448	274.44
290.679	260.44
290.91	241.44
291.141	262.44
291.371	264.44
291.602	250.44
291.833	247.44
292.064	255.44
292.295	253.44
292.526	246.44
292.757	267.44
292.987	261.44
293.218	266.44
293.449	275.44
293.68	280.44
293.91	253.44
294.141	254.44
294.372	258.44
294.603	262.44
294.833	250.44
295.064	264.44
295.295	249.44
295.525	253.44
295.756	265.44
295.987	268.44
296.217	280.44
296.448	327.44
296.679	269.44
296.909	285.44
297.14	274.44
297.37	299.44
297.601	285.44
297.831	269.44
298.062	265.44
298.292	262.44
298.523	270.44
298.753	269.44
298.984	269.44
299.214	265.44
299.445	278.44
299.675	257.44
299.905	274.44
300.136	292.44
300.366	269.44
300.597	269.44
300.827	297.44
301.057	287.44
301.288	293.44
301.518	272.44
301.748	298.44
301.979	279.44
302.209	282.44
302.439	289.44
302.669	286.44
302.9	313.44
303.13	284.44
303.36	302.44
303.59	297.44
303.82	291.44
304.051	288.44
304.281	310.44
304.511	294.44
304.741	290.44
304.971	295.44
305.201	299.44
305.431	278.44
305.661	281.44
305.891	301.44
306.121	293.44
306.352	310.44
306.582	304.44
306.812	306.44
307.042	286.44
307.272	300.44
307.502	299.44
307.731	305.44
307.961	301.44
308.191	298.44
308.421	282.44
308.651	301.44
308.881	315.44
309.111	312.44
309.341	316.44
309.571	315.44
309.8	332.44
310.03	335.44
310.26	333.44
310.49	332.44
310.72	350.44
310.949	338.44
311.179	350.44
311.409	351.44
311.639	341.44
311.868	340.44
312.098	349.44
312.328	345.44
312.557	377.44
312.787	358.44
313.017	348.44
313.246	361.44
313.476	341.44
313.706	344.44
313.935	369.44
314.165	367.44
314.394	388.44
314.624	358.44
314.853	372.44
315.083	348.44
315.312	338.44
315.542	327.44
315.771	334.44
316.001	342.44
316.23	332.44
316.46	337.44
316.689	337.44
316.919	336.44
317.148	357.44
317.377	354.44
317.607	351.44
317.836	342.44
318.065	336.44
318.295	320.44
318.524	340.44
318.753	325.44
318.983	346.44
319.212	353.44
319.441	350.44
319.67	352.44
319.9	355.44
320.129	349.44
320.358	333.44
320.587	342.44
320.816	351.44
321.046	367.44
321.275	371.44
321.504	361.44
321.733	364.44
321.962	367.44
322.191	380.44
322.42	394.44
322.649	412.44
322.878	399.44
323.108	408.44
323.337	448.44
323.566	493.44
323.795	495.44
324.024	557.44
324.253	692.44
324.482	1002.44
324.71	1526.44
324.939	2132.44
325.168	1769.44
325.397	958.44
325.626	638.44
325.855	539.44
326.084	506.44
326.313	488.44
326.542	468.44
326.77	538.44
326.999	639.44
327.228	897.44
327.457	1338.44
327.686	1577.44
327.914	1029.44
328.143	695.44
328.372	606.44
328.6	590.44
328.829	543.44
329.058	562.44
329.287	557.44
329.515	526.44
329.744	477.44
329.972	480.44
330.201	513.44
330.43	558.44
330.658	591.44
330.887	595.44
331.115	582.44
331.344	502.44
331.572	465.44
331.801	464.44
332.03	454.44
332.258	446.44
332.486	424.44
332.715	404.44
332.943	413.44
333.172	397.44
333.4	408.44
333.629	417.44
333.857	435.44
334.085	442.44
334.314	469.44
334.542	517.44
334.771	522.44
334.999	462.44
335.227	429.44
335.455	408.44
335.684	403.44
335.912	392.44
336.14	410.44
336.369	402.44
336.597	412.44
336.825	410.44
337.053	392.44
337.281	399.44
337.51	381.44
337.738	402.44
337.966	399.44
338.194	408.44
338.422	417.44
338.65	390.44
338.878	380.44
339.106	373.44
339.334	385.44
339.562	359.44
339.79	384.44
340.018	389.44
340.246	374.44
340.474	377.44
340.702	401.44
340.93	384.44
341.158	376.44
341.386	408.44
341.614	400.44
341.842	391.44
342.07	382.44
342.298	386.44
342.526	381.44
342.754	374.44
342.981	367.44
343.209	372.44
343.437	366.44
343.665	366.44
343.893	368.44
344.12	403.44
344.348	384.44
344.576	381.44
344.804	390.44
345.031	392.44
345.259	405.44
345.487	388.44
345.714	396.44
345.942	382.44
346.17	363.44
346.397	374.44
346.625	379.44
346.853	379.44
347.08	370.44
347.308	389.44
347.535	384.44
347.763	411.44
347.99	385.44
348.218	369.44
348.445	390.44
348.673	390.44
348.9	392.44
349.128	374.44
349.355	358.44
349.583	369.44
349.81	372.44
350.037	353.44
350.265	366.44
350.492	354.44
350.72	373.44
350.947	371.44
351.174	378.44
351.402	399.44
351.629	379.44
351.856	369.44
352.083	388.44
352.311	401.44
352.538	399.44
352.765	392.44
352.992	387.44
353.22	384.44
353.447	365.44
353.674	377.44
353.901	357.44
354.128	349.44
354.355	343.44
354.583	325.44
354.81	360.44
355.037	350.44
355.264	337.44
355.491	355.44
355.718	356.44
355.945	338.44
356.172	358.44
356.399	337.44
356.626	340.44
356.853	337.44
357.08	333.44
357.307	353.44
357.534	345.44
357.761	354.44
357.988	342.44
358.215	351.44
358.441	344.44
358.668	346.44
358.895	360.44
359.122	334.44
359.349	375.44
359.576	402.44
359.802	391.44
360.029	430.44
360.256	440.44
360.483	422.44
360.709	360.44
360.936	390.44
361.163	389.44
361.39	390.44
361.616	391.44
361.843	368.44
362.07	382.44
362.296	370.44
362.523	373.44
362.749	369.44
362.976	371.44
363.203	361.44
363.429	355.44
363.656	348.44
363.882	369.44
364.109	359.44
364.335	360.44
364.562	358.44
364.788	358.44
365.015	355.44
365.241	350.44
365.468	368.44
365.694	351.44
365.92	359.44
366.147	350.44
366.373	352.44
366.599	337.44
366.826	353.44
367.052	350.44
367.278	350.44
367.505	358.44
367.731	354.44
367.957	376.44
368.184	350.44
368.41	344.44
368.636	365.44
368.862	362.44
369.089	361.44
369.315	377.44
369.541	362.44
369.767	349.44
369.993	326.44
370.219	362.44
370.445	361.44
370.672	365.44
370.898	340.44
371.124	359.44
371.35	364.44
371.576	342.44
371.802	340.44
372.028	348.44
372.254	338.44
372.48	343.44
372.706	349.44
372.932	355.44
373.158	352.44
373.384	337.44
373.61	362.44
373.835	338.44
374.061	346.44
374.287	353.44
374.513	365.44
374.739	373.44
374.965	343.44
375.191	340.44
375.416	365.44
375.642	357.44
375.868	339.44
376.094	339.44
376.319	342.44
376.545	343.44
376.771	338.44
376.997	350.44
377.222	355.44
377.448	338.44
377.674	350.44
377.899	356.44
378.125	349.44
378.35	341.44
378.576	365.44
378.802	331.44
379.027	337.44
379.253	346.44
379.478	355.44
379.704	342.44
379.929	364.44
380.155	348.44
380.38	365.44
380.606	346.44
380.831	361.44
381.057	365.44
381.282	359.44
381.507	356.44
381.733	341.44
381.958	341.44
382.184	320.44
382.409	368.44
382.634	353.44
382.86	358.44
383.085	349.44
383.31	341.44
383.535	363.44
383.761	364.44
383.986	370.44
384.211	357.44
384.436	358.44
384.662	356.44
384.887	380.44
385.112	367.44
385.337	376.44
385.562	385.44
385.787	364.44
386.013	379.44
386.238	400.44
386.463	378.44
386.688	375.44
386.913	365.44
387.138	373.44
387.363	371.44
387.588	378.44
387.813	368.44
388.038	367.44
388.263	367.44
388.488	365.44
388.713	391.44
388.938	381.44
389.163	381.44
389.387	369.44
389.612	385.44
389.837	369.44
390.062	370.44
390.287	375.44
390.512	364.44
390.736	364.44
390.961	382.44
391.186	366.44
391.411	380.44
391.636	381.44
391.86	380.44
392.085	391.44
392.31	406.44
392.534	376.44
392.759	389.44
392.984	364.44
393.208	376.44
393.433	382.44
393.658	363.44
393.882	377.44
394.107	383.44
394.331	373.44
394.556	368.44
394.78	363.44
395.005	370.44
395.229	363.44
395.454	376.44
395.678	386.44
395.903	383.44
396.127	413.44
396.352	413.44
396.576	405.44
396.801	391.44
397.025	396.44
397.249	389.44
397.474	402.44
397.698	403.44
397.922	415.44
398.147	426.44
398.371	432.44
398.595	413.44
398.82	428.44
399.044	433.44
399.268	445.44
399.492	467.44
399.717	468.44
399.941	493.44
400.165	495.44
400.389	517.44
400.613	468.44
400.837	446.44
401.062	442.44
401.286	434.44
401.51	433.44
401.734	437.44
401.958	424.44
402.182	417.44
402.406	439.44
402.63	450.44
402.854	408.44
403.078	424.44
403.302	459.44
403.526	442.44
403.75	430.44
403.974	436.44
404.198	437.44
404.422	448.44
404.645	436.44
404.869	457.44
405.093	477.44
405.317	513.44
405.541	540.44
405.765	481.44
405.988	459.44
406.212	458.44
406.436	481.44
406.66	505.44
406.883	468.44
407.107	475.44
407.331	538.44
407.555	598.44
407.778	569.44
408.002	520.44
408.226	463.44
408.449	506.44
408.673	478.44
408.896	500.44
409.12	540.44
409.344	520.44
409.567	473.44
409.791	450.44
410.014	433.44
410.238	428.44
410.461	426.44
410.685	447.44
410.908	453.44
411.132	484.44
411.355	503.44
411.578	472.44
411.802	446.44
412.025	442.44
412.249	447.44
412.472	469.44
412.695	521.44
412.919	488.44
413.142	452.44
413.365	442.44
413.589	444.44
413.812	419.44
414.035	440.44
414.258	421.44
414.482	400.44
414.705	423.44
414.928	404.44
415.151	394.44
415.374	396.44
415.597	431.44
415.821	423.44
416.044	423.44
416.267	406.44
416.49	415.44
416.713	417.44
416.936	405.44
417.159	401.44
417.382	410.44
417.605	416.44
417.828	434.44
418.051	424.44
418.274	439.44
418.497	426.44
418.72	430.44
418.943	412.44
419.166	423.44
419.389	447.44
419.611	452.44
419.834	449.44
420.057	445.44
420.28	447.44
420.503	452.44
420.726	441.44
420.948	464.44
421.171	468.44
421.394	518.44
421.617	448.44
421.839	436.44
422.062	448.44
422.285	462.44
422.507	519.44
422.73	554.44
422.953	528.44
423.175	473.44
423.398	463.44
423.621	454.44
423.843	464.44
424.066	463.44
424.288	469.44
424.511	470.44
424.733	513.44
424.956	588.44
425.178	560.44
425.401	569.44
425.623	575.44
425.846	503.44
426.068	466.44
426.291	480.44
426.513	465.44
426.735	493.44
426.958	497.44
427.18	586.44
427.402	707.44
427.625	776.44
427.847	679.44
428.069	594.44
428.292	530.44
428.514	483.44
428.736	478.44
428.958	458.44
429.181	446.44
429.403	441.44
429.625	452.44
429.847	480.44
430.069	531.44
430.292	521.44
430.514	448.44
430.736	454.44
430.958	425.44
431.18	420.44
431.402	409.44
431.624	399.44
431.846	413.44
432.068	400.44
432.29	420.44
432.512	407.44
432.734	412.44
432.956	432.44
433.178	446.44
433.4	422.44
433.622	431.44
433.844	398.44
434.066	393.44
434.287	411.44
434.509	424.44
434.731	392.44
434.953	422.44
435.175	441.44
435.397	454.44
435.618	482.44
435.84	500.44
436.062	576.44
436.284	638.44
436.505	538.44
436.727	490.44
436.949	454.44
437.17	448.44
437.392	447.44
437.614	491.44
437.835	503.44
438.057	576.44
438.278	659.44
438.5	636.44
438.721	716.44
438.943	677.44
439.165	552.44
439.386	505.44
439.608	485.44
439.829	468.44
440.05	529.44
440.272	566.44
440.493	531.44
440.715	490.44
440.936	465.44
441.158	461.44
441.379	458.44
441.6	460.44
441.822	481.44
442.043	505.44
442.264	584.44
442.486	632.44
442.707	529.44
442.928	505.44
443.149	514.44
443.371	520.44
443.592	555.44
443.813	638.44
444.034	647.44
444.255	520.44
444.476	518.44
444.698	467.44
444.919	468.44
445.14	612.44
445.361	536.44
445.582	516.44
445.803	587.44
446.024	670.44
446.245	679.44
446.466	613.44
446.687	504.44
446.908	486.44
447.129	448.44
447.35	428.44
447.571	452.44
447.792	423.44
448.013	454.44
448.234	468.44
448.455	509.44
448.675	619.44
448.896	689.44
449.117	605.44
449.338	544.44
449.559	651.44
449.779	721.44
450	578.44
450.221	492.44
450.442	438.44
450.662	441.44
450.883	461.44
451.104	473.44
451.324	438.44
451.545	441.44
451.766	428.44
451.986	400.44
452.207	408.44
452.428	398.44
452.648	404.44
452.869	412.44
453.089	437.44
453.31	443.44
453.53	423.44
453.751	424.44
453.971	412.44
454.192	432.44
454.412	431.44
454.633	430.44
454.853	413.44
455.073	397.44
455.294	425.44
455.514	455.44
455.734	486.44
455.955	402.44
456.175	365.44
456.395	388.44
456.616	376.44
456.836	366.44
457.056	378.44
457.276	388.44
457.497	377.44
457.717	382.44
457.937	387.44
458.157	381.44
458.377	400.44
458.598	408.44
458.818	489.44
459.038	559.44
459.258	574.44
459.478	466.44
459.698	429.44
459.918	426.44
460.138	399.44
460.358	427.44
460.578	421.44
460.798	406.44
461.018	412.44
461.238	421.44
461.458	417.44
461.678	416.44
461.898	424.44
462.118	429.44
462.338	427.44
462.558	430.44
462.777	416.44
462.997	442.44
463.217	440.44
463.437	451.44
463.657	453.44
463.876	449.44
464.096	432.44
464.316	433.44
464.536	448.44
464.755	460.44
464.975	478.44
465.195	496.44
465.414	578.44
465.634	488.44
465.854	454.44
466.073	437.44
466.293	433.44
466.512	419.44
466.732	425.44
466.951	433.44
467.171	402.44
467.391	424.44
467.61	428.44
467.829	414.44
468.049	409.44
468.268	421.44
468.488	413.44
468.707	409.44
468.927	409.44
469.146	400.44
469.365	416.44
469.585	373.44
469.804	424.44
470.023	405.44
470.243	417.44
470.462	436.44
470.681	438.44
470.901	422.44
471.12	424.44
471.339	440.44
471.558	420.44
471.777	427.44
471.997	397.44
472.216	422.44
472.435	447.44
472.654	443.44
472.873	396.44
473.092	406.44
473.311	405.44
473.53	424.44
473.749	410.44
473.968	447.44
474.187	540.44
474.406	579.44
474.625	465.44
474.844	439.44
475.063	417.44
475.282	420.44
475.501	417.44
475.72	416.44
475.939	431.44
476.158	411.44
476.377	425.44
476.596	440.44
476.814	442.44
477.033	459.44
477.252	438.44
477.471	440.44
477.69	442.44
477.908	446.44
478.127	452.44
478.346	469.44
478.564	458.44
478.783	467.44
479.002	469.44
479.22	490.44
479.439	491.44
479.658	484.44
479.876	512.44
480.095	504.44
480.313	524.44
480.532	520.44
480.751	508.44
480.969	518.44
481.188	588.44
481.406	609.44
481.624	533.44
481.843	525.44
482.061	484.44
482.28	502.44
482.498	476.44
482.717	478.44
482.935	487.44
483.153	474.44
483.372	472.44
483.59	472.44
483.808	481.44
484.027	503.44
484.245	490.44
484.463	473.44
484.681	487.44
484.9	484.44
485.118	512.44
485.336	510.44
485.554	494.44
485.772	506.44
485.99	526.44
486.209	516.44
486.427	514.44
486.645	510.44
486.863	520.44
487.081	531.44
487.299	538.44
487.517	542.44
487.735	514.44
487.953	498.44
488.171	503.44
488.389	514.44
488.607	535.44
488.825	510.44
489.043	545.44
489.261	536.44
489.479	526.44
489.696	515.44
489.914	522.44
490.132	541.44
490.35	560.44
490.568	544.44
490.786	564.44
491.003	573.44
491.221	579.44
491.439	580.44
491.657	616.44
491.874	602.44
492.092	599.44
492.31	593.44
492.527	607.44
492.745	596.44
492.963	605.44
493.18	601.44
493.398	615.44
493.615	628.44
493.833	624.44
494.05	617.44
494.268	629.44
494.485	626.44
494.703	604.44
494.92	619.44
495.138	615.44
495.355	605.44
495.573	612.44
495.79	626.44
496.008	621.44
496.225	625.44
496.442	624.44
496.66	625.44
496.877	616.44
497.094	602.44
497.312	619.44
497.529	638.44
497.746	662.44
497.963	642.44
498.181	656.44
498.398	669.44
498.615	696.44
498.832	662.44
499.049	695.44
499.267	704.44
499.484	715.44
499.701	733.44
499.918	752.44
500.135	758.44
500.352	790.44
500.569	774.44
500.786	797.44
501.003	786.44
501.22	754.44
501.437	759.44
501.654	734.44
501.871	765.44
502.088	726.44
