Data from 1965.PennyLincolnUp.Lamp.En5.5.200Scan.071719.P1._HRD10591_14-09-59-911.txt Node
Date: Thu Jul 18 14:09:59 EDT 2019
User: cochatt
Spectrometer: HR+D1059
Trigger mode: 1
Integration Time (sec): 1.000000E-1
Scans to average: 1
Electric dark correction enabled: true
Nonlinearity correction enabled: false
Boxcar width: 0
XAxis mode: Wavelengths
Number of Pixels in Spectrum: 2048
>>>>>Begin Spectral Data<<<<<
223.165	-16.31
223.4	-16.31
223.635	-16.31
223.869	-26.31
224.104	-5.31
224.338	-13.31
224.573	-4.31
224.808	-12.31
225.042	-10.31
225.277	1.69
225.511	-6.31
225.746	-7.31
225.98	15.69
226.215	17.69
226.449	15.69
226.683	9.69
226.918	21.69
227.152	19.69
227.387	56.69
227.621	42.69
227.856	34.69
228.09	35.69
228.324	47.69
228.559	43.69
228.793	72.69
229.027	95.69
229.262	83.69
229.496	112.69
229.73	129.69
229.964	147.69
230.199	106.69
230.433	99.69
230.667	121.69
230.901	100.69
231.136	103.69
231.37	106.69
231.604	118.69
231.838	106.69
232.072	102.69
232.306	115.69
232.541	107.69
232.775	112.69
233.009	110.69
233.243	108.69
233.477	118.69
233.711	109.69
233.945	119.69
234.179	106.69
234.413	113.69
234.647	115.69
234.881	117.69
235.115	103.69
235.349	113.69
235.583	111.69
235.817	106.69
236.051	120.69
236.285	119.69
236.519	118.69
236.753	123.69
236.987	145.69
237.221	177.69
237.455	215.69
237.689	175.69
237.922	139.69
238.156	125.69
238.39	124.69
238.624	124.69
238.858	122.69
239.091	137.69
239.325	114.69
239.559	122.69
239.793	121.69
240.027	121.69
240.26	126.69
240.494	153.69
240.728	137.69
240.961	152.69
241.195	137.69
241.429	135.69
241.662	130.69
241.896	131.69
242.13	130.69
242.363	133.69
242.597	112.69
242.83	124.69
243.064	111.69
243.298	128.69
243.531	140.69
243.765	129.69
243.998	129.69
244.232	145.69
244.465	132.69
244.699	126.69
244.932	127.69
245.166	128.69
245.399	137.69
245.633	137.69
245.866	133.69
246.099	131.69
246.333	141.69
246.566	143.69
246.8	134.69
247.033	153.69
247.266	150.69
247.5	148.69
247.733	145.69
247.966	161.69
248.2	159.69
248.433	165.69
248.666	151.69
248.899	174.69
249.133	192.69
249.366	179.69
249.599	175.69
249.832	177.69
250.066	182.69
250.299	168.69
250.532	187.69
250.765	202.69
250.998	199.69
251.231	206.69
251.465	182.69
251.698	185.69
251.931	184.69
252.164	170.69
252.397	178.69
252.63	203.69
252.863	183.69
253.096	189.69
253.329	189.69
253.562	204.69
253.795	205.69
254.028	199.69
254.261	208.69
254.494	210.69
254.727	228.69
254.96	258.69
255.193	264.69
255.426	233.69
255.659	197.69
255.892	218.69
256.124	214.69
256.357	226.69
256.59	206.69
256.823	194.69
257.056	198.69
257.289	192.69
257.521	188.69
257.754	187.69
257.987	176.69
258.22	197.69
258.452	197.69
258.685	192.69
258.918	199.69
259.151	192.69
259.383	194.69
259.616	197.69
259.849	192.69
260.081	216.69
260.314	224.69
260.547	234.69
260.779	215.69
261.012	212.69
261.244	207.69
261.477	203.69
261.71	207.69
261.942	218.69
262.175	224.69
262.407	210.69
262.64	193.69
262.872	193.69
263.105	203.69
263.337	194.69
263.57	203.69
263.802	206.69
264.035	205.69
264.267	195.69
264.499	202.69
264.732	197.69
264.964	191.69
265.197	201.69
265.429	207.69
265.661	192.69
265.894	205.69
266.126	191.69
266.358	200.69
266.591	215.69
266.823	210.69
267.055	208.69
267.287	202.69
267.52	191.69
267.752	198.69
267.984	210.69
268.216	205.69
268.448	217.69
268.681	209.69
268.913	226.69
269.145	237.69
269.377	249.69
269.609	242.69
269.841	251.69
270.073	229.69
270.306	276.69
270.538	295.69
270.77	264.69
271.002	287.69
271.234	253.69
271.466	275.69
271.698	285.69
271.93	293.69
272.162	289.69
272.394	277.69
272.626	285.69
272.858	256.69
273.09	249.69
273.322	263.69
273.553	251.69
273.785	237.69
274.017	231.69
274.249	244.69
274.481	231.69
274.713	248.69
274.945	252.69
275.176	241.69
275.408	257.69
275.64	237.69
275.872	240.69
276.104	235.69
276.335	246.69
276.567	261.69
276.799	272.69
277.031	285.69
277.262	303.69
277.494	275.69
277.726	278.69
277.957	256.69
278.189	263.69
278.421	253.69
278.652	247.69
278.884	226.69
279.115	238.69
279.347	253.69
279.579	230.69
279.81	229.69
280.042	223.69
280.273	219.69
280.505	248.69
280.736	245.69
280.968	237.69
281.199	255.69
281.431	220.69
281.662	254.69
281.894	236.69
282.125	238.69
282.356	251.69
282.588	271.69
282.819	300.69
283.051	259.69
283.282	238.69
283.513	254.69
283.745	263.69
283.976	249.69
284.207	245.69
284.439	232.69
284.67	238.69
284.901	239.69
285.132	242.69
285.364	261.69
285.595	242.69
285.826	253.69
286.057	235.69
286.288	248.69
286.52	236.69
286.751	229.69
286.982	247.69
287.213	240.69
287.444	252.69
287.675	254.69
287.906	280.69
288.138	268.69
288.369	271.69
288.6	268.69
288.831	281.69
289.062	257.69
289.293	275.69
289.524	270.69
289.755	257.69
289.986	249.69
290.217	248.69
290.448	269.69
290.679	267.69
290.91	252.69
291.141	229.69
291.371	252.69
291.602	264.69
291.833	250.69
292.064	247.69
292.295	245.69
292.526	247.69
292.757	254.69
292.987	253.69
293.218	237.69
293.449	250.69
293.68	261.69
293.91	254.69
294.141	272.69
294.372	245.69
294.603	250.69
294.833	267.69
295.064	270.69
295.295	261.69
295.525	262.69
295.756	271.69
295.987	263.69
296.217	289.69
296.448	306.69
296.679	272.69
296.909	284.69
297.14	260.69
297.37	246.69
297.601	264.69
297.831	265.69
298.062	266.69
298.292	266.69
298.523	247.69
298.753	268.69
298.984	284.69
299.214	257.69
299.445	274.69
299.675	278.69
299.905	274.69
300.136	266.69
300.366	288.69
300.597	275.69
300.827	296.69
301.057	289.69
301.288	299.69
301.518	290.69
301.748	297.69
301.979	282.69
302.209	289.69
302.439	295.69
302.669	289.69
302.9	278.69
303.13	288.69
303.36	281.69
303.59	295.69
303.82	317.69
304.051	306.69
304.281	277.69
304.511	283.69
304.741	285.69
304.971	273.69
305.201	264.69
305.431	306.69
305.661	298.69
305.891	280.69
306.121	287.69
306.352	302.69
306.582	302.69
306.812	299.69
307.042	295.69
307.272	285.69
307.502	292.69
307.731	290.69
307.961	301.69
308.191	306.69
308.421	288.69
308.651	296.69
308.881	293.69
309.111	308.69
309.341	290.69
309.571	317.69
309.8	333.69
310.03	344.69
310.26	337.69
310.49	323.69
310.72	349.69
310.949	363.69
311.179	359.69
311.409	339.69
311.639	350.69
311.868	329.69
312.098	341.69
312.328	345.69
312.557	361.69
312.787	357.69
313.017	357.69
313.246	342.69
313.476	335.69
313.706	352.69
313.935	363.69
314.165	346.69
314.394	358.69
314.624	349.69
314.853	347.69
315.083	342.69
315.312	341.69
315.542	347.69
315.771	322.69
316.001	325.69
316.23	339.69
316.46	338.69
316.689	343.69
316.919	330.69
317.148	376.69
317.377	373.69
317.607	346.69
317.836	356.69
318.065	335.69
318.295	321.69
318.524	319.69
318.753	329.69
318.983	326.69
319.212	345.69
319.441	344.69
319.67	351.69
319.9	343.69
320.129	339.69
320.358	350.69
320.587	333.69
320.816	362.69
321.046	377.69
321.275	368.69
321.504	369.69
321.733	367.69
321.962	366.69
322.191	384.69
322.42	411.69
322.649	417.69
322.878	423.69
323.108	434.69
323.337	445.69
323.566	466.69
323.795	494.69
324.024	549.69
324.253	675.69
324.482	996.69
324.71	1514.69
324.939	2045.69
325.168	1701.69
325.397	926.69
325.626	629.69
325.855	517.69
326.084	495.69
326.313	468.69
326.542	462.69
326.77	526.69
326.999	620.69
327.228	887.69
327.457	1289.69
327.686	1506.69
327.914	1016.69
328.143	689.69
328.372	624.69
328.6	591.69
328.829	548.69
329.058	536.69
329.287	557.69
329.515	507.69
329.744	485.69
329.972	483.69
330.201	490.69
330.43	539.69
330.658	574.69
330.887	574.69
331.115	557.69
331.344	472.69
331.572	466.69
331.801	463.69
332.03	445.69
332.258	433.69
332.486	423.69
332.715	398.69
332.943	402.69
333.172	402.69
333.4	400.69
333.629	423.69
333.857	418.69
334.085	447.69
334.314	463.69
334.542	515.69
334.771	486.69
334.999	456.69
335.227	414.69
335.455	401.69
335.684	410.69
335.912	409.69
336.14	389.69
336.369	392.69
336.597	422.69
336.825	380.69
337.053	371.69
337.281	381.69
337.51	399.69
337.738	400.69
337.966	378.69
338.194	394.69
338.422	401.69
338.65	399.69
338.878	367.69
339.106	393.69
339.334	381.69
339.562	365.69
339.79	376.69
340.018	377.69
340.246	378.69
340.474	381.69
340.702	388.69
340.93	375.69
341.158	400.69
341.386	379.69
341.614	381.69
341.842	392.69
342.07	372.69
342.298	381.69
342.526	377.69
342.754	364.69
342.981	337.69
343.209	364.69
343.437	363.69
343.665	360.69
343.893	364.69
344.12	386.69
344.348	377.69
344.576	400.69
344.804	394.69
345.031	382.69
345.259	408.69
345.487	391.69
345.714	379.69
345.942	371.69
346.17	377.69
346.397	361.69
346.625	365.69
346.853	356.69
347.08	351.69
347.308	377.69
347.535	384.69
347.763	379.69
347.99	385.69
348.218	373.69
348.445	408.69
348.673	382.69
348.9	384.69
349.128	397.69
349.355	343.69
349.583	359.69
349.81	357.69
350.037	353.69
350.265	353.69
350.492	369.69
350.72	355.69
350.947	361.69
351.174	389.69
351.402	398.69
351.629	377.69
351.856	379.69
352.083	393.69
352.311	394.69
352.538	393.69
352.765	403.69
352.992	386.69
353.22	374.69
353.447	372.69
353.674	369.69
353.901	348.69
354.128	357.69
354.355	346.69
354.583	365.69
354.81	359.69
355.037	347.69
355.264	332.69
355.491	349.69
355.718	347.69
355.945	359.69
356.172	337.69
356.399	332.69
356.626	333.69
356.853	335.69
357.08	342.69
357.307	332.69
357.534	338.69
357.761	351.69
357.988	344.69
358.215	334.69
358.441	340.69
358.668	333.69
358.895	342.69
359.122	333.69
359.349	346.69
359.576	364.69
359.802	393.69
360.029	427.69
360.256	444.69
360.483	416.69
360.709	376.69
360.936	384.69
361.163	364.69
361.39	384.69
361.616	357.69
361.843	364.69
362.07	365.69
362.296	372.69
362.523	361.69
362.749	393.69
362.976	375.69
363.203	361.69
363.429	349.69
363.656	362.69
363.882	363.69
364.109	359.69
364.335	340.69
364.562	339.69
364.788	336.69
365.015	359.69
365.241	363.69
365.468	356.69
365.694	367.69
365.92	355.69
366.147	366.69
366.373	350.69
366.599	337.69
366.826	350.69
367.052	341.69
367.278	345.69
367.505	337.69
367.731	352.69
367.957	348.69
368.184	341.69
368.41	347.69
368.636	349.69
368.862	349.69
369.089	347.69
369.315	337.69
369.541	334.69
369.767	345.69
369.993	345.69
370.219	364.69
370.445	351.69
370.672	345.69
370.898	352.69
371.124	343.69
371.35	336.69
371.576	347.69
371.802	325.69
372.028	347.69
372.254	346.69
372.48	351.69
372.706	354.69
372.932	353.69
373.158	352.69
373.384	356.69
373.61	329.69
373.835	336.69
374.061	348.69
374.287	346.69
374.513	343.69
374.739	333.69
374.965	359.69
375.191	323.69
375.416	348.69
375.642	349.69
375.868	359.69
376.094	335.69
376.319	352.69
376.545	354.69
376.771	338.69
376.997	339.69
377.222	330.69
377.448	343.69
377.674	334.69
377.899	337.69
378.125	346.69
378.35	352.69
378.576	351.69
378.802	334.69
379.027	335.69
379.253	351.69
379.478	315.69
379.704	333.69
379.929	346.69
380.155	346.69
380.38	352.69
380.606	350.69
380.831	364.69
381.057	340.69
381.282	343.69
381.507	336.69
381.733	343.69
381.958	369.69
382.184	353.69
382.409	354.69
382.634	333.69
382.86	319.69
383.085	332.69
383.31	353.69
383.535	361.69
383.761	340.69
383.986	351.69
384.211	338.69
384.436	361.69
384.662	344.69
384.887	350.69
385.112	344.69
385.337	375.69
385.562	357.69
385.787	360.69
386.013	375.69
386.238	367.69
386.463	373.69
386.688	360.69
386.913	361.69
387.138	360.69
387.363	366.69
387.588	360.69
387.813	360.69
388.038	366.69
388.263	344.69
388.488	362.69
388.713	363.69
388.938	349.69
389.163	382.69
389.387	389.69
389.612	357.69
389.837	371.69
390.062	357.69
390.287	352.69
390.512	373.69
390.736	345.69
390.961	352.69
391.186	359.69
391.411	346.69
391.636	369.69
391.86	366.69
392.085	361.69
392.31	371.69
392.534	371.69
392.759	369.69
392.984	367.69
393.208	370.69
393.433	374.69
393.658	354.69
393.882	366.69
394.107	367.69
394.331	367.69
394.556	366.69
394.78	375.69
395.005	389.69
395.229	374.69
395.454	376.69
395.678	386.69
395.903	369.69
396.127	395.69
396.352	431.69
396.576	389.69
396.801	378.69
397.025	383.69
397.249	387.69
397.474	365.69
397.698	403.69
397.922	373.69
398.147	393.69
398.371	406.69
398.595	405.69
398.82	415.69
399.044	419.69
399.268	421.69
399.492	433.69
399.717	468.69
399.941	475.69
400.165	493.69
400.389	510.69
400.613	466.69
400.837	431.69
401.062	419.69
401.286	425.69
401.51	401.69
401.734	386.69
401.958	423.69
402.182	432.69
402.406	408.69
402.63	434.69
402.854	435.69
403.078	411.69
403.302	421.69
403.526	435.69
403.75	423.69
403.974	442.69
404.198	429.69
404.422	437.69
404.645	461.69
404.869	449.69
405.093	455.69
405.317	499.69
405.541	518.69
405.765	494.69
405.988	448.69
406.212	462.69
406.436	467.69
406.66	485.69
406.883	470.69
407.107	504.69
407.331	542.69
407.555	569.69
407.778	565.69
408.002	511.69
408.226	486.69
408.449	477.69
408.673	492.69
408.896	506.69
409.12	521.69
409.344	494.69
409.567	450.69
409.791	424.69
410.014	435.69
410.238	433.69
410.461	440.69
410.685	431.69
410.908	442.69
411.132	488.69
411.355	493.69
411.578	475.69
411.802	441.69
412.025	431.69
412.249	428.69
412.472	470.69
412.695	477.69
412.919	461.69
413.142	449.69
413.365	411.69
413.589	425.69
413.812	432.69
414.035	409.69
414.258	424.69
414.482	402.69
414.705	369.69
414.928	417.69
415.151	401.69
415.374	404.69
415.597	413.69
415.821	417.69
416.044	389.69
416.267	418.69
416.49	418.69
416.713	402.69
416.936	423.69
417.159	393.69
417.382	415.69
417.605	427.69
417.828	428.69
418.051	444.69
418.274	439.69
418.497	397.69
418.72	405.69
418.943	425.69
419.166	404.69
419.389	444.69
419.611	421.69
419.834	425.69
420.057	442.69
420.28	439.69
420.503	423.69
420.726	434.69
420.948	441.69
421.171	462.69
421.394	501.69
421.617	438.69
421.839	429.69
422.062	431.69
422.285	461.69
422.507	493.69
422.73	521.69
422.953	558.69
423.175	481.69
423.398	461.69
423.621	463.69
423.843	472.69
424.066	452.69
424.288	465.69
424.511	472.69
424.733	518.69
424.956	603.69
425.178	558.69
425.401	581.69
425.623	567.69
425.846	515.69
426.068	477.69
426.291	446.69
426.513	469.69
426.735	489.69
426.958	529.69
427.18	592.69
427.402	676.69
427.625	749.69
427.847	683.69
428.069	583.69
428.292	514.69
428.514	467.69
428.736	459.69
428.958	459.69
429.181	441.69
429.403	443.69
429.625	458.69
429.847	483.69
430.069	526.69
430.292	510.69
430.514	459.69
430.736	445.69
430.958	419.69
431.18	411.69
431.402	418.69
431.624	387.69
431.846	407.69
432.068	406.69
432.29	401.69
432.512	394.69
432.734	413.69
432.956	407.69
433.178	439.69
433.4	417.69
433.622	410.69
433.844	406.69
434.066	417.69
434.287	392.69
434.509	401.69
434.731	411.69
434.953	409.69
435.175	467.69
435.397	463.69
435.618	463.69
435.84	505.69
436.062	597.69
436.284	638.69
436.505	527.69
436.727	477.69
436.949	445.69
437.17	448.69
437.392	448.69
437.614	465.69
437.835	510.69
438.057	579.69
438.278	655.69
438.5	647.69
438.721	697.69
438.943	660.69
439.165	541.69
439.386	477.69
439.608	490.69
439.829	486.69
440.05	503.69
440.272	551.69
440.493	507.69
440.715	481.69
440.936	470.69
441.158	431.69
441.379	426.69
441.6	474.69
441.822	472.69
442.043	518.69
442.264	584.69
442.486	606.69
442.707	495.69
442.928	509.69
443.149	499.69
443.371	530.69
443.592	556.69
443.813	623.69
444.034	678.69
444.255	553.69
444.476	473.69
444.698	476.69
444.919	461.69
445.14	591.69
445.361	544.69
445.582	490.69
445.803	581.69
446.024	638.69
446.245	659.69
446.466	605.69
446.687	506.69
446.908	464.69
447.129	466.69
447.35	471.69
447.571	453.69
447.792	441.69
448.013	449.69
448.234	457.69
448.455	520.69
448.675	606.69
448.896	690.69
449.117	587.69
449.338	551.69
449.559	634.69
449.779	720.69
450	588.69
450.221	470.69
450.442	457.69
450.662	434.69
450.883	439.69
451.104	447.69
451.324	437.69
451.545	414.69
451.766	421.69
451.986	395.69
452.207	391.69
452.428	390.69
452.648	403.69
452.869	397.69
453.089	424.69
453.31	417.69
453.53	409.69
453.751	407.69
453.971	406.69
454.192	443.69
454.412	424.69
454.633	399.69
454.853	391.69
455.073	403.69
455.294	418.69
455.514	488.69
455.734	459.69
455.955	402.69
456.175	383.69
456.395	370.69
456.616	364.69
456.836	378.69
457.056	369.69
457.276	373.69
457.497	375.69
457.717	383.69
457.937	372.69
458.157	394.69
458.377	391.69
458.598	425.69
458.818	464.69
459.038	555.69
459.258	562.69
459.478	480.69
459.698	431.69
459.918	425.69
460.138	397.69
460.358	392.69
460.578	382.69
460.798	403.69
461.018	389.69
461.238	398.69
461.458	408.69
461.678	399.69
461.898	395.69
462.118	403.69
462.338	413.69
462.558	413.69
462.777	415.69
462.997	438.69
463.217	447.69
463.437	425.69
463.657	440.69
463.876	419.69
464.096	408.69
464.316	417.69
464.536	456.69
464.755	426.69
464.975	441.69
465.195	486.69
465.414	603.69
465.634	513.69
465.854	442.69
466.073	426.69
466.293	430.69
466.512	407.69
466.732	404.69
466.951	397.69
467.171	387.69
467.391	398.69
467.61	409.69
467.829	411.69
468.049	421.69
468.268	414.69
468.488	389.69
468.707	390.69
468.927	393.69
469.146	367.69
469.365	405.69
469.585	391.69
469.804	394.69
470.023	413.69
470.243	423.69
470.462	432.69
470.681	455.69
470.901	409.69
471.12	417.69
471.339	396.69
471.558	389.69
471.777	414.69
471.997	407.69
472.216	410.69
472.435	469.69
472.654	439.69
472.873	438.69
473.092	431.69
473.311	409.69
473.53	419.69
473.749	415.69
473.968	465.69
474.187	529.69
474.406	588.69
474.625	463.69
474.844	439.69
475.063	412.69
475.282	422.69
475.501	431.69
475.72	431.69
475.939	411.69
476.158	405.69
476.377	423.69
476.596	427.69
476.814	424.69
477.033	429.69
477.252	444.69
477.471	427.69
477.69	449.69
477.908	441.69
478.127	448.69
478.346	449.69
478.564	446.69
478.783	466.69
479.002	471.69
479.22	480.69
479.439	473.69
479.658	483.69
479.876	502.69
480.095	495.69
480.313	515.69
480.532	503.69
480.751	491.69
480.969	525.69
481.188	575.69
481.406	624.69
481.624	547.69
481.843	509.69
482.061	482.69
482.28	496.69
482.498	480.69
482.717	477.69
482.935	482.69
483.153	493.69
483.372	471.69
483.59	496.69
483.808	462.69
484.027	463.69
484.245	483.69
484.463	497.69
484.681	490.69
484.9	486.69
485.118	487.69
485.336	509.69
485.554	493.69
485.772	496.69
485.99	520.69
486.209	499.69
486.427	502.69
486.645	529.69
486.863	542.69
487.081	530.69
487.299	527.69
487.517	495.69
487.735	522.69
487.953	525.69
488.171	529.69
488.389	514.69
488.607	534.69
488.825	512.69
489.043	517.69
489.261	501.69
489.479	534.69
489.696	538.69
489.914	527.69
490.132	551.69
490.35	540.69
490.568	547.69
490.786	555.69
491.003	537.69
491.221	556.69
491.439	565.69
491.657	572.69
491.874	582.69
492.092	587.69
492.31	566.69
492.527	615.69
492.745	599.69
492.963	605.69
493.18	603.69
493.398	605.69
493.615	602.69
493.833	617.69
494.05	617.69
494.268	610.69
494.485	619.69
494.703	606.69
494.92	600.69
495.138	601.69
495.355	615.69
495.573	630.69
495.79	627.69
496.008	614.69
496.225	606.69
496.442	620.69
496.66	582.69
496.877	604.69
497.094	601.69
497.312	600.69
497.529	633.69
497.746	613.69
497.963	618.69
498.181	660.69
498.398	663.69
498.615	648.69
498.832	681.69
499.049	685.69
499.267	665.69
499.484	687.69
499.701	708.69
499.918	729.69
500.135	742.69
500.352	758.69
500.569	776.69
500.786	776.69
501.003	759.69
501.22	764.69
501.437	771.69
501.654	735.69
501.871	752.69
