Data from 1965.PennyLincolnUp.Lamp.En5.5.200Scan.071719.P1._HRD10591_14-10-40-913.txt Node
Date: Thu Jul 18 14:10:40 EDT 2019
User: cochatt
Spectrometer: HR+D1059
Trigger mode: 1
Integration Time (sec): 1.000000E-1
Scans to average: 1
Electric dark correction enabled: true
Nonlinearity correction enabled: false
Boxcar width: 0
XAxis mode: Wavelengths
Number of Pixels in Spectrum: 2048
>>>>>Begin Spectral Data<<<<<
223.165	-16.19
223.4	-16.19
223.635	-16.19
223.869	-15.19
224.104	-16.19
224.338	-17.19
224.573	-14.19
224.808	-6.19
225.042	-19.19
225.277	-2.19
225.511	0.81
225.746	9.81
225.98	13.81
226.215	7.81
226.449	3.81
226.683	10.81
226.918	27.81
227.152	31.81
227.387	22.81
227.621	35.81
227.856	40.81
228.09	39.81
228.324	49.81
228.559	46.81
228.793	67.81
229.027	106.81
229.262	110.81
229.496	96.81
229.73	125.81
229.964	153.81
230.199	127.81
230.433	108.81
230.667	116.81
230.901	125.81
231.136	101.81
231.37	100.81
231.604	105.81
231.838	114.81
232.072	104.81
232.306	119.81
232.541	112.81
232.775	93.81
233.009	119.81
233.243	108.81
233.477	102.81
233.711	108.81
233.945	109.81
234.179	111.81
234.413	108.81
234.647	111.81
234.881	121.81
235.115	104.81
235.349	97.81
235.583	102.81
235.817	104.81
236.051	130.81
236.285	109.81
236.519	121.81
236.753	125.81
236.987	131.81
237.221	181.81
237.455	220.81
237.689	177.81
237.922	146.81
238.156	114.81
238.39	124.81
238.624	120.81
238.858	120.81
239.091	117.81
239.325	117.81
239.559	114.81
239.793	127.81
240.027	127.81
240.26	133.81
240.494	159.81
240.728	127.81
240.961	146.81
241.195	115.81
241.429	139.81
241.662	136.81
241.896	120.81
242.13	120.81
242.363	119.81
242.597	121.81
242.83	123.81
243.064	120.81
243.298	118.81
243.531	116.81
243.765	141.81
243.998	138.81
244.232	127.81
244.465	128.81
244.699	140.81
244.932	115.81
245.166	128.81
245.399	152.81
245.633	133.81
245.866	129.81
246.099	139.81
246.333	133.81
246.566	131.81
246.8	147.81
247.033	156.81
247.266	125.81
247.5	153.81
247.733	164.81
247.966	151.81
248.2	147.81
248.433	156.81
248.666	148.81
248.899	177.81
249.133	177.81
249.366	181.81
249.599	182.81
249.832	163.81
250.066	177.81
250.299	177.81
250.532	194.81
250.765	200.81
250.998	205.81
251.231	205.81
251.465	193.81
251.698	191.81
251.931	186.81
252.164	189.81
252.397	193.81
252.63	170.81
252.863	180.81
253.096	206.81
253.329	210.81
253.562	214.81
253.795	202.81
254.028	188.81
254.261	198.81
254.494	220.81
254.727	242.81
254.96	263.81
255.193	253.81
255.426	228.81
255.659	230.81
255.892	223.81
256.124	233.81
256.357	200.81
256.59	201.81
256.823	211.81
257.056	223.81
257.289	196.81
257.521	200.81
257.754	185.81
257.987	187.81
258.22	195.81
258.452	186.81
258.685	173.81
258.918	193.81
259.151	201.81
259.383	212.81
259.616	193.81
259.849	199.81
260.081	219.81
260.314	236.81
260.547	220.81
260.779	220.81
261.012	228.81
261.244	219.81
261.477	218.81
261.71	217.81
261.942	202.81
262.175	216.81
262.407	205.81
262.64	200.81
262.872	198.81
263.105	197.81
263.337	186.81
263.57	204.81
263.802	201.81
264.035	198.81
264.267	184.81
264.499	198.81
264.732	195.81
264.964	178.81
265.197	196.81
265.429	189.81
265.661	195.81
265.894	211.81
266.126	204.81
266.358	193.81
266.591	208.81
266.823	223.81
267.055	199.81
267.287	209.81
267.52	201.81
267.752	218.81
267.984	198.81
268.216	205.81
268.448	205.81
268.681	212.81
268.913	230.81
269.145	224.81
269.377	247.81
269.609	264.81
269.841	249.81
270.073	255.81
270.306	275.81
270.538	279.81
270.77	296.81
271.002	280.81
271.234	282.81
271.466	296.81
271.698	310.81
271.93	305.81
272.162	296.81
272.394	295.81
272.626	273.81
272.858	275.81
273.09	246.81
273.322	248.81
273.553	236.81
273.785	269.81
274.017	243.81
274.249	239.81
274.481	231.81
274.713	252.81
274.945	249.81
275.176	243.81
275.408	239.81
275.64	243.81
275.872	230.81
276.104	240.81
276.335	249.81
276.567	246.81
276.799	265.81
277.031	283.81
277.262	296.81
277.494	280.81
277.726	290.81
277.957	256.81
278.189	263.81
278.421	253.81
278.652	278.81
278.884	233.81
279.115	239.81
279.347	216.81
279.579	231.81
279.81	236.81
280.042	236.81
280.273	251.81
280.505	245.81
280.736	264.81
280.968	234.81
281.199	226.81
281.431	254.81
281.662	224.81
281.894	259.81
282.125	242.81
282.356	259.81
282.588	281.81
282.819	291.81
283.051	266.81
283.282	243.81
283.513	231.81
283.745	250.81
283.976	251.81
284.207	267.81
284.439	258.81
284.67	253.81
284.901	261.81
285.132	247.81
285.364	252.81
285.595	255.81
285.826	260.81
286.057	243.81
286.288	264.81
286.52	260.81
286.751	239.81
286.982	253.81
287.213	249.81
287.444	253.81
287.675	267.81
287.906	277.81
288.138	278.81
288.369	279.81
288.6	279.81
288.831	271.81
289.062	273.81
289.293	267.81
289.524	253.81
289.755	251.81
289.986	248.81
290.217	239.81
290.448	255.81
290.679	253.81
290.91	272.81
291.141	263.81
291.371	273.81
291.602	269.81
291.833	251.81
292.064	237.81
292.295	251.81
292.526	244.81
292.757	267.81
292.987	232.81
293.218	267.81
293.449	270.81
293.68	250.81
293.91	271.81
294.141	250.81
294.372	264.81
294.603	277.81
294.833	277.81
295.064	246.81
295.295	282.81
295.525	265.81
295.756	261.81
295.987	263.81
296.217	284.81
296.448	299.81
296.679	267.81
296.909	263.81
297.14	259.81
297.37	267.81
297.601	265.81
297.831	274.81
298.062	253.81
298.292	269.81
298.523	261.81
298.753	272.81
298.984	274.81
299.214	266.81
299.445	279.81
299.675	296.81
299.905	280.81
300.136	297.81
300.366	280.81
300.597	279.81
300.827	275.81
301.057	280.81
301.288	316.81
301.518	291.81
301.748	281.81
301.979	281.81
302.209	291.81
302.439	296.81
302.669	296.81
302.9	283.81
303.13	298.81
303.36	280.81
303.59	303.81
303.82	299.81
304.051	293.81
304.281	299.81
304.511	287.81
304.741	289.81
304.971	292.81
305.201	318.81
305.431	296.81
305.661	298.81
305.891	297.81
306.121	295.81
306.352	306.81
306.582	301.81
306.812	303.81
307.042	285.81
307.272	305.81
307.502	306.81
307.731	303.81
307.961	292.81
308.191	293.81
308.421	286.81
308.651	289.81
308.881	303.81
309.111	303.81
309.341	323.81
309.571	339.81
309.8	328.81
310.03	336.81
310.26	345.81
310.49	349.81
310.72	358.81
310.949	363.81
311.179	373.81
311.409	369.81
311.639	343.81
311.868	347.81
312.098	360.81
312.328	355.81
312.557	378.81
312.787	396.81
313.017	392.81
313.246	349.81
313.476	345.81
313.706	343.81
313.935	349.81
314.165	372.81
314.394	357.81
314.624	376.81
314.853	367.81
315.083	360.81
315.312	336.81
315.542	346.81
315.771	349.81
316.001	347.81
316.23	336.81
316.46	340.81
316.689	363.81
316.919	347.81
317.148	357.81
317.377	384.81
317.607	360.81
317.836	363.81
318.065	339.81
318.295	367.81
318.524	352.81
318.753	346.81
318.983	332.81
319.212	339.81
319.441	354.81
319.67	358.81
319.9	361.81
320.129	325.81
320.358	347.81
320.587	354.81
320.816	357.81
321.046	360.81
321.275	370.81
321.504	377.81
321.733	365.81
321.962	386.81
322.191	389.81
322.42	405.81
322.649	435.81
322.878	425.81
323.108	444.81
323.337	476.81
323.566	498.81
323.795	525.81
324.024	591.81
324.253	725.81
324.482	1078.81
324.71	1651.81
324.939	2290.81
325.168	1870.81
325.397	1001.81
325.626	675.81
325.855	542.81
326.084	506.81
326.313	503.81
326.542	515.81
326.77	548.81
326.999	644.81
327.228	925.81
327.457	1417.81
327.686	1683.81
327.914	1125.81
328.143	724.81
328.372	648.81
328.6	595.81
328.829	561.81
329.058	546.81
329.287	604.81
329.515	529.81
329.744	498.81
329.972	480.81
330.201	515.81
330.43	582.81
330.658	596.81
330.887	609.81
331.115	583.81
331.344	514.81
331.572	479.81
331.801	469.81
332.03	468.81
332.258	443.81
332.486	438.81
332.715	422.81
332.943	411.81
333.172	427.81
333.4	424.81
333.629	429.81
333.857	436.81
334.085	455.81
334.314	467.81
334.542	526.81
334.771	524.81
334.999	468.81
335.227	441.81
335.455	412.81
335.684	425.81
335.912	405.81
336.14	396.81
336.369	411.81
336.597	413.81
336.825	417.81
337.053	427.81
337.281	378.81
337.51	414.81
337.738	383.81
337.966	395.81
338.194	398.81
338.422	416.81
338.65	410.81
338.878	384.81
339.106	382.81
339.334	381.81
339.562	393.81
339.79	398.81
340.018	381.81
340.246	379.81
340.474	389.81
340.702	404.81
340.93	383.81
341.158	392.81
341.386	402.81
341.614	389.81
341.842	401.81
342.07	396.81
342.298	371.81
342.526	357.81
342.754	368.81
342.981	379.81
343.209	391.81
343.437	383.81
343.665	369.81
343.893	376.81
344.12	374.81
344.348	379.81
344.576	404.81
344.804	412.81
345.031	408.81
345.259	393.81
345.487	391.81
345.714	379.81
345.942	387.81
346.17	395.81
346.397	372.81
346.625	365.81
346.853	385.81
347.08	382.81
347.308	383.81
347.535	379.81
347.763	398.81
347.99	385.81
348.218	404.81
348.445	399.81
348.673	386.81
348.9	404.81
349.128	359.81
349.355	383.81
349.583	378.81
349.81	350.81
350.037	343.81
350.265	387.81
350.492	377.81
350.72	387.81
350.947	384.81
351.174	391.81
351.402	392.81
351.629	382.81
351.856	381.81
352.083	392.81
352.311	390.81
352.538	416.81
352.765	407.81
352.992	381.81
353.22	385.81
353.447	379.81
353.674	366.81
353.901	374.81
354.128	362.81
354.355	359.81
354.583	346.81
354.81	357.81
355.037	365.81
355.264	353.81
355.491	347.81
355.718	348.81
355.945	336.81
356.172	342.81
356.399	338.81
356.626	356.81
356.853	356.81
357.08	366.81
357.307	351.81
357.534	361.81
357.761	347.81
357.988	348.81
358.215	322.81
358.441	347.81
358.668	351.81
358.895	352.81
359.122	356.81
359.349	368.81
359.576	376.81
359.802	403.81
360.029	425.81
360.256	438.81
360.483	440.81
360.709	385.81
360.936	365.81
361.163	368.81
361.39	375.81
361.616	392.81
361.843	375.81
362.07	387.81
362.296	376.81
362.523	364.81
362.749	379.81
362.976	348.81
363.203	371.81
363.429	371.81
363.656	358.81
363.882	353.81
364.109	360.81
364.335	360.81
364.562	354.81
364.788	362.81
365.015	361.81
365.241	349.81
365.468	361.81
365.694	363.81
365.92	374.81
366.147	358.81
366.373	359.81
366.599	379.81
366.826	351.81
367.052	356.81
367.278	363.81
367.505	354.81
367.731	347.81
367.957	378.81
368.184	361.81
368.41	365.81
368.636	372.81
368.862	388.81
369.089	376.81
369.315	359.81
369.541	360.81
369.767	363.81
369.993	353.81
370.219	344.81
370.445	355.81
370.672	354.81
370.898	369.81
371.124	360.81
371.35	341.81
371.576	365.81
371.802	341.81
372.028	344.81
372.254	358.81
372.48	358.81
372.706	356.81
372.932	336.81
373.158	345.81
373.384	369.81
373.61	360.81
373.835	357.81
374.061	354.81
374.287	360.81
374.513	346.81
374.739	364.81
374.965	346.81
375.191	367.81
375.416	347.81
375.642	351.81
375.868	342.81
376.094	354.81
376.319	354.81
376.545	328.81
376.771	355.81
376.997	352.81
377.222	351.81
377.448	348.81
377.674	351.81
377.899	336.81
378.125	348.81
378.35	340.81
378.576	341.81
378.802	322.81
379.027	333.81
379.253	338.81
379.478	356.81
379.704	343.81
379.929	354.81
380.155	335.81
380.38	330.81
380.606	349.81
380.831	343.81
381.057	359.81
381.282	335.81
381.507	331.81
381.733	376.81
381.958	372.81
382.184	344.81
382.409	339.81
382.634	351.81
382.86	350.81
383.085	343.81
383.31	339.81
383.535	357.81
383.761	364.81
383.986	360.81
384.211	359.81
384.436	358.81
384.662	380.81
384.887	364.81
385.112	378.81
385.337	389.81
385.562	365.81
385.787	375.81
386.013	379.81
386.238	397.81
386.463	385.81
386.688	368.81
386.913	378.81
387.138	363.81
387.363	385.81
387.588	376.81
387.813	369.81
388.038	368.81
388.263	396.81
388.488	385.81
388.713	393.81
388.938	386.81
389.163	389.81
389.387	385.81
389.612	371.81
389.837	383.81
390.062	373.81
390.287	367.81
390.512	359.81
390.736	369.81
390.961	389.81
391.186	382.81
391.411	365.81
391.636	370.81
391.86	375.81
392.085	369.81
392.31	381.81
392.534	367.81
392.759	363.81
392.984	379.81
393.208	375.81
393.433	376.81
393.658	371.81
393.882	362.81
394.107	387.81
394.331	383.81
394.556	361.81
394.78	372.81
395.005	378.81
395.229	393.81
395.454	391.81
395.678	398.81
395.903	398.81
396.127	415.81
396.352	414.81
396.576	413.81
396.801	380.81
397.025	405.81
397.249	393.81
397.474	387.81
397.698	393.81
397.922	416.81
398.147	433.81
398.371	417.81
398.595	421.81
398.82	411.81
399.044	407.81
399.268	427.81
399.492	451.81
399.717	455.81
399.941	481.81
400.165	520.81
400.389	526.81
400.613	490.81
400.837	453.81
401.062	435.81
401.286	432.81
401.51	420.81
401.734	431.81
401.958	433.81
402.182	417.81
402.406	451.81
402.63	455.81
402.854	427.81
403.078	453.81
403.302	422.81
403.526	431.81
403.75	457.81
403.974	434.81
404.198	428.81
404.422	424.81
404.645	464.81
404.869	469.81
405.093	487.81
405.317	509.81
405.541	523.81
405.765	496.81
405.988	481.81
406.212	459.81
406.436	496.81
406.66	521.81
406.883	488.81
407.107	524.81
407.331	540.81
407.555	580.81
407.778	571.81
408.002	531.81
408.226	492.81
408.449	491.81
408.673	508.81
408.896	505.81
409.12	553.81
409.344	513.81
409.567	444.81
409.791	439.81
410.014	447.81
410.238	432.81
410.461	409.81
410.685	458.81
410.908	465.81
411.132	501.81
411.355	524.81
411.578	512.81
411.802	453.81
412.025	462.81
412.249	449.81
412.472	484.81
412.695	512.81
412.919	477.81
413.142	484.81
413.365	429.81
413.589	437.81
413.812	426.81
414.035	439.81
414.258	428.81
414.482	412.81
414.705	402.81
414.928	405.81
415.151	423.81
415.374	421.81
415.597	393.81
415.821	420.81
416.044	429.81
416.267	420.81
416.49	423.81
416.713	398.81
416.936	405.81
417.159	417.81
417.382	424.81
417.605	439.81
417.828	434.81
418.051	439.81
418.274	440.81
418.497	421.81
418.72	417.81
418.943	413.81
419.166	421.81
419.389	442.81
419.611	454.81
419.834	458.81
420.057	440.81
420.28	437.81
420.503	426.81
420.726	457.81
420.948	441.81
421.171	487.81
421.394	510.81
421.617	451.81
421.839	466.81
422.062	461.81
422.285	453.81
422.507	514.81
422.73	582.81
422.953	547.81
423.175	500.81
423.398	453.81
423.621	477.81
423.843	469.81
424.066	467.81
424.288	479.81
424.511	489.81
424.733	571.81
424.956	597.81
425.178	592.81
425.401	593.81
425.623	606.81
425.846	516.81
426.068	475.81
426.291	464.81
426.513	480.81
426.735	495.81
426.958	532.81
427.18	604.81
427.402	699.81
427.625	787.81
427.847	702.81
428.069	611.81
428.292	507.81
428.514	462.81
428.736	476.81
428.958	472.81
429.181	440.81
429.403	439.81
429.625	475.81
429.847	459.81
430.069	538.81
430.292	548.81
430.514	478.81
430.736	437.81
430.958	433.81
431.18	414.81
431.402	413.81
431.624	415.81
431.846	399.81
432.068	433.81
432.29	393.81
432.512	406.81
432.734	431.81
432.956	448.81
433.178	451.81
433.4	456.81
433.622	426.81
433.844	427.81
434.066	414.81
434.287	433.81
434.509	432.81
434.731	447.81
434.953	431.81
435.175	446.81
435.397	474.81
435.618	502.81
435.84	555.81
436.062	601.81
436.284	651.81
436.505	565.81
436.727	515.81
436.949	472.81
437.17	463.81
437.392	465.81
437.614	472.81
437.835	505.81
438.057	592.81
438.278	666.81
438.5	657.81
438.721	724.81
438.943	678.81
439.165	559.81
439.386	523.81
439.608	530.81
439.829	500.81
440.05	528.81
440.272	593.81
440.493	515.81
440.715	491.81
440.936	452.81
441.158	451.81
441.379	451.81
441.6	473.81
441.822	505.81
442.043	531.81
442.264	598.81
442.486	632.81
442.707	539.81
442.928	486.81
443.149	498.81
443.371	529.81
443.592	586.81
443.813	629.81
444.034	671.81
444.255	599.81
444.476	516.81
444.698	481.81
444.919	479.81
445.14	565.81
445.361	537.81
445.582	527.81
445.803	586.81
446.024	682.81
446.245	695.81
446.466	624.81
446.687	537.81
446.908	499.81
447.129	476.81
447.35	439.81
447.571	466.81
447.792	455.81
448.013	454.81
448.234	467.81
448.455	547.81
448.675	640.81
448.896	729.81
449.117	632.81
449.338	592.81
449.559	672.81
449.779	742.81
450	605.81
450.221	517.81
450.442	503.81
450.662	448.81
450.883	484.81
451.104	487.81
451.324	457.81
451.545	448.81
451.766	441.81
451.986	406.81
452.207	419.81
452.428	420.81
452.648	398.81
452.869	410.81
453.089	424.81
453.31	429.81
453.53	420.81
453.751	380.81
453.971	416.81
454.192	434.81
454.412	451.81
454.633	427.81
454.853	416.81
455.073	405.81
455.294	433.81
455.514	528.81
455.734	486.81
455.955	399.81
456.175	397.81
456.395	381.81
456.616	380.81
456.836	378.81
457.056	380.81
457.276	356.81
457.497	371.81
457.717	391.81
457.937	395.81
458.157	389.81
458.377	394.81
458.598	420.81
458.818	512.81
459.038	560.81
459.258	562.81
459.478	482.81
459.698	456.81
459.918	439.81
460.138	440.81
460.358	418.81
460.578	419.81
460.798	418.81
461.018	428.81
461.238	414.81
461.458	414.81
461.678	420.81
461.898	431.81
462.118	411.81
462.338	407.81
462.558	420.81
462.777	415.81
462.997	436.81
463.217	435.81
463.437	442.81
463.657	431.81
463.876	435.81
464.096	446.81
464.316	439.81
464.536	462.81
464.755	475.81
464.975	458.81
465.195	495.81
465.414	615.81
465.634	530.81
465.854	465.81
466.073	436.81
466.293	421.81
466.512	417.81
466.732	408.81
466.951	407.81
467.171	398.81
467.391	414.81
467.61	435.81
467.829	451.81
468.049	428.81
468.268	454.81
468.488	427.81
468.707	418.81
468.927	410.81
469.146	420.81
469.365	403.81
469.585	402.81
469.804	416.81
470.023	408.81
470.243	426.81
470.462	437.81
470.681	433.81
470.901	420.81
471.12	420.81
471.339	434.81
471.558	424.81
471.777	444.81
471.997	422.81
472.216	448.81
472.435	465.81
472.654	447.81
472.873	439.81
473.092	411.81
473.311	413.81
473.53	440.81
473.749	434.81
473.968	474.81
474.187	586.81
474.406	580.81
474.625	511.81
474.844	440.81
475.063	445.81
475.282	409.81
475.501	415.81
475.72	441.81
475.939	436.81
476.158	445.81
476.377	420.81
476.596	435.81
476.814	439.81
477.033	433.81
477.252	435.81
477.471	439.81
477.69	461.81
477.908	473.81
478.127	471.81
478.346	461.81
478.564	449.81
478.783	465.81
479.002	447.81
479.22	469.81
479.439	482.81
479.658	509.81
479.876	515.81
480.095	497.81
480.313	547.81
480.532	503.81
480.751	526.81
480.969	518.81
481.188	588.81
481.406	656.81
481.624	556.81
481.843	536.81
482.061	508.81
482.28	512.81
482.498	490.81
482.717	495.81
482.935	483.81
483.153	500.81
483.372	491.81
483.59	503.81
483.808	507.81
484.027	483.81
484.245	500.81
484.463	505.81
484.681	527.81
484.9	494.81
485.118	499.81
485.336	515.81
485.554	509.81
485.772	527.81
485.99	529.81
486.209	498.81
486.427	520.81
486.645	546.81
486.863	549.81
487.081	538.81
487.299	551.81
487.517	544.81
487.735	515.81
487.953	536.81
488.171	541.81
488.389	528.81
488.607	557.81
488.825	488.81
489.043	535.81
489.261	551.81
489.479	548.81
489.696	543.81
489.914	540.81
490.132	563.81
490.35	563.81
490.568	575.81
490.786	549.81
491.003	564.81
491.221	615.81
491.439	587.81
491.657	591.81
491.874	605.81
492.092	605.81
492.31	627.81
492.527	625.81
492.745	624.81
492.963	616.81
493.18	618.81
493.398	630.81
493.615	625.81
493.833	630.81
494.05	631.81
494.268	629.81
494.485	650.81
494.703	640.81
494.92	628.81
495.138	623.81
495.355	607.81
495.573	658.81
495.79	652.81
496.008	650.81
496.225	616.81
496.442	620.81
496.66	636.81
496.877	653.81
497.094	633.81
497.312	618.81
497.529	656.81
497.746	641.81
497.963	672.81
498.181	690.81
498.398	697.81
498.615	693.81
498.832	691.81
499.049	700.81
499.267	699.81
499.484	730.81
499.701	716.81
499.918	746.81
500.135	761.81
500.352	807.81
500.569	786.81
500.786	822.81
501.003	799.81
501.22	764.81
501.437	745.81
501.654	753.81
501.871	781.81
