Data from 1965.PennyLincolnUp.Lamp.En5.5.200Scan.071719.P1._HRD10591_14-08-21-910.txt Node
Date: Thu Jul 18 14:08:21 EDT 2019
User: cochatt
Spectrometer: HR+D1059
Trigger mode: 1
Integration Time (sec): 1.000000E-1
Scans to average: 1
Electric dark correction enabled: true
Nonlinearity correction enabled: false
Boxcar width: 0
XAxis mode: Wavelengths
Number of Pixels in Spectrum: 2048
>>>>>Begin Spectral Data<<<<<
223.165	-15.62
223.4	-15.62
223.635	-15.62
223.869	-25.62
224.104	7.38
224.338	-18.62
224.573	-1.62
224.808	-14.62
225.042	-11.62
225.277	-15.62
225.511	-5.62
225.746	8.38
225.98	-12.62
226.215	2.38
226.449	15.38
226.683	26.38
226.918	27.38
227.152	34.38
227.387	18.38
227.621	45.38
227.856	45.38
228.09	38.38
228.324	39.38
228.559	49.38
228.793	69.38
229.027	86.38
229.262	92.38
229.496	97.38
229.73	105.38
229.964	134.38
230.199	132.38
230.433	105.38
230.667	107.38
230.901	113.38
231.136	102.38
231.37	95.38
231.604	94.38
231.838	96.38
232.072	98.38
232.306	102.38
232.541	110.38
232.775	112.38
233.009	111.38
233.243	116.38
233.477	98.38
233.711	103.38
233.945	107.38
234.179	113.38
234.413	112.38
234.647	109.38
234.881	101.38
235.115	101.38
235.349	107.38
235.583	96.38
235.817	108.38
236.051	98.38
236.285	121.38
236.519	108.38
236.753	100.38
236.987	114.38
237.221	144.38
237.455	190.38
237.689	140.38
237.922	134.38
238.156	126.38
238.39	119.38
238.624	113.38
238.858	116.38
239.091	118.38
239.325	99.38
239.559	111.38
239.793	116.38
240.027	114.38
240.26	121.38
240.494	133.38
240.728	132.38
240.961	134.38
241.195	129.38
241.429	117.38
241.662	111.38
241.896	124.38
242.13	123.38
242.363	117.38
242.597	107.38
242.83	122.38
243.064	130.38
243.298	120.38
243.531	113.38
243.765	124.38
243.998	113.38
244.232	121.38
244.465	119.38
244.699	128.38
244.932	118.38
245.166	114.38
245.399	132.38
245.633	121.38
245.866	134.38
246.099	126.38
246.333	134.38
246.566	120.38
246.8	136.38
247.033	137.38
247.266	128.38
247.5	154.38
247.733	142.38
247.966	141.38
248.2	128.38
248.433	128.38
248.666	137.38
248.899	154.38
249.133	157.38
249.366	181.38
249.599	168.38
249.832	140.38
250.066	156.38
250.299	160.38
250.532	158.38
250.765	156.38
250.998	172.38
251.231	188.38
251.465	189.38
251.698	171.38
251.931	163.38
252.164	155.38
252.397	174.38
252.63	153.38
252.863	164.38
253.096	167.38
253.329	186.38
253.562	180.38
253.795	198.38
254.028	193.38
254.261	183.38
254.494	198.38
254.727	206.38
254.96	222.38
255.193	217.38
255.426	205.38
255.659	189.38
255.892	189.38
256.124	197.38
256.357	196.38
256.59	192.38
256.823	173.38
257.056	202.38
257.289	183.38
257.521	181.38
257.754	184.38
257.987	188.38
258.22	179.38
258.452	188.38
258.685	177.38
258.918	181.38
259.151	196.38
259.383	182.38
259.616	187.38
259.849	191.38
260.081	189.38
260.314	196.38
260.547	195.38
260.779	205.38
261.012	172.38
261.244	203.38
261.477	184.38
261.71	196.38
261.942	212.38
262.175	188.38
262.407	199.38
262.64	180.38
262.872	173.38
263.105	167.38
263.337	179.38
263.57	171.38
263.802	172.38
264.035	181.38
264.267	174.38
264.499	158.38
264.732	183.38
264.964	179.38
265.197	169.38
265.429	180.38
265.661	171.38
265.894	186.38
266.126	191.38
266.358	189.38
266.591	183.38
266.823	191.38
267.055	193.38
267.287	177.38
267.52	199.38
267.752	194.38
267.984	204.38
268.216	184.38
268.448	190.38
268.681	195.38
268.913	190.38
269.145	203.38
269.377	215.38
269.609	215.38
269.841	197.38
270.073	229.38
270.306	230.38
270.538	253.38
270.77	242.38
271.002	255.38
271.234	245.38
271.466	257.38
271.698	250.38
271.93	243.38
272.162	246.38
272.394	257.38
272.626	251.38
272.858	225.38
273.09	233.38
273.322	217.38
273.553	206.38
273.785	205.38
274.017	211.38
274.249	233.38
274.481	219.38
274.713	213.38
274.945	217.38
275.176	217.38
275.408	204.38
275.64	211.38
275.872	225.38
276.104	221.38
276.335	235.38
276.567	219.38
276.799	261.38
277.031	251.38
277.262	258.38
277.494	261.38
277.726	250.38
277.957	242.38
278.189	229.38
278.421	227.38
278.652	217.38
278.884	225.38
279.115	221.38
279.347	237.38
279.579	209.38
279.81	207.38
280.042	213.38
280.273	237.38
280.505	221.38
280.736	213.38
280.968	213.38
281.199	218.38
281.431	218.38
281.662	215.38
281.894	233.38
282.125	219.38
282.356	237.38
282.588	237.38
282.819	233.38
283.051	232.38
283.282	211.38
283.513	220.38
283.745	224.38
283.976	221.38
284.207	226.38
284.439	230.38
284.67	226.38
284.901	231.38
285.132	219.38
285.364	211.38
285.595	226.38
285.826	216.38
286.057	232.38
286.288	237.38
286.52	228.38
286.751	220.38
286.982	222.38
287.213	225.38
287.444	214.38
287.675	241.38
287.906	243.38
288.138	244.38
288.369	251.38
288.6	235.38
288.831	245.38
289.062	248.38
289.293	232.38
289.524	236.38
289.755	246.38
289.986	242.38
290.217	237.38
290.448	226.38
290.679	233.38
290.91	238.38
291.141	221.38
291.371	239.38
291.602	229.38
291.833	236.38
292.064	222.38
292.295	237.38
292.526	256.38
292.757	233.38
292.987	242.38
293.218	240.38
293.449	229.38
293.68	227.38
293.91	228.38
294.141	222.38
294.372	230.38
294.603	240.38
294.833	232.38
295.064	225.38
295.295	252.38
295.525	257.38
295.756	246.38
295.987	238.38
296.217	262.38
296.448	251.38
296.679	248.38
296.909	250.38
297.14	245.38
297.37	235.38
297.601	257.38
297.831	248.38
298.062	241.38
298.292	240.38
298.523	257.38
298.753	261.38
298.984	246.38
299.214	239.38
299.445	246.38
299.675	248.38
299.905	257.38
300.136	246.38
300.366	246.38
300.597	233.38
300.827	242.38
301.057	253.38
301.288	266.38
301.518	267.38
301.748	266.38
301.979	266.38
302.209	258.38
302.439	270.38
302.669	249.38
302.9	246.38
303.13	253.38
303.36	267.38
303.59	270.38
303.82	269.38
304.051	277.38
304.281	261.38
304.511	272.38
304.741	264.38
304.971	253.38
305.201	265.38
305.431	258.38
305.661	261.38
305.891	261.38
306.121	260.38
306.352	267.38
306.582	278.38
306.812	287.38
307.042	272.38
307.272	272.38
307.502	278.38
307.731	283.38
307.961	289.38
308.191	282.38
308.421	294.38
308.651	278.38
308.881	271.38
309.111	296.38
309.341	275.38
309.571	281.38
309.8	295.38
310.03	289.38
310.26	324.38
310.49	297.38
310.72	308.38
310.949	316.38
311.179	322.38
311.409	332.38
311.639	318.38
311.868	313.38
312.098	324.38
312.328	318.38
312.557	331.38
312.787	353.38
313.017	321.38
313.246	310.38
313.476	304.38
313.706	299.38
313.935	315.38
314.165	326.38
314.394	346.38
314.624	325.38
314.853	332.38
315.083	317.38
315.312	307.38
315.542	304.38
315.771	296.38
316.001	317.38
316.23	308.38
316.46	290.38
316.689	313.38
316.919	308.38
317.148	320.38
317.377	326.38
317.607	324.38
317.836	324.38
318.065	297.38
318.295	298.38
318.524	309.38
318.753	323.38
318.983	316.38
319.212	305.38
319.441	315.38
319.67	298.38
319.9	308.38
320.129	314.38
320.358	320.38
320.587	312.38
320.816	323.38
321.046	329.38
321.275	334.38
321.504	347.38
321.733	357.38
321.962	360.38
322.191	344.38
322.42	356.38
322.649	378.38
322.878	380.38
323.108	381.38
323.337	371.38
323.566	432.38
323.795	459.38
324.024	472.38
324.253	599.38
324.482	857.38
324.71	1294.38
324.939	1743.38
325.168	1505.38
325.397	810.38
325.626	551.38
325.855	477.38
326.084	434.38
326.313	400.38
326.542	442.38
326.77	465.38
326.999	571.38
327.228	787.38
327.457	1164.38
327.686	1323.38
327.914	856.38
328.143	594.38
328.372	517.38
328.6	503.38
328.829	477.38
329.058	477.38
329.287	485.38
329.515	455.38
329.744	403.38
329.972	424.38
330.201	438.38
330.43	467.38
330.658	504.38
330.887	512.38
331.115	500.38
331.344	428.38
331.572	397.38
331.801	395.38
332.03	396.38
332.258	387.38
332.486	366.38
332.715	380.38
332.943	369.38
333.172	370.38
333.4	370.38
333.629	384.38
333.857	387.38
334.085	394.38
334.314	426.38
334.542	436.38
334.771	450.38
334.999	402.38
335.227	380.38
335.455	375.38
335.684	370.38
335.912	376.38
336.14	353.38
336.369	360.38
336.597	355.38
336.825	370.38
337.053	358.38
337.281	366.38
337.51	341.38
337.738	360.38
337.966	352.38
338.194	370.38
338.422	375.38
338.65	380.38
338.878	352.38
339.106	340.38
339.334	364.38
339.562	338.38
339.79	336.38
340.018	342.38
340.246	341.38
340.474	359.38
340.702	360.38
340.93	364.38
341.158	348.38
341.386	340.38
341.614	344.38
341.842	349.38
342.07	336.38
342.298	320.38
342.526	332.38
342.754	323.38
342.981	330.38
343.209	331.38
343.437	347.38
343.665	348.38
343.893	357.38
344.12	357.38
344.348	345.38
344.576	347.38
344.804	355.38
345.031	346.38
345.259	365.38
345.487	379.38
345.714	347.38
345.942	372.38
346.17	355.38
346.397	334.38
346.625	334.38
346.853	364.38
347.08	341.38
347.308	324.38
347.535	358.38
347.763	364.38
347.99	354.38
348.218	357.38
348.445	349.38
348.673	353.38
348.9	355.38
349.128	332.38
349.355	333.38
349.583	328.38
349.81	329.38
350.037	331.38
350.265	315.38
350.492	327.38
350.72	332.38
350.947	337.38
351.174	330.38
351.402	354.38
351.629	354.38
351.856	360.38
352.083	338.38
352.311	357.38
352.538	362.38
352.765	354.38
352.992	376.38
353.22	338.38
353.447	348.38
353.674	335.38
353.901	345.38
354.128	322.38
354.355	331.38
354.583	318.38
354.81	314.38
355.037	319.38
355.264	307.38
355.491	316.38
355.718	322.38
355.945	325.38
356.172	312.38
356.399	320.38
356.626	333.38
356.853	322.38
357.08	317.38
357.307	334.38
357.534	308.38
357.761	324.38
357.988	323.38
358.215	325.38
358.441	336.38
358.668	330.38
358.895	312.38
359.122	323.38
359.349	341.38
359.576	331.38
359.802	357.38
360.029	386.38
360.256	371.38
360.483	362.38
360.709	363.38
360.936	345.38
361.163	353.38
361.39	349.38
361.616	343.38
361.843	352.38
362.07	352.38
362.296	361.38
362.523	333.38
362.749	328.38
362.976	327.38
363.203	326.38
363.429	330.38
363.656	326.38
363.882	313.38
364.109	319.38
364.335	327.38
364.562	325.38
364.788	325.38
365.015	316.38
365.241	316.38
365.468	321.38
365.694	322.38
365.92	328.38
366.147	334.38
366.373	331.38
366.599	313.38
366.826	325.38
367.052	316.38
367.278	325.38
367.505	322.38
367.731	334.38
367.957	339.38
368.184	321.38
368.41	326.38
368.636	318.38
368.862	323.38
369.089	335.38
369.315	313.38
369.541	313.38
369.767	324.38
369.993	320.38
370.219	329.38
370.445	333.38
370.672	321.38
370.898	316.38
371.124	301.38
371.35	317.38
371.576	325.38
371.802	334.38
372.028	306.38
372.254	326.38
372.48	315.38
372.706	329.38
372.932	332.38
373.158	317.38
373.384	320.38
373.61	339.38
373.835	329.38
374.061	333.38
374.287	332.38
374.513	326.38
374.739	334.38
374.965	326.38
375.191	326.38
375.416	329.38
375.642	330.38
375.868	333.38
376.094	332.38
376.319	318.38
376.545	321.38
376.771	312.38
376.997	327.38
377.222	317.38
377.448	325.38
377.674	313.38
377.899	320.38
378.125	320.38
378.35	333.38
378.576	296.38
378.802	320.38
379.027	326.38
379.253	330.38
379.478	333.38
379.704	324.38
379.929	319.38
380.155	318.38
380.38	313.38
380.606	322.38
380.831	312.38
381.057	332.38
381.282	338.38
381.507	331.38
381.733	317.38
381.958	333.38
382.184	336.38
382.409	346.38
382.634	350.38
382.86	327.38
383.085	322.38
383.31	315.38
383.535	337.38
383.761	344.38
383.986	342.38
384.211	332.38
384.436	329.38
384.662	328.38
384.887	311.38
385.112	348.38
385.337	358.38
385.562	332.38
385.787	336.38
386.013	353.38
386.238	346.38
386.463	353.38
386.688	346.38
386.913	361.38
387.138	336.38
387.363	332.38
387.588	340.38
387.813	342.38
388.038	328.38
388.263	354.38
388.488	341.38
388.713	342.38
388.938	353.38
389.163	332.38
389.387	356.38
389.612	352.38
389.837	363.38
390.062	353.38
390.287	343.38
390.512	348.38
390.736	355.38
390.961	345.38
391.186	317.38
391.411	334.38
391.636	368.38
391.86	340.38
392.085	350.38
392.31	364.38
392.534	357.38
392.759	355.38
392.984	319.38
393.208	324.38
393.433	353.38
393.658	363.38
393.882	352.38
394.107	351.38
394.331	350.38
394.556	349.38
394.78	354.38
395.005	374.38
395.229	331.38
395.454	361.38
395.678	368.38
395.903	369.38
396.127	380.38
396.352	371.38
396.576	381.38
396.801	370.38
397.025	372.38
397.249	352.38
397.474	350.38
397.698	378.38
397.922	390.38
398.147	386.38
398.371	403.38
398.595	389.38
398.82	397.38
399.044	409.38
399.268	396.38
399.492	412.38
399.717	441.38
399.941	450.38
400.165	473.38
400.389	460.38
400.613	441.38
400.837	420.38
401.062	399.38
401.286	390.38
401.51	395.38
401.734	403.38
401.958	390.38
402.182	406.38
402.406	414.38
402.63	415.38
402.854	412.38
403.078	418.38
403.302	397.38
403.526	401.38
403.75	380.38
403.974	400.38
404.198	414.38
404.422	403.38
404.645	423.38
404.869	409.38
405.093	423.38
405.317	470.38
405.541	493.38
405.765	440.38
405.988	440.38
406.212	424.38
406.436	452.38
406.66	482.38
406.883	469.38
407.107	462.38
407.331	476.38
407.555	516.38
407.778	541.38
408.002	467.38
408.226	454.38
408.449	452.38
408.673	460.38
408.896	459.38
409.12	494.38
409.344	468.38
409.567	445.38
409.791	413.38
410.014	412.38
410.238	394.38
410.461	413.38
410.685	406.38
410.908	412.38
411.132	446.38
411.355	474.38
411.578	454.38
411.802	405.38
412.025	406.38
412.249	395.38
412.472	435.38
412.695	437.38
412.919	430.38
413.142	397.38
413.365	405.38
413.589	399.38
413.812	382.38
414.035	392.38
414.258	394.38
414.482	390.38
414.705	388.38
414.928	382.38
415.151	368.38
415.374	380.38
415.597	381.38
415.821	391.38
416.044	392.38
416.267	391.38
416.49	373.38
416.713	354.38
416.936	369.38
417.159	371.38
417.382	371.38
417.605	397.38
417.828	404.38
418.051	394.38
418.274	404.38
418.497	390.38
418.72	388.38
418.943	381.38
419.166	395.38
419.389	420.38
419.611	421.38
419.834	403.38
420.057	419.38
420.28	412.38
420.503	402.38
420.726	407.38
420.948	420.38
421.171	434.38
421.394	462.38
421.617	421.38
421.839	409.38
422.062	414.38
422.285	401.38
422.507	453.38
422.73	507.38
422.953	461.38
423.175	439.38
423.398	433.38
423.621	417.38
423.843	427.38
424.066	424.38
424.288	405.38
424.511	438.38
424.733	505.38
424.956	544.38
425.178	541.38
425.401	512.38
425.623	542.38
425.846	468.38
426.068	459.38
426.291	432.38
426.513	427.38
426.735	436.38
426.958	482.38
427.18	544.38
427.402	627.38
427.625	696.38
427.847	629.38
428.069	542.38
428.292	444.38
428.514	458.38
428.736	441.38
428.958	412.38
429.181	395.38
429.403	392.38
429.625	419.38
429.847	454.38
430.069	493.38
430.292	502.38
430.514	408.38
430.736	411.38
430.958	401.38
431.18	398.38
431.402	384.38
431.624	381.38
431.846	370.38
432.068	364.38
432.29	398.38
432.512	381.38
432.734	391.38
432.956	382.38
433.178	388.38
433.4	408.38
433.622	382.38
433.844	381.38
434.066	378.38
434.287	364.38
434.509	378.38
434.731	390.38
434.953	403.38
435.175	406.38
435.397	435.38
435.618	422.38
435.84	472.38
436.062	538.38
436.284	560.38
436.505	503.38
436.727	451.38
436.949	426.38
437.17	393.38
437.392	406.38
437.614	434.38
437.835	457.38
438.057	517.38
438.278	582.38
438.5	591.38
438.721	626.38
438.943	596.38
439.165	507.38
439.386	474.38
439.608	456.38
439.829	454.38
440.05	468.38
440.272	475.38
440.493	476.38
440.715	424.38
440.936	426.38
441.158	428.38
441.379	412.38
441.6	441.38
441.822	444.38
442.043	456.38
442.264	520.38
442.486	526.38
442.707	471.38
442.928	443.38
443.149	449.38
443.371	477.38
443.592	491.38
443.813	544.38
444.034	582.38
444.255	510.38
444.476	467.38
444.698	436.38
444.919	442.38
445.14	525.38
445.361	498.38
445.582	477.38
445.803	503.38
446.024	597.38
446.245	599.38
446.466	541.38
446.687	489.38
446.908	433.38
447.129	408.38
447.35	421.38
447.571	401.38
447.792	392.38
448.013	404.38
448.234	430.38
448.455	456.38
448.675	534.38
448.896	620.38
449.117	540.38
449.338	513.38
449.559	618.38
449.779	664.38
450	537.38
450.221	447.38
450.442	419.38
450.662	387.38
450.883	418.38
451.104	416.38
451.324	435.38
451.545	414.38
451.766	389.38
451.986	380.38
452.207	359.38
452.428	374.38
452.648	363.38
452.869	371.38
453.089	384.38
453.31	375.38
453.53	386.38
453.751	362.38
453.971	373.38
454.192	363.38
454.412	387.38
454.633	372.38
454.853	378.38
455.073	356.38
455.294	405.38
455.514	444.38
455.734	435.38
455.955	378.38
456.175	353.38
456.395	334.38
456.616	347.38
456.836	348.38
457.056	336.38
457.276	350.38
457.497	357.38
457.717	347.38
457.937	360.38
458.157	353.38
458.377	372.38
458.598	382.38
458.818	446.38
459.038	492.38
459.258	502.38
459.478	412.38
459.698	397.38
459.918	386.38
460.138	388.38
460.358	396.38
460.578	389.38
460.798	395.38
461.018	399.38
461.238	382.38
461.458	380.38
461.678	386.38
461.898	383.38
462.118	382.38
462.338	387.38
462.558	391.38
462.777	397.38
462.997	429.38
463.217	418.38
463.437	408.38
463.657	415.38
463.876	423.38
464.096	413.38
464.316	406.38
464.536	415.38
464.755	406.38
464.975	426.38
465.195	460.38
465.414	532.38
465.634	469.38
465.854	413.38
466.073	390.38
466.293	384.38
466.512	375.38
466.732	369.38
466.951	367.38
467.171	377.38
467.391	376.38
467.61	370.38
467.829	385.38
468.049	387.38
468.268	406.38
468.488	390.38
468.707	370.38
468.927	383.38
469.146	374.38
469.365	380.38
469.585	377.38
469.804	384.38
470.023	388.38
470.243	381.38
470.462	403.38
470.681	397.38
470.901	392.38
471.12	382.38
471.339	383.38
471.558	382.38
471.777	380.38
471.997	363.38
472.216	390.38
472.435	419.38
472.654	390.38
472.873	392.38
473.092	375.38
473.311	379.38
473.53	384.38
473.749	389.38
473.968	419.38
474.187	498.38
474.406	530.38
474.625	443.38
474.844	392.38
475.063	380.38
475.282	398.38
475.501	377.38
475.72	400.38
475.939	375.38
476.158	394.38
476.377	386.38
476.596	385.38
476.814	396.38
477.033	402.38
477.252	410.38
477.471	409.38
477.69	424.38
477.908	422.38
478.127	433.38
478.346	408.38
478.564	413.38
478.783	416.38
479.002	420.38
479.22	418.38
479.439	446.38
479.658	462.38
479.876	465.38
480.095	475.38
480.313	494.38
480.532	477.38
480.751	444.38
480.969	465.38
481.188	528.38
481.406	557.38
481.624	496.38
481.843	464.38
482.061	479.38
482.28	443.38
482.498	451.38
482.717	446.38
482.935	452.38
483.153	453.38
483.372	460.38
483.59	440.38
483.808	445.38
484.027	450.38
484.245	447.38
484.463	459.38
484.681	461.38
484.9	454.38
485.118	468.38
485.336	460.38
485.554	453.38
485.772	479.38
485.99	471.38
486.209	490.38
486.427	475.38
486.645	485.38
486.863	484.38
487.081	500.38
487.299	500.38
487.517	474.38
487.735	486.38
487.953	475.38
488.171	512.38
488.389	490.38
488.607	481.38
488.825	481.38
489.043	491.38
489.261	470.38
489.479	474.38
489.696	502.38
489.914	481.38
490.132	492.38
490.35	521.38
490.568	506.38
490.786	512.38
491.003	518.38
491.221	525.38
491.439	540.38
491.657	555.38
491.874	560.38
492.092	535.38
492.31	553.38
492.527	527.38
492.745	566.38
492.963	556.38
493.18	564.38
493.398	575.38
493.615	567.38
493.833	573.38
494.05	557.38
494.268	573.38
494.485	570.38
494.703	555.38
494.92	568.38
495.138	570.38
495.355	558.38
495.573	581.38
495.79	540.38
496.008	570.38
496.225	592.38
496.442	560.38
496.66	576.38
496.877	575.38
497.094	592.38
497.312	574.38
497.529	590.38
497.746	588.38
497.963	593.38
498.181	598.38
498.398	604.38
498.615	629.38
498.832	626.38
499.049	642.38
499.267	637.38
499.484	673.38
499.701	681.38
499.918	677.38
500.135	698.38
500.352	707.38
500.569	708.38
500.786	754.38
501.003	750.38
501.22	712.38
501.437	697.38
501.654	692.38
501.871	710.38
502.088	704.38
