Data from 1965.PennyLincolnUp.Lamp.En5.5.200Scan.071719.P1._HRD10591_14-10-01-912.txt Node
Date: Thu Jul 18 14:10:01 EDT 2019
User: cochatt
Spectrometer: HR+D1059
Trigger mode: 1
Integration Time (sec): 1.000000E-1
Scans to average: 1
Electric dark correction enabled: true
Nonlinearity correction enabled: false
Boxcar width: 0
XAxis mode: Wavelengths
Number of Pixels in Spectrum: 2048
>>>>>Begin Spectral Data<<<<<
223.165	-15.88
223.4	-15.88
223.635	-15.88
223.869	-40.88
224.104	-26.88
224.338	-22.88
224.573	-17.88
224.808	-20.88
225.042	-3.88
225.277	3.12
225.511	8.12
225.746	4.12
225.98	8.12
226.215	24.12
226.449	20.12
226.683	25.12
226.918	27.12
227.152	29.12
227.387	42.12
227.621	31.12
227.856	41.12
228.09	45.12
228.324	48.12
228.559	48.12
228.793	63.12
229.027	94.12
229.262	85.12
229.496	102.12
229.73	129.12
229.964	138.12
230.199	114.12
230.433	95.12
230.667	115.12
230.901	91.12
231.136	108.12
231.37	121.12
231.604	103.12
231.838	108.12
232.072	103.12
232.306	103.12
232.541	118.12
232.775	107.12
233.009	99.12
233.243	114.12
233.477	102.12
233.711	98.12
233.945	102.12
234.179	101.12
234.413	95.12
234.647	118.12
234.881	103.12
235.115	110.12
235.349	112.12
235.583	104.12
235.817	110.12
236.051	123.12
236.285	116.12
236.519	109.12
236.753	121.12
236.987	153.12
237.221	178.12
237.455	210.12
237.689	160.12
237.922	133.12
238.156	139.12
238.39	122.12
238.624	123.12
238.858	111.12
239.091	120.12
239.325	113.12
239.559	129.12
239.793	122.12
240.027	129.12
240.26	127.12
240.494	141.12
240.728	142.12
240.961	131.12
241.195	141.12
241.429	138.12
241.662	131.12
241.896	116.12
242.13	116.12
242.363	113.12
242.597	113.12
242.83	122.12
243.064	127.12
243.298	113.12
243.531	120.12
243.765	130.12
243.998	125.12
244.232	119.12
244.465	151.12
244.699	126.12
244.932	143.12
245.166	149.12
245.399	114.12
245.633	136.12
245.866	124.12
246.099	145.12
246.333	141.12
246.566	120.12
246.8	137.12
247.033	133.12
247.266	147.12
247.5	146.12
247.733	169.12
247.966	155.12
248.2	153.12
248.433	136.12
248.666	161.12
248.899	162.12
249.133	177.12
249.366	196.12
249.599	179.12
249.832	176.12
250.066	175.12
250.299	162.12
250.532	179.12
250.765	177.12
250.998	209.12
251.231	193.12
251.465	194.12
251.698	196.12
251.931	176.12
252.164	207.12
252.397	187.12
252.63	167.12
252.863	181.12
253.096	200.12
253.329	209.12
253.562	211.12
253.795	199.12
254.028	220.12
254.261	189.12
254.494	190.12
254.727	215.12
254.96	255.12
255.193	225.12
255.426	225.12
255.659	215.12
255.892	219.12
256.124	217.12
256.357	209.12
256.59	200.12
256.823	200.12
257.056	188.12
257.289	188.12
257.521	205.12
257.754	182.12
257.987	192.12
258.22	196.12
258.452	186.12
258.685	201.12
258.918	191.12
259.151	198.12
259.383	185.12
259.616	192.12
259.849	211.12
260.081	211.12
260.314	233.12
260.547	233.12
260.779	214.12
261.012	208.12
261.244	198.12
261.477	199.12
261.71	188.12
261.942	192.12
262.175	207.12
262.407	218.12
262.64	203.12
262.872	202.12
263.105	195.12
263.337	188.12
263.57	185.12
263.802	204.12
264.035	187.12
264.267	184.12
264.499	183.12
264.732	175.12
264.964	189.12
265.197	202.12
265.429	185.12
265.661	188.12
265.894	192.12
266.126	191.12
266.358	188.12
266.591	182.12
266.823	204.12
267.055	185.12
267.287	213.12
267.52	204.12
267.752	207.12
267.984	213.12
268.216	216.12
268.448	216.12
268.681	216.12
268.913	225.12
269.145	249.12
269.377	231.12
269.609	223.12
269.841	250.12
270.073	245.12
270.306	258.12
270.538	281.12
270.77	284.12
271.002	273.12
271.234	276.12
271.466	269.12
271.698	291.12
271.93	272.12
272.162	288.12
272.394	260.12
272.626	269.12
272.858	263.12
273.09	243.12
273.322	246.12
273.553	228.12
273.785	246.12
274.017	229.12
274.249	236.12
274.481	244.12
274.713	234.12
274.945	239.12
275.176	240.12
275.408	236.12
275.64	242.12
275.872	243.12
276.104	244.12
276.335	223.12
276.567	251.12
276.799	248.12
277.031	273.12
277.262	297.12
277.494	287.12
277.726	259.12
277.957	262.12
278.189	247.12
278.421	226.12
278.652	236.12
278.884	236.12
279.115	226.12
279.347	220.12
279.579	236.12
279.81	241.12
280.042	245.12
280.273	224.12
280.505	239.12
280.736	244.12
280.968	241.12
281.199	214.12
281.431	234.12
281.662	233.12
281.894	260.12
282.125	236.12
282.356	240.12
282.588	276.12
282.819	270.12
283.051	235.12
283.282	226.12
283.513	231.12
283.745	259.12
283.976	251.12
284.207	235.12
284.439	239.12
284.67	236.12
284.901	257.12
285.132	225.12
285.364	239.12
285.595	245.12
285.826	249.12
286.057	232.12
286.288	247.12
286.52	251.12
286.751	241.12
286.982	240.12
287.213	248.12
287.444	250.12
287.675	264.12
287.906	245.12
288.138	267.12
288.369	279.12
288.6	275.12
288.831	265.12
289.062	247.12
289.293	257.12
289.524	238.12
289.755	252.12
289.986	234.12
290.217	249.12
290.448	235.12
290.679	222.12
290.91	254.12
291.141	241.12
291.371	272.12
291.602	263.12
291.833	258.12
292.064	257.12
292.295	259.12
292.526	260.12
292.757	250.12
292.987	256.12
293.218	255.12
293.449	247.12
293.68	244.12
293.91	245.12
294.141	259.12
294.372	245.12
294.603	265.12
294.833	261.12
295.064	264.12
295.295	252.12
295.525	277.12
295.756	264.12
295.987	272.12
296.217	291.12
296.448	287.12
296.679	276.12
296.909	253.12
297.14	272.12
297.37	263.12
297.601	273.12
297.831	258.12
298.062	243.12
298.292	266.12
298.523	264.12
298.753	265.12
298.984	264.12
299.214	281.12
299.445	249.12
299.675	261.12
299.905	274.12
300.136	264.12
300.366	274.12
300.597	259.12
300.827	291.12
301.057	295.12
301.288	292.12
301.518	292.12
301.748	294.12
301.979	290.12
302.209	287.12
302.439	282.12
302.669	258.12
302.9	276.12
303.13	289.12
303.36	290.12
303.59	296.12
303.82	310.12
304.051	295.12
304.281	296.12
304.511	284.12
304.741	272.12
304.971	279.12
305.201	272.12
305.431	275.12
305.661	284.12
305.891	288.12
306.121	296.12
306.352	297.12
306.582	298.12
306.812	306.12
307.042	294.12
307.272	279.12
307.502	287.12
307.731	306.12
307.961	319.12
308.191	284.12
308.421	313.12
308.651	297.12
308.881	294.12
309.111	299.12
309.341	305.12
309.571	309.12
309.8	310.12
310.03	337.12
310.26	343.12
310.49	357.12
310.72	320.12
310.949	348.12
311.179	374.12
311.409	344.12
311.639	353.12
311.868	346.12
312.098	341.12
312.328	346.12
312.557	360.12
312.787	380.12
313.017	383.12
313.246	346.12
313.476	343.12
313.706	351.12
313.935	348.12
314.165	343.12
314.394	356.12
314.624	357.12
314.853	348.12
315.083	336.12
315.312	327.12
315.542	333.12
315.771	348.12
316.001	331.12
316.23	329.12
316.46	337.12
316.689	351.12
316.919	344.12
317.148	339.12
317.377	339.12
317.607	336.12
317.836	338.12
318.065	337.12
318.295	348.12
318.524	323.12
318.753	330.12
318.983	351.12
319.212	337.12
319.441	344.12
319.67	359.12
319.9	356.12
320.129	340.12
320.358	348.12
320.587	343.12
320.816	351.12
321.046	396.12
321.275	349.12
321.504	351.12
321.733	367.12
321.962	363.12
322.191	386.12
322.42	405.12
322.649	407.12
322.878	423.12
323.108	432.12
323.337	441.12
323.566	475.12
323.795	482.12
324.024	564.12
324.253	678.12
324.482	1020.12
324.71	1549.12
324.939	2121.12
325.168	1714.12
325.397	919.12
325.626	623.12
325.855	518.12
326.084	477.12
326.313	468.12
326.542	485.12
326.77	530.12
326.999	642.12
327.228	908.12
327.457	1341.12
327.686	1563.12
327.914	1050.12
328.143	703.12
328.372	611.12
328.6	574.12
328.829	551.12
329.058	548.12
329.287	568.12
329.515	518.12
329.744	471.12
329.972	489.12
330.201	497.12
330.43	534.12
330.658	582.12
330.887	594.12
331.115	565.12
331.344	513.12
331.572	453.12
331.801	439.12
332.03	466.12
332.258	426.12
332.486	411.12
332.715	393.12
332.943	408.12
333.172	402.12
333.4	403.12
333.629	397.12
333.857	448.12
334.085	424.12
334.314	455.12
334.542	491.12
334.771	497.12
334.999	439.12
335.227	411.12
335.455	419.12
335.684	398.12
335.912	405.12
336.14	401.12
336.369	388.12
336.597	410.12
336.825	413.12
337.053	379.12
337.281	380.12
337.51	383.12
337.738	395.12
337.966	384.12
338.194	390.12
338.422	375.12
338.65	383.12
338.878	370.12
339.106	374.12
339.334	363.12
339.562	369.12
339.79	374.12
340.018	379.12
340.246	369.12
340.474	391.12
340.702	391.12
340.93	375.12
341.158	377.12
341.386	374.12
341.614	398.12
341.842	377.12
342.07	367.12
342.298	361.12
342.526	351.12
342.754	364.12
342.981	361.12
343.209	380.12
343.437	369.12
343.665	369.12
343.893	376.12
344.12	383.12
344.348	377.12
344.576	373.12
344.804	389.12
345.031	389.12
345.259	418.12
345.487	413.12
345.714	385.12
345.942	376.12
346.17	373.12
346.397	364.12
346.625	374.12
346.853	380.12
347.08	374.12
347.308	372.12
347.535	363.12
347.763	401.12
347.99	383.12
348.218	369.12
348.445	365.12
348.673	375.12
348.9	373.12
349.128	367.12
349.355	351.12
349.583	362.12
349.81	348.12
350.037	361.12
350.265	353.12
350.492	340.12
350.72	348.12
350.947	399.12
351.174	371.12
351.402	400.12
351.629	374.12
351.856	362.12
352.083	383.12
352.311	384.12
352.538	409.12
352.765	375.12
352.992	376.12
353.22	372.12
353.447	373.12
353.674	369.12
353.901	358.12
354.128	345.12
354.355	347.12
354.583	331.12
354.81	338.12
355.037	353.12
355.264	351.12
355.491	332.12
355.718	340.12
355.945	337.12
356.172	338.12
356.399	336.12
356.626	355.12
356.853	328.12
357.08	347.12
357.307	338.12
357.534	359.12
357.761	337.12
357.988	362.12
358.215	333.12
358.441	343.12
358.668	344.12
358.895	348.12
359.122	340.12
359.349	370.12
359.576	368.12
359.802	397.12
360.029	431.12
360.256	439.12
360.483	403.12
360.709	379.12
360.936	380.12
361.163	380.12
361.39	378.12
361.616	358.12
361.843	359.12
362.07	378.12
362.296	371.12
362.523	362.12
362.749	385.12
362.976	371.12
363.203	356.12
363.429	353.12
363.656	341.12
363.882	349.12
364.109	342.12
364.335	319.12
364.562	352.12
364.788	346.12
365.015	352.12
365.241	356.12
365.468	340.12
365.694	370.12
365.92	367.12
366.147	344.12
366.373	359.12
366.599	353.12
366.826	336.12
367.052	342.12
367.278	349.12
367.505	327.12
367.731	343.12
367.957	346.12
368.184	344.12
368.41	367.12
368.636	363.12
368.862	362.12
369.089	360.12
369.315	353.12
369.541	323.12
369.767	343.12
369.993	363.12
370.219	353.12
370.445	359.12
370.672	341.12
370.898	333.12
371.124	346.12
371.35	344.12
371.576	344.12
371.802	334.12
372.028	315.12
372.254	346.12
372.48	357.12
372.706	339.12
372.932	351.12
373.158	339.12
373.384	328.12
373.61	342.12
373.835	379.12
374.061	371.12
374.287	353.12
374.513	354.12
374.739	344.12
374.965	337.12
375.191	351.12
375.416	356.12
375.642	350.12
375.868	368.12
376.094	335.12
376.319	338.12
376.545	353.12
376.771	351.12
376.997	336.12
377.222	339.12
377.448	337.12
377.674	328.12
377.899	332.12
378.125	313.12
378.35	311.12
378.576	344.12
378.802	343.12
379.027	324.12
379.253	343.12
379.478	332.12
379.704	326.12
379.929	314.12
380.155	337.12
380.38	332.12
380.606	341.12
380.831	335.12
381.057	358.12
381.282	355.12
381.507	345.12
381.733	332.12
381.958	356.12
382.184	330.12
382.409	330.12
382.634	363.12
382.86	338.12
383.085	333.12
383.31	343.12
383.535	345.12
383.761	333.12
383.986	330.12
384.211	327.12
384.436	357.12
384.662	371.12
384.887	353.12
385.112	348.12
385.337	368.12
385.562	365.12
385.787	376.12
386.013	358.12
386.238	370.12
386.463	367.12
386.688	377.12
386.913	357.12
387.138	353.12
387.363	363.12
387.588	353.12
387.813	364.12
388.038	370.12
388.263	379.12
388.488	360.12
388.713	379.12
388.938	350.12
389.163	367.12
389.387	393.12
389.612	360.12
389.837	378.12
390.062	362.12
390.287	352.12
390.512	354.12
390.736	355.12
390.961	356.12
391.186	379.12
391.411	373.12
391.636	366.12
391.86	375.12
392.085	363.12
392.31	381.12
392.534	376.12
392.759	383.12
392.984	351.12
393.208	349.12
393.433	371.12
393.658	376.12
393.882	381.12
394.107	363.12
394.331	363.12
394.556	363.12
394.78	359.12
395.005	371.12
395.229	369.12
395.454	374.12
395.678	384.12
395.903	380.12
396.127	429.12
396.352	399.12
396.576	375.12
396.801	382.12
397.025	367.12
397.249	369.12
397.474	392.12
397.698	377.12
397.922	420.12
398.147	419.12
398.371	413.12
398.595	410.12
398.82	418.12
399.044	412.12
399.268	419.12
399.492	442.12
399.717	446.12
399.941	488.12
400.165	517.12
400.389	495.12
400.613	468.12
400.837	446.12
401.062	443.12
401.286	421.12
401.51	417.12
401.734	400.12
401.958	417.12
402.182	403.12
402.406	435.12
402.63	439.12
402.854	441.12
403.078	410.12
403.302	407.12
403.526	431.12
403.75	457.12
403.974	428.12
404.198	434.12
404.422	420.12
404.645	440.12
404.869	442.12
405.093	464.12
405.317	490.12
405.541	525.12
405.765	470.12
405.988	473.12
406.212	461.12
406.436	485.12
406.66	516.12
406.883	469.12
407.107	470.12
407.331	508.12
407.555	551.12
407.778	576.12
408.002	523.12
408.226	476.12
408.449	477.12
408.673	467.12
408.896	496.12
409.12	530.12
409.344	507.12
409.567	430.12
409.791	449.12
410.014	435.12
410.238	422.12
410.461	449.12
410.685	431.12
410.908	445.12
411.132	467.12
411.355	496.12
411.578	498.12
411.802	455.12
412.025	435.12
412.249	421.12
412.472	458.12
412.695	502.12
412.919	479.12
413.142	449.12
413.365	425.12
413.589	447.12
413.812	409.12
414.035	413.12
414.258	417.12
414.482	383.12
414.705	410.12
414.928	396.12
415.151	399.12
415.374	381.12
415.597	406.12
415.821	413.12
416.044	428.12
416.267	400.12
416.49	406.12
416.713	394.12
416.936	427.12
417.159	396.12
417.382	426.12
417.605	408.12
417.828	425.12
418.051	428.12
418.274	413.12
418.497	406.12
418.72	392.12
418.943	422.12
419.166	407.12
419.389	429.12
419.611	439.12
419.834	443.12
420.057	417.12
420.28	455.12
420.503	458.12
420.726	424.12
420.948	443.12
421.171	456.12
421.394	495.12
421.617	449.12
421.839	444.12
422.062	419.12
422.285	436.12
422.507	496.12
422.73	541.12
422.953	535.12
423.175	477.12
423.398	429.12
423.621	456.12
423.843	460.12
424.066	456.12
424.288	453.12
424.511	485.12
424.733	533.12
424.956	586.12
425.178	562.12
425.401	567.12
425.623	556.12
425.846	504.12
426.068	481.12
426.291	458.12
426.513	456.12
426.735	464.12
426.958	512.12
427.18	580.12
427.402	672.12
427.625	776.12
427.847	680.12
428.069	579.12
428.292	520.12
428.514	474.12
428.736	453.12
428.958	434.12
429.181	442.12
429.403	431.12
429.625	453.12
429.847	492.12
430.069	533.12
430.292	525.12
430.514	455.12
430.736	421.12
430.958	426.12
431.18	423.12
431.402	422.12
431.624	423.12
431.846	422.12
432.068	411.12
432.29	432.12
432.512	417.12
432.734	420.12
432.956	424.12
433.178	416.12
433.4	435.12
433.622	419.12
433.844	402.12
434.066	410.12
434.287	426.12
434.509	423.12
434.731	435.12
434.953	445.12
435.175	433.12
435.397	465.12
435.618	472.12
435.84	521.12
436.062	586.12
436.284	636.12
436.505	527.12
436.727	485.12
436.949	453.12
437.17	435.12
437.392	441.12
437.614	440.12
437.835	512.12
438.057	586.12
438.278	680.12
438.5	669.12
438.721	696.12
438.943	671.12
439.165	561.12
439.386	475.12
439.608	490.12
439.829	467.12
440.05	528.12
440.272	571.12
440.493	525.12
440.715	487.12
440.936	467.12
441.158	471.12
441.379	456.12
441.6	444.12
441.822	479.12
442.043	520.12
442.264	586.12
442.486	600.12
442.707	524.12
442.928	496.12
443.149	499.12
443.371	526.12
443.592	563.12
443.813	601.12
444.034	666.12
444.255	555.12
444.476	485.12
444.698	467.12
444.919	459.12
445.14	600.12
445.361	521.12
445.582	507.12
445.803	567.12
446.024	651.12
446.245	657.12
446.466	588.12
446.687	536.12
446.908	495.12
447.129	457.12
447.35	452.12
447.571	443.12
447.792	415.12
448.013	443.12
448.234	472.12
448.455	517.12
448.675	606.12
448.896	684.12
449.117	579.12
449.338	563.12
449.559	659.12
449.779	701.12
450	593.12
450.221	495.12
450.442	460.12
450.662	448.12
450.883	456.12
451.104	457.12
451.324	454.12
451.545	431.12
451.766	415.12
451.986	403.12
452.207	387.12
452.428	393.12
452.648	399.12
452.869	399.12
453.089	412.12
453.31	404.12
453.53	417.12
453.751	397.12
453.971	411.12
454.192	426.12
454.412	412.12
454.633	411.12
454.853	403.12
455.073	396.12
455.294	426.12
455.514	488.12
455.734	461.12
455.955	405.12
456.175	374.12
456.395	374.12
456.616	368.12
456.836	362.12
457.056	364.12
457.276	363.12
457.497	395.12
457.717	372.12
457.937	374.12
458.157	374.12
458.377	383.12
458.598	429.12
458.818	468.12
459.038	532.12
459.258	551.12
459.478	474.12
459.698	421.12
459.918	407.12
460.138	423.12
460.358	389.12
460.578	406.12
460.798	409.12
461.018	419.12
461.238	406.12
461.458	406.12
461.678	415.12
461.898	407.12
462.118	411.12
462.338	411.12
462.558	403.12
462.777	427.12
462.997	439.12
463.217	439.12
463.437	447.12
463.657	417.12
463.876	444.12
464.096	441.12
464.316	427.12
464.536	445.12
464.755	449.12
464.975	452.12
465.195	516.12
465.414	564.12
465.634	488.12
465.854	446.12
466.073	428.12
466.293	408.12
466.512	401.12
466.732	387.12
466.951	405.12
467.171	397.12
467.391	397.12
467.61	427.12
467.829	442.12
468.049	405.12
468.268	425.12
468.488	413.12
468.707	390.12
468.927	387.12
469.146	394.12
469.365	408.12
469.585	384.12
469.804	409.12
470.023	422.12
470.243	416.12
470.462	411.12
470.681	427.12
470.901	421.12
471.12	418.12
471.339	421.12
471.558	411.12
471.777	413.12
471.997	428.12
472.216	408.12
472.435	463.12
472.654	439.12
472.873	411.12
473.092	409.12
473.311	418.12
473.53	408.12
473.749	425.12
473.968	455.12
474.187	541.12
474.406	565.12
474.625	476.12
474.844	434.12
475.063	405.12
475.282	422.12
475.501	435.12
475.72	427.12
475.939	415.12
476.158	433.12
476.377	427.12
476.596	426.12
476.814	432.12
477.033	446.12
477.252	445.12
477.471	439.12
477.69	447.12
477.908	441.12
478.127	422.12
478.346	444.12
478.564	439.12
478.783	451.12
479.002	440.12
479.22	481.12
479.439	480.12
479.658	481.12
479.876	497.12
480.095	514.12
480.313	513.12
480.532	482.12
480.751	492.12
480.969	517.12
481.188	561.12
481.406	615.12
481.624	539.12
481.843	511.12
482.061	495.12
482.28	487.12
482.498	479.12
482.717	480.12
482.935	480.12
483.153	488.12
483.372	490.12
483.59	483.12
483.808	471.12
484.027	491.12
484.245	504.12
484.463	511.12
484.681	487.12
484.9	476.12
485.118	496.12
485.336	488.12
485.554	487.12
485.772	496.12
485.99	479.12
486.209	511.12
486.427	514.12
486.645	504.12
486.863	517.12
487.081	547.12
487.299	529.12
487.517	495.12
487.735	507.12
487.953	499.12
488.171	517.12
488.389	520.12
488.607	535.12
488.825	528.12
489.043	500.12
489.261	516.12
489.479	553.12
489.696	537.12
489.914	503.12
490.132	521.12
490.35	534.12
490.568	552.12
490.786	548.12
491.003	556.12
491.221	587.12
491.439	572.12
491.657	556.12
491.874	575.12
492.092	573.12
492.31	598.12
492.527	588.12
492.745	600.12
492.963	609.12
493.18	607.12
493.398	615.12
493.615	598.12
493.833	607.12
494.05	618.12
494.268	614.12
494.485	598.12
494.703	585.12
494.92	605.12
495.138	581.12
495.355	613.12
495.573	604.12
495.79	623.12
496.008	612.12
496.225	613.12
496.442	598.12
496.66	647.12
496.877	626.12
497.094	619.12
497.312	630.12
497.529	616.12
497.746	623.12
497.963	657.12
498.181	677.12
498.398	668.12
498.615	652.12
498.832	673.12
499.049	679.12
499.267	690.12
499.484	677.12
499.701	700.12
499.918	729.12
500.135	743.12
500.352	784.12
500.569	752.12
500.786	764.12
501.003	786.12
501.22	791.12
501.437	739.12
501.654	746.12
501.871	743.12
502.088	703.12
