Data from 1965.PennyLincolnUp.Lamp.En5.5.200Scan.071719.P1._HRD10591_14-09-36-912.txt Node
Date: Thu Jul 18 14:09:36 EDT 2019
User: cochatt
Spectrometer: HR+D1059
Trigger mode: 1
Integration Time (sec): 1.000000E-1
Scans to average: 1
Electric dark correction enabled: true
Nonlinearity correction enabled: false
Boxcar width: 0
XAxis mode: Wavelengths
Number of Pixels in Spectrum: 2048
>>>>>Begin Spectral Data<<<<<
223.165	-12.12
223.4	-12.12
223.635	-12.12
223.869	-20.12
224.104	-26.12
224.338	-10.12
224.573	-18.12
224.808	-1.12
225.042	-14.12
225.277	-28.12
225.511	0.88
225.746	8.88
225.98	9.88
226.215	8.88
226.449	12.88
226.683	20.88
226.918	33.88
227.152	33.88
227.387	21.88
227.621	23.88
227.856	31.88
228.09	44.88
228.324	42.88
228.559	31.88
228.793	64.88
229.027	79.88
229.262	106.88
229.496	119.88
229.73	116.88
229.964	138.88
230.199	112.88
230.433	96.88
230.667	118.88
230.901	113.88
231.136	107.88
231.37	99.88
231.604	107.88
231.838	98.88
232.072	103.88
232.306	115.88
232.541	124.88
232.775	105.88
233.009	111.88
233.243	101.88
233.477	107.88
233.711	105.88
233.945	97.88
234.179	95.88
234.413	111.88
234.647	111.88
234.881	111.88
235.115	102.88
235.349	102.88
235.583	102.88
235.817	116.88
236.051	129.88
236.285	119.88
236.519	118.88
236.753	115.88
236.987	147.88
237.221	167.88
237.455	205.88
237.689	184.88
237.922	140.88
238.156	119.88
238.39	121.88
238.624	131.88
238.858	116.88
239.091	119.88
239.325	109.88
239.559	119.88
239.793	123.88
240.027	133.88
240.26	139.88
240.494	151.88
240.728	143.88
240.961	133.88
241.195	135.88
241.429	132.88
241.662	107.88
241.896	121.88
242.13	129.88
242.363	130.88
242.597	123.88
242.83	125.88
243.064	124.88
243.298	133.88
243.531	119.88
243.765	118.88
243.998	112.88
244.232	131.88
244.465	131.88
244.699	135.88
244.932	131.88
245.166	137.88
245.399	116.88
245.633	131.88
245.866	145.88
246.099	113.88
246.333	134.88
246.566	121.88
246.8	152.88
247.033	144.88
247.266	150.88
247.5	139.88
247.733	151.88
247.966	160.88
248.2	156.88
248.433	165.88
248.666	161.88
248.899	176.88
249.133	173.88
249.366	187.88
249.599	173.88
249.832	161.88
250.066	163.88
250.299	177.88
250.532	165.88
250.765	185.88
250.998	214.88
251.231	191.88
251.465	186.88
251.698	192.88
251.931	194.88
252.164	172.88
252.397	172.88
252.63	185.88
252.863	189.88
253.096	194.88
253.329	205.88
253.562	207.88
253.795	199.88
254.028	201.88
254.261	182.88
254.494	221.88
254.727	233.88
254.96	259.88
255.193	244.88
255.426	218.88
255.659	223.88
255.892	207.88
256.124	227.88
256.357	197.88
256.59	192.88
256.823	190.88
257.056	188.88
257.289	185.88
257.521	181.88
257.754	200.88
257.987	166.88
258.22	212.88
258.452	193.88
258.685	189.88
258.918	198.88
259.151	182.88
259.383	184.88
259.616	196.88
259.849	192.88
260.081	194.88
260.314	222.88
260.547	246.88
260.779	222.88
261.012	214.88
261.244	198.88
261.477	190.88
261.71	175.88
261.942	210.88
262.175	210.88
262.407	209.88
262.64	181.88
262.872	189.88
263.105	201.88
263.337	185.88
263.57	178.88
263.802	198.88
264.035	198.88
264.267	196.88
264.499	196.88
264.732	184.88
264.964	191.88
265.197	191.88
265.429	189.88
265.661	185.88
265.894	204.88
266.126	197.88
266.358	203.88
266.591	198.88
266.823	213.88
267.055	185.88
267.287	217.88
267.52	200.88
267.752	195.88
267.984	199.88
268.216	194.88
268.448	215.88
268.681	207.88
268.913	207.88
269.145	236.88
269.377	243.88
269.609	234.88
269.841	237.88
270.073	241.88
270.306	248.88
270.538	279.88
270.77	276.88
271.002	282.88
271.234	272.88
271.466	272.88
271.698	273.88
271.93	273.88
272.162	277.88
272.394	296.88
272.626	269.88
272.858	248.88
273.09	257.88
273.322	240.88
273.553	233.88
273.785	235.88
274.017	242.88
274.249	230.88
274.481	229.88
274.713	250.88
274.945	230.88
275.176	225.88
275.408	247.88
275.64	242.88
275.872	241.88
276.104	228.88
276.335	234.88
276.567	252.88
276.799	247.88
277.031	263.88
277.262	254.88
277.494	295.88
277.726	262.88
277.957	252.88
278.189	266.88
278.421	245.88
278.652	245.88
278.884	252.88
279.115	228.88
279.347	252.88
279.579	239.88
279.81	245.88
280.042	221.88
280.273	202.88
280.505	231.88
280.736	215.88
280.968	234.88
281.199	219.88
281.431	223.88
281.662	229.88
281.894	247.88
282.125	220.88
282.356	248.88
282.588	257.88
282.819	269.88
283.051	254.88
283.282	245.88
283.513	245.88
283.745	248.88
283.976	237.88
284.207	264.88
284.439	267.88
284.67	259.88
284.901	252.88
285.132	242.88
285.364	239.88
285.595	250.88
285.826	231.88
286.057	253.88
286.288	249.88
286.52	252.88
286.751	228.88
286.982	234.88
287.213	245.88
287.444	254.88
287.675	259.88
287.906	281.88
288.138	266.88
288.369	258.88
288.6	288.88
288.831	245.88
289.062	274.88
289.293	266.88
289.524	241.88
289.755	250.88
289.986	241.88
290.217	251.88
290.448	259.88
290.679	253.88
290.91	247.88
291.141	239.88
291.371	233.88
291.602	242.88
291.833	251.88
292.064	251.88
292.295	248.88
292.526	263.88
292.757	250.88
292.987	223.88
293.218	255.88
293.449	269.88
293.68	258.88
293.91	242.88
294.141	237.88
294.372	248.88
294.603	252.88
294.833	257.88
295.064	260.88
295.295	280.88
295.525	248.88
295.756	261.88
295.987	250.88
296.217	279.88
296.448	284.88
296.679	259.88
296.909	253.88
297.14	251.88
297.37	265.88
297.601	269.88
297.831	268.88
298.062	265.88
298.292	251.88
298.523	256.88
298.753	265.88
298.984	264.88
299.214	253.88
299.445	268.88
299.675	267.88
299.905	275.88
300.136	275.88
300.366	278.88
300.597	279.88
300.827	279.88
301.057	284.88
301.288	304.88
301.518	291.88
301.748	267.88
301.979	263.88
302.209	275.88
302.439	293.88
302.669	295.88
302.9	270.88
303.13	285.88
303.36	283.88
303.59	306.88
303.82	288.88
304.051	287.88
304.281	291.88
304.511	282.88
304.741	284.88
304.971	284.88
305.201	293.88
305.431	282.88
305.661	296.88
305.891	269.88
306.121	280.88
306.352	300.88
306.582	304.88
306.812	283.88
307.042	285.88
307.272	293.88
307.502	297.88
307.731	291.88
307.961	308.88
308.191	311.88
308.421	296.88
308.651	277.88
308.881	308.88
309.111	312.88
309.341	311.88
309.571	315.88
309.8	326.88
310.03	339.88
310.26	343.88
310.49	329.88
310.72	330.88
310.949	346.88
311.179	351.88
311.409	325.88
311.639	343.88
311.868	347.88
312.098	319.88
312.328	337.88
312.557	340.88
312.787	373.88
313.017	376.88
313.246	337.88
313.476	332.88
313.706	334.88
313.935	332.88
314.165	345.88
314.394	343.88
314.624	356.88
314.853	344.88
315.083	330.88
315.312	324.88
315.542	344.88
315.771	315.88
316.001	328.88
316.23	331.88
316.46	333.88
316.689	329.88
316.919	334.88
317.148	348.88
317.377	337.88
317.607	342.88
317.836	347.88
318.065	353.88
318.295	343.88
318.524	333.88
318.753	328.88
318.983	326.88
319.212	331.88
319.441	354.88
319.67	348.88
319.9	339.88
320.129	341.88
320.358	316.88
320.587	321.88
320.816	348.88
321.046	379.88
321.275	354.88
321.504	349.88
321.733	341.88
321.962	365.88
322.191	386.88
322.42	387.88
322.649	399.88
322.878	418.88
323.108	419.88
323.337	425.88
323.566	469.88
323.795	495.88
324.024	549.88
324.253	677.88
324.482	1008.88
324.71	1515.88
324.939	2045.88
325.168	1704.88
325.397	916.88
325.626	621.88
325.855	513.88
326.084	475.88
326.313	468.88
326.542	473.88
326.77	517.88
326.999	635.88
327.228	868.88
327.457	1323.88
327.686	1538.88
327.914	1032.88
328.143	700.88
328.372	587.88
328.6	563.88
328.829	513.88
329.058	556.88
329.287	546.88
329.515	524.88
329.744	472.88
329.972	470.88
330.201	495.88
330.43	531.88
330.658	541.88
330.887	590.88
331.115	545.88
331.344	482.88
331.572	469.88
331.801	447.88
332.03	446.88
332.258	414.88
332.486	400.88
332.715	389.88
332.943	389.88
333.172	402.88
333.4	410.88
333.629	400.88
333.857	409.88
334.085	435.88
334.314	463.88
334.542	464.88
334.771	507.88
334.999	458.88
335.227	408.88
335.455	410.88
335.684	372.88
335.912	405.88
336.14	374.88
336.369	388.88
336.597	408.88
336.825	407.88
337.053	391.88
337.281	385.88
337.51	377.88
337.738	379.88
337.966	380.88
338.194	381.88
338.422	387.88
338.65	378.88
338.878	380.88
339.106	377.88
339.334	365.88
339.562	379.88
339.79	389.88
340.018	374.88
340.246	380.88
340.474	386.88
340.702	380.88
340.93	358.88
341.158	375.88
341.386	371.88
341.614	363.88
341.842	375.88
342.07	359.88
342.298	368.88
342.526	362.88
342.754	362.88
342.981	353.88
343.209	352.88
343.437	368.88
343.665	375.88
343.893	374.88
344.12	364.88
344.348	381.88
344.576	363.88
344.804	396.88
345.031	390.88
345.259	415.88
345.487	399.88
345.714	391.88
345.942	377.88
346.17	362.88
346.397	361.88
346.625	355.88
346.853	363.88
347.08	360.88
347.308	357.88
347.535	379.88
347.763	382.88
347.99	391.88
348.218	387.88
348.445	376.88
348.673	388.88
348.9	383.88
349.128	369.88
349.355	358.88
349.583	350.88
349.81	346.88
350.037	356.88
350.265	345.88
350.492	345.88
350.72	341.88
350.947	374.88
351.174	374.88
351.402	390.88
351.629	396.88
351.856	377.88
352.083	383.88
352.311	378.88
352.538	379.88
352.765	381.88
352.992	372.88
353.22	363.88
353.447	367.88
353.674	357.88
353.901	353.88
354.128	344.88
354.355	333.88
354.583	343.88
354.81	331.88
355.037	337.88
355.264	334.88
355.491	332.88
355.718	344.88
355.945	348.88
356.172	339.88
356.399	333.88
356.626	343.88
356.853	353.88
357.08	327.88
357.307	330.88
357.534	344.88
357.761	347.88
357.988	354.88
358.215	338.88
358.441	351.88
358.668	346.88
358.895	361.88
359.122	345.88
359.349	353.88
359.576	365.88
359.802	397.88
360.029	409.88
360.256	407.88
360.483	385.88
360.709	379.88
360.936	377.88
361.163	355.88
361.39	377.88
361.616	357.88
361.843	367.88
362.07	373.88
362.296	359.88
362.523	374.88
362.749	362.88
362.976	362.88
363.203	380.88
363.429	362.88
363.656	357.88
363.882	338.88
364.109	341.88
364.335	331.88
364.562	346.88
364.788	368.88
365.015	354.88
365.241	359.88
365.468	367.88
365.694	369.88
365.92	374.88
366.147	360.88
366.373	355.88
366.599	353.88
366.826	334.88
367.052	338.88
367.278	336.88
367.505	335.88
367.731	370.88
367.957	360.88
368.184	347.88
368.41	379.88
368.636	360.88
368.862	347.88
369.089	381.88
369.315	352.88
369.541	345.88
369.767	354.88
369.993	363.88
370.219	344.88
370.445	337.88
370.672	367.88
370.898	343.88
371.124	345.88
371.35	342.88
371.576	353.88
371.802	357.88
372.028	352.88
372.254	343.88
372.48	353.88
372.706	336.88
372.932	331.88
373.158	343.88
373.384	310.88
373.61	351.88
373.835	347.88
374.061	352.88
374.287	357.88
374.513	368.88
374.739	354.88
374.965	345.88
375.191	349.88
375.416	336.88
375.642	359.88
375.868	340.88
376.094	337.88
376.319	327.88
376.545	351.88
376.771	335.88
376.997	327.88
377.222	335.88
377.448	341.88
377.674	359.88
377.899	316.88
378.125	325.88
378.35	341.88
378.576	342.88
378.802	339.88
379.027	332.88
379.253	328.88
379.478	330.88
379.704	346.88
379.929	347.88
380.155	346.88
380.38	333.88
380.606	323.88
380.831	347.88
381.057	350.88
381.282	334.88
381.507	328.88
381.733	353.88
381.958	350.88
382.184	350.88
382.409	332.88
382.634	345.88
382.86	339.88
383.085	350.88
383.31	352.88
383.535	356.88
383.761	343.88
383.986	365.88
384.211	342.88
384.436	358.88
384.662	343.88
384.887	340.88
385.112	335.88
385.337	367.88
385.562	373.88
385.787	360.88
386.013	364.88
386.238	388.88
386.463	355.88
386.688	371.88
386.913	349.88
387.138	362.88
387.363	367.88
387.588	363.88
387.813	365.88
388.038	345.88
388.263	354.88
388.488	360.88
388.713	364.88
388.938	387.88
389.163	370.88
389.387	378.88
389.612	347.88
389.837	370.88
390.062	356.88
390.287	369.88
390.512	377.88
390.736	373.88
390.961	347.88
391.186	356.88
391.411	367.88
391.636	377.88
391.86	361.88
392.085	391.88
392.31	370.88
392.534	371.88
392.759	361.88
392.984	372.88
393.208	369.88
393.433	352.88
393.658	365.88
393.882	359.88
394.107	352.88
394.331	376.88
394.556	358.88
394.78	362.88
395.005	380.88
395.229	371.88
395.454	379.88
395.678	369.88
395.903	396.88
396.127	379.88
396.352	397.88
396.576	378.88
396.801	378.88
397.025	374.88
397.249	390.88
397.474	391.88
397.698	375.88
397.922	406.88
398.147	396.88
398.371	409.88
398.595	405.88
398.82	416.88
399.044	428.88
399.268	417.88
399.492	447.88
399.717	450.88
399.941	466.88
400.165	517.88
400.389	503.88
400.613	479.88
400.837	452.88
401.062	427.88
401.286	423.88
401.51	416.88
401.734	405.88
401.958	427.88
402.182	421.88
402.406	412.88
402.63	444.88
402.854	423.88
403.078	415.88
403.302	426.88
403.526	443.88
403.75	428.88
403.974	424.88
404.198	437.88
404.422	427.88
404.645	463.88
404.869	440.88
405.093	453.88
405.317	498.88
405.541	533.88
405.765	488.88
405.988	464.88
406.212	455.88
406.436	488.88
406.66	497.88
406.883	471.88
407.107	447.88
407.331	537.88
407.555	547.88
407.778	552.88
408.002	512.88
408.226	488.88
408.449	459.88
408.673	465.88
408.896	485.88
409.12	506.88
409.344	496.88
409.567	469.88
409.791	457.88
410.014	431.88
410.238	422.88
410.461	443.88
410.685	440.88
410.908	453.88
411.132	471.88
411.355	495.88
411.578	466.88
411.802	439.88
412.025	424.88
412.249	454.88
412.472	472.88
412.695	482.88
412.919	471.88
413.142	435.88
413.365	435.88
413.589	428.88
413.812	415.88
414.035	389.88
414.258	405.88
414.482	396.88
414.705	393.88
414.928	411.88
415.151	402.88
415.374	396.88
415.597	388.88
415.821	388.88
416.044	415.88
416.267	399.88
416.49	387.88
416.713	388.88
416.936	388.88
417.159	409.88
417.382	397.88
417.605	416.88
417.828	415.88
418.051	409.88
418.274	409.88
418.497	408.88
418.72	408.88
418.943	398.88
419.166	409.88
419.389	441.88
419.611	434.88
419.834	450.88
420.057	449.88
420.28	435.88
420.503	427.88
420.726	431.88
420.948	441.88
421.171	489.88
421.394	497.88
421.617	462.88
421.839	449.88
422.062	444.88
422.285	413.88
422.507	484.88
422.73	555.88
422.953	524.88
423.175	473.88
423.398	451.88
423.621	446.88
423.843	464.88
424.066	467.88
424.288	483.88
424.511	456.88
424.733	537.88
424.956	596.88
425.178	567.88
425.401	578.88
425.623	579.88
425.846	515.88
426.068	500.88
426.291	473.88
426.513	462.88
426.735	489.88
426.958	516.88
427.18	590.88
427.402	677.88
427.625	754.88
427.847	681.88
428.069	568.88
428.292	509.88
428.514	473.88
428.736	438.88
428.958	457.88
429.181	427.88
429.403	434.88
429.625	440.88
429.847	465.88
430.069	511.88
430.292	516.88
430.514	442.88
430.736	416.88
430.958	423.88
431.18	416.88
431.402	406.88
431.624	401.88
431.846	415.88
432.068	393.88
432.29	414.88
432.512	419.88
432.734	399.88
432.956	403.88
433.178	450.88
433.4	417.88
433.622	405.88
433.844	402.88
434.066	406.88
434.287	410.88
434.509	415.88
434.731	411.88
434.953	433.88
435.175	415.88
435.397	460.88
435.618	484.88
435.84	495.88
436.062	611.88
436.284	641.88
436.505	561.88
436.727	497.88
436.949	433.88
437.17	432.88
437.392	451.88
437.614	445.88
437.835	474.88
438.057	565.88
438.278	639.88
438.5	663.88
438.721	696.88
438.943	669.88
439.165	544.88
439.386	500.88
439.608	476.88
439.829	489.88
440.05	516.88
440.272	542.88
440.493	500.88
440.715	455.88
440.936	447.88
441.158	437.88
441.379	456.88
441.6	457.88
441.822	452.88
442.043	492.88
442.264	581.88
442.486	598.88
442.707	520.88
442.928	491.88
443.149	501.88
443.371	525.88
443.592	579.88
443.813	640.88
444.034	630.88
444.255	549.88
444.476	486.88
444.698	467.88
444.919	466.88
445.14	596.88
445.361	550.88
445.582	522.88
445.803	566.88
446.024	643.88
446.245	655.88
446.466	563.88
446.687	511.88
446.908	475.88
447.129	445.88
447.35	425.88
447.571	449.88
447.792	450.88
448.013	424.88
448.234	464.88
448.455	502.88
448.675	592.88
448.896	668.88
449.117	594.88
449.338	547.88
449.559	650.88
449.779	730.88
450	582.88
450.221	482.88
450.442	469.88
450.662	447.88
450.883	425.88
451.104	443.88
451.324	454.88
451.545	426.88
451.766	397.88
451.986	402.88
452.207	381.88
452.428	412.88
452.648	389.88
452.869	413.88
453.089	407.88
453.31	427.88
453.53	408.88
453.751	386.88
453.971	397.88
454.192	434.88
454.412	410.88
454.633	385.88
454.853	395.88
455.073	395.88
455.294	404.88
455.514	473.88
455.734	456.88
455.955	401.88
456.175	374.88
456.395	379.88
456.616	371.88
456.836	376.88
457.056	357.88
457.276	377.88
457.497	374.88
457.717	381.88
457.937	365.88
458.157	374.88
458.377	395.88
458.598	416.88
458.818	484.88
459.038	527.88
459.258	539.88
459.478	460.88
459.698	429.88
459.918	407.88
460.138	407.88
460.358	382.88
460.578	403.88
460.798	409.88
461.018	405.88
461.238	401.88
461.458	419.88
461.678	404.88
461.898	405.88
462.118	406.88
462.338	413.88
462.558	405.88
462.777	405.88
462.997	421.88
463.217	442.88
463.437	441.88
463.657	400.88
463.876	431.88
464.096	422.88
464.316	436.88
464.536	437.88
464.755	451.88
464.975	447.88
465.195	509.88
465.414	583.88
465.634	493.88
465.854	427.88
466.073	426.88
466.293	404.88
466.512	396.88
466.732	391.88
466.951	396.88
467.171	399.88
467.391	401.88
467.61	421.88
467.829	424.88
468.049	423.88
468.268	422.88
468.488	415.88
468.707	394.88
468.927	389.88
469.146	406.88
469.365	393.88
469.585	387.88
469.804	395.88
470.023	409.88
470.243	417.88
470.462	411.88
470.681	433.88
470.901	426.88
471.12	420.88
471.339	417.88
471.558	408.88
471.777	413.88
471.997	411.88
472.216	415.88
472.435	447.88
472.654	435.88
472.873	419.88
473.092	420.88
473.311	402.88
473.53	402.88
473.749	410.88
473.968	476.88
474.187	542.88
474.406	561.88
474.625	459.88
474.844	428.88
475.063	413.88
475.282	397.88
475.501	407.88
475.72	436.88
475.939	401.88
476.158	398.88
476.377	403.88
476.596	418.88
476.814	427.88
477.033	431.88
477.252	447.88
477.471	420.88
477.69	440.88
477.908	427.88
478.127	440.88
478.346	424.88
478.564	437.88
478.783	441.88
479.002	480.88
479.22	450.88
479.439	489.88
479.658	484.88
479.876	500.88
480.095	510.88
480.313	519.88
480.532	514.88
480.751	490.88
480.969	515.88
481.188	583.88
481.406	621.88
481.624	552.88
481.843	501.88
482.061	500.88
482.28	459.88
482.498	503.88
482.717	479.88
482.935	468.88
483.153	464.88
483.372	455.88
483.59	464.88
483.808	462.88
484.027	474.88
484.245	480.88
484.463	459.88
484.681	488.88
484.9	483.88
485.118	490.88
485.336	495.88
485.554	515.88
485.772	484.88
485.99	498.88
486.209	499.88
486.427	488.88
486.645	489.88
486.863	521.88
487.081	507.88
487.299	515.88
487.517	508.88
487.735	523.88
487.953	511.88
488.171	514.88
488.389	528.88
488.607	521.88
488.825	525.88
489.043	475.88
489.261	509.88
489.479	539.88
489.696	536.88
489.914	520.88
490.132	533.88
490.35	548.88
490.568	538.88
490.786	536.88
491.003	574.88
491.221	563.88
491.439	571.88
491.657	589.88
491.874	583.88
492.092	589.88
492.31	579.88
492.527	599.88
492.745	578.88
492.963	604.88
493.18	615.88
493.398	597.88
493.615	621.88
493.833	628.88
494.05	590.88
494.268	617.88
494.485	616.88
494.703	596.88
494.92	607.88
495.138	605.88
495.355	608.88
495.573	603.88
495.79	617.88
496.008	583.88
496.225	612.88
496.442	608.88
496.66	631.88
496.877	626.88
497.094	606.88
497.312	595.88
497.529	644.88
497.746	650.88
497.963	654.88
498.181	685.88
498.398	637.88
498.615	631.88
498.832	645.88
499.049	662.88
499.267	669.88
499.484	700.88
499.701	695.88
499.918	732.88
500.135	735.88
500.352	740.88
500.569	767.88
500.786	779.88
501.003	772.88
501.22	748.88
501.437	742.88
501.654	723.88
501.871	731.88
502.088	699.88
