Data from 1965.PennyLincolnUp.Lamp.En5.5.200Scan.071719.P1._HRD10591_14-09-51-912.txt Node
Date: Thu Jul 18 14:09:51 EDT 2019
User: cochatt
Spectrometer: HR+D1059
Trigger mode: 1
Integration Time (sec): 1.000000E-1
Scans to average: 1
Electric dark correction enabled: true
Nonlinearity correction enabled: false
Boxcar width: 0
XAxis mode: Wavelengths
Number of Pixels in Spectrum: 2048
>>>>>Begin Spectral Data<<<<<
223.165	-24.81
223.4	-24.81
223.635	-24.81
223.869	-21.81
224.104	-4.81
224.338	-9.81
224.573	5.19
224.808	-18.81
225.042	-7.81
225.277	-6.81
225.511	-6.81
225.746	-1.81
225.98	0.19
226.215	7.19
226.449	21.19
226.683	15.19
226.918	28.19
227.152	26.19
227.387	32.19
227.621	40.19
227.856	61.19
228.09	60.19
228.324	51.19
228.559	44.19
228.793	67.19
229.027	88.19
229.262	107.19
229.496	103.19
229.73	116.19
229.964	138.19
230.199	132.19
230.433	109.19
230.667	93.19
230.901	129.19
231.136	114.19
231.37	100.19
231.604	111.19
231.838	103.19
232.072	107.19
232.306	105.19
232.541	99.19
232.775	100.19
233.009	109.19
233.243	108.19
233.477	97.19
233.711	126.19
233.945	108.19
234.179	109.19
234.413	108.19
234.647	127.19
234.881	105.19
235.115	104.19
235.349	133.19
235.583	129.19
235.817	112.19
236.051	122.19
236.285	126.19
236.519	117.19
236.753	139.19
236.987	132.19
237.221	168.19
237.455	208.19
237.689	176.19
237.922	134.19
238.156	128.19
238.39	116.19
238.624	111.19
238.858	120.19
239.091	113.19
239.325	122.19
239.559	116.19
239.793	136.19
240.027	119.19
240.26	154.19
240.494	135.19
240.728	143.19
240.961	129.19
241.195	127.19
241.429	132.19
241.662	123.19
241.896	132.19
242.13	120.19
242.363	115.19
242.597	128.19
242.83	124.19
243.064	118.19
243.298	138.19
243.531	129.19
243.765	133.19
243.998	130.19
244.232	128.19
244.465	129.19
244.699	136.19
244.932	132.19
245.166	130.19
245.399	135.19
245.633	128.19
245.866	142.19
246.099	143.19
246.333	139.19
246.566	141.19
246.8	144.19
247.033	136.19
247.266	144.19
247.5	146.19
247.733	158.19
247.966	158.19
248.2	163.19
248.433	156.19
248.666	158.19
248.899	162.19
249.133	179.19
249.366	184.19
249.599	191.19
249.832	170.19
250.066	162.19
250.299	157.19
250.532	181.19
250.765	193.19
250.998	215.19
251.231	211.19
251.465	189.19
251.698	189.19
251.931	184.19
252.164	177.19
252.397	173.19
252.63	181.19
252.863	183.19
253.096	204.19
253.329	202.19
253.562	205.19
253.795	188.19
254.028	208.19
254.261	199.19
254.494	205.19
254.727	221.19
254.96	257.19
255.193	254.19
255.426	224.19
255.659	220.19
255.892	209.19
256.124	209.19
256.357	233.19
256.59	215.19
256.823	208.19
257.056	197.19
257.289	192.19
257.521	196.19
257.754	205.19
257.987	205.19
258.22	197.19
258.452	196.19
258.685	193.19
258.918	188.19
259.151	190.19
259.383	187.19
259.616	203.19
259.849	203.19
260.081	210.19
260.314	230.19
260.547	237.19
260.779	226.19
261.012	218.19
261.244	207.19
261.477	204.19
261.71	229.19
261.942	204.19
262.175	219.19
262.407	205.19
262.64	182.19
262.872	196.19
263.105	191.19
263.337	187.19
263.57	189.19
263.802	191.19
264.035	188.19
264.267	182.19
264.499	191.19
264.732	204.19
264.964	187.19
265.197	197.19
265.429	183.19
265.661	182.19
265.894	206.19
266.126	192.19
266.358	187.19
266.591	196.19
266.823	191.19
267.055	206.19
267.287	212.19
267.52	187.19
267.752	191.19
267.984	219.19
268.216	214.19
268.448	195.19
268.681	196.19
268.913	205.19
269.145	248.19
269.377	268.19
269.609	243.19
269.841	238.19
270.073	238.19
270.306	264.19
270.538	286.19
270.77	284.19
271.002	264.19
271.234	271.19
271.466	269.19
271.698	258.19
271.93	285.19
272.162	269.19
272.394	300.19
272.626	273.19
272.858	255.19
273.09	246.19
273.322	247.19
273.553	232.19
273.785	244.19
274.017	223.19
274.249	243.19
274.481	247.19
274.713	240.19
274.945	249.19
275.176	246.19
275.408	234.19
275.64	226.19
275.872	238.19
276.104	224.19
276.335	240.19
276.567	238.19
276.799	272.19
277.031	288.19
277.262	301.19
277.494	280.19
277.726	275.19
277.957	262.19
278.189	264.19
278.421	238.19
278.652	231.19
278.884	237.19
279.115	253.19
279.347	225.19
279.579	224.19
279.81	233.19
280.042	224.19
280.273	247.19
280.505	230.19
280.736	246.19
280.968	228.19
281.199	234.19
281.431	244.19
281.662	231.19
281.894	239.19
282.125	243.19
282.356	262.19
282.588	276.19
282.819	262.19
283.051	247.19
283.282	226.19
283.513	244.19
283.745	240.19
283.976	244.19
284.207	246.19
284.439	238.19
284.67	260.19
284.901	237.19
285.132	251.19
285.364	231.19
285.595	254.19
285.826	236.19
286.057	246.19
286.288	236.19
286.52	240.19
286.751	238.19
286.982	239.19
287.213	246.19
287.444	247.19
287.675	261.19
287.906	267.19
288.138	261.19
288.369	260.19
288.6	264.19
288.831	252.19
289.062	235.19
289.293	256.19
289.524	240.19
289.755	250.19
289.986	244.19
290.217	240.19
290.448	256.19
290.679	258.19
290.91	267.19
291.141	252.19
291.371	256.19
291.602	260.19
291.833	257.19
292.064	247.19
292.295	264.19
292.526	260.19
292.757	251.19
292.987	257.19
293.218	246.19
293.449	267.19
293.68	246.19
293.91	241.19
294.141	239.19
294.372	252.19
294.603	263.19
294.833	252.19
295.064	260.19
295.295	262.19
295.525	268.19
295.756	256.19
295.987	270.19
296.217	287.19
296.448	285.19
296.679	271.19
296.909	260.19
297.14	252.19
297.37	263.19
297.601	260.19
297.831	264.19
298.062	273.19
298.292	246.19
298.523	261.19
298.753	292.19
298.984	260.19
299.214	260.19
299.445	280.19
299.675	248.19
299.905	273.19
300.136	286.19
300.366	277.19
300.597	252.19
300.827	279.19
301.057	286.19
301.288	284.19
301.518	293.19
301.748	282.19
301.979	284.19
302.209	301.19
302.439	286.19
302.669	290.19
302.9	290.19
303.13	281.19
303.36	282.19
303.59	303.19
303.82	268.19
304.051	308.19
304.281	286.19
304.511	290.19
304.741	291.19
304.971	286.19
305.201	281.19
305.431	267.19
305.661	269.19
305.891	288.19
306.121	279.19
306.352	291.19
306.582	309.19
306.812	303.19
307.042	279.19
307.272	286.19
307.502	298.19
307.731	297.19
307.961	294.19
308.191	305.19
308.421	304.19
308.651	297.19
308.881	315.19
309.111	308.19
309.341	311.19
309.571	318.19
309.8	316.19
310.03	322.19
310.26	342.19
310.49	326.19
310.72	334.19
310.949	359.19
311.179	377.19
311.409	336.19
311.639	361.19
311.868	328.19
312.098	326.19
312.328	336.19
312.557	354.19
312.787	380.19
313.017	376.19
313.246	354.19
313.476	332.19
313.706	346.19
313.935	344.19
314.165	349.19
314.394	342.19
314.624	359.19
314.853	349.19
315.083	323.19
315.312	343.19
315.542	322.19
315.771	332.19
316.001	308.19
316.23	327.19
316.46	328.19
316.689	335.19
316.919	357.19
317.148	325.19
317.377	345.19
317.607	355.19
317.836	354.19
318.065	351.19
318.295	334.19
318.524	340.19
318.753	320.19
318.983	335.19
319.212	329.19
319.441	355.19
319.67	354.19
319.9	350.19
320.129	343.19
320.358	335.19
320.587	353.19
320.816	359.19
321.046	342.19
321.275	354.19
321.504	354.19
321.733	369.19
321.962	364.19
322.191	382.19
322.42	384.19
322.649	400.19
322.878	419.19
323.108	415.19
323.337	445.19
323.566	471.19
323.795	517.19
324.024	550.19
324.253	700.19
324.482	1012.19
324.71	1581.19
324.939	2134.19
325.168	1754.19
325.397	926.19
325.626	631.19
325.855	534.19
326.084	493.19
326.313	451.19
326.542	485.19
326.77	534.19
326.999	634.19
327.228	921.19
327.457	1320.19
327.686	1546.19
327.914	1043.19
328.143	700.19
328.372	618.19
328.6	556.19
328.829	536.19
329.058	560.19
329.287	585.19
329.515	529.19
329.744	490.19
329.972	458.19
330.201	493.19
330.43	556.19
330.658	584.19
330.887	602.19
331.115	574.19
331.344	471.19
331.572	452.19
331.801	441.19
332.03	437.19
332.258	434.19
332.486	408.19
332.715	411.19
332.943	401.19
333.172	394.19
333.4	398.19
333.629	418.19
333.857	441.19
334.085	428.19
334.314	479.19
334.542	490.19
334.771	514.19
334.999	458.19
335.227	428.19
335.455	407.19
335.684	394.19
335.912	407.19
336.14	394.19
336.369	395.19
336.597	394.19
336.825	408.19
337.053	396.19
337.281	397.19
337.51	388.19
337.738	382.19
337.966	392.19
338.194	392.19
338.422	406.19
338.65	382.19
338.878	391.19
339.106	374.19
339.334	370.19
339.562	372.19
339.79	378.19
340.018	395.19
340.246	376.19
340.474	380.19
340.702	369.19
340.93	372.19
341.158	370.19
341.386	380.19
341.614	388.19
341.842	382.19
342.07	361.19
342.298	382.19
342.526	380.19
342.754	368.19
342.981	368.19
343.209	347.19
343.437	366.19
343.665	376.19
343.893	383.19
344.12	385.19
344.348	377.19
344.576	365.19
344.804	364.19
345.031	400.19
345.259	428.19
345.487	392.19
345.714	371.19
345.942	357.19
346.17	360.19
346.397	366.19
346.625	388.19
346.853	366.19
347.08	352.19
347.308	392.19
347.535	398.19
347.763	365.19
347.99	380.19
348.218	384.19
348.445	375.19
348.673	398.19
348.9	386.19
349.128	384.19
349.355	360.19
349.583	357.19
349.81	367.19
350.037	363.19
350.265	349.19
350.492	350.19
350.72	366.19
350.947	357.19
351.174	376.19
351.402	385.19
351.629	381.19
351.856	374.19
352.083	376.19
352.311	395.19
352.538	379.19
352.765	378.19
352.992	392.19
353.22	362.19
353.447	363.19
353.674	363.19
353.901	345.19
354.128	354.19
354.355	348.19
354.583	347.19
354.81	354.19
355.037	350.19
355.264	353.19
355.491	357.19
355.718	336.19
355.945	348.19
356.172	325.19
356.399	337.19
356.626	349.19
356.853	346.19
357.08	337.19
357.307	337.19
357.534	330.19
357.761	340.19
357.988	330.19
358.215	342.19
358.441	341.19
358.668	361.19
358.895	338.19
359.122	370.19
359.349	351.19
359.576	362.19
359.802	399.19
360.029	420.19
360.256	423.19
360.483	409.19
360.709	366.19
360.936	367.19
361.163	364.19
361.39	364.19
361.616	373.19
361.843	390.19
362.07	377.19
362.296	377.19
362.523	367.19
362.749	348.19
362.976	365.19
363.203	353.19
363.429	353.19
363.656	344.19
363.882	360.19
364.109	343.19
364.335	349.19
364.562	365.19
364.788	338.19
365.015	339.19
365.241	364.19
365.468	379.19
365.694	353.19
365.92	352.19
366.147	328.19
366.373	334.19
366.599	343.19
366.826	368.19
367.052	343.19
367.278	345.19
367.505	373.19
367.731	374.19
367.957	349.19
368.184	363.19
368.41	374.19
368.636	353.19
368.862	360.19
369.089	362.19
369.315	348.19
369.541	344.19
369.767	343.19
369.993	364.19
370.219	337.19
370.445	346.19
370.672	348.19
370.898	342.19
371.124	334.19
371.35	349.19
371.576	345.19
371.802	351.19
372.028	335.19
372.254	345.19
372.48	351.19
372.706	333.19
372.932	333.19
373.158	319.19
373.384	352.19
373.61	333.19
373.835	342.19
374.061	348.19
374.287	361.19
374.513	340.19
374.739	342.19
374.965	347.19
375.191	357.19
375.416	355.19
375.642	336.19
375.868	350.19
376.094	345.19
376.319	342.19
376.545	332.19
376.771	343.19
376.997	354.19
377.222	339.19
377.448	337.19
377.674	339.19
377.899	331.19
378.125	332.19
378.35	325.19
378.576	332.19
378.802	328.19
379.027	324.19
379.253	320.19
379.478	333.19
379.704	336.19
379.929	328.19
380.155	357.19
380.38	343.19
380.606	360.19
380.831	349.19
381.057	324.19
381.282	338.19
381.507	355.19
381.733	330.19
381.958	344.19
382.184	353.19
382.409	354.19
382.634	368.19
382.86	360.19
383.085	338.19
383.31	352.19
383.535	340.19
383.761	353.19
383.986	353.19
384.211	367.19
384.436	353.19
384.662	360.19
384.887	350.19
385.112	344.19
385.337	356.19
385.562	347.19
385.787	358.19
386.013	372.19
386.238	365.19
386.463	383.19
386.688	357.19
386.913	348.19
387.138	356.19
387.363	343.19
387.588	342.19
387.813	370.19
388.038	351.19
388.263	342.19
388.488	350.19
388.713	365.19
388.938	344.19
389.163	364.19
389.387	375.19
389.612	348.19
389.837	364.19
390.062	375.19
390.287	384.19
390.512	371.19
390.736	362.19
390.961	367.19
391.186	356.19
391.411	364.19
391.636	368.19
391.86	384.19
392.085	360.19
392.31	374.19
392.534	363.19
392.759	370.19
392.984	367.19
393.208	362.19
393.433	350.19
393.658	366.19
393.882	380.19
394.107	374.19
394.331	367.19
394.556	354.19
394.78	358.19
395.005	389.19
395.229	365.19
395.454	376.19
395.678	388.19
395.903	393.19
396.127	396.19
396.352	380.19
396.576	408.19
396.801	364.19
397.025	367.19
397.249	364.19
397.474	392.19
397.698	376.19
397.922	393.19
398.147	416.19
398.371	416.19
398.595	395.19
398.82	420.19
399.044	410.19
399.268	421.19
399.492	456.19
399.717	458.19
399.941	465.19
400.165	480.19
400.389	490.19
400.613	472.19
400.837	438.19
401.062	426.19
401.286	438.19
401.51	409.19
401.734	454.19
401.958	447.19
402.182	412.19
402.406	432.19
402.63	434.19
402.854	429.19
403.078	445.19
403.302	442.19
403.526	444.19
403.75	430.19
403.974	420.19
404.198	403.19
404.422	444.19
404.645	430.19
404.869	454.19
405.093	477.19
405.317	494.19
405.541	526.19
405.765	488.19
405.988	470.19
406.212	476.19
406.436	494.19
406.66	502.19
406.883	481.19
407.107	470.19
407.331	530.19
407.555	560.19
407.778	576.19
408.002	514.19
408.226	502.19
408.449	474.19
408.673	463.19
408.896	482.19
409.12	547.19
409.344	476.19
409.567	441.19
409.791	436.19
410.014	413.19
410.238	438.19
410.461	448.19
410.685	422.19
410.908	446.19
411.132	493.19
411.355	490.19
411.578	472.19
411.802	448.19
412.025	448.19
412.249	445.19
412.472	456.19
412.695	493.19
412.919	465.19
413.142	440.19
413.365	425.19
413.589	428.19
413.812	400.19
414.035	416.19
414.258	397.19
414.482	410.19
414.705	406.19
414.928	401.19
415.151	398.19
415.374	405.19
415.597	404.19
415.821	398.19
416.044	401.19
416.267	411.19
416.49	410.19
416.713	405.19
416.936	394.19
417.159	397.19
417.382	419.19
417.605	392.19
417.828	423.19
418.051	431.19
418.274	398.19
418.497	414.19
418.72	388.19
418.943	414.19
419.166	422.19
419.389	418.19
419.611	426.19
419.834	427.19
420.057	421.19
420.28	403.19
420.503	413.19
420.726	421.19
420.948	453.19
421.171	479.19
421.394	520.19
421.617	438.19
421.839	425.19
422.062	426.19
422.285	439.19
422.507	492.19
422.73	549.19
422.953	527.19
423.175	470.19
423.398	454.19
423.621	429.19
423.843	474.19
424.066	467.19
424.288	450.19
424.511	500.19
424.733	531.19
424.956	575.19
425.178	549.19
425.401	545.19
425.623	565.19
425.846	508.19
426.068	450.19
426.291	447.19
426.513	477.19
426.735	463.19
426.958	506.19
427.18	571.19
427.402	688.19
427.625	756.19
427.847	696.19
428.069	586.19
428.292	514.19
428.514	438.19
428.736	448.19
428.958	436.19
429.181	415.19
429.403	428.19
429.625	442.19
429.847	460.19
430.069	514.19
430.292	508.19
430.514	476.19
430.736	448.19
430.958	412.19
431.18	418.19
431.402	423.19
431.624	394.19
431.846	384.19
432.068	392.19
432.29	393.19
432.512	412.19
432.734	401.19
432.956	388.19
433.178	417.19
433.4	426.19
433.622	421.19
433.844	422.19
434.066	407.19
434.287	418.19
434.509	412.19
434.731	419.19
434.953	402.19
435.175	453.19
435.397	468.19
435.618	473.19
435.84	516.19
436.062	580.19
436.284	655.19
436.505	548.19
436.727	486.19
436.949	456.19
437.17	438.19
437.392	432.19
437.614	468.19
437.835	489.19
438.057	576.19
438.278	654.19
438.5	649.19
438.721	668.19
438.943	678.19
439.165	538.19
439.386	491.19
439.608	500.19
439.829	467.19
440.05	493.19
440.272	530.19
440.493	498.19
440.715	441.19
440.936	447.19
441.158	432.19
441.379	445.19
441.6	452.19
441.822	468.19
442.043	516.19
442.264	571.19
442.486	602.19
442.707	502.19
442.928	490.19
443.149	485.19
443.371	515.19
443.592	534.19
443.813	596.19
444.034	634.19
444.255	548.19
444.476	488.19
444.698	478.19
444.919	465.19
445.14	578.19
445.361	529.19
445.582	500.19
445.803	577.19
446.024	668.19
446.245	666.19
446.466	604.19
446.687	506.19
446.908	472.19
447.129	449.19
447.35	455.19
447.571	446.19
447.792	423.19
448.013	465.19
448.234	470.19
448.455	529.19
448.675	600.19
448.896	658.19
449.117	587.19
449.338	572.19
449.559	642.19
449.779	706.19
450	591.19
450.221	481.19
450.442	444.19
450.662	448.19
450.883	437.19
451.104	460.19
451.324	454.19
451.545	422.19
451.766	408.19
451.986	417.19
452.207	411.19
452.428	395.19
452.648	388.19
452.869	393.19
453.089	433.19
453.31	419.19
453.53	391.19
453.751	397.19
453.971	410.19
454.192	422.19
454.412	414.19
454.633	415.19
454.853	385.19
455.073	400.19
455.294	418.19
455.514	489.19
455.734	482.19
455.955	407.19
456.175	391.19
456.395	368.19
456.616	388.19
456.836	359.19
457.056	324.19
457.276	362.19
457.497	387.19
457.717	375.19
457.937	376.19
458.157	384.19
458.377	379.19
458.598	401.19
458.818	457.19
459.038	551.19
459.258	552.19
459.478	483.19
459.698	421.19
459.918	416.19
460.138	412.19
460.358	418.19
460.578	426.19
460.798	417.19
461.018	428.19
461.238	402.19
461.458	404.19
461.678	397.19
461.898	396.19
462.118	390.19
462.338	412.19
462.558	424.19
462.777	420.19
462.997	410.19
463.217	434.19
463.437	414.19
463.657	420.19
463.876	427.19
464.096	416.19
464.316	424.19
464.536	445.19
464.755	441.19
464.975	446.19
465.195	501.19
465.414	594.19
465.634	486.19
465.854	424.19
466.073	436.19
466.293	410.19
466.512	399.19
466.732	384.19
466.951	415.19
467.171	384.19
467.391	428.19
467.61	416.19
467.829	422.19
468.049	421.19
468.268	413.19
468.488	397.19
468.707	375.19
468.927	367.19
469.146	401.19
469.365	390.19
469.585	401.19
469.804	401.19
470.023	416.19
470.243	409.19
470.462	408.19
470.681	422.19
470.901	436.19
471.12	416.19
471.339	379.19
471.558	412.19
471.777	404.19
471.997	406.19
472.216	407.19
472.435	439.19
472.654	447.19
472.873	403.19
473.092	425.19
473.311	409.19
473.53	396.19
473.749	420.19
473.968	471.19
474.187	531.19
474.406	550.19
474.625	452.19
474.844	440.19
475.063	409.19
475.282	416.19
475.501	406.19
475.72	424.19
475.939	416.19
476.158	431.19
476.377	434.19
476.596	402.19
476.814	430.19
477.033	431.19
477.252	403.19
477.471	431.19
477.69	433.19
477.908	427.19
478.127	431.19
478.346	451.19
478.564	464.19
478.783	447.19
479.002	444.19
479.22	444.19
479.439	471.19
479.658	486.19
479.876	504.19
480.095	488.19
480.313	509.19
480.532	496.19
480.751	500.19
480.969	503.19
481.188	574.19
481.406	616.19
481.624	548.19
481.843	507.19
482.061	517.19
482.28	497.19
482.498	494.19
482.717	477.19
482.935	470.19
483.153	481.19
483.372	470.19
483.59	486.19
483.808	484.19
484.027	486.19
484.245	500.19
484.463	480.19
484.681	495.19
484.9	488.19
485.118	506.19
485.336	480.19
485.554	490.19
485.772	491.19
485.99	487.19
486.209	479.19
486.427	502.19
486.645	481.19
486.863	558.19
487.081	528.19
487.299	545.19
487.517	512.19
487.735	514.19
487.953	514.19
488.171	519.19
488.389	512.19
488.607	545.19
488.825	525.19
489.043	529.19
489.261	514.19
489.479	544.19
489.696	506.19
489.914	493.19
490.132	522.19
490.35	523.19
490.568	540.19
490.786	558.19
491.003	558.19
491.221	589.19
491.439	550.19
491.657	595.19
491.874	588.19
492.092	580.19
492.31	607.19
492.527	589.19
492.745	594.19
492.963	621.19
493.18	614.19
493.398	610.19
493.615	609.19
493.833	616.19
494.05	602.19
494.268	604.19
494.485	606.19
494.703	599.19
494.92	597.19
495.138	601.19
495.355	593.19
495.573	597.19
495.79	590.19
496.008	597.19
496.225	588.19
496.442	572.19
496.66	612.19
496.877	608.19
497.094	630.19
497.312	606.19
497.529	634.19
497.746	640.19
497.963	646.19
498.181	639.19
498.398	656.19
498.615	675.19
498.832	686.19
499.049	648.19
499.267	648.19
499.484	685.19
499.701	713.19
499.918	719.19
500.135	750.19
500.352	743.19
500.569	756.19
500.786	769.19
501.003	770.19
501.22	770.19
501.437	759.19
501.654	744.19
501.871	733.19
502.088	702.19
