Data from 1965.PennyLincolnUp.Lamp.En5.5.200Scan.071719.P1._HRD10591_14-08-01-911.txt Node
Date: Thu Jul 18 14:08:01 EDT 2019
User: cochatt
Spectrometer: HR+D1059
Trigger mode: 1
Integration Time (sec): 1.000000E-1
Scans to average: 1
Electric dark correction enabled: true
Nonlinearity correction enabled: false
Boxcar width: 0
XAxis mode: Wavelengths
Number of Pixels in Spectrum: 2048
>>>>>Begin Spectral Data<<<<<
223.165	-2.94
223.4	-2.94
223.635	-2.94
223.869	-18.94
224.104	-28.94
224.338	-12.94
224.573	-5.94
224.808	-10.94
225.042	8.06
225.277	0.06
225.511	-14.94
225.746	-10.94
225.98	19.06
226.215	7.06
226.449	16.06
226.683	15.06
226.918	7.06
227.152	34.06
227.387	31.06
227.621	27.06
227.856	57.06
228.09	42.06
228.324	43.06
228.559	37.06
228.793	60.06
229.027	81.06
229.262	80.06
229.496	102.06
229.73	112.06
229.964	126.06
230.199	110.06
230.433	105.06
230.667	100.06
230.901	90.06
231.136	100.06
231.37	101.06
231.604	106.06
231.838	120.06
232.072	108.06
232.306	92.06
232.541	90.06
232.775	109.06
233.009	110.06
233.243	103.06
233.477	108.06
233.711	104.06
233.945	102.06
234.179	120.06
234.413	115.06
234.647	124.06
234.881	109.06
235.115	110.06
235.349	115.06
235.583	108.06
235.817	104.06
236.051	124.06
236.285	103.06
236.519	114.06
236.753	105.06
236.987	131.06
237.221	155.06
237.455	198.06
237.689	153.06
237.922	123.06
238.156	110.06
238.39	119.06
238.624	112.06
238.858	111.06
239.091	103.06
239.325	109.06
239.559	126.06
239.793	115.06
240.027	108.06
240.26	119.06
240.494	125.06
240.728	132.06
240.961	117.06
241.195	140.06
241.429	125.06
241.662	117.06
241.896	123.06
242.13	130.06
242.363	107.06
242.597	131.06
242.83	115.06
243.064	127.06
243.298	130.06
243.531	124.06
243.765	124.06
243.998	132.06
244.232	119.06
244.465	122.06
244.699	127.06
244.932	121.06
245.166	127.06
245.399	129.06
245.633	137.06
245.866	136.06
246.099	133.06
246.333	134.06
246.566	132.06
246.8	129.06
247.033	130.06
247.266	134.06
247.5	129.06
247.733	142.06
247.966	151.06
248.2	151.06
248.433	147.06
248.666	141.06
248.899	160.06
249.133	158.06
249.366	162.06
249.599	177.06
249.832	162.06
250.066	145.06
250.299	151.06
250.532	158.06
250.765	170.06
250.998	181.06
251.231	179.06
251.465	171.06
251.698	171.06
251.931	185.06
252.164	176.06
252.397	160.06
252.63	169.06
252.863	178.06
253.096	191.06
253.329	193.06
253.562	176.06
253.795	177.06
254.028	179.06
254.261	201.06
254.494	185.06
254.727	210.06
254.96	210.06
255.193	211.06
255.426	192.06
255.659	198.06
255.892	193.06
256.124	197.06
256.357	191.06
256.59	181.06
256.823	173.06
257.056	173.06
257.289	193.06
257.521	175.06
257.754	182.06
257.987	184.06
258.22	172.06
258.452	175.06
258.685	184.06
258.918	160.06
259.151	174.06
259.383	193.06
259.616	190.06
259.849	174.06
260.081	198.06
260.314	206.06
260.547	209.06
260.779	198.06
261.012	199.06
261.244	187.06
261.477	200.06
261.71	187.06
261.942	195.06
262.175	192.06
262.407	179.06
262.64	191.06
262.872	189.06
263.105	165.06
263.337	179.06
263.57	180.06
263.802	174.06
264.035	192.06
264.267	179.06
264.499	179.06
264.732	173.06
264.964	177.06
265.197	169.06
265.429	185.06
265.661	187.06
265.894	161.06
266.126	181.06
266.358	177.06
266.591	182.06
266.823	181.06
267.055	184.06
267.287	196.06
267.52	169.06
267.752	186.06
267.984	185.06
268.216	186.06
268.448	208.06
268.681	180.06
268.913	198.06
269.145	205.06
269.377	226.06
269.609	219.06
269.841	204.06
270.073	227.06
270.306	240.06
270.538	230.06
270.77	238.06
271.002	222.06
271.234	237.06
271.466	243.06
271.698	238.06
271.93	258.06
272.162	250.06
272.394	232.06
272.626	223.06
272.858	215.06
273.09	242.06
273.322	219.06
273.553	216.06
273.785	211.06
274.017	224.06
274.249	223.06
274.481	217.06
274.713	226.06
274.945	225.06
275.176	203.06
275.408	217.06
275.64	219.06
275.872	216.06
276.104	213.06
276.335	202.06
276.567	220.06
276.799	228.06
277.031	214.06
277.262	242.06
277.494	262.06
277.726	233.06
277.957	235.06
278.189	229.06
278.421	220.06
278.652	208.06
278.884	234.06
279.115	214.06
279.347	220.06
279.579	213.06
279.81	219.06
280.042	223.06
280.273	213.06
280.505	218.06
280.736	213.06
280.968	210.06
281.199	207.06
281.431	218.06
281.662	207.06
281.894	197.06
282.125	225.06
282.356	224.06
282.588	238.06
282.819	250.06
283.051	237.06
283.282	227.06
283.513	231.06
283.745	234.06
283.976	226.06
284.207	226.06
284.439	224.06
284.67	228.06
284.901	225.06
285.132	217.06
285.364	215.06
285.595	234.06
285.826	225.06
286.057	213.06
286.288	233.06
286.52	208.06
286.751	246.06
286.982	224.06
287.213	218.06
287.444	235.06
287.675	225.06
287.906	245.06
288.138	253.06
288.369	217.06
288.6	224.06
288.831	226.06
289.062	232.06
289.293	222.06
289.524	217.06
289.755	222.06
289.986	236.06
290.217	224.06
290.448	225.06
290.679	238.06
290.91	240.06
291.141	219.06
291.371	230.06
291.602	226.06
291.833	229.06
292.064	224.06
292.295	231.06
292.526	233.06
292.757	222.06
292.987	240.06
293.218	217.06
293.449	240.06
293.68	220.06
293.91	234.06
294.141	229.06
294.372	233.06
294.603	267.06
294.833	230.06
295.064	231.06
295.295	238.06
295.525	236.06
295.756	233.06
295.987	242.06
296.217	257.06
296.448	267.06
296.679	252.06
296.909	242.06
297.14	233.06
297.37	233.06
297.601	233.06
297.831	231.06
298.062	228.06
298.292	258.06
298.523	250.06
298.753	247.06
298.984	239.06
299.214	249.06
299.445	247.06
299.675	248.06
299.905	249.06
300.136	233.06
300.366	247.06
300.597	249.06
300.827	243.06
301.057	239.06
301.288	249.06
301.518	259.06
301.748	265.06
301.979	271.06
302.209	255.06
302.439	267.06
302.669	264.06
302.9	282.06
303.13	257.06
303.36	267.06
303.59	266.06
303.82	269.06
304.051	237.06
304.281	250.06
304.511	255.06
304.741	262.06
304.971	261.06
305.201	263.06
305.431	258.06
305.661	257.06
305.891	246.06
306.121	280.06
306.352	271.06
306.582	258.06
306.812	266.06
307.042	281.06
307.272	256.06
307.502	264.06
307.731	281.06
307.961	298.06
308.191	256.06
308.421	259.06
308.651	274.06
308.881	290.06
309.111	285.06
309.341	293.06
309.571	287.06
309.8	312.06
310.03	303.06
310.26	298.06
310.49	313.06
310.72	287.06
310.949	306.06
311.179	306.06
311.409	297.06
311.639	283.06
311.868	304.06
312.098	296.06
312.328	307.06
312.557	313.06
312.787	335.06
313.017	320.06
313.246	318.06
313.476	294.06
313.706	310.06
313.935	306.06
314.165	316.06
314.394	323.06
314.624	314.06
314.853	299.06
315.083	317.06
315.312	315.06
315.542	309.06
315.771	326.06
316.001	298.06
316.23	302.06
316.46	295.06
316.689	298.06
316.919	295.06
317.148	302.06
317.377	300.06
317.607	310.06
317.836	310.06
318.065	319.06
318.295	326.06
318.524	317.06
318.753	318.06
318.983	289.06
319.212	316.06
319.441	297.06
319.67	321.06
319.9	322.06
320.129	309.06
320.358	299.06
320.587	315.06
320.816	316.06
321.046	329.06
321.275	302.06
321.504	329.06
321.733	332.06
321.962	328.06
322.191	346.06
322.42	352.06
322.649	355.06
322.878	360.06
323.108	343.06
323.337	397.06
323.566	383.06
323.795	416.06
324.024	461.06
324.253	565.06
324.482	791.06
324.71	1175.06
324.939	1624.06
325.168	1350.06
325.397	724.06
325.626	521.06
325.855	429.06
326.084	433.06
326.313	401.06
326.542	420.06
326.77	433.06
326.999	528.06
327.228	724.06
327.457	1074.06
327.686	1198.06
327.914	835.06
328.143	553.06
328.372	497.06
328.6	462.06
328.829	455.06
329.058	441.06
329.287	449.06
329.515	403.06
329.744	399.06
329.972	397.06
330.201	417.06
330.43	445.06
330.658	488.06
330.887	481.06
331.115	456.06
331.344	404.06
331.572	409.06
331.801	381.06
332.03	382.06
332.258	389.06
332.486	362.06
332.715	370.06
332.943	350.06
333.172	368.06
333.4	366.06
333.629	354.06
333.857	362.06
334.085	387.06
334.314	383.06
334.542	395.06
334.771	428.06
334.999	395.06
335.227	378.06
335.455	369.06
335.684	362.06
335.912	350.06
336.14	338.06
336.369	357.06
336.597	341.06
336.825	358.06
337.053	368.06
337.281	344.06
337.51	343.06
337.738	326.06
337.966	347.06
338.194	351.06
338.422	341.06
338.65	359.06
338.878	322.06
339.106	349.06
339.334	339.06
339.562	343.06
339.79	332.06
340.018	331.06
340.246	332.06
340.474	346.06
340.702	348.06
340.93	346.06
341.158	333.06
341.386	351.06
341.614	334.06
341.842	351.06
342.07	328.06
342.298	345.06
342.526	335.06
342.754	319.06
342.981	329.06
343.209	342.06
343.437	319.06
343.665	353.06
343.893	343.06
344.12	349.06
344.348	338.06
344.576	359.06
344.804	358.06
345.031	334.06
345.259	357.06
345.487	350.06
345.714	342.06
345.942	342.06
346.17	355.06
346.397	328.06
346.625	333.06
346.853	319.06
347.08	340.06
347.308	338.06
347.535	318.06
347.763	343.06
347.99	335.06
348.218	321.06
348.445	338.06
348.673	357.06
348.9	336.06
349.128	344.06
349.355	340.06
349.583	320.06
349.81	351.06
350.037	317.06
350.265	336.06
350.492	314.06
350.72	325.06
350.947	326.06
351.174	352.06
351.402	329.06
351.629	349.06
351.856	335.06
352.083	335.06
352.311	328.06
352.538	350.06
352.765	362.06
352.992	344.06
353.22	341.06
353.447	319.06
353.674	351.06
353.901	315.06
354.128	334.06
354.355	313.06
354.583	304.06
354.81	303.06
355.037	329.06
355.264	291.06
355.491	317.06
355.718	311.06
355.945	305.06
356.172	299.06
356.399	300.06
356.626	290.06
356.853	302.06
357.08	308.06
357.307	298.06
357.534	311.06
357.761	331.06
357.988	310.06
358.215	322.06
358.441	299.06
358.668	313.06
358.895	332.06
359.122	319.06
359.349	331.06
359.576	337.06
359.802	361.06
360.029	361.06
360.256	393.06
360.483	355.06
360.709	328.06
360.936	330.06
361.163	329.06
361.39	344.06
361.616	337.06
361.843	322.06
362.07	338.06
362.296	342.06
362.523	336.06
362.749	354.06
362.976	327.06
363.203	297.06
363.429	306.06
363.656	297.06
363.882	325.06
364.109	321.06
364.335	322.06
364.562	321.06
364.788	335.06
365.015	337.06
365.241	302.06
365.468	328.06
365.694	341.06
365.92	338.06
366.147	336.06
366.373	326.06
366.599	331.06
366.826	320.06
367.052	321.06
367.278	307.06
367.505	330.06
367.731	343.06
367.957	313.06
368.184	313.06
368.41	325.06
368.636	349.06
368.862	323.06
369.089	328.06
369.315	322.06
369.541	324.06
369.767	314.06
369.993	333.06
370.219	311.06
370.445	317.06
370.672	320.06
370.898	341.06
371.124	326.06
371.35	314.06
371.576	341.06
371.802	330.06
372.028	313.06
372.254	304.06
372.48	327.06
372.706	320.06
372.932	330.06
373.158	330.06
373.384	326.06
373.61	342.06
373.835	334.06
374.061	309.06
374.287	325.06
374.513	316.06
374.739	323.06
374.965	331.06
375.191	329.06
375.416	323.06
375.642	320.06
375.868	327.06
376.094	330.06
376.319	326.06
376.545	317.06
376.771	321.06
376.997	333.06
377.222	319.06
377.448	330.06
377.674	320.06
377.899	314.06
378.125	325.06
378.35	319.06
378.576	301.06
378.802	322.06
379.027	322.06
379.253	296.06
379.478	328.06
379.704	317.06
379.929	317.06
380.155	325.06
380.38	314.06
380.606	322.06
380.831	312.06
381.057	304.06
381.282	335.06
381.507	312.06
381.733	330.06
381.958	330.06
382.184	320.06
382.409	313.06
382.634	335.06
382.86	323.06
383.085	335.06
383.31	339.06
383.535	332.06
383.761	335.06
383.986	335.06
384.211	354.06
384.436	332.06
384.662	347.06
384.887	339.06
385.112	321.06
385.337	336.06
385.562	346.06
385.787	351.06
386.013	359.06
386.238	360.06
386.463	355.06
386.688	362.06
386.913	343.06
387.138	346.06
387.363	336.06
387.588	346.06
387.813	338.06
388.038	332.06
388.263	337.06
388.488	344.06
388.713	341.06
388.938	349.06
389.163	336.06
389.387	334.06
389.612	344.06
389.837	347.06
390.062	342.06
390.287	348.06
390.512	346.06
390.736	356.06
390.961	345.06
391.186	353.06
391.411	338.06
391.636	353.06
391.86	368.06
392.085	352.06
392.31	366.06
392.534	359.06
392.759	377.06
392.984	341.06
393.208	344.06
393.433	354.06
393.658	359.06
393.882	366.06
394.107	339.06
394.331	349.06
394.556	344.06
394.78	348.06
395.005	332.06
395.229	362.06
395.454	358.06
395.678	353.06
395.903	361.06
396.127	372.06
396.352	378.06
396.576	365.06
396.801	359.06
397.025	358.06
397.249	362.06
397.474	379.06
397.698	368.06
397.922	393.06
398.147	383.06
398.371	394.06
398.595	386.06
398.82	374.06
399.044	414.06
399.268	403.06
399.492	419.06
399.717	419.06
399.941	453.06
400.165	471.06
400.389	466.06
400.613	432.06
400.837	406.06
401.062	389.06
401.286	396.06
401.51	393.06
401.734	380.06
401.958	376.06
402.182	390.06
402.406	413.06
402.63	389.06
402.854	401.06
403.078	384.06
403.302	403.06
403.526	391.06
403.75	392.06
403.974	414.06
404.198	395.06
404.422	397.06
404.645	411.06
404.869	424.06
405.093	439.06
405.317	457.06
405.541	485.06
405.765	411.06
405.988	414.06
406.212	434.06
406.436	450.06
406.66	455.06
406.883	453.06
407.107	433.06
407.331	490.06
407.555	519.06
407.778	512.06
408.002	459.06
408.226	448.06
408.449	437.06
408.673	451.06
408.896	458.06
409.12	464.06
409.344	473.06
409.567	418.06
409.791	414.06
410.014	414.06
410.238	393.06
410.461	393.06
410.685	400.06
410.908	418.06
411.132	441.06
411.355	443.06
411.578	437.06
411.802	389.06
412.025	410.06
412.249	414.06
412.472	403.06
412.695	449.06
412.919	432.06
413.142	409.06
413.365	395.06
413.589	399.06
413.812	381.06
414.035	385.06
414.258	387.06
414.482	379.06
414.705	389.06
414.928	381.06
415.151	391.06
415.374	379.06
415.597	387.06
415.821	392.06
416.044	390.06
416.267	392.06
416.49	377.06
416.713	386.06
416.936	386.06
417.159	383.06
417.382	379.06
417.605	391.06
417.828	399.06
418.051	405.06
418.274	391.06
418.497	377.06
418.72	394.06
418.943	371.06
419.166	376.06
419.389	409.06
419.611	399.06
419.834	403.06
420.057	399.06
420.28	411.06
420.503	402.06
420.726	418.06
420.948	404.06
421.171	435.06
421.394	459.06
421.617	402.06
421.839	397.06
422.062	397.06
422.285	424.06
422.507	452.06
422.73	507.06
422.953	478.06
423.175	431.06
423.398	411.06
423.621	425.06
423.843	423.06
424.066	422.06
424.288	422.06
424.511	461.06
424.733	487.06
424.956	536.06
425.178	515.06
425.401	506.06
425.623	515.06
425.846	465.06
426.068	425.06
426.291	417.06
426.513	425.06
426.735	426.06
426.958	459.06
427.18	526.06
427.402	614.06
427.625	663.06
427.847	601.06
428.069	507.06
428.292	454.06
428.514	431.06
428.736	422.06
428.958	425.06
429.181	397.06
429.403	411.06
429.625	389.06
429.847	437.06
430.069	443.06
430.292	474.06
430.514	418.06
430.736	403.06
430.958	394.06
431.18	397.06
431.402	359.06
431.624	374.06
431.846	357.06
432.068	381.06
432.29	385.06
432.512	389.06
432.734	410.06
432.956	416.06
433.178	390.06
433.4	392.06
433.622	370.06
433.844	388.06
434.066	373.06
434.287	381.06
434.509	401.06
434.731	390.06
434.953	413.06
435.175	407.06
435.397	413.06
435.618	424.06
435.84	458.06
436.062	522.06
436.284	574.06
436.505	458.06
436.727	426.06
436.949	412.06
437.17	413.06
437.392	402.06
437.614	409.06
437.835	443.06
438.057	538.06
438.278	596.06
438.5	587.06
438.721	608.06
438.943	578.06
439.165	481.06
439.386	429.06
439.608	434.06
439.829	454.06
440.05	479.06
440.272	492.06
440.493	464.06
440.715	439.06
440.936	425.06
441.158	401.06
441.379	414.06
441.6	418.06
441.822	458.06
442.043	452.06
442.264	528.06
442.486	540.06
442.707	480.06
442.928	433.06
443.149	461.06
443.371	458.06
443.592	474.06
443.813	555.06
444.034	600.06
444.255	492.06
444.476	451.06
444.698	461.06
444.919	421.06
445.14	520.06
445.361	464.06
445.582	470.06
445.803	499.06
446.024	557.06
446.245	581.06
446.466	519.06
446.687	445.06
446.908	425.06
447.129	415.06
447.35	395.06
447.571	426.06
447.792	408.06
448.013	387.06
448.234	429.06
448.455	449.06
448.675	532.06
448.896	616.06
449.117	532.06
449.338	488.06
449.559	584.06
449.779	622.06
450	522.06
450.221	453.06
450.442	401.06
450.662	401.06
450.883	406.06
451.104	427.06
451.324	393.06
451.545	362.06
451.766	349.06
451.986	353.06
452.207	359.06
452.428	377.06
452.648	357.06
452.869	368.06
453.089	354.06
453.31	361.06
453.53	381.06
453.751	380.06
453.971	383.06
454.192	376.06
454.412	372.06
454.633	358.06
454.853	353.06
455.073	363.06
455.294	371.06
455.514	428.06
455.734	407.06
455.955	357.06
456.175	362.06
456.395	347.06
456.616	340.06
456.836	348.06
457.056	334.06
457.276	335.06
457.497	348.06
457.717	346.06
457.937	337.06
458.157	362.06
458.377	339.06
458.598	374.06
458.818	417.06
459.038	477.06
459.258	491.06
459.478	411.06
459.698	394.06
459.918	381.06
460.138	404.06
460.358	399.06
460.578	387.06
460.798	386.06
461.018	391.06
461.238	393.06
461.458	395.06
461.678	383.06
461.898	409.06
462.118	365.06
462.338	386.06
462.558	403.06
462.777	402.06
462.997	421.06
463.217	409.06
463.437	409.06
463.657	409.06
463.876	403.06
464.096	414.06
464.316	405.06
464.536	423.06
464.755	413.06
464.975	416.06
465.195	448.06
465.414	524.06
465.634	441.06
465.854	420.06
466.073	397.06
466.293	386.06
466.512	387.06
466.732	362.06
466.951	378.06
467.171	384.06
467.391	390.06
467.61	379.06
467.829	397.06
468.049	367.06
468.268	362.06
468.488	367.06
468.707	374.06
468.927	370.06
469.146	373.06
469.365	361.06
469.585	360.06
469.804	361.06
470.023	383.06
470.243	374.06
470.462	406.06
470.681	403.06
470.901	388.06
471.12	381.06
471.339	376.06
471.558	376.06
471.777	383.06
471.997	373.06
472.216	378.06
472.435	400.06
472.654	389.06
472.873	392.06
473.092	370.06
473.311	395.06
473.53	384.06
473.749	374.06
473.968	426.06
474.187	491.06
474.406	511.06
474.625	422.06
474.844	415.06
475.063	393.06
475.282	382.06
475.501	384.06
475.72	385.06
475.939	395.06
476.158	374.06
476.377	381.06
476.596	381.06
476.814	406.06
477.033	401.06
477.252	432.06
477.471	387.06
477.69	401.06
477.908	397.06
478.127	413.06
478.346	406.06
478.564	411.06
478.783	425.06
479.002	419.06
479.22	437.06
479.439	445.06
479.658	462.06
479.876	456.06
480.095	457.06
480.313	466.06
480.532	450.06
480.751	451.06
480.969	487.06
481.188	507.06
481.406	538.06
481.624	490.06
481.843	452.06
482.061	452.06
482.28	433.06
482.498	434.06
482.717	452.06
482.935	441.06
483.153	435.06
483.372	432.06
483.59	448.06
483.808	460.06
484.027	427.06
484.245	439.06
484.463	448.06
484.681	459.06
484.9	441.06
485.118	449.06
485.336	436.06
485.554	462.06
485.772	448.06
485.99	466.06
486.209	464.06
486.427	441.06
486.645	479.06
486.863	472.06
487.081	475.06
487.299	479.06
487.517	491.06
487.735	474.06
487.953	459.06
488.171	482.06
488.389	487.06
488.607	471.06
488.825	464.06
489.043	491.06
489.261	475.06
489.479	489.06
489.696	478.06
489.914	460.06
490.132	478.06
490.35	482.06
490.568	483.06
490.786	491.06
491.003	511.06
491.221	525.06
491.439	521.06
491.657	526.06
491.874	529.06
492.092	523.06
492.31	529.06
492.527	536.06
492.745	525.06
492.963	523.06
493.18	539.06
493.398	520.06
493.615	544.06
493.833	545.06
494.05	536.06
494.268	559.06
494.485	524.06
494.703	526.06
494.92	575.06
495.138	525.06
495.355	577.06
495.573	556.06
495.79	548.06
496.008	557.06
496.225	539.06
496.442	570.06
496.66	546.06
496.877	573.06
497.094	544.06
497.312	567.06
497.529	571.06
497.746	603.06
497.963	573.06
498.181	593.06
498.398	610.06
498.615	624.06
498.832	638.06
499.049	629.06
499.267	635.06
499.484	630.06
499.701	667.06
499.918	665.06
500.135	698.06
500.352	705.06
500.569	723.06
500.786	713.06
501.003	723.06
501.22	687.06
501.437	685.06
501.654	678.06
501.871	657.06
502.088	679.06
