Data from 1965.PennyLincolnUp.Lamp.En5.5.200Scan.071719.P1._HRD10591_14-10-06-912.txt Node
Date: Thu Jul 18 14:10:06 EDT 2019
User: cochatt
Spectrometer: HR+D1059
Trigger mode: 1
Integration Time (sec): 1.000000E-1
Scans to average: 1
Electric dark correction enabled: true
Nonlinearity correction enabled: false
Boxcar width: 0
XAxis mode: Wavelengths
Number of Pixels in Spectrum: 2048
>>>>>Begin Spectral Data<<<<<
223.165	-18.62
223.4	-18.62
223.635	-18.62
223.869	-23.62
224.104	-22.62
224.338	-20.62
224.573	-11.62
224.808	8.38
225.042	-18.62
225.277	-18.62
225.511	10.38
225.746	1.38
225.98	14.38
226.215	19.38
226.449	0.38
226.683	24.38
226.918	29.38
227.152	26.38
227.387	18.38
227.621	32.38
227.856	41.38
228.09	44.38
228.324	45.38
228.559	57.38
228.793	43.38
229.027	94.38
229.262	96.38
229.496	116.38
229.73	118.38
229.964	157.38
230.199	119.38
230.433	104.38
230.667	115.38
230.901	94.38
231.136	102.38
231.37	112.38
231.604	96.38
231.838	99.38
232.072	103.38
232.306	106.38
232.541	115.38
232.775	105.38
233.009	102.38
233.243	103.38
233.477	116.38
233.711	112.38
233.945	100.38
234.179	124.38
234.413	104.38
234.647	104.38
234.881	103.38
235.115	103.38
235.349	127.38
235.583	125.38
235.817	112.38
236.051	124.38
236.285	112.38
236.519	107.38
236.753	127.38
236.987	150.38
237.221	186.38
237.455	224.38
237.689	173.38
237.922	130.38
238.156	132.38
238.39	128.38
238.624	123.38
238.858	127.38
239.091	114.38
239.325	133.38
239.559	128.38
239.793	114.38
240.027	124.38
240.26	136.38
240.494	124.38
240.728	137.38
240.961	133.38
241.195	139.38
241.429	134.38
241.662	128.38
241.896	140.38
242.13	108.38
242.363	121.38
242.597	120.38
242.83	126.38
243.064	116.38
243.298	124.38
243.531	132.38
243.765	121.38
243.998	120.38
244.232	122.38
244.465	125.38
244.699	117.38
244.932	128.38
245.166	114.38
245.399	127.38
245.633	130.38
245.866	109.38
246.099	138.38
246.333	150.38
246.566	143.38
246.8	141.38
247.033	152.38
247.266	147.38
247.5	129.38
247.733	149.38
247.966	148.38
248.2	154.38
248.433	170.38
248.666	156.38
248.899	163.38
249.133	190.38
249.366	190.38
249.599	193.38
249.832	164.38
250.066	151.38
250.299	156.38
250.532	183.38
250.765	188.38
250.998	215.38
251.231	191.38
251.465	191.38
251.698	179.38
251.931	187.38
252.164	178.38
252.397	183.38
252.63	179.38
252.863	181.38
253.096	196.38
253.329	198.38
253.562	190.38
253.795	204.38
254.028	193.38
254.261	200.38
254.494	205.38
254.727	249.38
254.96	251.38
255.193	261.38
255.426	212.38
255.659	218.38
255.892	211.38
256.124	206.38
256.357	221.38
256.59	208.38
256.823	192.38
257.056	185.38
257.289	183.38
257.521	185.38
257.754	205.38
257.987	176.38
258.22	195.38
258.452	198.38
258.685	180.38
258.918	195.38
259.151	200.38
259.383	207.38
259.616	210.38
259.849	216.38
260.081	216.38
260.314	226.38
260.547	216.38
260.779	209.38
261.012	207.38
261.244	208.38
261.477	216.38
261.71	205.38
261.942	201.38
262.175	228.38
262.407	220.38
262.64	202.38
262.872	206.38
263.105	202.38
263.337	190.38
263.57	187.38
263.802	195.38
264.035	187.38
264.267	188.38
264.499	184.38
264.732	186.38
264.964	189.38
265.197	169.38
265.429	190.38
265.661	186.38
265.894	198.38
266.126	193.38
266.358	200.38
266.591	190.38
266.823	202.38
267.055	180.38
267.287	184.38
267.52	193.38
267.752	208.38
267.984	189.38
268.216	214.38
268.448	228.38
268.681	206.38
268.913	212.38
269.145	227.38
269.377	241.38
269.609	243.38
269.841	248.38
270.073	241.38
270.306	282.38
270.538	275.38
270.77	272.38
271.002	277.38
271.234	278.38
271.466	277.38
271.698	282.38
271.93	277.38
272.162	296.38
272.394	272.38
272.626	259.38
272.858	264.38
273.09	249.38
273.322	256.38
273.553	245.38
273.785	247.38
274.017	245.38
274.249	235.38
274.481	232.38
274.713	247.38
274.945	227.38
275.176	237.38
275.408	250.38
275.64	246.38
275.872	242.38
276.104	244.38
276.335	243.38
276.567	240.38
276.799	265.38
277.031	276.38
277.262	270.38
277.494	290.38
277.726	269.38
277.957	273.38
278.189	250.38
278.421	237.38
278.652	237.38
278.884	242.38
279.115	242.38
279.347	246.38
279.579	233.38
279.81	241.38
280.042	244.38
280.273	228.38
280.505	241.38
280.736	239.38
280.968	255.38
281.199	242.38
281.431	234.38
281.662	233.38
281.894	233.38
282.125	244.38
282.356	276.38
282.588	286.38
282.819	278.38
283.051	257.38
283.282	245.38
283.513	256.38
283.745	250.38
283.976	265.38
284.207	241.38
284.439	250.38
284.67	244.38
284.901	233.38
285.132	250.38
285.364	240.38
285.595	256.38
285.826	244.38
286.057	244.38
286.288	237.38
286.52	250.38
286.751	254.38
286.982	260.38
287.213	255.38
287.444	244.38
287.675	243.38
287.906	272.38
288.138	261.38
288.369	275.38
288.6	257.38
288.831	253.38
289.062	261.38
289.293	258.38
289.524	246.38
289.755	252.38
289.986	244.38
290.217	251.38
290.448	272.38
290.679	260.38
290.91	256.38
291.141	229.38
291.371	246.38
291.602	232.38
291.833	244.38
292.064	248.38
292.295	266.38
292.526	230.38
292.757	252.38
292.987	250.38
293.218	245.38
293.449	266.38
293.68	258.38
293.91	258.38
294.141	263.38
294.372	265.38
294.603	275.38
294.833	249.38
295.064	252.38
295.295	253.38
295.525	229.38
295.756	256.38
295.987	270.38
296.217	312.38
296.448	311.38
296.679	257.38
296.909	270.38
297.14	265.38
297.37	263.38
297.601	271.38
297.831	254.38
298.062	276.38
298.292	268.38
298.523	267.38
298.753	276.38
298.984	273.38
299.214	251.38
299.445	268.38
299.675	279.38
299.905	287.38
300.136	275.38
300.366	288.38
300.597	277.38
300.827	281.38
301.057	267.38
301.288	295.38
301.518	283.38
301.748	269.38
301.979	275.38
302.209	284.38
302.439	291.38
302.669	300.38
302.9	285.38
303.13	291.38
303.36	301.38
303.59	270.38
303.82	315.38
304.051	297.38
304.281	273.38
304.511	281.38
304.741	291.38
304.971	282.38
305.201	285.38
305.431	299.38
305.661	284.38
305.891	276.38
306.121	299.38
306.352	276.38
306.582	299.38
306.812	279.38
307.042	307.38
307.272	288.38
307.502	293.38
307.731	293.38
307.961	293.38
308.191	283.38
308.421	298.38
308.651	312.38
308.881	294.38
309.111	301.38
309.341	304.38
309.571	310.38
309.8	316.38
310.03	344.38
310.26	337.38
310.49	331.38
310.72	353.38
310.949	363.38
311.179	351.38
311.409	340.38
311.639	321.38
311.868	346.38
312.098	333.38
312.328	333.38
312.557	368.38
312.787	386.38
313.017	364.38
313.246	348.38
313.476	347.38
313.706	323.38
313.935	333.38
314.165	342.38
314.394	347.38
314.624	351.38
314.853	356.38
315.083	340.38
315.312	345.38
315.542	336.38
315.771	334.38
316.001	328.38
316.23	330.38
316.46	324.38
316.689	318.38
316.919	354.38
317.148	355.38
317.377	341.38
317.607	347.38
317.836	337.38
318.065	344.38
318.295	321.38
318.524	326.38
318.753	348.38
318.983	358.38
319.212	351.38
319.441	358.38
319.67	349.38
319.9	344.38
320.129	342.38
320.358	319.38
320.587	362.38
320.816	362.38
321.046	377.38
321.275	373.38
321.504	360.38
321.733	380.38
321.962	370.38
322.191	395.38
322.42	415.38
322.649	389.38
322.878	424.38
323.108	452.38
323.337	440.38
323.566	487.38
323.795	518.38
324.024	588.38
324.253	686.38
324.482	1027.38
324.71	1580.38
324.939	2140.38
325.168	1818.38
325.397	933.38
325.626	640.38
325.855	544.38
326.084	486.38
326.313	448.38
326.542	488.38
326.77	510.38
326.999	665.38
327.228	900.38
327.457	1355.38
327.686	1551.38
327.914	1048.38
328.143	709.38
328.372	628.38
328.6	580.38
328.829	542.38
329.058	575.38
329.287	540.38
329.515	504.38
329.744	490.38
329.972	469.38
330.201	526.38
330.43	550.38
330.658	563.38
330.887	603.38
331.115	564.38
331.344	478.38
331.572	448.38
331.801	475.38
332.03	451.38
332.258	438.38
332.486	433.38
332.715	411.38
332.943	414.38
333.172	412.38
333.4	395.38
333.629	407.38
333.857	433.38
334.085	450.38
334.314	475.38
334.542	508.38
334.771	509.38
334.999	457.38
335.227	404.38
335.455	388.38
335.684	420.38
335.912	401.38
336.14	414.38
336.369	404.38
336.597	397.38
336.825	382.38
337.053	373.38
337.281	396.38
337.51	393.38
337.738	398.38
337.966	374.38
338.194	388.38
338.422	399.38
338.65	382.38
338.878	380.38
339.106	387.38
339.334	376.38
339.562	379.38
339.79	372.38
340.018	374.38
340.246	394.38
340.474	363.38
340.702	388.38
340.93	389.38
341.158	384.38
341.386	399.38
341.614	372.38
341.842	395.38
342.07	374.38
342.298	381.38
342.526	355.38
342.754	372.38
342.981	357.38
343.209	359.38
343.437	362.38
343.665	353.38
343.893	353.38
344.12	391.38
344.348	370.38
344.576	394.38
344.804	397.38
345.031	392.38
345.259	384.38
345.487	395.38
345.714	388.38
345.942	366.38
346.17	352.38
346.397	357.38
346.625	379.38
346.853	382.38
347.08	375.38
347.308	367.38
347.535	384.38
347.763	398.38
347.99	385.38
348.218	384.38
348.445	392.38
348.673	386.38
348.9	398.38
349.128	356.38
349.355	353.38
349.583	347.38
349.81	346.38
350.037	363.38
350.265	366.38
350.492	344.38
350.72	368.38
350.947	360.38
351.174	376.38
351.402	379.38
351.629	362.38
351.856	376.38
352.083	390.38
352.311	388.38
352.538	403.38
352.765	403.38
352.992	402.38
353.22	372.38
353.447	371.38
353.674	372.38
353.901	358.38
354.128	363.38
354.355	314.38
354.583	357.38
354.81	334.38
355.037	326.38
355.264	349.38
355.491	343.38
355.718	317.38
355.945	339.38
356.172	343.38
356.399	338.38
356.626	322.38
356.853	324.38
357.08	342.38
357.307	337.38
357.534	323.38
357.761	340.38
357.988	349.38
358.215	349.38
358.441	349.38
358.668	345.38
358.895	341.38
359.122	365.38
359.349	363.38
359.576	370.38
359.802	404.38
360.029	431.38
360.256	445.38
360.483	408.38
360.709	399.38
360.936	382.38
361.163	356.38
361.39	381.38
361.616	366.38
361.843	378.38
362.07	373.38
362.296	377.38
362.523	386.38
362.749	358.38
362.976	379.38
363.203	374.38
363.429	369.38
363.656	373.38
363.882	334.38
364.109	342.38
364.335	367.38
364.562	344.38
364.788	347.38
365.015	344.38
365.241	339.38
365.468	364.38
365.694	359.38
365.92	346.38
366.147	377.38
366.373	353.38
366.599	363.38
366.826	348.38
367.052	340.38
367.278	364.38
367.505	356.38
367.731	348.38
367.957	353.38
368.184	343.38
368.41	366.38
368.636	372.38
368.862	378.38
369.089	372.38
369.315	342.38
369.541	343.38
369.767	339.38
369.993	345.38
370.219	363.38
370.445	339.38
370.672	345.38
370.898	344.38
371.124	356.38
371.35	359.38
371.576	341.38
371.802	330.38
372.028	344.38
372.254	349.38
372.48	344.38
372.706	343.38
372.932	332.38
373.158	324.38
373.384	345.38
373.61	347.38
373.835	336.38
374.061	352.38
374.287	364.38
374.513	348.38
374.739	334.38
374.965	347.38
375.191	352.38
375.416	368.38
375.642	353.38
375.868	343.38
376.094	339.38
376.319	339.38
376.545	335.38
376.771	342.38
376.997	344.38
377.222	336.38
377.448	346.38
377.674	324.38
377.899	328.38
378.125	335.38
378.35	336.38
378.576	330.38
378.802	349.38
379.027	329.38
379.253	320.38
379.478	334.38
379.704	344.38
379.929	333.38
380.155	361.38
380.38	318.38
380.606	342.38
380.831	341.38
381.057	343.38
381.282	355.38
381.507	332.38
381.733	350.38
381.958	331.38
382.184	335.38
382.409	359.38
382.634	340.38
382.86	333.38
383.085	341.38
383.31	353.38
383.535	353.38
383.761	339.38
383.986	349.38
384.211	363.38
384.436	361.38
384.662	354.38
384.887	350.38
385.112	356.38
385.337	355.38
385.562	342.38
385.787	357.38
386.013	373.38
386.238	384.38
386.463	380.38
386.688	372.38
386.913	379.38
387.138	348.38
387.363	369.38
387.588	375.38
387.813	371.38
388.038	344.38
388.263	372.38
388.488	370.38
388.713	360.38
388.938	376.38
389.163	377.38
389.387	374.38
389.612	363.38
389.837	342.38
390.062	359.38
390.287	348.38
390.512	368.38
390.736	365.38
390.961	372.38
391.186	362.38
391.411	356.38
391.636	365.38
391.86	388.38
392.085	358.38
392.31	388.38
392.534	354.38
392.759	375.38
392.984	382.38
393.208	378.38
393.433	369.38
393.658	362.38
393.882	364.38
394.107	361.38
394.331	333.38
394.556	370.38
394.78	368.38
395.005	371.38
395.229	368.38
395.454	387.38
395.678	397.38
395.903	392.38
396.127	416.38
396.352	409.38
396.576	411.38
396.801	377.38
397.025	386.38
397.249	370.38
397.474	384.38
397.698	384.38
397.922	401.38
398.147	417.38
398.371	418.38
398.595	429.38
398.82	386.38
399.044	406.38
399.268	413.38
399.492	438.38
399.717	453.38
399.941	486.38
400.165	495.38
400.389	482.38
400.613	464.38
400.837	423.38
401.062	428.38
401.286	414.38
401.51	408.38
401.734	415.38
401.958	445.38
402.182	427.38
402.406	423.38
402.63	418.38
402.854	415.38
403.078	405.38
403.302	432.38
403.526	448.38
403.75	417.38
403.974	427.38
404.198	425.38
404.422	426.38
404.645	452.38
404.869	467.38
405.093	461.38
405.317	498.38
405.541	500.38
405.765	481.38
405.988	469.38
406.212	457.38
406.436	500.38
406.66	489.38
406.883	477.38
407.107	475.38
407.331	553.38
407.555	548.38
407.778	581.38
408.002	526.38
408.226	509.38
408.449	461.38
408.673	503.38
408.896	512.38
409.12	522.38
409.344	504.38
409.567	471.38
409.791	466.38
410.014	416.38
410.238	409.38
410.461	434.38
410.685	442.38
410.908	441.38
411.132	470.38
411.355	504.38
411.578	516.38
411.802	438.38
412.025	440.38
412.249	440.38
412.472	440.38
412.695	468.38
412.919	486.38
413.142	444.38
413.365	450.38
413.589	411.38
413.812	414.38
414.035	408.38
414.258	416.38
414.482	418.38
414.705	417.38
414.928	444.38
415.151	418.38
415.374	432.38
415.597	415.38
415.821	388.38
416.044	414.38
416.267	420.38
416.49	402.38
416.713	411.38
416.936	416.38
417.159	418.38
417.382	413.38
417.605	427.38
417.828	437.38
418.051	427.38
418.274	425.38
418.497	406.38
418.72	408.38
418.943	413.38
419.166	414.38
419.389	458.38
419.611	427.38
419.834	427.38
420.057	433.38
420.28	430.38
420.503	448.38
420.726	425.38
420.948	451.38
421.171	460.38
421.394	510.38
421.617	465.38
421.839	434.38
422.062	429.38
422.285	452.38
422.507	494.38
422.73	554.38
422.953	521.38
423.175	463.38
423.398	460.38
423.621	447.38
423.843	474.38
424.066	457.38
424.288	454.38
424.511	481.38
424.733	518.38
424.956	604.38
425.178	562.38
425.401	579.38
425.623	553.38
425.846	516.38
426.068	486.38
426.291	482.38
426.513	484.38
426.735	488.38
426.958	516.38
427.18	577.38
427.402	679.38
427.625	772.38
427.847	689.38
428.069	587.38
428.292	518.38
428.514	463.38
428.736	466.38
428.958	457.38
429.181	455.38
429.403	445.38
429.625	448.38
429.847	455.38
430.069	535.38
430.292	510.38
430.514	454.38
430.736	443.38
430.958	423.38
431.18	425.38
431.402	417.38
431.624	423.38
431.846	402.38
432.068	410.38
432.29	389.38
432.512	417.38
432.734	439.38
432.956	424.38
433.178	439.38
433.4	436.38
433.622	418.38
433.844	420.38
434.066	424.38
434.287	403.38
434.509	403.38
434.731	428.38
434.953	433.38
435.175	454.38
435.397	458.38
435.618	461.38
435.84	509.38
436.062	587.38
436.284	644.38
436.505	557.38
436.727	472.38
436.949	454.38
437.17	457.38
437.392	454.38
437.614	469.38
437.835	472.38
438.057	590.38
438.278	655.38
438.5	658.38
438.721	689.38
438.943	652.38
439.165	532.38
439.386	516.38
439.608	472.38
439.829	473.38
440.05	514.38
440.272	581.38
440.493	537.38
440.715	473.38
440.936	440.38
441.158	452.38
441.379	449.38
441.6	467.38
441.822	472.38
442.043	510.38
442.264	571.38
442.486	609.38
442.707	520.38
442.928	487.38
443.149	474.38
443.371	513.38
443.592	553.38
443.813	608.38
444.034	668.38
444.255	551.38
444.476	512.38
444.698	477.38
444.919	466.38
445.14	568.38
445.361	547.38
445.582	514.38
445.803	597.38
446.024	643.38
446.245	660.38
446.466	601.38
446.687	531.38
446.908	483.38
447.129	460.38
447.35	456.38
447.571	449.38
447.792	432.38
448.013	460.38
448.234	464.38
448.455	522.38
448.675	632.38
448.896	676.38
449.117	605.38
449.338	555.38
449.559	672.38
449.779	737.38
450	585.38
450.221	482.38
450.442	443.38
450.662	434.38
450.883	445.38
451.104	468.38
451.324	452.38
451.545	434.38
451.766	420.38
451.986	384.38
452.207	393.38
452.428	418.38
452.648	392.38
452.869	411.38
453.089	410.38
453.31	426.38
453.53	421.38
453.751	391.38
453.971	421.38
454.192	424.38
454.412	412.38
454.633	395.38
454.853	416.38
455.073	390.38
455.294	432.38
455.514	474.38
455.734	478.38
455.955	408.38
456.175	394.38
456.395	372.38
456.616	361.38
456.836	372.38
457.056	355.38
457.276	365.38
457.497	374.38
457.717	384.38
457.937	392.38
458.157	385.38
458.377	379.38
458.598	413.38
458.818	439.38
459.038	558.38
459.258	541.38
459.478	456.38
459.698	428.38
459.918	426.38
460.138	433.38
460.358	398.38
460.578	385.38
460.798	401.38
461.018	418.38
461.238	408.38
461.458	420.38
461.678	389.38
461.898	393.38
462.118	409.38
462.338	409.38
462.558	418.38
462.777	439.38
462.997	418.38
463.217	425.38
463.437	470.38
463.657	428.38
463.876	446.38
464.096	426.38
464.316	427.38
464.536	429.38
464.755	412.38
464.975	448.38
465.195	515.38
465.414	581.38
465.634	492.38
465.854	470.38
466.073	428.38
466.293	427.38
466.512	421.38
466.732	390.38
466.951	386.38
467.171	399.38
467.391	408.38
467.61	424.38
467.829	438.38
468.049	426.38
468.268	436.38
468.488	379.38
468.707	386.38
468.927	399.38
469.146	394.38
469.365	412.38
469.585	386.38
469.804	404.38
470.023	413.38
470.243	407.38
470.462	420.38
470.681	444.38
470.901	427.38
471.12	418.38
471.339	397.38
471.558	412.38
471.777	409.38
471.997	425.38
472.216	421.38
472.435	463.38
472.654	444.38
472.873	415.38
473.092	406.38
473.311	404.38
473.53	411.38
473.749	408.38
473.968	483.38
474.187	568.38
474.406	584.38
474.625	461.38
474.844	428.38
475.063	413.38
475.282	412.38
475.501	412.38
475.72	430.38
475.939	410.38
476.158	438.38
476.377	417.38
476.596	419.38
476.814	448.38
477.033	459.38
477.252	439.38
477.471	436.38
477.69	438.38
477.908	447.38
478.127	446.38
478.346	437.38
478.564	437.38
478.783	464.38
479.002	463.38
479.22	454.38
479.439	477.38
479.658	496.38
479.876	493.38
480.095	484.38
480.313	516.38
480.532	516.38
480.751	501.38
480.969	517.38
481.188	608.38
481.406	632.38
481.624	556.38
481.843	519.38
482.061	499.38
482.28	491.38
482.498	497.38
482.717	488.38
482.935	476.38
483.153	489.38
483.372	496.38
483.59	480.38
483.808	479.38
484.027	486.38
484.245	485.38
484.463	497.38
484.681	488.38
484.9	473.38
485.118	496.38
485.336	490.38
485.554	493.38
485.772	500.38
485.99	500.38
486.209	490.38
486.427	541.38
486.645	526.38
486.863	541.38
487.081	519.38
487.299	542.38
487.517	530.38
487.735	525.38
487.953	523.38
488.171	515.38
488.389	500.38
488.607	518.38
488.825	529.38
489.043	522.38
489.261	520.38
489.479	543.38
489.696	545.38
489.914	547.38
490.132	560.38
490.35	564.38
490.568	576.38
490.786	562.38
491.003	562.38
491.221	571.38
491.439	605.38
491.657	587.38
491.874	613.38
492.092	603.38
492.31	580.38
492.527	600.38
492.745	591.38
492.963	597.38
493.18	609.38
493.398	593.38
493.615	614.38
493.833	632.38
494.05	618.38
494.268	614.38
494.485	616.38
494.703	597.38
494.92	591.38
495.138	638.38
495.355	613.38
495.573	626.38
495.79	608.38
496.008	630.38
496.225	628.38
496.442	608.38
496.66	641.38
496.877	611.38
497.094	636.38
497.312	644.38
497.529	657.38
497.746	631.38
497.963	628.38
498.181	683.38
498.398	657.38
498.615	677.38
498.832	662.38
499.049	688.38
499.267	672.38
499.484	704.38
499.701	689.38
499.918	722.38
500.135	735.38
500.352	748.38
500.569	758.38
500.786	782.38
501.003	775.38
501.22	760.38
501.437	739.38
501.654	744.38
501.871	765.38
