Data from 1965.PennyLincolnUp.Lamp.En5.5.200Scan.071719.P1._HRD10591_14-10-43-912.txt Node
Date: Thu Jul 18 14:10:43 EDT 2019
User: cochatt
Spectrometer: HR+D1059
Trigger mode: 1
Integration Time (sec): 1.000000E-1
Scans to average: 1
Electric dark correction enabled: true
Nonlinearity correction enabled: false
Boxcar width: 0
XAxis mode: Wavelengths
Number of Pixels in Spectrum: 2048
>>>>>Begin Spectral Data<<<<<
223.165	-15.62
223.4	-15.62
223.635	-15.62
223.869	-16.62
224.104	-13.62
224.338	-11.62
224.573	-14.62
224.808	-5.62
225.042	-16.62
225.277	-8.62
225.511	-0.62
225.746	5.38
225.98	0.38
226.215	20.38
226.449	15.38
226.683	12.38
226.918	23.38
227.152	26.38
227.387	34.38
227.621	40.38
227.856	33.38
228.09	45.38
228.324	49.38
228.559	49.38
228.793	64.38
229.027	78.38
229.262	96.38
229.496	106.38
229.73	113.38
229.964	132.38
230.199	117.38
230.433	105.38
230.667	97.38
230.901	110.38
231.136	91.38
231.37	114.38
231.604	105.38
231.838	114.38
232.072	101.38
232.306	103.38
232.541	93.38
232.775	115.38
233.009	108.38
233.243	94.38
233.477	109.38
233.711	102.38
233.945	105.38
234.179	102.38
234.413	98.38
234.647	97.38
234.881	97.38
235.115	108.38
235.349	108.38
235.583	95.38
235.817	108.38
236.051	110.38
236.285	121.38
236.519	120.38
236.753	134.38
236.987	132.38
237.221	192.38
237.455	219.38
237.689	159.38
237.922	124.38
238.156	137.38
238.39	113.38
238.624	129.38
238.858	116.38
239.091	110.38
239.325	108.38
239.559	112.38
239.793	120.38
240.027	119.38
240.26	117.38
240.494	144.38
240.728	139.38
240.961	136.38
241.195	130.38
241.429	124.38
241.662	120.38
241.896	110.38
242.13	122.38
242.363	114.38
242.597	108.38
242.83	121.38
243.064	109.38
243.298	115.38
243.531	111.38
243.765	115.38
243.998	121.38
244.232	114.38
244.465	113.38
244.699	129.38
244.932	127.38
245.166	136.38
245.399	133.38
245.633	105.38
245.866	118.38
246.099	130.38
246.333	128.38
246.566	137.38
246.8	133.38
247.033	115.38
247.266	134.38
247.5	144.38
247.733	147.38
247.966	152.38
248.2	152.38
248.433	136.38
248.666	151.38
248.899	152.38
249.133	180.38
249.366	193.38
249.599	164.38
249.832	160.38
250.066	167.38
250.299	151.38
250.532	170.38
250.765	180.38
250.998	203.38
251.231	189.38
251.465	183.38
251.698	172.38
251.931	176.38
252.164	188.38
252.397	166.38
252.63	176.38
252.863	178.38
253.096	192.38
253.329	205.38
253.562	211.38
253.795	215.38
254.028	192.38
254.261	194.38
254.494	201.38
254.727	227.38
254.96	256.38
255.193	229.38
255.426	219.38
255.659	203.38
255.892	209.38
256.124	199.38
256.357	203.38
256.59	197.38
256.823	191.38
257.056	181.38
257.289	191.38
257.521	173.38
257.754	168.38
257.987	185.38
258.22	197.38
258.452	175.38
258.685	180.38
258.918	165.38
259.151	193.38
259.383	195.38
259.616	180.38
259.849	194.38
260.081	209.38
260.314	223.38
260.547	222.38
260.779	212.38
261.012	200.38
261.244	214.38
261.477	194.38
261.71	184.38
261.942	212.38
262.175	243.38
262.407	222.38
262.64	184.38
262.872	194.38
263.105	190.38
263.337	194.38
263.57	181.38
263.802	191.38
264.035	184.38
264.267	176.38
264.499	185.38
264.732	187.38
264.964	185.38
265.197	183.38
265.429	198.38
265.661	191.38
265.894	190.38
266.126	171.38
266.358	181.38
266.591	201.38
266.823	189.38
267.055	196.38
267.287	208.38
267.52	177.38
267.752	198.38
267.984	180.38
268.216	194.38
268.448	192.38
268.681	201.38
268.913	228.38
269.145	236.38
269.377	230.38
269.609	227.38
269.841	248.38
270.073	237.38
270.306	277.38
270.538	270.38
270.77	290.38
271.002	270.38
271.234	280.38
271.466	266.38
271.698	294.38
271.93	288.38
272.162	278.38
272.394	272.38
272.626	289.38
272.858	254.38
273.09	233.38
273.322	225.38
273.553	244.38
273.785	228.38
274.017	230.38
274.249	236.38
274.481	231.38
274.713	248.38
274.945	239.38
275.176	237.38
275.408	238.38
275.64	229.38
275.872	233.38
276.104	231.38
276.335	237.38
276.567	242.38
276.799	266.38
277.031	267.38
277.262	280.38
277.494	288.38
277.726	267.38
277.957	253.38
278.189	238.38
278.421	240.38
278.652	232.38
278.884	222.38
279.115	221.38
279.347	223.38
279.579	245.38
279.81	237.38
280.042	230.38
280.273	205.38
280.505	215.38
280.736	216.38
280.968	234.38
281.199	236.38
281.431	229.38
281.662	232.38
281.894	213.38
282.125	244.38
282.356	227.38
282.588	271.38
282.819	263.38
283.051	258.38
283.282	231.38
283.513	233.38
283.745	237.38
283.976	236.38
284.207	241.38
284.439	250.38
284.67	253.38
284.901	239.38
285.132	233.38
285.364	232.38
285.595	232.38
285.826	222.38
286.057	248.38
286.288	233.38
286.52	245.38
286.751	256.38
286.982	247.38
287.213	227.38
287.444	241.38
287.675	260.38
287.906	261.38
288.138	249.38
288.369	248.38
288.6	257.38
288.831	265.38
289.062	254.38
289.293	252.38
289.524	272.38
289.755	246.38
289.986	253.38
290.217	247.38
290.448	252.38
290.679	237.38
290.91	258.38
291.141	238.38
291.371	240.38
291.602	248.38
291.833	241.38
292.064	252.38
292.295	261.38
292.526	246.38
292.757	263.38
292.987	247.38
293.218	250.38
293.449	247.38
293.68	260.38
293.91	228.38
294.141	244.38
294.372	254.38
294.603	256.38
294.833	230.38
295.064	263.38
295.295	264.38
295.525	260.38
295.756	249.38
295.987	260.38
296.217	278.38
296.448	303.38
296.679	267.38
296.909	256.38
297.14	263.38
297.37	264.38
297.601	255.38
297.831	270.38
298.062	245.38
298.292	267.38
298.523	266.38
298.753	268.38
298.984	272.38
299.214	260.38
299.445	256.38
299.675	274.38
299.905	270.38
300.136	269.38
300.366	259.38
300.597	271.38
300.827	282.38
301.057	272.38
301.288	281.38
301.518	284.38
301.748	274.38
301.979	277.38
302.209	285.38
302.439	296.38
302.669	273.38
302.9	276.38
303.13	271.38
303.36	306.38
303.59	294.38
303.82	286.38
304.051	276.38
304.281	285.38
304.511	270.38
304.741	254.38
304.971	281.38
305.201	299.38
305.431	284.38
305.661	272.38
305.891	288.38
306.121	284.38
306.352	271.38
306.582	302.38
306.812	286.38
307.042	297.38
307.272	285.38
307.502	285.38
307.731	297.38
307.961	285.38
308.191	287.38
308.421	292.38
308.651	295.38
308.881	300.38
309.111	308.38
309.341	292.38
309.571	317.38
309.8	317.38
310.03	330.38
310.26	321.38
310.49	344.38
310.72	326.38
310.949	348.38
311.179	359.38
311.409	345.38
311.639	339.38
311.868	337.38
312.098	334.38
312.328	361.38
312.557	332.38
312.787	371.38
313.017	384.38
313.246	346.38
313.476	335.38
313.706	332.38
313.935	340.38
314.165	348.38
314.394	349.38
314.624	353.38
314.853	337.38
315.083	331.38
315.312	330.38
315.542	318.38
315.771	326.38
316.001	322.38
316.23	341.38
316.46	331.38
316.689	328.38
316.919	342.38
317.148	354.38
317.377	321.38
317.607	350.38
317.836	344.38
318.065	343.38
318.295	323.38
318.524	322.38
318.753	334.38
318.983	341.38
319.212	334.38
319.441	346.38
319.67	342.38
319.9	327.38
320.129	329.38
320.358	333.38
320.587	341.38
320.816	358.38
321.046	347.38
321.275	356.38
321.504	353.38
321.733	366.38
321.962	396.38
322.191	356.38
322.42	397.38
322.649	416.38
322.878	406.38
323.108	421.38
323.337	459.38
323.566	488.38
323.795	514.38
324.024	569.38
324.253	713.38
324.482	1042.38
324.71	1606.38
324.939	2177.38
325.168	1764.38
325.397	950.38
325.626	625.38
325.855	536.38
326.084	510.38
326.313	468.38
326.542	473.38
326.77	530.38
326.999	651.38
327.228	922.38
327.457	1350.38
327.686	1607.38
327.914	1048.38
328.143	699.38
328.372	610.38
328.6	570.38
328.829	548.38
329.058	559.38
329.287	566.38
329.515	515.38
329.744	492.38
329.972	484.38
330.201	485.38
330.43	548.38
330.658	582.38
330.887	592.38
331.115	566.38
331.344	488.38
331.572	441.38
331.801	442.38
332.03	469.38
332.258	420.38
332.486	416.38
332.715	402.38
332.943	408.38
333.172	400.38
333.4	407.38
333.629	422.38
333.857	422.38
334.085	447.38
334.314	465.38
334.542	499.38
334.771	500.38
334.999	472.38
335.227	417.38
335.455	413.38
335.684	385.38
335.912	365.38
336.14	385.38
336.369	398.38
336.597	418.38
336.825	382.38
337.053	396.38
337.281	378.38
337.51	382.38
337.738	388.38
337.966	384.38
338.194	402.38
338.422	396.38
338.65	391.38
338.878	374.38
339.106	366.38
339.334	376.38
339.562	367.38
339.79	366.38
340.018	386.38
340.246	394.38
340.474	378.38
340.702	361.38
340.93	387.38
341.158	364.38
341.386	374.38
341.614	392.38
341.842	391.38
342.07	359.38
342.298	353.38
342.526	357.38
342.754	362.38
342.981	347.38
343.209	358.38
343.437	358.38
343.665	358.38
343.893	375.38
344.12	366.38
344.348	378.38
344.576	381.38
344.804	378.38
345.031	399.38
345.259	408.38
345.487	408.38
345.714	398.38
345.942	355.38
346.17	348.38
346.397	386.38
346.625	368.38
346.853	354.38
347.08	359.38
347.308	380.38
347.535	386.38
347.763	369.38
347.99	361.38
348.218	380.38
348.445	386.38
348.673	376.38
348.9	360.38
349.128	364.38
349.355	337.38
349.583	358.38
349.81	343.38
350.037	357.38
350.265	348.38
350.492	350.38
350.72	363.38
350.947	354.38
351.174	374.38
351.402	367.38
351.629	361.38
351.856	356.38
352.083	375.38
352.311	378.38
352.538	390.38
352.765	398.38
352.992	368.38
353.22	358.38
353.447	372.38
353.674	376.38
353.901	349.38
354.128	344.38
354.355	338.38
354.583	343.38
354.81	338.38
355.037	325.38
355.264	325.38
355.491	338.38
355.718	327.38
355.945	319.38
356.172	334.38
356.399	317.38
356.626	344.38
356.853	334.38
357.08	330.38
357.307	343.38
357.534	326.38
357.761	324.38
357.988	354.38
358.215	340.38
358.441	334.38
358.668	336.38
358.895	339.38
359.122	367.38
359.349	359.38
359.576	360.38
359.802	394.38
360.029	386.38
360.256	419.38
360.483	398.38
360.709	372.38
360.936	369.38
361.163	377.38
361.39	375.38
361.616	361.38
361.843	364.38
362.07	384.38
362.296	348.38
362.523	366.38
362.749	364.38
362.976	364.38
363.203	350.38
363.429	363.38
363.656	354.38
363.882	342.38
364.109	346.38
364.335	342.38
364.562	326.38
364.788	341.38
365.015	340.38
365.241	339.38
365.468	367.38
365.694	361.38
365.92	349.38
366.147	344.38
366.373	362.38
366.599	333.38
366.826	342.38
367.052	324.38
367.278	343.38
367.505	328.38
367.731	354.38
367.957	346.38
368.184	342.38
368.41	345.38
368.636	361.38
368.862	354.38
369.089	370.38
369.315	363.38
369.541	325.38
369.767	332.38
369.993	338.38
370.219	321.38
370.445	336.38
370.672	337.38
370.898	335.38
371.124	338.38
371.35	345.38
371.576	330.38
371.802	337.38
372.028	328.38
372.254	326.38
372.48	342.38
372.706	330.38
372.932	342.38
373.158	325.38
373.384	326.38
373.61	321.38
373.835	334.38
374.061	337.38
374.287	339.38
374.513	331.38
374.739	342.38
374.965	353.38
375.191	348.38
375.416	333.38
375.642	341.38
375.868	330.38
376.094	355.38
376.319	336.38
376.545	337.38
376.771	333.38
376.997	321.38
377.222	350.38
377.448	333.38
377.674	341.38
377.899	356.38
378.125	348.38
378.35	327.38
378.576	316.38
378.802	322.38
379.027	332.38
379.253	324.38
379.478	314.38
379.704	321.38
379.929	320.38
380.155	336.38
380.38	326.38
380.606	322.38
380.831	316.38
381.057	351.38
381.282	335.38
381.507	355.38
381.733	345.38
381.958	333.38
382.184	354.38
382.409	321.38
382.634	336.38
382.86	345.38
383.085	339.38
383.31	368.38
383.535	346.38
383.761	344.38
383.986	349.38
384.211	364.38
384.436	360.38
384.662	339.38
384.887	346.38
385.112	337.38
385.337	353.38
385.562	327.38
385.787	338.38
386.013	364.38
386.238	368.38
386.463	375.38
386.688	361.38
386.913	359.38
387.138	359.38
387.363	362.38
387.588	352.38
387.813	361.38
388.038	340.38
388.263	358.38
388.488	367.38
388.713	359.38
388.938	361.38
389.163	359.38
389.387	370.38
389.612	350.38
389.837	362.38
390.062	357.38
390.287	368.38
390.512	359.38
390.736	370.38
390.961	348.38
391.186	350.38
391.411	361.38
391.636	370.38
391.86	344.38
392.085	360.38
392.31	369.38
392.534	359.38
392.759	366.38
392.984	376.38
393.208	349.38
393.433	372.38
393.658	338.38
393.882	364.38
394.107	348.38
394.331	372.38
394.556	366.38
394.78	357.38
395.005	352.38
395.229	358.38
395.454	367.38
395.678	372.38
395.903	390.38
396.127	401.38
396.352	394.38
396.576	395.38
396.801	366.38
397.025	388.38
397.249	357.38
397.474	382.38
397.698	384.38
397.922	394.38
398.147	413.38
398.371	418.38
398.595	397.38
398.82	404.38
399.044	410.38
399.268	414.38
399.492	433.38
399.717	437.38
399.941	466.38
400.165	509.38
400.389	491.38
400.613	470.38
400.837	432.38
401.062	404.38
401.286	398.38
401.51	391.38
401.734	414.38
401.958	408.38
402.182	395.38
402.406	422.38
402.63	432.38
402.854	416.38
403.078	428.38
403.302	428.38
403.526	425.38
403.75	411.38
403.974	427.38
404.198	402.38
404.422	420.38
404.645	428.38
404.869	439.38
405.093	470.38
405.317	508.38
405.541	500.38
405.765	473.38
405.988	468.38
406.212	460.38
406.436	462.38
406.66	495.38
406.883	478.38
407.107	485.38
407.331	509.38
407.555	569.38
407.778	575.38
408.002	529.38
408.226	469.38
408.449	444.38
408.673	448.38
408.896	484.38
409.12	536.38
409.344	497.38
409.567	460.38
409.791	440.38
410.014	439.38
410.238	445.38
410.461	435.38
410.685	426.38
410.908	441.38
411.132	465.38
411.355	496.38
411.578	459.38
411.802	445.38
412.025	421.38
412.249	419.38
412.472	452.38
412.695	496.38
412.919	492.38
413.142	447.38
413.365	425.38
413.589	416.38
413.812	409.38
414.035	394.38
414.258	380.38
414.482	406.38
414.705	411.38
414.928	380.38
415.151	420.38
415.374	416.38
415.597	390.38
415.821	393.38
416.044	399.38
416.267	399.38
416.49	395.38
416.713	387.38
416.936	421.38
417.159	411.38
417.382	382.38
417.605	419.38
417.828	428.38
418.051	401.38
418.274	412.38
418.497	384.38
418.72	408.38
418.943	394.38
419.166	398.38
419.389	433.38
419.611	430.38
419.834	436.38
420.057	428.38
420.28	417.38
420.503	409.38
420.726	402.38
420.948	428.38
421.171	479.38
421.394	469.38
421.617	432.38
421.839	428.38
422.062	411.38
422.285	431.38
422.507	473.38
422.73	532.38
422.953	527.38
423.175	475.38
423.398	448.38
423.621	441.38
423.843	458.38
424.066	466.38
424.288	456.38
424.511	470.38
424.733	520.38
424.956	570.38
425.178	540.38
425.401	557.38
425.623	566.38
425.846	478.38
426.068	460.38
426.291	446.38
426.513	466.38
426.735	466.38
426.958	506.38
427.18	589.38
427.402	662.38
427.625	739.38
427.847	673.38
428.069	576.38
428.292	514.38
428.514	470.38
428.736	469.38
428.958	449.38
429.181	418.38
429.403	433.38
429.625	434.38
429.847	463.38
430.069	527.38
430.292	507.38
430.514	439.38
430.736	425.38
430.958	428.38
431.18	410.38
431.402	405.38
431.624	397.38
431.846	384.38
432.068	382.38
432.29	410.38
432.512	390.38
432.734	410.38
432.956	388.38
433.178	409.38
433.4	429.38
433.622	423.38
433.844	398.38
434.066	382.38
434.287	395.38
434.509	415.38
434.731	406.38
434.953	389.38
435.175	409.38
435.397	440.38
435.618	467.38
435.84	508.38
436.062	600.38
436.284	614.38
436.505	524.38
436.727	468.38
436.949	448.38
437.17	441.38
437.392	422.38
437.614	454.38
437.835	492.38
438.057	582.38
438.278	636.38
438.5	638.38
438.721	679.38
438.943	646.38
439.165	538.38
439.386	485.38
439.608	484.38
439.829	451.38
440.05	506.38
440.272	543.38
440.493	532.38
440.715	463.38
440.936	440.38
441.158	411.38
441.379	425.38
441.6	432.38
441.822	461.38
442.043	487.38
442.264	591.38
442.486	594.38
442.707	538.38
442.928	475.38
443.149	495.38
443.371	516.38
443.592	541.38
443.813	631.38
444.034	636.38
444.255	548.38
444.476	481.38
444.698	465.38
444.919	440.38
445.14	543.38
445.361	513.38
445.582	502.38
445.803	585.38
446.024	673.38
446.245	656.38
446.466	602.38
446.687	496.38
446.908	472.38
447.129	456.38
447.35	453.38
447.571	425.38
447.792	429.38
448.013	449.38
448.234	457.38
448.455	511.38
448.675	599.38
448.896	670.38
449.117	588.38
449.338	553.38
449.559	632.38
449.779	697.38
450	578.38
450.221	483.38
450.442	444.38
450.662	458.38
450.883	446.38
451.104	455.38
451.324	457.38
451.545	425.38
451.766	422.38
451.986	393.38
452.207	394.38
452.428	394.38
452.648	401.38
452.869	377.38
453.089	394.38
453.31	397.38
453.53	392.38
453.751	392.38
453.971	393.38
454.192	425.38
454.412	407.38
454.633	392.38
454.853	390.38
455.073	382.38
455.294	423.38
455.514	471.38
455.734	450.38
455.955	398.38
456.175	370.38
456.395	370.38
456.616	368.38
456.836	382.38
457.056	368.38
457.276	358.38
457.497	348.38
457.717	374.38
457.937	378.38
458.157	376.38
458.377	384.38
458.598	407.38
458.818	473.38
459.038	569.38
459.258	561.38
459.478	467.38
459.698	404.38
459.918	391.38
460.138	393.38
460.358	398.38
460.578	406.38
460.798	401.38
461.018	394.38
461.238	408.38
461.458	408.38
461.678	400.38
461.898	401.38
462.118	392.38
462.338	415.38
462.558	425.38
462.777	406.38
462.997	426.38
463.217	421.38
463.437	431.38
463.657	404.38
463.876	432.38
464.096	408.38
464.316	425.38
464.536	453.38
464.755	428.38
464.975	435.38
465.195	485.38
465.414	553.38
465.634	479.38
465.854	464.38
466.073	418.38
466.293	419.38
466.512	416.38
466.732	379.38
466.951	420.38
467.171	402.38
467.391	412.38
467.61	405.38
467.829	404.38
468.049	405.38
468.268	432.38
468.488	394.38
468.707	378.38
468.927	375.38
469.146	381.38
469.365	387.38
469.585	390.38
469.804	391.38
470.023	413.38
470.243	414.38
470.462	396.38
470.681	427.38
470.901	424.38
471.12	409.38
471.339	402.38
471.558	411.38
471.777	403.38
471.997	400.38
472.216	416.38
472.435	441.38
472.654	452.38
472.873	395.38
473.092	398.38
473.311	406.38
473.53	380.38
473.749	422.38
473.968	447.38
474.187	544.38
474.406	563.38
474.625	440.38
474.844	425.38
475.063	410.38
475.282	414.38
475.501	392.38
475.72	429.38
475.939	414.38
476.158	426.38
476.377	430.38
476.596	396.38
476.814	429.38
477.033	437.38
477.252	426.38
477.471	422.38
477.69	426.38
477.908	405.38
478.127	429.38
478.346	430.38
478.564	453.38
478.783	454.38
479.002	440.38
479.22	449.38
479.439	454.38
479.658	479.38
479.876	490.38
480.095	488.38
480.313	520.38
480.532	500.38
480.751	497.38
480.969	498.38
481.188	554.38
481.406	607.38
481.624	533.38
481.843	489.38
482.061	474.38
482.28	497.38
482.498	465.38
482.717	467.38
482.935	468.38
483.153	478.38
483.372	468.38
483.59	463.38
483.808	458.38
484.027	457.38
484.245	464.38
484.463	472.38
484.681	476.38
484.9	475.38
485.118	479.38
485.336	479.38
485.554	491.38
485.772	482.38
485.99	487.38
486.209	503.38
486.427	514.38
486.645	514.38
486.863	516.38
487.081	535.38
487.299	527.38
487.517	503.38
487.735	511.38
487.953	508.38
488.171	499.38
488.389	516.38
488.607	494.38
488.825	487.38
489.043	516.38
489.261	518.38
489.479	521.38
489.696	531.38
489.914	523.38
490.132	532.38
490.35	528.38
490.568	530.38
490.786	527.38
491.003	551.38
491.221	560.38
491.439	577.38
491.657	575.38
491.874	577.38
492.092	590.38
492.31	609.38
492.527	579.38
492.745	593.38
492.963	604.38
493.18	603.38
493.398	605.38
493.615	601.38
493.833	584.38
494.05	612.38
494.268	587.38
494.485	598.38
494.703	605.38
494.92	592.38
495.138	614.38
495.355	602.38
495.573	611.38
495.79	611.38
496.008	610.38
496.225	596.38
496.442	606.38
496.66	593.38
496.877	601.38
497.094	588.38
497.312	597.38
497.529	630.38
497.746	633.38
497.963	625.38
498.181	658.38
498.398	657.38
498.615	666.38
498.832	643.38
499.049	649.38
499.267	653.38
499.484	686.38
499.701	683.38
499.918	710.38
500.135	734.38
500.352	760.38
500.569	744.38
500.786	762.38
501.003	754.38
501.22	761.38
501.437	749.38
501.654	720.38
501.871	740.38
502.088	718.38
