Data from 1965.PennyLincolnUp.Lamp.En5.5.200Scan.071719.P1._HRD10591_14-10-33-912.txt Node
Date: Thu Jul 18 14:10:33 EDT 2019
User: cochatt
Spectrometer: HR+D1059
Trigger mode: 1
Integration Time (sec): 1.000000E-1
Scans to average: 1
Electric dark correction enabled: true
Nonlinearity correction enabled: false
Boxcar width: 0
XAxis mode: Wavelengths
Number of Pixels in Spectrum: 2048
>>>>>Begin Spectral Data<<<<<
223.165	-13.88
223.4	-13.88
223.635	-13.88
223.869	-30.88
224.104	-17.88
224.338	-8.88
224.573	3.12
224.808	-9.88
225.042	-17.88
225.277	-11.88
225.511	-13.88
225.746	8.12
225.98	-0.88
226.215	5.12
226.449	16.12
226.683	24.12
226.918	32.12
227.152	37.12
227.387	30.12
227.621	38.12
227.856	37.12
228.09	43.12
228.324	36.12
228.559	55.12
228.793	63.12
229.027	85.12
229.262	109.12
229.496	115.12
229.73	138.12
229.964	153.12
230.199	125.12
230.433	101.12
230.667	103.12
230.901	99.12
231.136	109.12
231.37	95.12
231.604	100.12
231.838	108.12
232.072	118.12
232.306	107.12
232.541	108.12
232.775	99.12
233.009	100.12
233.243	114.12
233.477	116.12
233.711	118.12
233.945	110.12
234.179	104.12
234.413	126.12
234.647	104.12
234.881	114.12
235.115	122.12
235.349	104.12
235.583	122.12
235.817	108.12
236.051	120.12
236.285	111.12
236.519	120.12
236.753	132.12
236.987	147.12
237.221	194.12
237.455	233.12
237.689	168.12
237.922	136.12
238.156	140.12
238.39	128.12
238.624	120.12
238.858	119.12
239.091	123.12
239.325	110.12
239.559	123.12
239.793	130.12
240.027	134.12
240.26	124.12
240.494	152.12
240.728	145.12
240.961	138.12
241.195	131.12
241.429	122.12
241.662	132.12
241.896	133.12
242.13	128.12
242.363	120.12
242.597	123.12
242.83	135.12
243.064	132.12
243.298	145.12
243.531	140.12
243.765	132.12
243.998	131.12
244.232	125.12
244.465	132.12
244.699	141.12
244.932	128.12
245.166	138.12
245.399	136.12
245.633	127.12
245.866	140.12
246.099	139.12
246.333	144.12
246.566	140.12
246.8	136.12
247.033	136.12
247.266	154.12
247.5	152.12
247.733	163.12
247.966	166.12
248.2	144.12
248.433	164.12
248.666	152.12
248.899	165.12
249.133	199.12
249.366	198.12
249.599	184.12
249.832	175.12
250.066	168.12
250.299	168.12
250.532	179.12
250.765	183.12
250.998	187.12
251.231	194.12
251.465	186.12
251.698	184.12
251.931	193.12
252.164	180.12
252.397	191.12
252.63	172.12
252.863	203.12
253.096	189.12
253.329	222.12
253.562	214.12
253.795	195.12
254.028	207.12
254.261	188.12
254.494	216.12
254.727	243.12
254.96	277.12
255.193	252.12
255.426	235.12
255.659	216.12
255.892	216.12
256.124	211.12
256.357	213.12
256.59	207.12
256.823	196.12
257.056	201.12
257.289	204.12
257.521	203.12
257.754	195.12
257.987	195.12
258.22	203.12
258.452	203.12
258.685	186.12
258.918	186.12
259.151	204.12
259.383	194.12
259.616	201.12
259.849	214.12
260.081	216.12
260.314	227.12
260.547	251.12
260.779	232.12
261.012	213.12
261.244	214.12
261.477	210.12
261.71	208.12
261.942	210.12
262.175	227.12
262.407	219.12
262.64	186.12
262.872	200.12
263.105	190.12
263.337	183.12
263.57	194.12
263.802	189.12
264.035	203.12
264.267	175.12
264.499	188.12
264.732	202.12
264.964	187.12
265.197	205.12
265.429	199.12
265.661	197.12
265.894	211.12
266.126	199.12
266.358	204.12
266.591	202.12
266.823	203.12
267.055	204.12
267.287	221.12
267.52	225.12
267.752	216.12
267.984	200.12
268.216	220.12
268.448	214.12
268.681	205.12
268.913	229.12
269.145	246.12
269.377	247.12
269.609	248.12
269.841	233.12
270.073	252.12
270.306	282.12
270.538	287.12
270.77	294.12
271.002	274.12
271.234	276.12
271.466	282.12
271.698	296.12
271.93	281.12
272.162	291.12
272.394	291.12
272.626	293.12
272.858	266.12
273.09	276.12
273.322	252.12
273.553	234.12
273.785	244.12
274.017	262.12
274.249	244.12
274.481	251.12
274.713	242.12
274.945	262.12
275.176	260.12
275.408	237.12
275.64	244.12
275.872	232.12
276.104	231.12
276.335	249.12
276.567	248.12
276.799	259.12
277.031	283.12
277.262	302.12
277.494	283.12
277.726	292.12
277.957	272.12
278.189	250.12
278.421	272.12
278.652	242.12
278.884	226.12
279.115	246.12
279.347	250.12
279.579	239.12
279.81	248.12
280.042	223.12
280.273	244.12
280.505	244.12
280.736	234.12
280.968	252.12
281.199	242.12
281.431	247.12
281.662	250.12
281.894	252.12
282.125	238.12
282.356	268.12
282.588	282.12
282.819	270.12
283.051	253.12
283.282	260.12
283.513	255.12
283.745	254.12
283.976	248.12
284.207	243.12
284.439	249.12
284.67	245.12
284.901	264.12
285.132	257.12
285.364	263.12
285.595	267.12
285.826	256.12
286.057	243.12
286.288	248.12
286.52	245.12
286.751	248.12
286.982	235.12
287.213	237.12
287.444	252.12
287.675	264.12
287.906	254.12
288.138	286.12
288.369	291.12
288.6	268.12
288.831	257.12
289.062	270.12
289.293	275.12
289.524	258.12
289.755	251.12
289.986	261.12
290.217	246.12
290.448	270.12
290.679	269.12
290.91	246.12
291.141	257.12
291.371	255.12
291.602	244.12
291.833	247.12
292.064	266.12
292.295	258.12
292.526	256.12
292.757	266.12
292.987	238.12
293.218	266.12
293.449	254.12
293.68	267.12
293.91	279.12
294.141	258.12
294.372	237.12
294.603	278.12
294.833	276.12
295.064	275.12
295.295	266.12
295.525	265.12
295.756	283.12
295.987	272.12
296.217	295.12
296.448	286.12
296.679	284.12
296.909	265.12
297.14	245.12
297.37	264.12
297.601	264.12
297.831	280.12
298.062	268.12
298.292	279.12
298.523	274.12
298.753	269.12
298.984	280.12
299.214	286.12
299.445	274.12
299.675	295.12
299.905	266.12
300.136	267.12
300.366	280.12
300.597	285.12
300.827	273.12
301.057	293.12
301.288	301.12
301.518	284.12
301.748	297.12
301.979	288.12
302.209	290.12
302.439	302.12
302.669	290.12
302.9	298.12
303.13	308.12
303.36	281.12
303.59	303.12
303.82	315.12
304.051	286.12
304.281	286.12
304.511	284.12
304.741	292.12
304.971	296.12
305.201	303.12
305.431	304.12
305.661	300.12
305.891	297.12
306.121	280.12
306.352	303.12
306.582	299.12
306.812	308.12
307.042	304.12
307.272	318.12
307.502	313.12
307.731	315.12
307.961	304.12
308.191	285.12
308.421	301.12
308.651	293.12
308.881	306.12
309.111	330.12
309.341	315.12
309.571	335.12
309.8	330.12
310.03	348.12
310.26	350.12
310.49	341.12
310.72	336.12
310.949	372.12
311.179	377.12
311.409	349.12
311.639	363.12
311.868	363.12
312.098	355.12
312.328	348.12
312.557	366.12
312.787	395.12
313.017	380.12
313.246	360.12
313.476	356.12
313.706	343.12
313.935	349.12
314.165	375.12
314.394	388.12
314.624	372.12
314.853	352.12
315.083	370.12
315.312	348.12
315.542	376.12
315.771	339.12
316.001	332.12
316.23	351.12
316.46	326.12
316.689	334.12
316.919	344.12
317.148	345.12
317.377	352.12
317.607	359.12
317.836	366.12
318.065	350.12
318.295	350.12
318.524	342.12
318.753	337.12
318.983	363.12
319.212	344.12
319.441	355.12
319.67	358.12
319.9	354.12
320.129	366.12
320.358	352.12
320.587	357.12
320.816	374.12
321.046	382.12
321.275	363.12
321.504	382.12
321.733	380.12
321.962	378.12
322.191	387.12
322.42	421.12
322.649	415.12
322.878	410.12
323.108	435.12
323.337	477.12
323.566	480.12
323.795	492.12
324.024	570.12
324.253	712.12
324.482	1068.12
324.71	1621.12
324.939	2212.12
325.168	1824.12
325.397	978.12
325.626	666.12
325.855	522.12
326.084	490.12
326.313	470.12
326.542	499.12
326.77	536.12
326.999	653.12
327.228	920.12
327.457	1410.12
327.686	1647.12
327.914	1098.12
328.143	734.12
328.372	639.12
328.6	576.12
328.829	558.12
329.058	555.12
329.287	565.12
329.515	539.12
329.744	470.12
329.972	503.12
330.201	534.12
330.43	556.12
330.658	582.12
330.887	608.12
331.115	586.12
331.344	491.12
331.572	477.12
331.801	475.12
332.03	438.12
332.258	447.12
332.486	417.12
332.715	390.12
332.943	401.12
333.172	429.12
333.4	420.12
333.629	411.12
333.857	456.12
334.085	461.12
334.314	486.12
334.542	505.12
334.771	514.12
334.999	463.12
335.227	430.12
335.455	403.12
335.684	404.12
335.912	423.12
336.14	383.12
336.369	410.12
336.597	410.12
336.825	393.12
337.053	394.12
337.281	380.12
337.51	384.12
337.738	395.12
337.966	392.12
338.194	430.12
338.422	415.12
338.65	411.12
338.878	397.12
339.106	388.12
339.334	399.12
339.562	371.12
339.79	390.12
340.018	378.12
340.246	391.12
340.474	407.12
340.702	398.12
340.93	386.12
341.158	378.12
341.386	400.12
341.614	367.12
341.842	390.12
342.07	399.12
342.298	385.12
342.526	380.12
342.754	375.12
342.981	367.12
343.209	365.12
343.437	380.12
343.665	378.12
343.893	388.12
344.12	391.12
344.348	385.12
344.576	404.12
344.804	403.12
345.031	381.12
345.259	398.12
345.487	412.12
345.714	388.12
345.942	380.12
346.17	360.12
346.397	378.12
346.625	369.12
346.853	386.12
347.08	368.12
347.308	374.12
347.535	396.12
347.763	395.12
347.99	399.12
348.218	379.12
348.445	383.12
348.673	387.12
348.9	367.12
349.128	374.12
349.355	382.12
349.583	374.12
349.81	366.12
350.037	380.12
350.265	377.12
350.492	376.12
350.72	378.12
350.947	353.12
351.174	388.12
351.402	388.12
351.629	378.12
351.856	382.12
352.083	390.12
352.311	403.12
352.538	407.12
352.765	407.12
352.992	383.12
353.22	380.12
353.447	380.12
353.674	361.12
353.901	357.12
354.128	347.12
354.355	344.12
354.583	343.12
354.81	365.12
355.037	363.12
355.264	356.12
355.491	353.12
355.718	331.12
355.945	336.12
356.172	347.12
356.399	346.12
356.626	366.12
356.853	335.12
357.08	337.12
357.307	340.12
357.534	339.12
357.761	332.12
357.988	332.12
358.215	354.12
358.441	328.12
358.668	336.12
358.895	355.12
359.122	363.12
359.349	379.12
359.576	378.12
359.802	415.12
360.029	446.12
360.256	443.12
360.483	427.12
360.709	394.12
360.936	365.12
361.163	386.12
361.39	384.12
361.616	391.12
361.843	396.12
362.07	400.12
362.296	372.12
362.523	379.12
362.749	368.12
362.976	368.12
363.203	391.12
363.429	364.12
363.656	370.12
363.882	370.12
364.109	364.12
364.335	352.12
364.562	365.12
364.788	351.12
365.015	366.12
365.241	373.12
365.468	357.12
365.694	374.12
365.92	358.12
366.147	366.12
366.373	354.12
366.599	351.12
366.826	335.12
367.052	361.12
367.278	365.12
367.505	352.12
367.731	368.12
367.957	351.12
368.184	363.12
368.41	347.12
368.636	372.12
368.862	343.12
369.089	374.12
369.315	364.12
369.541	370.12
369.767	370.12
369.993	362.12
370.219	370.12
370.445	345.12
370.672	360.12
370.898	356.12
371.124	359.12
371.35	336.12
371.576	348.12
371.802	358.12
372.028	367.12
372.254	344.12
372.48	339.12
372.706	356.12
372.932	339.12
373.158	350.12
373.384	350.12
373.61	359.12
373.835	333.12
374.061	345.12
374.287	351.12
374.513	363.12
374.739	372.12
374.965	374.12
375.191	352.12
375.416	359.12
375.642	371.12
375.868	369.12
376.094	336.12
376.319	344.12
376.545	347.12
376.771	335.12
376.997	349.12
377.222	348.12
377.448	357.12
377.674	348.12
377.899	336.12
378.125	345.12
378.35	342.12
378.576	334.12
378.802	331.12
379.027	345.12
379.253	343.12
379.478	352.12
379.704	324.12
379.929	341.12
380.155	347.12
380.38	342.12
380.606	357.12
380.831	358.12
381.057	358.12
381.282	348.12
381.507	359.12
381.733	351.12
381.958	355.12
382.184	333.12
382.409	347.12
382.634	347.12
382.86	335.12
383.085	355.12
383.31	357.12
383.535	348.12
383.761	360.12
383.986	368.12
384.211	339.12
384.436	356.12
384.662	366.12
384.887	349.12
385.112	374.12
385.337	390.12
385.562	382.12
385.787	380.12
386.013	384.12
386.238	377.12
386.463	375.12
386.688	376.12
386.913	352.12
387.138	358.12
387.363	385.12
387.588	371.12
387.813	371.12
388.038	371.12
388.263	368.12
388.488	392.12
388.713	384.12
388.938	350.12
389.163	358.12
389.387	368.12
389.612	356.12
389.837	382.12
390.062	392.12
390.287	380.12
390.512	367.12
390.736	370.12
390.961	368.12
391.186	370.12
391.411	358.12
391.636	360.12
391.86	391.12
392.085	368.12
392.31	372.12
392.534	379.12
392.759	391.12
392.984	371.12
393.208	387.12
393.433	350.12
393.658	365.12
393.882	380.12
394.107	359.12
394.331	380.12
394.556	382.12
394.78	378.12
395.005	386.12
395.229	380.12
395.454	376.12
395.678	388.12
395.903	394.12
396.127	404.12
396.352	414.12
396.576	382.12
396.801	389.12
397.025	385.12
397.249	382.12
397.474	392.12
397.698	387.12
397.922	405.12
398.147	412.12
398.371	425.12
398.595	417.12
398.82	426.12
399.044	400.12
399.268	424.12
399.492	442.12
399.717	466.12
399.941	484.12
400.165	496.12
400.389	492.12
400.613	474.12
400.837	423.12
401.062	438.12
401.286	429.12
401.51	420.12
401.734	417.12
401.958	413.12
402.182	440.12
402.406	435.12
402.63	427.12
402.854	437.12
403.078	437.12
403.302	453.12
403.526	450.12
403.75	469.12
403.974	458.12
404.198	456.12
404.422	464.12
404.645	469.12
404.869	456.12
405.093	487.12
405.317	525.12
405.541	534.12
405.765	468.12
405.988	474.12
406.212	476.12
406.436	500.12
406.66	511.12
406.883	479.12
407.107	522.12
407.331	529.12
407.555	568.12
407.778	575.12
408.002	533.12
408.226	507.12
408.449	482.12
408.673	501.12
408.896	506.12
409.12	554.12
409.344	488.12
409.567	451.12
409.791	459.12
410.014	434.12
410.238	443.12
410.461	456.12
410.685	444.12
410.908	443.12
411.132	495.12
411.355	502.12
411.578	488.12
411.802	436.12
412.025	439.12
412.249	434.12
412.472	471.12
412.695	502.12
412.919	495.12
413.142	454.12
413.365	430.12
413.589	448.12
413.812	425.12
414.035	415.12
414.258	402.12
414.482	408.12
414.705	399.12
414.928	426.12
415.151	400.12
415.374	415.12
415.597	429.12
415.821	425.12
416.044	424.12
416.267	413.12
416.49	427.12
416.713	416.12
416.936	411.12
417.159	413.12
417.382	407.12
417.605	422.12
417.828	436.12
418.051	450.12
418.274	437.12
418.497	409.12
418.72	428.12
418.943	412.12
419.166	424.12
419.389	446.12
419.611	444.12
419.834	438.12
420.057	444.12
420.28	421.12
420.503	426.12
420.726	428.12
420.948	470.12
421.171	485.12
421.394	501.12
421.617	463.12
421.839	448.12
422.062	454.12
422.285	451.12
422.507	518.12
422.73	565.12
422.953	552.12
423.175	479.12
423.398	463.12
423.621	461.12
423.843	486.12
424.066	471.12
424.288	478.12
424.511	498.12
424.733	552.12
424.956	624.12
425.178	575.12
425.401	591.12
425.623	596.12
425.846	510.12
426.068	509.12
426.291	480.12
426.513	485.12
426.735	478.12
426.958	546.12
427.18	602.12
427.402	711.12
427.625	751.12
427.847	684.12
428.069	599.12
428.292	540.12
428.514	478.12
428.736	458.12
428.958	447.12
429.181	459.12
429.403	449.12
429.625	448.12
429.847	492.12
430.069	550.12
430.292	538.12
430.514	443.12
430.736	443.12
430.958	412.12
431.18	426.12
431.402	430.12
431.624	418.12
431.846	412.12
432.068	409.12
432.29	431.12
432.512	399.12
432.734	413.12
432.956	418.12
433.178	441.12
433.4	419.12
433.622	422.12
433.844	434.12
434.066	424.12
434.287	416.12
434.509	414.12
434.731	424.12
434.953	436.12
435.175	447.12
435.397	480.12
435.618	466.12
435.84	516.12
436.062	615.12
436.284	666.12
436.505	541.12
436.727	493.12
436.949	478.12
437.17	424.12
437.392	459.12
437.614	470.12
437.835	510.12
438.057	591.12
438.278	691.12
438.5	653.12
438.721	711.12
438.943	668.12
439.165	564.12
439.386	525.12
439.608	498.12
439.829	514.12
440.05	539.12
440.272	557.12
440.493	534.12
440.715	489.12
440.936	454.12
441.158	460.12
441.379	473.12
441.6	471.12
441.822	488.12
442.043	524.12
442.264	612.12
442.486	626.12
442.707	543.12
442.928	497.12
443.149	512.12
443.371	530.12
443.592	553.12
443.813	652.12
444.034	678.12
444.255	558.12
444.476	519.12
444.698	488.12
444.919	467.12
445.14	567.12
445.361	554.12
445.582	531.12
445.803	570.12
446.024	698.12
446.245	682.12
446.466	619.12
446.687	540.12
446.908	489.12
447.129	455.12
447.35	460.12
447.571	457.12
447.792	446.12
448.013	454.12
448.234	473.12
448.455	517.12
448.675	640.12
448.896	702.12
449.117	596.12
449.338	605.12
449.559	683.12
449.779	746.12
450	587.12
450.221	504.12
450.442	461.12
450.662	452.12
450.883	472.12
451.104	488.12
451.324	462.12
451.545	439.12
451.766	442.12
451.986	415.12
452.207	406.12
452.428	418.12
452.648	424.12
452.869	401.12
453.089	432.12
453.31	420.12
453.53	398.12
453.751	412.12
453.971	408.12
454.192	420.12
454.412	429.12
454.633	419.12
454.853	404.12
455.073	419.12
455.294	429.12
455.514	488.12
455.734	465.12
455.955	397.12
456.175	380.12
456.395	374.12
456.616	377.12
456.836	376.12
457.056	409.12
457.276	363.12
457.497	376.12
457.717	362.12
457.937	394.12
458.157	405.12
458.377	387.12
458.598	425.12
458.818	494.12
459.038	562.12
459.258	571.12
459.478	478.12
459.698	440.12
459.918	414.12
460.138	426.12
460.358	410.12
460.578	412.12
460.798	439.12
461.018	414.12
461.238	413.12
461.458	412.12
461.678	410.12
461.898	410.12
462.118	395.12
462.338	414.12
462.558	432.12
462.777	439.12
462.997	434.12
463.217	451.12
463.437	462.12
463.657	437.12
463.876	451.12
464.096	440.12
464.316	443.12
464.536	455.12
464.755	464.12
464.975	453.12
465.195	524.12
465.414	590.12
465.634	518.12
465.854	454.12
466.073	446.12
466.293	448.12
466.512	407.12
466.732	421.12
466.951	412.12
467.171	410.12
467.391	422.12
467.61	427.12
467.829	429.12
468.049	429.12
468.268	430.12
468.488	415.12
468.707	413.12
468.927	411.12
469.146	413.12
469.365	396.12
469.585	404.12
469.804	403.12
470.023	414.12
470.243	417.12
470.462	431.12
470.681	436.12
470.901	431.12
471.12	438.12
471.339	424.12
471.558	414.12
471.777	437.12
471.997	412.12
472.216	404.12
472.435	472.12
472.654	430.12
472.873	431.12
473.092	428.12
473.311	440.12
473.53	407.12
473.749	430.12
473.968	468.12
474.187	584.12
474.406	598.12
474.625	460.12
474.844	426.12
475.063	428.12
475.282	438.12
475.501	412.12
475.72	428.12
475.939	436.12
476.158	413.12
476.377	430.12
476.596	420.12
476.814	424.12
477.033	462.12
477.252	443.12
477.471	448.12
477.69	459.12
477.908	440.12
478.127	451.12
478.346	455.12
478.564	452.12
478.783	446.12
479.002	465.12
479.22	456.12
479.439	494.12
479.658	511.12
479.876	489.12
480.095	532.12
480.313	542.12
480.532	528.12
480.751	506.12
480.969	522.12
481.188	587.12
481.406	663.12
481.624	543.12
481.843	510.12
482.061	504.12
482.28	494.12
482.498	514.12
482.717	485.12
482.935	482.12
483.153	479.12
483.372	490.12
483.59	528.12
483.808	488.12
484.027	460.12
484.245	516.12
484.463	488.12
484.681	501.12
484.9	530.12
485.118	500.12
485.336	487.12
485.554	510.12
485.772	515.12
485.99	504.12
486.209	518.12
486.427	523.12
486.645	540.12
486.863	548.12
487.081	539.12
487.299	542.12
487.517	526.12
487.735	514.12
487.953	526.12
488.171	535.12
488.389	546.12
488.607	535.12
488.825	524.12
489.043	525.12
489.261	543.12
489.479	532.12
489.696	530.12
489.914	544.12
490.132	539.12
490.35	552.12
490.568	547.12
490.786	571.12
491.003	581.12
491.221	590.12
491.439	604.12
491.657	589.12
491.874	595.12
492.092	592.12
492.31	593.12
492.527	604.12
492.745	628.12
492.963	600.12
493.18	617.12
493.398	624.12
493.615	610.12
493.833	603.12
494.05	654.12
494.268	632.12
494.485	615.12
494.703	630.12
494.92	614.12
495.138	627.12
495.355	624.12
495.573	619.12
495.79	628.12
496.008	634.12
496.225	626.12
496.442	602.12
496.66	610.12
496.877	646.12
497.094	656.12
497.312	644.12
497.529	637.12
497.746	658.12
497.963	667.12
498.181	662.12
498.398	696.12
498.615	689.12
498.832	724.12
499.049	690.12
499.267	683.12
499.484	723.12
499.701	735.12
499.918	764.12
500.135	766.12
500.352	789.12
500.569	787.12
500.786	798.12
501.003	772.12
501.22	792.12
501.437	778.12
501.654	760.12
501.871	729.12
