Data from 1965.PennyLincolnUp.Lamp.En5.5.200Scan.071719.P1._HRD10591_14-10-38-913.txt Node
Date: Thu Jul 18 14:10:38 EDT 2019
User: cochatt
Spectrometer: HR+D1059
Trigger mode: 1
Integration Time (sec): 1.000000E-1
Scans to average: 1
Electric dark correction enabled: true
Nonlinearity correction enabled: false
Boxcar width: 0
XAxis mode: Wavelengths
Number of Pixels in Spectrum: 2048
>>>>>Begin Spectral Data<<<<<
223.165	-20.5
223.4	-20.5
223.635	-20.5
223.869	-18.5
224.104	-21.5
224.338	-15.5
224.573	-22.5
224.808	-5.5
225.042	2.5
225.277	-9.5
225.511	-14.5
225.746	4.5
225.98	10.5
226.215	15.5
226.449	15.5
226.683	16.5
226.918	26.5
227.152	36.5
227.387	35.5
227.621	28.5
227.856	45.5
228.09	61.5
228.324	49.5
228.559	70.5
228.793	71.5
229.027	99.5
229.262	100.5
229.496	109.5
229.73	122.5
229.964	150.5
230.199	134.5
230.433	105.5
230.667	116.5
230.901	97.5
231.136	120.5
231.37	100.5
231.604	106.5
231.838	101.5
232.072	101.5
232.306	114.5
232.541	112.5
232.775	110.5
233.009	106.5
233.243	126.5
233.477	106.5
233.711	110.5
233.945	120.5
234.179	124.5
234.413	128.5
234.647	118.5
234.881	100.5
235.115	107.5
235.349	116.5
235.583	118.5
235.817	126.5
236.051	116.5
236.285	122.5
236.519	113.5
236.753	123.5
236.987	138.5
237.221	173.5
237.455	220.5
237.689	165.5
237.922	128.5
238.156	127.5
238.39	126.5
238.624	131.5
238.858	107.5
239.091	117.5
239.325	114.5
239.559	124.5
239.793	132.5
240.027	116.5
240.26	128.5
240.494	149.5
240.728	144.5
240.961	132.5
241.195	130.5
241.429	138.5
241.662	124.5
241.896	132.5
242.13	130.5
242.363	130.5
242.597	112.5
242.83	121.5
243.064	140.5
243.298	128.5
243.531	132.5
243.765	131.5
243.998	122.5
244.232	124.5
244.465	128.5
244.699	127.5
244.932	129.5
245.166	133.5
245.399	129.5
245.633	134.5
245.866	144.5
246.099	135.5
246.333	142.5
246.566	141.5
246.8	141.5
247.033	130.5
247.266	143.5
247.5	139.5
247.733	174.5
247.966	150.5
248.2	157.5
248.433	166.5
248.666	152.5
248.899	158.5
249.133	186.5
249.366	187.5
249.599	185.5
249.832	173.5
250.066	184.5
250.299	166.5
250.532	173.5
250.765	183.5
250.998	195.5
251.231	203.5
251.465	170.5
251.698	184.5
251.931	182.5
252.164	186.5
252.397	193.5
252.63	190.5
252.863	176.5
253.096	193.5
253.329	210.5
253.562	203.5
253.795	177.5
254.028	192.5
254.261	185.5
254.494	217.5
254.727	245.5
254.96	256.5
255.193	244.5
255.426	220.5
255.659	222.5
255.892	230.5
256.124	209.5
256.357	208.5
256.59	199.5
256.823	208.5
257.056	190.5
257.289	183.5
257.521	181.5
257.754	198.5
257.987	190.5
258.22	177.5
258.452	194.5
258.685	192.5
258.918	194.5
259.151	194.5
259.383	196.5
259.616	219.5
259.849	202.5
260.081	204.5
260.314	228.5
260.547	226.5
260.779	225.5
261.012	211.5
261.244	207.5
261.477	206.5
261.71	200.5
261.942	202.5
262.175	218.5
262.407	205.5
262.64	190.5
262.872	194.5
263.105	207.5
263.337	183.5
263.57	190.5
263.802	207.5
264.035	190.5
264.267	190.5
264.499	191.5
264.732	194.5
264.964	173.5
265.197	193.5
265.429	193.5
265.661	206.5
265.894	202.5
266.126	213.5
266.358	204.5
266.591	190.5
266.823	200.5
267.055	203.5
267.287	201.5
267.52	213.5
267.752	215.5
267.984	208.5
268.216	213.5
268.448	214.5
268.681	236.5
268.913	229.5
269.145	233.5
269.377	249.5
269.609	235.5
269.841	231.5
270.073	251.5
270.306	268.5
270.538	276.5
270.77	280.5
271.002	266.5
271.234	272.5
271.466	272.5
271.698	285.5
271.93	299.5
272.162	289.5
272.394	266.5
272.626	269.5
272.858	257.5
273.09	262.5
273.322	248.5
273.553	220.5
273.785	254.5
274.017	244.5
274.249	249.5
274.481	222.5
274.713	214.5
274.945	236.5
275.176	234.5
275.408	237.5
275.64	230.5
275.872	237.5
276.104	261.5
276.335	235.5
276.567	229.5
276.799	261.5
277.031	286.5
277.262	290.5
277.494	283.5
277.726	270.5
277.957	266.5
278.189	256.5
278.421	248.5
278.652	239.5
278.884	241.5
279.115	232.5
279.347	239.5
279.579	238.5
279.81	225.5
280.042	244.5
280.273	226.5
280.505	258.5
280.736	234.5
280.968	221.5
281.199	251.5
281.431	239.5
281.662	214.5
281.894	240.5
282.125	241.5
282.356	263.5
282.588	280.5
282.819	270.5
283.051	254.5
283.282	237.5
283.513	244.5
283.745	246.5
283.976	252.5
284.207	236.5
284.439	229.5
284.67	241.5
284.901	228.5
285.132	248.5
285.364	229.5
285.595	239.5
285.826	233.5
286.057	234.5
286.288	252.5
286.52	237.5
286.751	255.5
286.982	244.5
287.213	248.5
287.444	255.5
287.675	256.5
287.906	257.5
288.138	257.5
288.369	274.5
288.6	258.5
288.831	263.5
289.062	285.5
289.293	272.5
289.524	270.5
289.755	257.5
289.986	266.5
290.217	239.5
290.448	249.5
290.679	252.5
290.91	246.5
291.141	271.5
291.371	256.5
291.602	241.5
291.833	250.5
292.064	258.5
292.295	245.5
292.526	250.5
292.757	248.5
292.987	240.5
293.218	241.5
293.449	264.5
293.68	263.5
293.91	256.5
294.141	247.5
294.372	232.5
294.603	237.5
294.833	262.5
295.064	266.5
295.295	278.5
295.525	266.5
295.756	270.5
295.987	277.5
296.217	288.5
296.448	291.5
296.679	286.5
296.909	263.5
297.14	251.5
297.37	267.5
297.601	264.5
297.831	260.5
298.062	273.5
298.292	260.5
298.523	245.5
298.753	279.5
298.984	266.5
299.214	280.5
299.445	260.5
299.675	267.5
299.905	262.5
300.136	268.5
300.366	264.5
300.597	278.5
300.827	282.5
301.057	271.5
301.288	287.5
301.518	309.5
301.748	272.5
301.979	269.5
302.209	282.5
302.439	292.5
302.669	298.5
302.9	288.5
303.13	278.5
303.36	271.5
303.59	290.5
303.82	295.5
304.051	299.5
304.281	289.5
304.511	290.5
304.741	311.5
304.971	285.5
305.201	284.5
305.431	267.5
305.661	292.5
305.891	292.5
306.121	298.5
306.352	300.5
306.582	289.5
306.812	281.5
307.042	295.5
307.272	300.5
307.502	310.5
307.731	294.5
307.961	282.5
308.191	283.5
308.421	289.5
308.651	290.5
308.881	303.5
309.111	305.5
309.341	305.5
309.571	321.5
309.8	319.5
310.03	316.5
310.26	343.5
310.49	331.5
310.72	328.5
310.949	355.5
311.179	359.5
311.409	341.5
311.639	337.5
311.868	336.5
312.098	332.5
312.328	351.5
312.557	373.5
312.787	364.5
313.017	355.5
313.246	335.5
313.476	356.5
313.706	320.5
313.935	351.5
314.165	348.5
314.394	378.5
314.624	359.5
314.853	345.5
315.083	367.5
315.312	337.5
315.542	335.5
315.771	316.5
316.001	326.5
316.23	336.5
316.46	333.5
316.689	344.5
316.919	345.5
317.148	326.5
317.377	342.5
317.607	353.5
317.836	346.5
318.065	339.5
318.295	319.5
318.524	329.5
318.753	347.5
318.983	335.5
319.212	339.5
319.441	356.5
319.67	344.5
319.9	340.5
320.129	341.5
320.358	345.5
320.587	348.5
320.816	346.5
321.046	349.5
321.275	349.5
321.504	349.5
321.733	377.5
321.962	390.5
322.191	390.5
322.42	393.5
322.649	415.5
322.878	422.5
323.108	423.5
323.337	447.5
323.566	475.5
323.795	521.5
324.024	564.5
324.253	712.5
324.482	1016.5
324.71	1555.5
324.939	2176.5
325.168	1785.5
325.397	936.5
325.626	626.5
325.855	524.5
326.084	496.5
326.313	483.5
326.542	460.5
326.77	518.5
326.999	638.5
327.228	877.5
327.457	1350.5
327.686	1585.5
327.914	1061.5
328.143	716.5
328.372	612.5
328.6	578.5
328.829	530.5
329.058	555.5
329.287	561.5
329.515	497.5
329.744	495.5
329.972	481.5
330.201	525.5
330.43	567.5
330.658	598.5
330.887	583.5
331.115	568.5
331.344	490.5
331.572	430.5
331.801	443.5
332.03	448.5
332.258	429.5
332.486	425.5
332.715	397.5
332.943	389.5
333.172	388.5
333.4	409.5
333.629	422.5
333.857	420.5
334.085	428.5
334.314	456.5
334.542	487.5
334.771	506.5
334.999	448.5
335.227	408.5
335.455	409.5
335.684	390.5
335.912	388.5
336.14	392.5
336.369	370.5
336.597	400.5
336.825	404.5
337.053	409.5
337.281	383.5
337.51	393.5
337.738	382.5
337.966	372.5
338.194	384.5
338.422	392.5
338.65	365.5
338.878	379.5
339.106	366.5
339.334	384.5
339.562	376.5
339.79	396.5
340.018	366.5
340.246	363.5
340.474	377.5
340.702	361.5
340.93	384.5
341.158	375.5
341.386	389.5
341.614	377.5
341.842	396.5
342.07	350.5
342.298	382.5
342.526	356.5
342.754	353.5
342.981	353.5
343.209	357.5
343.437	366.5
343.665	367.5
343.893	364.5
344.12	385.5
344.348	380.5
344.576	361.5
344.804	401.5
345.031	414.5
345.259	400.5
345.487	401.5
345.714	384.5
345.942	372.5
346.17	373.5
346.397	352.5
346.625	357.5
346.853	362.5
347.08	369.5
347.308	379.5
347.535	378.5
347.763	367.5
347.99	374.5
348.218	384.5
348.445	390.5
348.673	379.5
348.9	366.5
349.128	350.5
349.355	361.5
349.583	348.5
349.81	361.5
350.037	348.5
350.265	362.5
350.492	372.5
350.72	355.5
350.947	377.5
351.174	374.5
351.402	384.5
351.629	375.5
351.856	372.5
352.083	382.5
352.311	369.5
352.538	380.5
352.765	390.5
352.992	384.5
353.22	378.5
353.447	365.5
353.674	359.5
353.901	353.5
354.128	355.5
354.355	314.5
354.583	361.5
354.81	367.5
355.037	328.5
355.264	327.5
355.491	347.5
355.718	339.5
355.945	346.5
356.172	330.5
356.399	319.5
356.626	328.5
356.853	331.5
357.08	338.5
357.307	339.5
357.534	339.5
357.761	329.5
357.988	354.5
358.215	354.5
358.441	328.5
358.668	334.5
358.895	327.5
359.122	377.5
359.349	347.5
359.576	364.5
359.802	398.5
360.029	412.5
360.256	420.5
360.483	399.5
360.709	356.5
360.936	360.5
361.163	385.5
361.39	362.5
361.616	390.5
361.843	369.5
362.07	384.5
362.296	388.5
362.523	380.5
362.749	364.5
362.976	363.5
363.203	357.5
363.429	354.5
363.656	380.5
363.882	356.5
364.109	341.5
364.335	345.5
364.562	349.5
364.788	347.5
365.015	342.5
365.241	348.5
365.468	353.5
365.694	369.5
365.92	372.5
366.147	354.5
366.373	337.5
366.599	345.5
366.826	338.5
367.052	340.5
367.278	319.5
367.505	349.5
367.731	344.5
367.957	334.5
368.184	329.5
368.41	342.5
368.636	362.5
368.862	360.5
369.089	349.5
369.315	328.5
369.541	337.5
369.767	343.5
369.993	347.5
370.219	340.5
370.445	345.5
370.672	338.5
370.898	331.5
371.124	353.5
371.35	329.5
371.576	332.5
371.802	341.5
372.028	327.5
372.254	357.5
372.48	346.5
372.706	326.5
372.932	336.5
373.158	336.5
373.384	344.5
373.61	315.5
373.835	330.5
374.061	333.5
374.287	338.5
374.513	345.5
374.739	330.5
374.965	350.5
375.191	329.5
375.416	354.5
375.642	331.5
375.868	331.5
376.094	344.5
376.319	350.5
376.545	335.5
376.771	342.5
376.997	329.5
377.222	325.5
377.448	337.5
377.674	339.5
377.899	330.5
378.125	338.5
378.35	336.5
378.576	337.5
378.802	336.5
379.027	317.5
379.253	316.5
379.478	331.5
379.704	347.5
379.929	331.5
380.155	338.5
380.38	334.5
380.606	326.5
380.831	350.5
381.057	348.5
381.282	318.5
381.507	339.5
381.733	341.5
381.958	333.5
382.184	328.5
382.409	333.5
382.634	333.5
382.86	332.5
383.085	362.5
383.31	354.5
383.535	332.5
383.761	345.5
383.986	338.5
384.211	348.5
384.436	342.5
384.662	351.5
384.887	346.5
385.112	344.5
385.337	356.5
385.562	344.5
385.787	352.5
386.013	355.5
386.238	378.5
386.463	369.5
386.688	368.5
386.913	349.5
387.138	357.5
387.363	351.5
387.588	364.5
387.813	349.5
388.038	359.5
388.263	338.5
388.488	374.5
388.713	377.5
388.938	367.5
389.163	368.5
389.387	365.5
389.612	358.5
389.837	354.5
390.062	353.5
390.287	348.5
390.512	351.5
390.736	354.5
390.961	352.5
391.186	361.5
391.411	376.5
391.636	358.5
391.86	367.5
392.085	377.5
392.31	366.5
392.534	356.5
392.759	395.5
392.984	373.5
393.208	346.5
393.433	360.5
393.658	376.5
393.882	366.5
394.107	367.5
394.331	373.5
394.556	372.5
394.78	353.5
395.005	352.5
395.229	365.5
395.454	392.5
395.678	359.5
395.903	385.5
396.127	404.5
396.352	388.5
396.576	356.5
396.801	364.5
397.025	376.5
397.249	377.5
397.474	381.5
397.698	379.5
397.922	385.5
398.147	413.5
398.371	398.5
398.595	391.5
398.82	398.5
399.044	396.5
399.268	419.5
399.492	423.5
399.717	454.5
399.941	473.5
400.165	484.5
400.389	493.5
400.613	461.5
400.837	435.5
401.062	406.5
401.286	414.5
401.51	425.5
401.734	382.5
401.958	408.5
402.182	429.5
402.406	432.5
402.63	418.5
402.854	428.5
403.078	419.5
403.302	417.5
403.526	425.5
403.75	426.5
403.974	403.5
404.198	404.5
404.422	414.5
404.645	450.5
404.869	440.5
405.093	458.5
405.317	482.5
405.541	508.5
405.765	459.5
405.988	457.5
406.212	451.5
406.436	498.5
406.66	485.5
406.883	469.5
407.107	495.5
407.331	517.5
407.555	568.5
407.778	554.5
408.002	511.5
408.226	484.5
408.449	479.5
408.673	464.5
408.896	475.5
409.12	542.5
409.344	494.5
409.567	461.5
409.791	442.5
410.014	428.5
410.238	405.5
410.461	438.5
410.685	437.5
410.908	435.5
411.132	472.5
411.355	459.5
411.578	460.5
411.802	445.5
412.025	418.5
412.249	428.5
412.472	444.5
412.695	470.5
412.919	472.5
413.142	450.5
413.365	427.5
413.589	406.5
413.812	401.5
414.035	396.5
414.258	395.5
414.482	400.5
414.705	395.5
414.928	399.5
415.151	385.5
415.374	380.5
415.597	406.5
415.821	388.5
416.044	392.5
416.267	407.5
416.49	395.5
416.713	397.5
416.936	408.5
417.159	403.5
417.382	413.5
417.605	410.5
417.828	425.5
418.051	427.5
418.274	399.5
418.497	405.5
418.72	405.5
418.943	403.5
419.166	427.5
419.389	440.5
419.611	431.5
419.834	417.5
420.057	426.5
420.28	438.5
420.503	433.5
420.726	415.5
420.948	424.5
421.171	466.5
421.394	478.5
421.617	417.5
421.839	406.5
422.062	394.5
422.285	418.5
422.507	488.5
422.73	561.5
422.953	524.5
423.175	475.5
423.398	454.5
423.621	434.5
423.843	448.5
424.066	456.5
424.288	446.5
424.511	466.5
424.733	514.5
424.956	580.5
425.178	568.5
425.401	546.5
425.623	589.5
425.846	506.5
426.068	467.5
426.291	453.5
426.513	457.5
426.735	464.5
426.958	516.5
427.18	591.5
427.402	686.5
427.625	742.5
427.847	678.5
428.069	565.5
428.292	526.5
428.514	464.5
428.736	456.5
428.958	443.5
429.181	442.5
429.403	437.5
429.625	443.5
429.847	462.5
430.069	527.5
430.292	518.5
430.514	451.5
430.736	429.5
430.958	406.5
431.18	407.5
431.402	416.5
431.624	394.5
431.846	376.5
432.068	393.5
432.29	399.5
432.512	397.5
432.734	393.5
432.956	405.5
433.178	397.5
433.4	428.5
433.622	425.5
433.844	409.5
434.066	405.5
434.287	410.5
434.509	406.5
434.731	410.5
434.953	421.5
435.175	413.5
435.397	431.5
435.618	471.5
435.84	502.5
436.062	586.5
436.284	618.5
436.505	542.5
436.727	463.5
436.949	449.5
437.17	454.5
437.392	447.5
437.614	445.5
437.835	500.5
438.057	566.5
438.278	634.5
438.5	624.5
438.721	679.5
438.943	653.5
439.165	549.5
439.386	509.5
439.608	483.5
439.829	479.5
440.05	507.5
440.272	540.5
440.493	522.5
440.715	457.5
440.936	458.5
441.158	445.5
441.379	438.5
441.6	454.5
441.822	464.5
442.043	502.5
442.264	605.5
442.486	616.5
442.707	506.5
442.928	474.5
443.149	481.5
443.371	503.5
443.592	551.5
443.813	617.5
444.034	662.5
444.255	540.5
444.476	446.5
444.698	486.5
444.919	458.5
445.14	543.5
445.361	503.5
445.582	491.5
445.803	564.5
446.024	663.5
446.245	648.5
446.466	575.5
446.687	516.5
446.908	460.5
447.129	449.5
447.35	450.5
447.571	439.5
447.792	449.5
448.013	450.5
448.234	451.5
448.455	504.5
448.675	603.5
448.896	670.5
449.117	586.5
449.338	575.5
449.559	652.5
449.779	727.5
450	590.5
450.221	504.5
450.442	460.5
450.662	441.5
450.883	438.5
451.104	466.5
451.324	449.5
451.545	428.5
451.766	424.5
451.986	399.5
452.207	401.5
452.428	405.5
452.648	383.5
452.869	394.5
453.089	392.5
453.31	414.5
453.53	394.5
453.751	381.5
453.971	414.5
454.192	403.5
454.412	399.5
454.633	395.5
454.853	373.5
455.073	381.5
455.294	428.5
455.514	496.5
455.734	463.5
455.955	406.5
456.175	380.5
456.395	376.5
456.616	371.5
456.836	367.5
457.056	365.5
457.276	360.5
457.497	367.5
457.717	372.5
457.937	362.5
458.157	376.5
458.377	404.5
458.598	389.5
458.818	462.5
459.038	542.5
459.258	550.5
459.478	436.5
459.698	436.5
459.918	411.5
460.138	415.5
460.358	412.5
460.578	386.5
460.798	414.5
461.018	421.5
461.238	418.5
461.458	392.5
461.678	387.5
461.898	404.5
462.118	412.5
462.338	386.5
462.558	387.5
462.777	406.5
462.997	417.5
463.217	421.5
463.437	420.5
463.657	411.5
463.876	405.5
464.096	403.5
464.316	412.5
464.536	430.5
464.755	410.5
464.975	456.5
465.195	490.5
465.414	577.5
465.634	525.5
465.854	467.5
466.073	430.5
466.293	426.5
466.512	405.5
466.732	413.5
466.951	392.5
467.171	378.5
467.391	401.5
467.61	398.5
467.829	413.5
468.049	414.5
468.268	392.5
468.488	413.5
468.707	386.5
468.927	402.5
469.146	374.5
469.365	411.5
469.585	393.5
469.804	400.5
470.023	405.5
470.243	424.5
470.462	420.5
470.681	420.5
470.901	437.5
471.12	406.5
471.339	412.5
471.558	416.5
471.777	404.5
471.997	408.5
472.216	416.5
472.435	446.5
472.654	443.5
472.873	435.5
473.092	412.5
473.311	415.5
473.53	398.5
473.749	416.5
473.968	444.5
474.187	546.5
474.406	554.5
474.625	457.5
474.844	420.5
475.063	399.5
475.282	409.5
475.501	415.5
475.72	421.5
475.939	405.5
476.158	395.5
476.377	405.5
476.596	391.5
476.814	426.5
477.033	441.5
477.252	425.5
477.471	430.5
477.69	431.5
477.908	426.5
478.127	432.5
478.346	420.5
478.564	425.5
478.783	441.5
479.002	447.5
479.22	447.5
479.439	473.5
479.658	475.5
479.876	484.5
480.095	492.5
480.313	495.5
480.532	497.5
480.751	503.5
480.969	505.5
481.188	583.5
481.406	640.5
481.624	536.5
481.843	480.5
482.061	476.5
482.28	503.5
482.498	467.5
482.717	477.5
482.935	468.5
483.153	453.5
483.372	476.5
483.59	481.5
483.808	448.5
484.027	476.5
484.245	453.5
484.463	486.5
484.681	472.5
484.9	478.5
485.118	493.5
485.336	489.5
485.554	506.5
485.772	474.5
485.99	500.5
486.209	502.5
486.427	492.5
486.645	502.5
486.863	541.5
487.081	516.5
487.299	522.5
487.517	498.5
487.735	494.5
487.953	507.5
488.171	504.5
488.389	514.5
488.607	525.5
488.825	507.5
489.043	521.5
489.261	526.5
489.479	514.5
489.696	541.5
489.914	538.5
490.132	522.5
490.35	532.5
490.568	529.5
490.786	545.5
491.003	549.5
491.221	553.5
491.439	597.5
491.657	583.5
491.874	588.5
492.092	576.5
492.31	585.5
492.527	572.5
492.745	598.5
492.963	581.5
493.18	577.5
493.398	600.5
493.615	580.5
493.833	607.5
494.05	593.5
494.268	601.5
494.485	606.5
494.703	600.5
494.92	580.5
495.138	602.5
495.355	614.5
495.573	621.5
495.79	603.5
496.008	624.5
496.225	599.5
496.442	599.5
496.66	609.5
496.877	596.5
497.094	599.5
497.312	609.5
497.529	633.5
497.746	619.5
497.963	630.5
498.181	657.5
498.398	647.5
498.615	651.5
498.832	648.5
499.049	676.5
499.267	663.5
499.484	673.5
499.701	690.5
499.918	696.5
500.135	723.5
500.352	721.5
500.569	752.5
500.786	758.5
501.003	761.5
501.22	748.5
501.437	728.5
501.654	731.5
501.871	731.5
502.088	742.5
502.305	701.5
502.522	639.5
502.739	670.5
502.956	643.5
503.172	617.5
503.389	624.5
503.606	632.5
503.823	614.5
504.04	628.5
504.256	619.5
504.473	624.5
504.69	608.5
504.907	594.5
505.123	571.5
505.34	580.5
505.557	588.5
505.773	585.5
505.99	575.5
506.207	590.5
506.423	585.5
506.64	566.5
506.856	572.5
507.073	552.5
507.289	560.5
507.506	573.5
507.722	622.5
507.939	603.5
508.155	589.5
508.372	568.5
508.588	583.5
508.805	580.5
509.021	567.5
509.238	565.5
509.454	562.5
509.67	578.5
509.887	564.5
510.103	582.5
510.319	577.5
510.536	683.5
510.752	1217.5
510.968	970.5
511.184	613.5
511.401	570.5
511.617	534.5
511.833	556.5
512.049	546.5
512.265	540.5
512.481	557.5
512.698	505.5
512.914	553.5
513.13	535.5
513.346	527.5
513.562	546.5
513.778	528.5
513.994	548.5
514.21	561.5
514.426	587.5
514.642	613.5
514.858	681.5
515.074	717.5
515.29	857.5
515.506	1329.5
515.721	1081.5
515.937	708.5
516.153	613.5
516.369	578.5
516.585	557.5
516.801	568.5
517.016	539.5
517.232	542.5
517.448	542.5
517.664	546.5
517.879	548.5
518.095	552.5
518.311	535.5
518.527	537.5
518.742	549.5
518.958	541.5
519.173	522.5
519.389	550.5
519.605	512.5
519.82	554.5
