Data from 1965.PennyLincolnUp.Lamp.En5.5.200Scan.071719.P1._HRD10591_14-10-30-911.txt Node
Date: Thu Jul 18 14:10:30 EDT 2019
User: cochatt
Spectrometer: HR+D1059
Trigger mode: 1
Integration Time (sec): 1.000000E-1
Scans to average: 1
Electric dark correction enabled: true
Nonlinearity correction enabled: false
Boxcar width: 0
XAxis mode: Wavelengths
Number of Pixels in Spectrum: 2048
>>>>>Begin Spectral Data<<<<<
223.165	-21.25
223.4	-21.25
223.635	-21.25
223.869	-13.25
224.104	-12.25
224.338	-6.25
224.573	-21.25
224.808	-20.25
225.042	-7.25
225.277	3.75
225.511	1.75
225.746	5.75
225.98	0.75
226.215	11.75
226.449	8.75
226.683	14.75
226.918	23.75
227.152	30.75
227.387	31.75
227.621	41.75
227.856	42.75
228.09	41.75
228.324	49.75
228.559	36.75
228.793	70.75
229.027	98.75
229.262	109.75
229.496	105.75
229.73	127.75
229.964	139.75
230.199	119.75
230.433	114.75
230.667	110.75
230.901	100.75
231.136	113.75
231.37	115.75
231.604	101.75
231.838	113.75
232.072	109.75
232.306	115.75
232.541	121.75
232.775	113.75
233.009	110.75
233.243	94.75
233.477	103.75
233.711	109.75
233.945	121.75
234.179	121.75
234.413	111.75
234.647	119.75
234.881	105.75
235.115	120.75
235.349	107.75
235.583	131.75
235.817	110.75
236.051	122.75
236.285	108.75
236.519	121.75
236.753	132.75
236.987	147.75
237.221	181.75
237.455	226.75
237.689	171.75
237.922	134.75
238.156	126.75
238.39	121.75
238.624	119.75
238.858	116.75
239.091	114.75
239.325	125.75
239.559	129.75
239.793	105.75
240.027	136.75
240.26	131.75
240.494	144.75
240.728	142.75
240.961	139.75
241.195	128.75
241.429	133.75
241.662	126.75
241.896	109.75
242.13	120.75
242.363	106.75
242.597	125.75
242.83	119.75
243.064	123.75
243.298	131.75
243.531	135.75
243.765	123.75
243.998	115.75
244.232	125.75
244.465	135.75
244.699	129.75
244.932	142.75
245.166	153.75
245.399	133.75
245.633	126.75
245.866	129.75
246.099	131.75
246.333	130.75
246.566	133.75
246.8	136.75
247.033	143.75
247.266	143.75
247.5	147.75
247.733	149.75
247.966	154.75
248.2	168.75
248.433	159.75
248.666	165.75
248.899	146.75
249.133	187.75
249.366	205.75
249.599	171.75
249.832	177.75
250.066	157.75
250.299	157.75
250.532	184.75
250.765	189.75
250.998	199.75
251.231	214.75
251.465	197.75
251.698	200.75
251.931	183.75
252.164	181.75
252.397	187.75
252.63	175.75
252.863	191.75
253.096	196.75
253.329	213.75
253.562	215.75
253.795	208.75
254.028	202.75
254.261	205.75
254.494	215.75
254.727	235.75
254.96	261.75
255.193	245.75
255.426	230.75
255.659	201.75
255.892	201.75
256.124	210.75
256.357	206.75
256.59	210.75
256.823	197.75
257.056	203.75
257.289	197.75
257.521	191.75
257.754	193.75
257.987	183.75
258.22	195.75
258.452	180.75
258.685	183.75
258.918	187.75
259.151	202.75
259.383	211.75
259.616	204.75
259.849	211.75
260.081	223.75
260.314	208.75
260.547	234.75
260.779	232.75
261.012	203.75
261.244	197.75
261.477	206.75
261.71	201.75
261.942	201.75
262.175	215.75
262.407	233.75
262.64	201.75
262.872	204.75
263.105	193.75
263.337	211.75
263.57	190.75
263.802	208.75
264.035	199.75
264.267	183.75
264.499	194.75
264.732	206.75
264.964	178.75
265.197	191.75
265.429	196.75
265.661	180.75
265.894	185.75
266.126	205.75
266.358	199.75
266.591	203.75
266.823	210.75
267.055	205.75
267.287	213.75
267.52	204.75
267.752	197.75
267.984	207.75
268.216	199.75
268.448	223.75
268.681	225.75
268.913	222.75
269.145	256.75
269.377	242.75
269.609	266.75
269.841	230.75
270.073	248.75
270.306	263.75
270.538	303.75
270.77	290.75
271.002	282.75
271.234	284.75
271.466	279.75
271.698	292.75
271.93	300.75
272.162	296.75
272.394	283.75
272.626	302.75
272.858	282.75
273.09	251.75
273.322	250.75
273.553	247.75
273.785	235.75
274.017	244.75
274.249	255.75
274.481	240.75
274.713	245.75
274.945	231.75
275.176	248.75
275.408	225.75
275.64	253.75
275.872	250.75
276.104	262.75
276.335	237.75
276.567	258.75
276.799	255.75
277.031	285.75
277.262	280.75
277.494	298.75
277.726	271.75
277.957	251.75
278.189	261.75
278.421	247.75
278.652	235.75
278.884	237.75
279.115	235.75
279.347	231.75
279.579	246.75
279.81	253.75
280.042	249.75
280.273	235.75
280.505	254.75
280.736	234.75
280.968	228.75
281.199	248.75
281.431	236.75
281.662	244.75
281.894	246.75
282.125	242.75
282.356	262.75
282.588	270.75
282.819	286.75
283.051	250.75
283.282	254.75
283.513	257.75
283.745	245.75
283.976	253.75
284.207	238.75
284.439	236.75
284.67	250.75
284.901	257.75
285.132	237.75
285.364	248.75
285.595	225.75
285.826	241.75
286.057	253.75
286.288	250.75
286.52	257.75
286.751	245.75
286.982	253.75
287.213	257.75
287.444	247.75
287.675	260.75
287.906	276.75
288.138	266.75
288.369	279.75
288.6	264.75
288.831	280.75
289.062	271.75
289.293	250.75
289.524	257.75
289.755	261.75
289.986	264.75
290.217	267.75
290.448	233.75
290.679	258.75
290.91	265.75
291.141	258.75
291.371	257.75
291.602	246.75
291.833	267.75
292.064	276.75
292.295	252.75
292.526	260.75
292.757	261.75
292.987	245.75
293.218	251.75
293.449	266.75
293.68	248.75
293.91	262.75
294.141	246.75
294.372	271.75
294.603	250.75
294.833	253.75
295.064	289.75
295.295	265.75
295.525	271.75
295.756	253.75
295.987	272.75
296.217	278.75
296.448	302.75
296.679	281.75
296.909	291.75
297.14	244.75
297.37	247.75
297.601	241.75
297.831	263.75
298.062	262.75
298.292	259.75
298.523	282.75
298.753	274.75
298.984	271.75
299.214	278.75
299.445	268.75
299.675	272.75
299.905	266.75
300.136	291.75
300.366	296.75
300.597	284.75
300.827	285.75
301.057	280.75
301.288	301.75
301.518	293.75
301.748	290.75
301.979	286.75
302.209	289.75
302.439	284.75
302.669	289.75
302.9	297.75
303.13	289.75
303.36	299.75
303.59	293.75
303.82	291.75
304.051	294.75
304.281	293.75
304.511	291.75
304.741	289.75
304.971	293.75
305.201	294.75
305.431	292.75
305.661	291.75
305.891	281.75
306.121	309.75
306.352	300.75
306.582	307.75
306.812	298.75
307.042	277.75
307.272	298.75
307.502	297.75
307.731	301.75
307.961	307.75
308.191	293.75
308.421	318.75
308.651	288.75
308.881	310.75
309.111	308.75
309.341	304.75
309.571	331.75
309.8	315.75
310.03	344.75
310.26	342.75
310.49	343.75
310.72	354.75
310.949	351.75
311.179	361.75
311.409	348.75
311.639	340.75
311.868	357.75
312.098	343.75
312.328	364.75
312.557	368.75
312.787	397.75
313.017	370.75
313.246	355.75
313.476	341.75
313.706	344.75
313.935	336.75
314.165	367.75
314.394	383.75
314.624	380.75
314.853	334.75
315.083	353.75
315.312	336.75
315.542	339.75
315.771	330.75
316.001	339.75
316.23	332.75
316.46	319.75
316.689	355.75
316.919	333.75
317.148	350.75
317.377	356.75
317.607	347.75
317.836	354.75
318.065	341.75
318.295	344.75
318.524	329.75
318.753	335.75
318.983	334.75
319.212	363.75
319.441	348.75
319.67	355.75
319.9	348.75
320.129	338.75
320.358	353.75
320.587	352.75
320.816	365.75
321.046	377.75
321.275	375.75
321.504	357.75
321.733	366.75
321.962	400.75
322.191	407.75
322.42	389.75
322.649	442.75
322.878	419.75
323.108	454.75
323.337	459.75
323.566	512.75
323.795	525.75
324.024	589.75
324.253	717.75
324.482	1058.75
324.71	1628.75
324.939	2239.75
325.168	1871.75
325.397	968.75
325.626	662.75
325.855	546.75
326.084	506.75
326.313	478.75
326.542	521.75
326.77	541.75
326.999	696.75
327.228	949.75
327.457	1429.75
327.686	1616.75
327.914	1090.75
328.143	742.75
328.372	636.75
328.6	575.75
328.829	563.75
329.058	560.75
329.287	563.75
329.515	553.75
329.744	483.75
329.972	506.75
330.201	513.75
330.43	559.75
330.658	586.75
330.887	620.75
331.115	591.75
331.344	479.75
331.572	469.75
331.801	452.75
332.03	441.75
332.258	435.75
332.486	419.75
332.715	387.75
332.943	420.75
333.172	416.75
333.4	430.75
333.629	421.75
333.857	455.75
334.085	455.75
334.314	457.75
334.542	489.75
334.771	530.75
334.999	468.75
335.227	417.75
335.455	430.75
335.684	409.75
335.912	396.75
336.14	403.75
336.369	397.75
336.597	405.75
336.825	399.75
337.053	381.75
337.281	397.75
337.51	397.75
337.738	382.75
337.966	398.75
338.194	421.75
338.422	408.75
338.65	402.75
338.878	389.75
339.106	381.75
339.334	370.75
339.562	381.75
339.79	387.75
340.018	378.75
340.246	398.75
340.474	377.75
340.702	362.75
340.93	388.75
341.158	389.75
341.386	393.75
341.614	399.75
341.842	378.75
342.07	368.75
342.298	378.75
342.526	379.75
342.754	363.75
342.981	367.75
343.209	380.75
343.437	361.75
343.665	375.75
343.893	374.75
344.12	382.75
344.348	392.75
344.576	377.75
344.804	385.75
345.031	397.75
345.259	398.75
345.487	393.75
345.714	395.75
345.942	378.75
346.17	387.75
346.397	380.75
346.625	375.75
346.853	379.75
347.08	369.75
347.308	377.75
347.535	397.75
347.763	398.75
347.99	390.75
348.218	399.75
348.445	390.75
348.673	381.75
348.9	376.75
349.128	366.75
349.355	376.75
349.583	364.75
349.81	357.75
350.037	348.75
350.265	364.75
350.492	365.75
350.72	369.75
350.947	377.75
351.174	395.75
351.402	397.75
351.629	366.75
351.856	378.75
352.083	387.75
352.311	398.75
352.538	413.75
352.765	397.75
352.992	379.75
353.22	377.75
353.447	390.75
353.674	365.75
353.901	345.75
354.128	366.75
354.355	347.75
354.583	361.75
354.81	348.75
355.037	346.75
355.264	343.75
355.491	327.75
355.718	350.75
355.945	361.75
356.172	327.75
356.399	329.75
356.626	355.75
356.853	346.75
357.08	326.75
357.307	345.75
357.534	337.75
357.761	345.75
357.988	338.75
358.215	335.75
358.441	326.75
358.668	356.75
358.895	364.75
359.122	346.75
359.349	383.75
359.576	381.75
359.802	398.75
360.029	445.75
360.256	451.75
360.483	421.75
360.709	376.75
360.936	366.75
361.163	339.75
361.39	389.75
361.616	361.75
361.843	379.75
362.07	389.75
362.296	360.75
362.523	385.75
362.749	403.75
362.976	365.75
363.203	379.75
363.429	354.75
363.656	345.75
363.882	361.75
364.109	352.75
364.335	345.75
364.562	366.75
364.788	362.75
365.015	355.75
365.241	361.75
365.468	339.75
365.694	358.75
365.92	385.75
366.147	369.75
366.373	363.75
366.599	362.75
366.826	355.75
367.052	353.75
367.278	357.75
367.505	349.75
367.731	353.75
367.957	347.75
368.184	366.75
368.41	365.75
368.636	366.75
368.862	360.75
369.089	367.75
369.315	338.75
369.541	339.75
369.767	345.75
369.993	355.75
370.219	358.75
370.445	361.75
370.672	355.75
370.898	354.75
371.124	349.75
371.35	354.75
371.576	351.75
371.802	344.75
372.028	335.75
372.254	341.75
372.48	346.75
372.706	350.75
372.932	355.75
373.158	354.75
373.384	380.75
373.61	375.75
373.835	360.75
374.061	351.75
374.287	350.75
374.513	365.75
374.739	355.75
374.965	361.75
375.191	353.75
375.416	357.75
375.642	345.75
375.868	349.75
376.094	357.75
376.319	358.75
376.545	344.75
376.771	348.75
376.997	354.75
377.222	364.75
377.448	341.75
377.674	349.75
377.899	334.75
378.125	334.75
378.35	346.75
378.576	344.75
378.802	322.75
379.027	345.75
379.253	325.75
379.478	345.75
379.704	349.75
379.929	350.75
380.155	347.75
380.38	362.75
380.606	335.75
380.831	331.75
381.057	343.75
381.282	340.75
381.507	346.75
381.733	361.75
381.958	335.75
382.184	348.75
382.409	389.75
382.634	358.75
382.86	351.75
383.085	364.75
383.31	337.75
383.535	356.75
383.761	334.75
383.986	369.75
384.211	358.75
384.436	366.75
384.662	354.75
384.887	367.75
385.112	348.75
385.337	371.75
385.562	369.75
385.787	364.75
386.013	389.75
386.238	375.75
386.463	379.75
386.688	364.75
386.913	359.75
387.138	358.75
387.363	371.75
387.588	367.75
387.813	361.75
388.038	365.75
388.263	377.75
388.488	367.75
388.713	362.75
388.938	362.75
389.163	356.75
389.387	355.75
389.612	378.75
389.837	351.75
390.062	370.75
390.287	358.75
390.512	364.75
390.736	372.75
390.961	372.75
391.186	375.75
391.411	370.75
391.636	371.75
391.86	381.75
392.085	402.75
392.31	358.75
392.534	366.75
392.759	371.75
392.984	358.75
393.208	371.75
393.433	362.75
393.658	378.75
393.882	355.75
394.107	361.75
394.331	356.75
394.556	368.75
394.78	377.75
395.005	381.75
395.229	385.75
395.454	373.75
395.678	386.75
395.903	412.75
396.127	418.75
396.352	406.75
396.576	379.75
396.801	389.75
397.025	380.75
397.249	390.75
397.474	389.75
397.698	426.75
397.922	395.75
398.147	420.75
398.371	421.75
398.595	426.75
398.82	417.75
399.044	440.75
399.268	419.75
399.492	449.75
399.717	462.75
399.941	455.75
400.165	471.75
400.389	499.75
400.613	466.75
400.837	450.75
401.062	447.75
401.286	443.75
401.51	413.75
401.734	433.75
401.958	423.75
402.182	414.75
402.406	446.75
402.63	455.75
402.854	415.75
403.078	419.75
403.302	438.75
403.526	440.75
403.75	442.75
403.974	441.75
404.198	432.75
404.422	446.75
404.645	449.75
404.869	455.75
405.093	490.75
405.317	504.75
405.541	552.75
405.765	497.75
405.988	482.75
406.212	463.75
406.436	489.75
406.66	506.75
406.883	490.75
407.107	488.75
407.331	528.75
407.555	576.75
407.778	585.75
408.002	526.75
408.226	486.75
408.449	478.75
408.673	480.75
408.896	503.75
409.12	545.75
409.344	514.75
409.567	450.75
409.791	462.75
410.014	462.75
410.238	452.75
410.461	441.75
410.685	444.75
410.908	462.75
411.132	471.75
411.355	529.75
411.578	502.75
411.802	446.75
412.025	434.75
412.249	446.75
412.472	473.75
412.695	489.75
412.919	487.75
413.142	447.75
413.365	455.75
413.589	435.75
413.812	418.75
414.035	418.75
414.258	401.75
414.482	404.75
414.705	411.75
414.928	413.75
415.151	413.75
415.374	419.75
415.597	427.75
415.821	409.75
416.044	415.75
416.267	429.75
416.49	423.75
416.713	409.75
416.936	404.75
417.159	406.75
417.382	444.75
417.605	428.75
417.828	422.75
418.051	461.75
418.274	437.75
418.497	427.75
418.72	408.75
418.943	399.75
419.166	431.75
419.389	426.75
419.611	434.75
419.834	430.75
420.057	462.75
420.28	435.75
420.503	438.75
420.726	443.75
420.948	463.75
421.171	468.75
421.394	490.75
421.617	458.75
421.839	430.75
422.062	451.75
422.285	443.75
422.507	496.75
422.73	567.75
422.953	543.75
423.175	472.75
423.398	459.75
423.621	445.75
423.843	470.75
424.066	475.75
424.288	477.75
424.511	500.75
424.733	543.75
424.956	582.75
425.178	585.75
425.401	590.75
425.623	585.75
425.846	526.75
426.068	490.75
426.291	479.75
426.513	471.75
426.735	492.75
426.958	519.75
427.18	631.75
427.402	693.75
427.625	773.75
427.847	711.75
428.069	595.75
428.292	531.75
428.514	475.75
428.736	466.75
428.958	452.75
429.181	460.75
429.403	434.75
429.625	444.75
429.847	498.75
430.069	543.75
430.292	551.75
430.514	462.75
430.736	456.75
430.958	422.75
431.18	421.75
431.402	426.75
431.624	408.75
431.846	419.75
432.068	412.75
432.29	409.75
432.512	409.75
432.734	434.75
432.956	421.75
433.178	443.75
433.4	434.75
433.622	431.75
433.844	425.75
434.066	421.75
434.287	416.75
434.509	411.75
434.731	432.75
434.953	421.75
435.175	455.75
435.397	482.75
435.618	465.75
435.84	540.75
436.062	586.75
436.284	665.75
436.505	574.75
436.727	492.75
436.949	454.75
437.17	449.75
437.392	451.75
437.614	449.75
437.835	501.75
438.057	605.75
438.278	655.75
438.5	645.75
438.721	711.75
438.943	664.75
439.165	557.75
439.386	513.75
439.608	507.75
439.829	492.75
440.05	542.75
440.272	565.75
440.493	523.75
440.715	488.75
440.936	446.75
441.158	435.75
441.379	464.75
441.6	467.75
441.822	495.75
442.043	518.75
442.264	581.75
442.486	636.75
442.707	539.75
442.928	475.75
443.149	509.75
443.371	513.75
443.592	571.75
443.813	663.75
444.034	669.75
444.255	572.75
444.476	513.75
444.698	476.75
444.919	477.75
445.14	570.75
445.361	537.75
445.582	534.75
445.803	617.75
446.024	671.75
446.245	671.75
446.466	627.75
446.687	525.75
446.908	486.75
447.129	481.75
447.35	453.75
447.571	442.75
447.792	460.75
448.013	470.75
448.234	479.75
448.455	540.75
448.675	612.75
448.896	720.75
449.117	584.75
449.338	584.75
449.559	691.75
449.779	735.75
450	609.75
450.221	527.75
450.442	457.75
450.662	444.75
450.883	472.75
451.104	454.75
451.324	458.75
451.545	422.75
451.766	418.75
451.986	379.75
452.207	387.75
452.428	413.75
452.648	399.75
452.869	417.75
453.089	424.75
453.31	427.75
453.53	418.75
453.751	415.75
453.971	417.75
454.192	428.75
454.412	422.75
454.633	407.75
454.853	407.75
455.073	391.75
455.294	431.75
455.514	489.75
455.734	477.75
455.955	413.75
456.175	398.75
456.395	378.75
456.616	393.75
456.836	381.75
457.056	370.75
457.276	377.75
457.497	379.75
457.717	371.75
457.937	380.75
458.157	389.75
458.377	390.75
458.598	412.75
458.818	500.75
459.038	555.75
459.258	577.75
459.478	499.75
459.698	436.75
459.918	424.75
460.138	417.75
460.358	437.75
460.578	416.75
460.798	409.75
461.018	416.75
461.238	421.75
461.458	422.75
461.678	411.75
461.898	422.75
462.118	422.75
462.338	426.75
462.558	402.75
462.777	443.75
462.997	431.75
463.217	424.75
463.437	434.75
463.657	430.75
463.876	425.75
464.096	445.75
464.316	437.75
464.536	438.75
464.755	444.75
464.975	475.75
465.195	540.75
465.414	620.75
465.634	504.75
465.854	475.75
466.073	437.75
466.293	440.75
466.512	399.75
466.732	400.75
466.951	405.75
467.171	396.75
467.391	392.75
467.61	416.75
467.829	425.75
468.049	429.75
468.268	438.75
468.488	428.75
468.707	389.75
468.927	411.75
469.146	407.75
469.365	379.75
469.585	392.75
469.804	406.75
470.023	432.75
470.243	396.75
470.462	415.75
470.681	439.75
470.901	424.75
471.12	417.75
471.339	422.75
471.558	438.75
471.777	421.75
471.997	414.75
472.216	438.75
472.435	460.75
472.654	461.75
472.873	426.75
473.092	413.75
473.311	423.75
473.53	416.75
473.749	421.75
473.968	483.75
474.187	578.75
474.406	586.75
474.625	474.75
474.844	431.75
475.063	423.75
475.282	418.75
475.501	411.75
475.72	430.75
475.939	429.75
476.158	423.75
476.377	408.75
476.596	424.75
476.814	450.75
477.033	467.75
477.252	441.75
477.471	445.75
477.69	438.75
477.908	427.75
478.127	441.75
478.346	450.75
478.564	445.75
478.783	465.75
479.002	457.75
479.22	479.75
479.439	489.75
479.658	490.75
479.876	529.75
480.095	523.75
480.313	544.75
480.532	528.75
480.751	526.75
480.969	497.75
481.188	603.75
481.406	647.75
481.624	537.75
481.843	506.75
482.061	506.75
482.28	492.75
482.498	491.75
482.717	464.75
482.935	494.75
483.153	482.75
483.372	510.75
483.59	498.75
483.808	492.75
484.027	491.75
484.245	511.75
484.463	510.75
484.681	489.75
484.9	525.75
485.118	498.75
485.336	501.75
485.554	509.75
485.772	524.75
485.99	500.75
486.209	523.75
486.427	522.75
486.645	561.75
486.863	550.75
487.081	542.75
487.299	552.75
487.517	515.75
487.735	542.75
487.953	520.75
488.171	525.75
488.389	519.75
488.607	528.75
488.825	522.75
489.043	532.75
489.261	525.75
489.479	538.75
489.696	544.75
489.914	552.75
490.132	530.75
490.35	562.75
490.568	550.75
490.786	559.75
491.003	579.75
491.221	571.75
491.439	587.75
491.657	594.75
491.874	587.75
492.092	603.75
492.31	613.75
492.527	603.75
492.745	621.75
492.963	629.75
493.18	634.75
493.398	589.75
493.615	657.75
493.833	649.75
494.05	638.75
494.268	622.75
494.485	631.75
494.703	611.75
494.92	600.75
495.138	626.75
495.355	617.75
495.573	635.75
495.79	627.75
496.008	670.75
496.225	622.75
496.442	614.75
496.66	612.75
496.877	642.75
497.094	645.75
497.312	644.75
497.529	633.75
497.746	651.75
497.963	651.75
498.181	664.75
498.398	673.75
498.615	693.75
498.832	703.75
499.049	692.75
499.267	707.75
499.484	723.75
499.701	719.75
499.918	737.75
500.135	757.75
500.352	789.75
500.569	777.75
500.786	783.75
501.003	801.75
501.22	789.75
501.437	770.75
501.654	746.75
501.871	764.75
