Data from 1965.PennyLincolnUp.Lamp.En5.5.200Scan.071719.P1._HRD10591_14-08-32-911.txt Node
Date: Thu Jul 18 14:08:32 EDT 2019
User: cochatt
Spectrometer: HR+D1059
Trigger mode: 1
Integration Time (sec): 1.000000E-1
Scans to average: 1
Electric dark correction enabled: true
Nonlinearity correction enabled: false
Boxcar width: 0
XAxis mode: Wavelengths
Number of Pixels in Spectrum: 2048
>>>>>Begin Spectral Data<<<<<
223.165	-13.75
223.4	-13.75
223.635	-13.75
223.869	-13.75
224.104	-29.75
224.338	-20.75
224.573	-17.75
224.808	2.25
225.042	-8.75
225.277	-7.75
225.511	4.25
225.746	13.25
225.98	-3.75
226.215	23.25
226.449	13.25
226.683	25.25
226.918	11.25
227.152	23.25
227.387	34.25
227.621	35.25
227.856	38.25
228.09	31.25
228.324	41.25
228.559	51.25
228.793	59.25
229.027	91.25
229.262	92.25
229.496	102.25
229.73	110.25
229.964	114.25
230.199	119.25
230.433	118.25
230.667	102.25
230.901	88.25
231.136	108.25
231.37	95.25
231.604	109.25
231.838	106.25
232.072	100.25
232.306	96.25
232.541	118.25
232.775	102.25
233.009	114.25
233.243	100.25
233.477	86.25
233.711	99.25
233.945	107.25
234.179	102.25
234.413	102.25
234.647	121.25
234.881	110.25
235.115	96.25
235.349	104.25
235.583	107.25
235.817	119.25
236.051	102.25
236.285	102.25
236.519	107.25
236.753	115.25
236.987	116.25
237.221	171.25
237.455	204.25
237.689	165.25
237.922	132.25
238.156	116.25
238.39	127.25
238.624	102.25
238.858	117.25
239.091	118.25
239.325	118.25
239.559	115.25
239.793	123.25
240.027	116.25
240.26	121.25
240.494	119.25
240.728	127.25
240.961	138.25
241.195	116.25
241.429	121.25
241.662	120.25
241.896	129.25
242.13	131.25
242.363	120.25
242.597	126.25
242.83	126.25
243.064	122.25
243.298	134.25
243.531	112.25
243.765	124.25
243.998	126.25
244.232	137.25
244.465	135.25
244.699	132.25
244.932	132.25
245.166	124.25
245.399	124.25
245.633	121.25
245.866	126.25
246.099	132.25
246.333	141.25
246.566	126.25
246.8	138.25
247.033	141.25
247.266	130.25
247.5	139.25
247.733	132.25
247.966	150.25
248.2	148.25
248.433	156.25
248.666	140.25
248.899	160.25
249.133	161.25
249.366	171.25
249.599	163.25
249.832	156.25
250.066	148.25
250.299	144.25
250.532	132.25
250.765	167.25
250.998	183.25
251.231	191.25
251.465	196.25
251.698	171.25
251.931	162.25
252.164	161.25
252.397	171.25
252.63	178.25
252.863	178.25
253.096	189.25
253.329	184.25
253.562	168.25
253.795	182.25
254.028	191.25
254.261	180.25
254.494	177.25
254.727	225.25
254.96	221.25
255.193	227.25
255.426	208.25
255.659	208.25
255.892	191.25
256.124	190.25
256.357	186.25
256.59	194.25
256.823	176.25
257.056	167.25
257.289	175.25
257.521	172.25
257.754	170.25
257.987	166.25
258.22	176.25
258.452	166.25
258.685	169.25
258.918	175.25
259.151	182.25
259.383	187.25
259.616	183.25
259.849	180.25
260.081	202.25
260.314	204.25
260.547	220.25
260.779	202.25
261.012	187.25
261.244	180.25
261.477	195.25
261.71	178.25
261.942	198.25
262.175	205.25
262.407	178.25
262.64	197.25
262.872	196.25
263.105	173.25
263.337	174.25
263.57	182.25
263.802	172.25
264.035	185.25
264.267	192.25
264.499	171.25
264.732	174.25
264.964	182.25
265.197	179.25
265.429	178.25
265.661	180.25
265.894	180.25
266.126	191.25
266.358	193.25
266.591	189.25
266.823	193.25
267.055	192.25
267.287	193.25
267.52	184.25
267.752	203.25
267.984	180.25
268.216	185.25
268.448	197.25
268.681	198.25
268.913	191.25
269.145	204.25
269.377	242.25
269.609	233.25
269.841	230.25
270.073	234.25
270.306	236.25
270.538	268.25
270.77	249.25
271.002	241.25
271.234	235.25
271.466	262.25
271.698	254.25
271.93	260.25
272.162	272.25
272.394	266.25
272.626	246.25
272.858	251.25
273.09	227.25
273.322	244.25
273.553	220.25
273.785	233.25
274.017	222.25
274.249	228.25
274.481	220.25
274.713	219.25
274.945	214.25
275.176	222.25
275.408	214.25
275.64	225.25
275.872	214.25
276.104	227.25
276.335	232.25
276.567	234.25
276.799	259.25
277.031	266.25
277.262	258.25
277.494	260.25
277.726	255.25
277.957	258.25
278.189	217.25
278.421	217.25
278.652	216.25
278.884	229.25
279.115	231.25
279.347	235.25
279.579	207.25
279.81	219.25
280.042	199.25
280.273	215.25
280.505	200.25
280.736	217.25
280.968	206.25
281.199	232.25
281.431	224.25
281.662	231.25
281.894	221.25
282.125	209.25
282.356	244.25
282.588	259.25
282.819	268.25
283.051	223.25
283.282	217.25
283.513	225.25
283.745	236.25
283.976	228.25
284.207	244.25
284.439	228.25
284.67	224.25
284.901	234.25
285.132	247.25
285.364	238.25
285.595	240.25
285.826	231.25
286.057	217.25
286.288	224.25
286.52	215.25
286.751	224.25
286.982	225.25
287.213	238.25
287.444	222.25
287.675	240.25
287.906	242.25
288.138	240.25
288.369	236.25
288.6	267.25
288.831	257.25
289.062	264.25
289.293	240.25
289.524	258.25
289.755	224.25
289.986	201.25
290.217	236.25
290.448	230.25
290.679	243.25
290.91	242.25
291.141	241.25
291.371	241.25
291.602	247.25
291.833	221.25
292.064	233.25
292.295	235.25
292.526	239.25
292.757	240.25
292.987	216.25
293.218	213.25
293.449	226.25
293.68	234.25
293.91	244.25
294.141	248.25
294.372	257.25
294.603	233.25
294.833	252.25
295.064	244.25
295.295	234.25
295.525	229.25
295.756	252.25
295.987	258.25
296.217	265.25
296.448	281.25
296.679	262.25
296.909	242.25
297.14	231.25
297.37	242.25
297.601	244.25
297.831	262.25
298.062	243.25
298.292	241.25
298.523	240.25
298.753	243.25
298.984	258.25
299.214	267.25
299.445	262.25
299.675	236.25
299.905	262.25
300.136	268.25
300.366	269.25
300.597	248.25
300.827	243.25
301.057	261.25
301.288	258.25
301.518	265.25
301.748	258.25
301.979	274.25
302.209	272.25
302.439	261.25
302.669	267.25
302.9	266.25
303.13	260.25
303.36	284.25
303.59	256.25
303.82	279.25
304.051	286.25
304.281	255.25
304.511	276.25
304.741	272.25
304.971	252.25
305.201	275.25
305.431	266.25
305.661	274.25
305.891	263.25
306.121	271.25
306.352	272.25
306.582	282.25
306.812	266.25
307.042	288.25
307.272	275.25
307.502	255.25
307.731	254.25
307.961	263.25
308.191	293.25
308.421	272.25
308.651	283.25
308.881	260.25
309.111	285.25
309.341	285.25
309.571	285.25
309.8	310.25
310.03	306.25
310.26	307.25
310.49	314.25
310.72	295.25
310.949	329.25
311.179	361.25
311.409	330.25
311.639	315.25
311.868	313.25
312.098	316.25
312.328	325.25
312.557	332.25
312.787	352.25
313.017	338.25
313.246	326.25
313.476	322.25
313.706	324.25
313.935	326.25
314.165	324.25
314.394	337.25
314.624	343.25
314.853	332.25
315.083	319.25
315.312	317.25
315.542	302.25
315.771	307.25
316.001	322.25
316.23	324.25
316.46	323.25
316.689	302.25
316.919	313.25
317.148	314.25
317.377	335.25
317.607	324.25
317.836	319.25
318.065	321.25
318.295	316.25
318.524	317.25
318.753	322.25
318.983	318.25
319.212	309.25
319.441	326.25
319.67	326.25
319.9	314.25
320.129	325.25
320.358	335.25
320.587	337.25
320.816	313.25
321.046	346.25
321.275	336.25
321.504	334.25
321.733	353.25
321.962	357.25
322.191	347.25
322.42	360.25
322.649	372.25
322.878	394.25
323.108	412.25
323.337	414.25
323.566	407.25
323.795	461.25
324.024	503.25
324.253	643.25
324.482	922.25
324.71	1387.25
324.939	1889.25
325.168	1592.25
325.397	845.25
325.626	584.25
325.855	475.25
326.084	444.25
326.313	448.25
326.542	435.25
326.77	478.25
326.999	593.25
327.228	806.25
327.457	1234.25
327.686	1406.25
327.914	943.25
328.143	649.25
328.372	560.25
328.6	502.25
328.829	491.25
329.058	482.25
329.287	500.25
329.515	453.25
329.744	444.25
329.972	431.25
330.201	454.25
330.43	488.25
330.658	520.25
330.887	522.25
331.115	496.25
331.344	444.25
331.572	424.25
331.801	407.25
332.03	409.25
332.258	407.25
332.486	400.25
332.715	345.25
332.943	370.25
333.172	374.25
333.4	368.25
333.629	383.25
333.857	393.25
334.085	403.25
334.314	423.25
334.542	445.25
334.771	446.25
334.999	420.25
335.227	395.25
335.455	392.25
335.684	371.25
335.912	372.25
336.14	370.25
336.369	372.25
336.597	366.25
336.825	383.25
337.053	372.25
337.281	358.25
337.51	362.25
337.738	356.25
337.966	364.25
338.194	373.25
338.422	370.25
338.65	368.25
338.878	366.25
339.106	355.25
339.334	350.25
339.562	354.25
339.79	336.25
340.018	339.25
340.246	361.25
340.474	374.25
340.702	354.25
340.93	357.25
341.158	375.25
341.386	362.25
341.614	368.25
341.842	352.25
342.07	352.25
342.298	354.25
342.526	331.25
342.754	335.25
342.981	343.25
343.209	337.25
343.437	345.25
343.665	354.25
343.893	350.25
344.12	355.25
344.348	370.25
344.576	374.25
344.804	353.25
345.031	380.25
345.259	376.25
345.487	372.25
345.714	367.25
345.942	333.25
346.17	339.25
346.397	340.25
346.625	330.25
346.853	336.25
347.08	346.25
347.308	356.25
347.535	356.25
347.763	370.25
347.99	350.25
348.218	347.25
348.445	350.25
348.673	350.25
348.9	350.25
349.128	345.25
349.355	343.25
349.583	333.25
349.81	329.25
350.037	350.25
350.265	330.25
350.492	330.25
350.72	335.25
350.947	342.25
351.174	338.25
351.402	363.25
351.629	355.25
351.856	352.25
352.083	345.25
352.311	349.25
352.538	368.25
352.765	385.25
352.992	349.25
353.22	345.25
353.447	330.25
353.674	322.25
353.901	338.25
354.128	346.25
354.355	319.25
354.583	325.25
354.81	328.25
355.037	325.25
355.264	323.25
355.491	297.25
355.718	308.25
355.945	310.25
356.172	313.25
356.399	316.25
356.626	337.25
356.853	316.25
357.08	332.25
357.307	324.25
357.534	289.25
357.761	310.25
357.988	327.25
358.215	331.25
358.441	332.25
358.668	322.25
358.895	333.25
359.122	321.25
359.349	331.25
359.576	338.25
359.802	364.25
360.029	385.25
360.256	401.25
360.483	371.25
360.709	358.25
360.936	355.25
361.163	343.25
361.39	361.25
361.616	346.25
361.843	343.25
362.07	330.25
362.296	366.25
362.523	346.25
362.749	347.25
362.976	358.25
363.203	339.25
363.429	342.25
363.656	343.25
363.882	331.25
364.109	318.25
364.335	346.25
364.562	356.25
364.788	322.25
365.015	309.25
365.241	336.25
365.468	347.25
365.694	331.25
365.92	345.25
366.147	344.25
366.373	345.25
366.599	337.25
366.826	322.25
367.052	313.25
367.278	337.25
367.505	340.25
367.731	331.25
367.957	319.25
368.184	336.25
368.41	341.25
368.636	326.25
368.862	350.25
369.089	352.25
369.315	343.25
369.541	332.25
369.767	327.25
369.993	331.25
370.219	329.25
370.445	316.25
370.672	329.25
370.898	327.25
371.124	315.25
371.35	321.25
371.576	323.25
371.802	315.25
372.028	328.25
372.254	331.25
372.48	323.25
372.706	333.25
372.932	331.25
373.158	314.25
373.384	317.25
373.61	336.25
373.835	335.25
374.061	342.25
374.287	339.25
374.513	306.25
374.739	322.25
374.965	336.25
375.191	326.25
375.416	324.25
375.642	339.25
375.868	329.25
376.094	312.25
376.319	304.25
376.545	328.25
376.771	332.25
376.997	319.25
377.222	312.25
377.448	313.25
377.674	314.25
377.899	315.25
378.125	330.25
378.35	321.25
378.576	325.25
378.802	328.25
379.027	335.25
379.253	335.25
379.478	306.25
379.704	311.25
379.929	311.25
380.155	322.25
380.38	323.25
380.606	328.25
380.831	332.25
381.057	343.25
381.282	310.25
381.507	332.25
381.733	332.25
381.958	337.25
382.184	335.25
382.409	311.25
382.634	360.25
382.86	341.25
383.085	310.25
383.31	330.25
383.535	360.25
383.761	351.25
383.986	339.25
384.211	342.25
384.436	336.25
384.662	361.25
384.887	352.25
385.112	332.25
385.337	355.25
385.562	341.25
385.787	364.25
386.013	369.25
386.238	359.25
386.463	340.25
386.688	346.25
386.913	339.25
387.138	338.25
387.363	343.25
387.588	347.25
387.813	341.25
388.038	328.25
388.263	350.25
388.488	352.25
388.713	344.25
388.938	357.25
389.163	342.25
389.387	346.25
389.612	342.25
389.837	343.25
390.062	332.25
390.287	357.25
390.512	339.25
390.736	337.25
390.961	365.25
391.186	346.25
391.411	344.25
391.636	341.25
391.86	353.25
392.085	371.25
392.31	377.25
392.534	344.25
392.759	371.25
392.984	348.25
393.208	353.25
393.433	352.25
393.658	359.25
393.882	353.25
394.107	350.25
394.331	354.25
394.556	359.25
394.78	368.25
395.005	371.25
395.229	356.25
395.454	366.25
395.678	342.25
395.903	386.25
396.127	380.25
396.352	370.25
396.576	378.25
396.801	360.25
397.025	348.25
397.249	382.25
397.474	358.25
397.698	362.25
397.922	387.25
398.147	386.25
398.371	407.25
398.595	389.25
398.82	393.25
399.044	390.25
399.268	407.25
399.492	398.25
399.717	442.25
399.941	468.25
400.165	470.25
400.389	476.25
400.613	447.25
400.837	435.25
401.062	413.25
401.286	430.25
401.51	382.25
401.734	376.25
401.958	393.25
402.182	379.25
402.406	412.25
402.63	423.25
402.854	408.25
403.078	405.25
403.302	426.25
403.526	423.25
403.75	416.25
403.974	410.25
404.198	396.25
404.422	409.25
404.645	436.25
404.869	417.25
405.093	439.25
405.317	477.25
405.541	483.25
405.765	449.25
405.988	419.25
406.212	454.25
406.436	442.25
406.66	459.25
406.883	466.25
407.107	475.25
407.331	466.25
407.555	523.25
407.778	520.25
408.002	462.25
408.226	420.25
408.449	447.25
408.673	448.25
408.896	484.25
409.12	485.25
409.344	494.25
409.567	442.25
409.791	413.25
410.014	403.25
410.238	421.25
410.461	410.25
410.685	395.25
410.908	436.25
411.132	454.25
411.355	499.25
411.578	483.25
411.802	410.25
412.025	423.25
412.249	417.25
412.472	444.25
412.695	474.25
412.919	451.25
413.142	427.25
413.365	399.25
413.589	394.25
413.812	382.25
414.035	421.25
414.258	383.25
414.482	386.25
414.705	375.25
414.928	382.25
415.151	391.25
415.374	381.25
415.597	386.25
415.821	392.25
416.044	384.25
416.267	382.25
416.49	382.25
416.713	383.25
416.936	389.25
417.159	400.25
417.382	397.25
417.605	417.25
417.828	388.25
418.051	396.25
418.274	395.25
418.497	377.25
418.72	382.25
418.943	381.25
419.166	418.25
419.389	416.25
419.611	424.25
419.834	396.25
420.057	410.25
420.28	406.25
420.503	399.25
420.726	401.25
420.948	422.25
421.171	457.25
421.394	483.25
421.617	436.25
421.839	400.25
422.062	407.25
422.285	404.25
422.507	436.25
422.73	508.25
422.953	481.25
423.175	448.25
423.398	422.25
423.621	435.25
423.843	436.25
424.066	448.25
424.288	432.25
424.511	451.25
424.733	516.25
424.956	552.25
425.178	528.25
425.401	554.25
425.623	552.25
425.846	479.25
426.068	462.25
426.291	429.25
426.513	427.25
426.735	455.25
426.958	469.25
427.18	537.25
427.402	635.25
427.625	713.25
427.847	636.25
428.069	558.25
428.292	486.25
428.514	456.25
428.736	428.25
428.958	406.25
429.181	418.25
429.403	418.25
429.625	426.25
429.847	423.25
430.069	496.25
430.292	492.25
430.514	430.25
430.736	419.25
430.958	410.25
431.18	384.25
431.402	396.25
431.624	396.25
431.846	385.25
432.068	380.25
432.29	385.25
432.512	388.25
432.734	378.25
432.956	399.25
433.178	412.25
433.4	405.25
433.622	382.25
433.844	400.25
434.066	371.25
434.287	393.25
434.509	391.25
434.731	372.25
434.953	396.25
435.175	422.25
435.397	427.25
435.618	441.25
435.84	498.25
436.062	534.25
436.284	582.25
436.505	482.25
436.727	469.25
436.949	427.25
437.17	414.25
437.392	410.25
437.614	430.25
437.835	475.25
438.057	535.25
438.278	597.25
438.5	597.25
438.721	641.25
438.943	616.25
439.165	512.25
439.386	463.25
439.608	448.25
439.829	481.25
440.05	507.25
440.272	518.25
440.493	480.25
440.715	432.25
440.936	448.25
441.158	400.25
441.379	423.25
441.6	449.25
441.822	426.25
442.043	456.25
442.264	540.25
442.486	585.25
442.707	482.25
442.928	467.25
443.149	467.25
443.371	513.25
443.592	515.25
443.813	549.25
444.034	632.25
444.255	512.25
444.476	481.25
444.698	443.25
444.919	458.25
445.14	526.25
445.361	509.25
445.582	490.25
445.803	545.25
446.024	610.25
446.245	613.25
446.466	553.25
446.687	478.25
446.908	440.25
447.129	408.25
447.35	412.25
447.571	407.25
447.792	408.25
448.013	444.25
448.234	443.25
448.455	478.25
448.675	590.25
448.896	649.25
449.117	539.25
449.338	514.25
449.559	610.25
449.779	687.25
450	550.25
450.221	473.25
450.442	423.25
450.662	423.25
450.883	435.25
451.104	442.25
451.324	439.25
451.545	404.25
451.766	396.25
451.986	377.25
452.207	373.25
452.428	375.25
452.648	373.25
452.869	383.25
453.089	380.25
453.31	393.25
453.53	394.25
453.751	355.25
453.971	382.25
454.192	411.25
454.412	384.25
454.633	368.25
454.853	403.25
455.073	391.25
455.294	406.25
455.514	455.25
455.734	437.25
455.955	386.25
456.175	358.25
456.395	343.25
456.616	359.25
456.836	343.25
457.056	362.25
457.276	357.25
457.497	361.25
457.717	359.25
457.937	366.25
458.157	358.25
458.377	372.25
458.598	389.25
458.818	454.25
459.038	508.25
459.258	522.25
459.478	433.25
459.698	410.25
459.918	383.25
460.138	378.25
460.358	386.25
460.578	384.25
460.798	391.25
461.018	397.25
461.238	404.25
461.458	365.25
461.678	382.25
461.898	377.25
462.118	381.25
462.338	392.25
462.558	402.25
462.777	396.25
462.997	426.25
463.217	434.25
463.437	438.25
463.657	436.25
463.876	433.25
464.096	440.25
464.316	423.25
464.536	430.25
464.755	420.25
464.975	432.25
465.195	487.25
465.414	534.25
465.634	460.25
465.854	437.25
466.073	418.25
466.293	397.25
466.512	383.25
466.732	391.25
466.951	367.25
467.171	391.25
467.391	395.25
467.61	397.25
467.829	390.25
468.049	396.25
468.268	395.25
468.488	394.25
468.707	367.25
468.927	368.25
469.146	374.25
469.365	374.25
469.585	374.25
469.804	377.25
470.023	377.25
470.243	398.25
470.462	388.25
470.681	413.25
470.901	398.25
471.12	391.25
471.339	384.25
471.558	380.25
471.777	389.25
471.997	367.25
472.216	409.25
472.435	426.25
472.654	412.25
472.873	380.25
473.092	401.25
473.311	404.25
473.53	391.25
473.749	393.25
473.968	423.25
474.187	512.25
474.406	518.25
474.625	432.25
474.844	406.25
475.063	402.25
475.282	384.25
475.501	376.25
475.72	413.25
475.939	404.25
476.158	394.25
476.377	396.25
476.596	406.25
476.814	410.25
477.033	408.25
477.252	431.25
477.471	416.25
477.69	404.25
477.908	422.25
478.127	424.25
478.346	424.25
478.564	414.25
478.783	412.25
479.002	402.25
479.22	454.25
479.439	451.25
479.658	455.25
479.876	489.25
480.095	473.25
480.313	485.25
480.532	463.25
480.751	474.25
480.969	483.25
481.188	535.25
481.406	578.25
481.624	528.25
481.843	471.25
482.061	453.25
482.28	483.25
482.498	471.25
482.717	446.25
482.935	452.25
483.153	442.25
483.372	440.25
483.59	444.25
483.808	459.25
484.027	453.25
484.245	470.25
484.463	452.25
484.681	492.25
484.9	475.25
485.118	471.25
485.336	448.25
485.554	478.25
485.772	482.25
485.99	488.25
486.209	478.25
486.427	478.25
486.645	480.25
486.863	513.25
487.081	519.25
487.299	484.25
487.517	502.25
487.735	506.25
487.953	485.25
488.171	464.25
488.389	472.25
488.607	510.25
488.825	488.25
489.043	487.25
489.261	488.25
489.479	497.25
489.696	507.25
489.914	484.25
490.132	519.25
490.35	512.25
490.568	511.25
490.786	522.25
491.003	520.25
491.221	523.25
491.439	535.25
491.657	555.25
491.874	543.25
492.092	546.25
492.31	549.25
492.527	558.25
492.745	567.25
492.963	559.25
493.18	549.25
493.398	580.25
493.615	587.25
493.833	584.25
494.05	557.25
494.268	572.25
494.485	550.25
494.703	573.25
494.92	580.25
495.138	560.25
495.355	563.25
495.573	575.25
495.79	551.25
496.008	592.25
496.225	587.25
496.442	574.25
496.66	580.25
496.877	580.25
497.094	599.25
497.312	584.25
497.529	622.25
497.746	603.25
497.963	616.25
498.181	623.25
498.398	621.25
498.615	616.25
498.832	615.25
499.049	634.25
499.267	646.25
499.484	658.25
499.701	693.25
499.918	707.25
500.135	719.25
500.352	722.25
500.569	736.25
500.786	728.25
501.003	736.25
501.22	744.25
501.437	700.25
501.654	700.25
501.871	694.25
502.088	679.25
