Data from 1965.PennyLincolnUp.Lamp.En5.5.200Scan.071719.P1._HRD10591_14-09-04-911.txt Node
Date: Thu Jul 18 14:09:04 EDT 2019
User: cochatt
Spectrometer: HR+D1059
Trigger mode: 1
Integration Time (sec): 1.000000E-1
Scans to average: 1
Electric dark correction enabled: true
Nonlinearity correction enabled: false
Boxcar width: 0
XAxis mode: Wavelengths
Number of Pixels in Spectrum: 2048
>>>>>Begin Spectral Data<<<<<
223.165	-25.69
223.4	-25.69
223.635	-25.69
223.869	-5.69
224.104	-18.69
224.338	-17.69
224.573	-8.69
224.808	-16.69
225.042	0.31
225.277	-8.69
225.511	-5.69
225.746	0.31
225.98	4.31
226.215	9.31
226.449	25.31
226.683	17.31
226.918	25.31
227.152	25.31
227.387	33.31
227.621	38.31
227.856	34.31
228.09	44.31
228.324	42.31
228.559	57.31
228.793	68.31
229.027	105.31
229.262	106.31
229.496	103.31
229.73	126.31
229.964	140.31
230.199	101.31
230.433	113.31
230.667	95.31
230.901	109.31
231.136	111.31
231.37	101.31
231.604	96.31
231.838	112.31
232.072	105.31
232.306	100.31
232.541	106.31
232.775	104.31
233.009	110.31
233.243	93.31
233.477	112.31
233.711	125.31
233.945	93.31
234.179	116.31
234.413	120.31
234.647	102.31
234.881	97.31
235.115	114.31
235.349	119.31
235.583	123.31
235.817	105.31
236.051	112.31
236.285	109.31
236.519	114.31
236.753	125.31
236.987	134.31
237.221	165.31
237.455	209.31
237.689	177.31
237.922	128.31
238.156	125.31
238.39	114.31
238.624	123.31
238.858	100.31
239.091	116.31
239.325	105.31
239.559	116.31
239.793	116.31
240.027	133.31
240.26	132.31
240.494	135.31
240.728	141.31
240.961	137.31
241.195	125.31
241.429	136.31
241.662	130.31
241.896	123.31
242.13	125.31
242.363	122.31
242.597	118.31
242.83	124.31
243.064	140.31
243.298	125.31
243.531	114.31
243.765	138.31
243.998	138.31
244.232	125.31
244.465	139.31
244.699	120.31
244.932	141.31
245.166	133.31
245.399	128.31
245.633	132.31
245.866	129.31
246.099	123.31
246.333	140.31
246.566	132.31
246.8	141.31
247.033	140.31
247.266	135.31
247.5	139.31
247.733	158.31
247.966	160.31
248.2	136.31
248.433	157.31
248.666	152.31
248.899	167.31
249.133	163.31
249.366	190.31
249.599	173.31
249.832	161.31
250.066	149.31
250.299	168.31
250.532	163.31
250.765	174.31
250.998	190.31
251.231	196.31
251.465	190.31
251.698	188.31
251.931	174.31
252.164	176.31
252.397	178.31
252.63	173.31
252.863	171.31
253.096	189.31
253.329	198.31
253.562	214.31
253.795	200.31
254.028	200.31
254.261	197.31
254.494	221.31
254.727	224.31
254.96	232.31
255.193	236.31
255.426	227.31
255.659	212.31
255.892	221.31
256.124	216.31
256.357	212.31
256.59	201.31
256.823	185.31
257.056	194.31
257.289	180.31
257.521	197.31
257.754	192.31
257.987	185.31
258.22	175.31
258.452	178.31
258.685	198.31
258.918	209.31
259.151	196.31
259.383	186.31
259.616	187.31
259.849	209.31
260.081	217.31
260.314	221.31
260.547	224.31
260.779	223.31
261.012	202.31
261.244	209.31
261.477	200.31
261.71	202.31
261.942	205.31
262.175	213.31
262.407	201.31
262.64	206.31
262.872	198.31
263.105	201.31
263.337	187.31
263.57	186.31
263.802	192.31
264.035	178.31
264.267	182.31
264.499	186.31
264.732	186.31
264.964	193.31
265.197	204.31
265.429	175.31
265.661	195.31
265.894	185.31
266.126	198.31
266.358	194.31
266.591	180.31
266.823	187.31
267.055	216.31
267.287	194.31
267.52	178.31
267.752	200.31
267.984	210.31
268.216	214.31
268.448	208.31
268.681	207.31
268.913	217.31
269.145	239.31
269.377	240.31
269.609	232.31
269.841	247.31
270.073	224.31
270.306	255.31
270.538	261.31
270.77	281.31
271.002	256.31
271.234	245.31
271.466	278.31
271.698	281.31
271.93	269.31
272.162	279.31
272.394	286.31
272.626	271.31
272.858	262.31
273.09	235.31
273.322	246.31
273.553	225.31
273.785	235.31
274.017	242.31
274.249	226.31
274.481	237.31
274.713	222.31
274.945	228.31
275.176	238.31
275.408	227.31
275.64	242.31
275.872	247.31
276.104	233.31
276.335	252.31
276.567	249.31
276.799	246.31
277.031	283.31
277.262	283.31
277.494	289.31
277.726	265.31
277.957	236.31
278.189	234.31
278.421	244.31
278.652	230.31
278.884	236.31
279.115	237.31
279.347	238.31
279.579	237.31
279.81	234.31
280.042	232.31
280.273	213.31
280.505	221.31
280.736	222.31
280.968	217.31
281.199	212.31
281.431	220.31
281.662	232.31
281.894	223.31
282.125	229.31
282.356	239.31
282.588	271.31
282.819	274.31
283.051	263.31
283.282	222.31
283.513	219.31
283.745	232.31
283.976	238.31
284.207	250.31
284.439	248.31
284.67	229.31
284.901	230.31
285.132	241.31
285.364	234.31
285.595	238.31
285.826	237.31
286.057	255.31
286.288	250.31
286.52	244.31
286.751	224.31
286.982	233.31
287.213	247.31
287.444	242.31
287.675	246.31
287.906	266.31
288.138	260.31
288.369	255.31
288.6	270.31
288.831	244.31
289.062	248.31
289.293	239.31
289.524	241.31
289.755	249.31
289.986	251.31
290.217	237.31
290.448	246.31
290.679	240.31
290.91	242.31
291.141	261.31
291.371	248.31
291.602	264.31
291.833	235.31
292.064	236.31
292.295	251.31
292.526	250.31
292.757	249.31
292.987	244.31
293.218	250.31
293.449	248.31
293.68	255.31
293.91	241.31
294.141	239.31
294.372	223.31
294.603	252.31
294.833	232.31
295.064	250.31
295.295	258.31
295.525	261.31
295.756	253.31
295.987	261.31
296.217	285.31
296.448	278.31
296.679	265.31
296.909	262.31
297.14	258.31
297.37	249.31
297.601	248.31
297.831	262.31
298.062	258.31
298.292	253.31
298.523	250.31
298.753	276.31
298.984	244.31
299.214	267.31
299.445	256.31
299.675	262.31
299.905	262.31
300.136	251.31
300.366	250.31
300.597	274.31
300.827	254.31
301.057	280.31
301.288	286.31
301.518	285.31
301.748	276.31
301.979	290.31
302.209	285.31
302.439	292.31
302.669	280.31
302.9	255.31
303.13	266.31
303.36	274.31
303.59	272.31
303.82	297.31
304.051	279.31
304.281	274.31
304.511	296.31
304.741	260.31
304.971	273.31
305.201	283.31
305.431	269.31
305.661	294.31
305.891	290.31
306.121	265.31
306.352	283.31
306.582	302.31
306.812	291.31
307.042	280.31
307.272	290.31
307.502	286.31
307.731	297.31
307.961	284.31
308.191	270.31
308.421	275.31
308.651	287.31
308.881	290.31
309.111	298.31
309.341	278.31
309.571	303.31
309.8	308.31
310.03	321.31
310.26	316.31
310.49	329.31
310.72	334.31
310.949	372.31
311.179	354.31
311.409	343.31
311.639	339.31
311.868	349.31
312.098	312.31
312.328	347.31
312.557	361.31
312.787	350.31
313.017	350.31
313.246	343.31
313.476	321.31
313.706	311.31
313.935	332.31
314.165	342.31
314.394	344.31
314.624	332.31
314.853	349.31
315.083	342.31
315.312	320.31
315.542	335.31
315.771	322.31
316.001	311.31
316.23	316.31
316.46	315.31
316.689	297.31
316.919	334.31
317.148	348.31
317.377	333.31
317.607	337.31
317.836	338.31
318.065	329.31
318.295	319.31
318.524	330.31
318.753	325.31
318.983	323.31
319.212	335.31
319.441	333.31
319.67	339.31
319.9	341.31
320.129	324.31
320.358	344.31
320.587	325.31
320.816	358.31
321.046	354.31
321.275	367.31
321.504	364.31
321.733	353.31
321.962	360.31
322.191	359.31
322.42	387.31
322.649	403.31
322.878	397.31
323.108	410.31
323.337	436.31
323.566	439.31
323.795	475.31
324.024	544.31
324.253	663.31
324.482	955.31
324.71	1438.31
324.939	2013.31
325.168	1676.31
325.397	895.31
325.626	601.31
325.855	518.31
326.084	462.31
326.313	459.31
326.542	477.31
326.77	493.31
326.999	618.31
327.228	865.31
327.457	1266.31
327.686	1473.31
327.914	978.31
328.143	645.31
328.372	580.31
328.6	554.31
328.829	508.31
329.058	518.31
329.287	529.31
329.515	497.31
329.744	458.31
329.972	470.31
330.201	476.31
330.43	501.31
330.658	540.31
330.887	557.31
331.115	552.31
331.344	478.31
331.572	451.31
331.801	442.31
332.03	415.31
332.258	400.31
332.486	392.31
332.715	403.31
332.943	392.31
333.172	404.31
333.4	382.31
333.629	388.31
333.857	421.31
334.085	422.31
334.314	447.31
334.542	472.31
334.771	479.31
334.999	455.31
335.227	418.31
335.455	425.31
335.684	397.31
335.912	402.31
336.14	383.31
336.369	393.31
336.597	385.31
336.825	385.31
337.053	391.31
337.281	376.31
337.51	352.31
337.738	370.31
337.966	374.31
338.194	398.31
338.422	372.31
338.65	386.31
338.878	365.31
339.106	384.31
339.334	336.31
339.562	356.31
339.79	369.31
340.018	365.31
340.246	356.31
340.474	376.31
340.702	374.31
340.93	364.31
341.158	373.31
341.386	374.31
341.614	365.31
341.842	362.31
342.07	375.31
342.298	359.31
342.526	358.31
342.754	344.31
342.981	335.31
343.209	349.31
343.437	388.31
343.665	368.31
343.893	379.31
344.12	359.31
344.348	363.31
344.576	373.31
344.804	365.31
345.031	374.31
345.259	382.31
345.487	387.31
345.714	365.31
345.942	350.31
346.17	364.31
346.397	373.31
346.625	349.31
346.853	358.31
347.08	351.31
347.308	358.31
347.535	360.31
347.763	373.31
347.99	384.31
348.218	380.31
348.445	373.31
348.673	362.31
348.9	348.31
349.128	354.31
349.355	345.31
349.583	356.31
349.81	335.31
350.037	362.31
350.265	351.31
350.492	345.31
350.72	351.31
350.947	364.31
351.174	363.31
351.402	373.31
351.629	369.31
351.856	362.31
352.083	378.31
352.311	376.31
352.538	377.31
352.765	382.31
352.992	366.31
353.22	355.31
353.447	359.31
353.674	366.31
353.901	328.31
354.128	340.31
354.355	351.31
354.583	324.31
354.81	341.31
355.037	330.31
355.264	315.31
355.491	328.31
355.718	335.31
355.945	333.31
356.172	349.31
356.399	313.31
356.626	336.31
356.853	335.31
357.08	343.31
357.307	334.31
357.534	336.31
357.761	340.31
357.988	338.31
358.215	340.31
358.441	326.31
358.668	340.31
358.895	339.31
359.122	323.31
359.349	358.31
359.576	353.31
359.802	370.31
360.029	411.31
360.256	414.31
360.483	391.31
360.709	375.31
360.936	379.31
361.163	349.31
361.39	358.31
361.616	376.31
361.843	373.31
362.07	368.31
362.296	360.31
362.523	353.31
362.749	369.31
362.976	371.31
363.203	365.31
363.429	357.31
363.656	354.31
363.882	345.31
364.109	342.31
364.335	350.31
364.562	360.31
364.788	339.31
365.015	346.31
365.241	347.31
365.468	362.31
365.694	352.31
365.92	360.31
366.147	347.31
366.373	335.31
366.599	345.31
366.826	329.31
367.052	336.31
367.278	341.31
367.505	344.31
367.731	351.31
367.957	344.31
368.184	341.31
368.41	359.31
368.636	337.31
368.862	354.31
369.089	355.31
369.315	350.31
369.541	331.31
369.767	346.31
369.993	354.31
370.219	353.31
370.445	328.31
370.672	322.31
370.898	340.31
371.124	320.31
371.35	336.31
371.576	339.31
371.802	326.31
372.028	326.31
372.254	341.31
372.48	328.31
372.706	345.31
372.932	329.31
373.158	344.31
373.384	337.31
373.61	348.31
373.835	335.31
374.061	340.31
374.287	334.31
374.513	341.31
374.739	353.31
374.965	342.31
375.191	332.31
375.416	334.31
375.642	331.31
375.868	332.31
376.094	338.31
376.319	348.31
376.545	328.31
376.771	325.31
376.997	330.31
377.222	316.31
377.448	338.31
377.674	324.31
377.899	332.31
378.125	317.31
378.35	327.31
378.576	323.31
378.802	328.31
379.027	330.31
379.253	326.31
379.478	324.31
379.704	316.31
379.929	310.31
380.155	353.31
380.38	330.31
380.606	340.31
380.831	327.31
381.057	328.31
381.282	324.31
381.507	333.31
381.733	338.31
381.958	325.31
382.184	342.31
382.409	350.31
382.634	342.31
382.86	343.31
383.085	347.31
383.31	345.31
383.535	350.31
383.761	342.31
383.986	354.31
384.211	351.31
384.436	353.31
384.662	342.31
384.887	349.31
385.112	357.31
385.337	346.31
385.562	360.31
385.787	357.31
386.013	395.31
386.238	350.31
386.463	354.31
386.688	366.31
386.913	343.31
387.138	356.31
387.363	352.31
387.588	359.31
387.813	355.31
388.038	358.31
388.263	341.31
388.488	357.31
388.713	328.31
388.938	364.31
389.163	351.31
389.387	368.31
389.612	357.31
389.837	361.31
390.062	344.31
390.287	334.31
390.512	350.31
390.736	342.31
390.961	342.31
391.186	350.31
391.411	362.31
391.636	362.31
391.86	341.31
392.085	351.31
392.31	383.31
392.534	358.31
392.759	358.31
392.984	354.31
393.208	337.31
393.433	379.31
393.658	367.31
393.882	357.31
394.107	344.31
394.331	351.31
394.556	342.31
394.78	362.31
395.005	360.31
395.229	377.31
395.454	351.31
395.678	353.31
395.903	374.31
396.127	395.31
396.352	395.31
396.576	377.31
396.801	376.31
397.025	379.31
397.249	384.31
397.474	392.31
397.698	377.31
397.922	384.31
398.147	406.31
398.371	386.31
398.595	407.31
398.82	365.31
399.044	410.31
399.268	414.31
399.492	429.31
399.717	452.31
399.941	463.31
400.165	473.31
400.389	512.31
400.613	456.31
400.837	438.31
401.062	426.31
401.286	424.31
401.51	421.31
401.734	410.31
401.958	401.31
402.182	402.31
402.406	428.31
402.63	401.31
402.854	410.31
403.078	412.31
403.302	416.31
403.526	440.31
403.75	440.31
403.974	425.31
404.198	414.31
404.422	418.31
404.645	444.31
404.869	409.31
405.093	474.31
405.317	479.31
405.541	506.31
405.765	457.31
405.988	456.31
406.212	450.31
406.436	470.31
406.66	480.31
406.883	463.31
407.107	500.31
407.331	503.31
407.555	558.31
407.778	541.31
408.002	492.31
408.226	457.31
408.449	448.31
408.673	467.31
408.896	468.31
409.12	520.31
409.344	480.31
409.567	444.31
409.791	449.31
410.014	424.31
410.238	429.31
410.461	433.31
410.685	428.31
410.908	406.31
411.132	450.31
411.355	498.31
411.578	463.31
411.802	434.31
412.025	423.31
412.249	444.31
412.472	455.31
412.695	485.31
412.919	474.31
413.142	425.31
413.365	405.31
413.589	426.31
413.812	408.31
414.035	404.31
414.258	405.31
414.482	392.31
414.705	384.31
414.928	399.31
415.151	376.31
415.374	393.31
415.597	382.31
415.821	372.31
416.044	385.31
416.267	386.31
416.49	401.31
416.713	382.31
416.936	402.31
417.159	386.31
417.382	390.31
417.605	405.31
417.828	418.31
418.051	431.31
418.274	408.31
418.497	414.31
418.72	394.31
418.943	418.31
419.166	416.31
419.389	415.31
419.611	420.31
419.834	431.31
420.057	423.31
420.28	424.31
420.503	414.31
420.726	404.31
420.948	429.31
421.171	468.31
421.394	500.31
421.617	449.31
421.839	422.31
422.062	429.31
422.285	433.31
422.507	490.31
422.73	540.31
422.953	530.31
423.175	449.31
423.398	426.31
423.621	426.31
423.843	451.31
424.066	450.31
424.288	446.31
424.511	462.31
424.733	516.31
424.956	551.31
425.178	549.31
425.401	543.31
425.623	562.31
425.846	496.31
426.068	468.31
426.291	435.31
426.513	427.31
426.735	457.31
426.958	488.31
427.18	566.31
427.402	686.31
427.625	733.31
427.847	653.31
428.069	586.31
428.292	503.31
428.514	464.31
428.736	425.31
428.958	436.31
429.181	433.31
429.403	430.31
429.625	449.31
429.847	473.31
430.069	504.31
430.292	519.31
430.514	434.31
430.736	411.31
430.958	421.31
431.18	413.31
431.402	410.31
431.624	384.31
431.846	398.31
432.068	401.31
432.29	422.31
432.512	400.31
432.734	412.31
432.956	392.31
433.178	407.31
433.4	415.31
433.622	410.31
433.844	384.31
434.066	403.31
434.287	384.31
434.509	394.31
434.731	408.31
434.953	417.31
435.175	436.31
435.397	436.31
435.618	438.31
435.84	484.31
436.062	579.31
436.284	602.31
436.505	513.31
436.727	480.31
436.949	421.31
437.17	442.31
437.392	414.31
437.614	431.31
437.835	504.31
438.057	556.31
438.278	645.31
438.5	626.31
438.721	639.31
438.943	633.31
439.165	537.31
439.386	472.31
439.608	483.31
439.829	469.31
440.05	496.31
440.272	539.31
440.493	495.31
440.715	451.31
440.936	450.31
441.158	446.31
441.379	429.31
441.6	446.31
441.822	461.31
442.043	523.31
442.264	544.31
442.486	574.31
442.707	517.31
442.928	479.31
443.149	497.31
443.371	497.31
443.592	529.31
443.813	605.31
444.034	622.31
444.255	533.31
444.476	486.31
444.698	471.31
444.919	458.31
445.14	545.31
445.361	544.31
445.582	493.31
445.803	532.31
446.024	614.31
446.245	603.31
446.466	583.31
446.687	503.31
446.908	480.31
447.129	447.31
447.35	421.31
447.571	423.31
447.792	408.31
448.013	438.31
448.234	460.31
448.455	500.31
448.675	574.31
448.896	662.31
449.117	589.31
449.338	567.31
449.559	634.31
449.779	723.31
450	562.31
450.221	468.31
450.442	443.31
450.662	415.31
450.883	452.31
451.104	468.31
451.324	460.31
451.545	402.31
451.766	409.31
451.986	391.31
452.207	396.31
452.428	400.31
452.648	396.31
452.869	383.31
453.089	410.31
453.31	412.31
453.53	407.31
453.751	410.31
453.971	389.31
454.192	413.31
454.412	411.31
454.633	404.31
454.853	390.31
455.073	389.31
455.294	385.31
455.514	460.31
455.734	453.31
455.955	376.31
456.175	380.31
456.395	382.31
456.616	374.31
456.836	361.31
457.056	370.31
457.276	349.31
457.497	363.31
457.717	367.31
457.937	385.31
458.157	364.31
458.377	379.31
458.598	399.31
458.818	466.31
459.038	555.31
459.258	523.31
459.478	453.31
459.698	408.31
459.918	408.31
460.138	408.31
460.358	388.31
460.578	407.31
460.798	401.31
461.018	426.31
461.238	415.31
461.458	388.31
461.678	396.31
461.898	408.31
462.118	409.31
462.338	400.31
462.558	406.31
462.777	438.31
462.997	409.31
463.217	414.31
463.437	415.31
463.657	421.31
463.876	414.31
464.096	425.31
464.316	439.31
464.536	436.31
464.755	417.31
464.975	424.31
465.195	496.31
465.414	548.31
465.634	484.31
465.854	438.31
466.073	412.31
466.293	394.31
466.512	387.31
466.732	398.31
466.951	398.31
467.171	391.31
467.391	403.31
467.61	409.31
467.829	410.31
468.049	398.31
468.268	418.31
468.488	394.31
468.707	381.31
468.927	384.31
469.146	390.31
469.365	376.31
469.585	367.31
469.804	388.31
470.023	392.31
470.243	400.31
470.462	410.31
470.681	428.31
470.901	426.31
471.12	399.31
471.339	408.31
471.558	390.31
471.777	414.31
471.997	410.31
472.216	406.31
472.435	463.31
472.654	454.31
472.873	405.31
473.092	394.31
473.311	391.31
473.53	395.31
473.749	422.31
473.968	442.31
474.187	520.31
474.406	547.31
474.625	452.31
474.844	410.31
475.063	405.31
475.282	408.31
475.501	415.31
475.72	434.31
475.939	429.31
476.158	428.31
476.377	407.31
476.596	402.31
476.814	401.31
477.033	442.31
477.252	417.31
477.471	429.31
477.69	417.31
477.908	440.31
478.127	419.31
478.346	440.31
478.564	434.31
478.783	416.31
479.002	450.31
479.22	436.31
479.439	459.31
479.658	473.31
479.876	472.31
480.095	476.31
480.313	522.31
480.532	481.31
480.751	490.31
480.969	509.31
481.188	577.31
481.406	607.31
481.624	536.31
481.843	496.31
482.061	513.31
482.28	466.31
482.498	483.31
482.717	490.31
482.935	464.31
483.153	484.31
483.372	471.31
483.59	446.31
483.808	493.31
484.027	471.31
484.245	441.31
484.463	472.31
484.681	480.31
484.9	492.31
485.118	484.31
485.336	457.31
485.554	477.31
485.772	469.31
485.99	486.31
486.209	479.31
486.427	485.31
486.645	493.31
486.863	502.31
487.081	505.31
487.299	530.31
487.517	516.31
487.735	501.31
487.953	488.31
488.171	504.31
488.389	507.31
488.607	524.31
488.825	502.31
489.043	486.31
489.261	516.31
489.479	510.31
489.696	488.31
489.914	502.31
490.132	513.31
490.35	536.31
490.568	503.31
490.786	534.31
491.003	543.31
491.221	572.31
491.439	554.31
491.657	558.31
491.874	546.31
492.092	558.31
492.31	584.31
492.527	559.31
492.745	560.31
492.963	611.31
493.18	574.31
493.398	575.31
493.615	594.31
493.833	600.31
494.05	592.31
494.268	588.31
494.485	598.31
494.703	584.31
494.92	580.31
495.138	606.31
495.355	577.31
495.573	602.31
495.79	579.31
496.008	589.31
496.225	589.31
496.442	590.31
496.66	600.31
496.877	591.31
497.094	614.31
497.312	607.31
497.529	624.31
497.746	644.31
497.963	618.31
498.181	639.31
498.398	632.31
498.615	658.31
498.832	660.31
499.049	648.31
499.267	666.31
499.484	681.31
499.701	704.31
499.918	718.31
500.135	727.31
500.352	742.31
500.569	732.31
500.786	741.31
501.003	720.31
501.22	723.31
501.437	709.31
501.654	728.31
501.871	723.31
502.088	698.31
