Data from 1965.PennyLincolnUp.Lamp.En5.5.200Scan.071719.P1._HRD10591_14-09-58-911.txt Node
Date: Thu Jul 18 14:09:58 EDT 2019
User: cochatt
Spectrometer: HR+D1059
Trigger mode: 1
Integration Time (sec): 1.000000E-1
Scans to average: 1
Electric dark correction enabled: true
Nonlinearity correction enabled: false
Boxcar width: 0
XAxis mode: Wavelengths
Number of Pixels in Spectrum: 2048
>>>>>Begin Spectral Data<<<<<
223.165	-6.31
223.4	-6.31
223.635	-6.31
223.869	-22.31
224.104	-14.31
224.338	8.69
224.573	-16.31
224.808	-9.31
225.042	-7.31
225.277	-20.31
225.511	-24.31
225.746	-5.31
225.98	6.69
226.215	15.69
226.449	13.69
226.683	16.69
226.918	22.69
227.152	41.69
227.387	27.69
227.621	39.69
227.856	30.69
228.09	58.69
228.324	50.69
228.559	59.69
228.793	76.69
229.027	96.69
229.262	114.69
229.496	100.69
229.73	110.69
229.964	132.69
230.199	114.69
230.433	122.69
230.667	107.69
230.901	96.69
231.136	123.69
231.37	110.69
231.604	114.69
231.838	97.69
232.072	89.69
232.306	95.69
232.541	101.69
232.775	98.69
233.009	107.69
233.243	98.69
233.477	107.69
233.711	102.69
233.945	90.69
234.179	114.69
234.413	97.69
234.647	109.69
234.881	108.69
235.115	118.69
235.349	98.69
235.583	118.69
235.817	100.69
236.051	125.69
236.285	118.69
236.519	120.69
236.753	124.69
236.987	119.69
237.221	166.69
237.455	202.69
237.689	164.69
237.922	131.69
238.156	126.69
238.39	108.69
238.624	123.69
238.858	102.69
239.091	102.69
239.325	96.69
239.559	116.69
239.793	123.69
240.027	125.69
240.26	117.69
240.494	144.69
240.728	139.69
240.961	146.69
241.195	124.69
241.429	138.69
241.662	120.69
241.896	125.69
242.13	119.69
242.363	124.69
242.597	132.69
242.83	122.69
243.064	133.69
243.298	136.69
243.531	120.69
243.765	115.69
243.998	110.69
244.232	124.69
244.465	130.69
244.699	121.69
244.932	130.69
245.166	135.69
245.399	126.69
245.633	128.69
245.866	137.69
246.099	125.69
246.333	140.69
246.566	124.69
246.8	146.69
247.033	133.69
247.266	139.69
247.5	140.69
247.733	149.69
247.966	150.69
248.2	157.69
248.433	155.69
248.666	158.69
248.899	174.69
249.133	180.69
249.366	209.69
249.599	174.69
249.832	140.69
250.066	158.69
250.299	166.69
250.532	168.69
250.765	190.69
250.998	192.69
251.231	191.69
251.465	184.69
251.698	192.69
251.931	186.69
252.164	173.69
252.397	174.69
252.63	175.69
252.863	210.69
253.096	190.69
253.329	192.69
253.562	189.69
253.795	194.69
254.028	203.69
254.261	203.69
254.494	213.69
254.727	228.69
254.96	248.69
255.193	236.69
255.426	211.69
255.659	207.69
255.892	223.69
256.124	204.69
256.357	196.69
256.59	201.69
256.823	191.69
257.056	190.69
257.289	206.69
257.521	199.69
257.754	182.69
257.987	188.69
258.22	190.69
258.452	192.69
258.685	182.69
258.918	180.69
259.151	178.69
259.383	185.69
259.616	194.69
259.849	197.69
260.081	223.69
260.314	208.69
260.547	211.69
260.779	200.69
261.012	193.69
261.244	205.69
261.477	207.69
261.71	201.69
261.942	210.69
262.175	220.69
262.407	201.69
262.64	183.69
262.872	208.69
263.105	179.69
263.337	194.69
263.57	180.69
263.802	186.69
264.035	193.69
264.267	195.69
264.499	195.69
264.732	190.69
264.964	186.69
265.197	198.69
265.429	188.69
265.661	183.69
265.894	186.69
266.126	197.69
266.358	184.69
266.591	194.69
266.823	205.69
267.055	201.69
267.287	193.69
267.52	191.69
267.752	201.69
267.984	199.69
268.216	202.69
268.448	191.69
268.681	204.69
268.913	227.69
269.145	240.69
269.377	252.69
269.609	232.69
269.841	246.69
270.073	228.69
270.306	246.69
270.538	278.69
270.77	269.69
271.002	262.69
271.234	262.69
271.466	258.69
271.698	279.69
271.93	282.69
272.162	280.69
272.394	274.69
272.626	284.69
272.858	254.69
273.09	254.69
273.322	238.69
273.553	227.69
273.785	238.69
274.017	227.69
274.249	248.69
274.481	227.69
274.713	230.69
274.945	227.69
275.176	250.69
275.408	219.69
275.64	231.69
275.872	238.69
276.104	243.69
276.335	237.69
276.567	257.69
276.799	247.69
277.031	269.69
277.262	292.69
277.494	273.69
277.726	279.69
277.957	262.69
278.189	243.69
278.421	236.69
278.652	224.69
278.884	235.69
279.115	253.69
279.347	226.69
279.579	231.69
279.81	234.69
280.042	212.69
280.273	224.69
280.505	220.69
280.736	230.69
280.968	239.69
281.199	231.69
281.431	231.69
281.662	235.69
281.894	238.69
282.125	250.69
282.356	233.69
282.588	266.69
282.819	273.69
283.051	237.69
283.282	244.69
283.513	222.69
283.745	223.69
283.976	253.69
284.207	229.69
284.439	248.69
284.67	235.69
284.901	222.69
285.132	234.69
285.364	228.69
285.595	226.69
285.826	237.69
286.057	213.69
286.288	245.69
286.52	259.69
286.751	238.69
286.982	238.69
287.213	256.69
287.444	228.69
287.675	268.69
287.906	273.69
288.138	256.69
288.369	258.69
288.6	288.69
288.831	249.69
289.062	248.69
289.293	257.69
289.524	264.69
289.755	238.69
289.986	247.69
290.217	246.69
290.448	258.69
290.679	231.69
290.91	255.69
291.141	235.69
291.371	252.69
291.602	249.69
291.833	259.69
292.064	244.69
292.295	260.69
292.526	229.69
292.757	232.69
292.987	250.69
293.218	244.69
293.449	239.69
293.68	236.69
293.91	255.69
294.141	250.69
294.372	248.69
294.603	268.69
294.833	252.69
295.064	230.69
295.295	244.69
295.525	254.69
295.756	264.69
295.987	265.69
296.217	300.69
296.448	289.69
296.679	264.69
296.909	270.69
297.14	251.69
297.37	264.69
297.601	249.69
297.831	251.69
298.062	267.69
298.292	263.69
298.523	248.69
298.753	252.69
298.984	253.69
299.214	249.69
299.445	270.69
299.675	251.69
299.905	259.69
300.136	270.69
300.366	255.69
300.597	259.69
300.827	269.69
301.057	261.69
301.288	286.69
301.518	256.69
301.748	261.69
301.979	277.69
302.209	274.69
302.439	274.69
302.669	272.69
302.9	278.69
303.13	277.69
303.36	278.69
303.59	285.69
303.82	293.69
304.051	294.69
304.281	284.69
304.511	268.69
304.741	279.69
304.971	264.69
305.201	274.69
305.431	294.69
305.661	275.69
305.891	297.69
306.121	292.69
306.352	286.69
306.582	287.69
306.812	278.69
307.042	276.69
307.272	277.69
307.502	278.69
307.731	273.69
307.961	275.69
308.191	292.69
308.421	285.69
308.651	299.69
308.881	290.69
309.111	292.69
309.341	292.69
309.571	323.69
309.8	332.69
310.03	318.69
310.26	341.69
310.49	331.69
310.72	336.69
310.949	356.69
311.179	336.69
311.409	319.69
311.639	319.69
311.868	363.69
312.098	335.69
312.328	320.69
312.557	347.69
312.787	348.69
313.017	343.69
313.246	340.69
313.476	333.69
313.706	335.69
313.935	320.69
314.165	359.69
314.394	350.69
314.624	354.69
314.853	327.69
315.083	349.69
315.312	317.69
315.542	320.69
315.771	311.69
316.001	333.69
316.23	328.69
316.46	322.69
316.689	313.69
316.919	331.69
317.148	348.69
317.377	331.69
317.607	342.69
317.836	340.69
318.065	332.69
318.295	341.69
318.524	322.69
318.753	336.69
318.983	335.69
319.212	323.69
319.441	330.69
319.67	340.69
319.9	340.69
320.129	319.69
320.358	322.69
320.587	347.69
320.816	358.69
321.046	342.69
321.275	349.69
321.504	365.69
321.733	350.69
321.962	361.69
322.191	376.69
322.42	392.69
322.649	393.69
322.878	393.69
323.108	397.69
323.337	427.69
323.566	443.69
323.795	507.69
324.024	542.69
324.253	664.69
324.482	953.69
324.71	1482.69
324.939	2024.69
325.168	1647.69
325.397	881.69
325.626	636.69
325.855	523.69
326.084	465.69
326.313	472.69
326.542	467.69
326.77	509.69
326.999	602.69
327.228	848.69
327.457	1290.69
327.686	1438.69
327.914	981.69
328.143	658.69
328.372	598.69
328.6	546.69
328.829	519.69
329.058	527.69
329.287	538.69
329.515	498.69
329.744	472.69
329.972	468.69
330.201	474.69
330.43	518.69
330.658	526.69
330.887	570.69
331.115	551.69
331.344	462.69
331.572	436.69
331.801	432.69
332.03	436.69
332.258	404.69
332.486	403.69
332.715	384.69
332.943	400.69
333.172	387.69
333.4	400.69
333.629	399.69
333.857	416.69
334.085	421.69
334.314	429.69
334.542	476.69
334.771	490.69
334.999	453.69
335.227	427.69
335.455	403.69
335.684	369.69
335.912	392.69
336.14	381.69
336.369	369.69
336.597	395.69
336.825	404.69
337.053	374.69
337.281	372.69
337.51	381.69
337.738	373.69
337.966	383.69
338.194	378.69
338.422	406.69
338.65	380.69
338.878	374.69
339.106	370.69
339.334	358.69
339.562	362.69
339.79	363.69
340.018	366.69
340.246	365.69
340.474	378.69
340.702	396.69
340.93	375.69
341.158	378.69
341.386	379.69
341.614	387.69
341.842	380.69
342.07	367.69
342.298	356.69
342.526	351.69
342.754	354.69
342.981	346.69
343.209	353.69
343.437	376.69
343.665	346.69
343.893	362.69
344.12	357.69
344.348	355.69
344.576	373.69
344.804	375.69
345.031	389.69
345.259	399.69
345.487	390.69
345.714	370.69
345.942	354.69
346.17	388.69
346.397	357.69
346.625	353.69
346.853	358.69
347.08	375.69
347.308	366.69
347.535	362.69
347.763	384.69
347.99	388.69
348.218	358.69
348.445	358.69
348.673	357.69
348.9	361.69
349.128	358.69
349.355	347.69
349.583	355.69
349.81	335.69
350.037	352.69
350.265	344.69
350.492	355.69
350.72	348.69
350.947	350.69
351.174	360.69
351.402	373.69
351.629	379.69
351.856	357.69
352.083	367.69
352.311	372.69
352.538	368.69
352.765	360.69
352.992	386.69
353.22	373.69
353.447	371.69
353.674	340.69
353.901	348.69
354.128	343.69
354.355	341.69
354.583	325.69
354.81	341.69
355.037	349.69
355.264	334.69
355.491	328.69
355.718	319.69
355.945	334.69
356.172	330.69
356.399	319.69
356.626	335.69
356.853	314.69
357.08	332.69
357.307	329.69
357.534	329.69
357.761	326.69
357.988	325.69
358.215	343.69
358.441	331.69
358.668	334.69
358.895	352.69
359.122	350.69
359.349	339.69
359.576	356.69
359.802	403.69
360.029	411.69
360.256	415.69
360.483	386.69
360.709	356.69
360.936	352.69
361.163	379.69
361.39	356.69
361.616	363.69
361.843	366.69
362.07	344.69
362.296	337.69
362.523	353.69
362.749	369.69
362.976	362.69
363.203	360.69
363.429	361.69
363.656	360.69
363.882	363.69
364.109	346.69
364.335	344.69
364.562	341.69
364.788	330.69
365.015	351.69
365.241	358.69
365.468	332.69
365.694	365.69
365.92	374.69
366.147	347.69
366.373	352.69
366.599	339.69
366.826	357.69
367.052	343.69
367.278	330.69
367.505	328.69
367.731	341.69
367.957	349.69
368.184	350.69
368.41	331.69
368.636	349.69
368.862	366.69
369.089	339.69
369.315	338.69
369.541	336.69
369.767	346.69
369.993	343.69
370.219	348.69
370.445	343.69
370.672	329.69
370.898	327.69
371.124	342.69
371.35	335.69
371.576	317.69
371.802	330.69
372.028	334.69
372.254	346.69
372.48	343.69
372.706	327.69
372.932	353.69
373.158	332.69
373.384	350.69
373.61	349.69
373.835	319.69
374.061	331.69
374.287	321.69
374.513	330.69
374.739	327.69
374.965	326.69
375.191	335.69
375.416	340.69
375.642	343.69
375.868	344.69
376.094	332.69
376.319	342.69
376.545	354.69
376.771	328.69
376.997	336.69
377.222	350.69
377.448	320.69
377.674	355.69
377.899	354.69
378.125	332.69
378.35	318.69
378.576	351.69
378.802	326.69
379.027	344.69
379.253	338.69
379.478	331.69
379.704	327.69
379.929	325.69
380.155	334.69
380.38	326.69
380.606	327.69
380.831	335.69
381.057	335.69
381.282	340.69
381.507	334.69
381.733	353.69
381.958	338.69
382.184	324.69
382.409	347.69
382.634	353.69
382.86	348.69
383.085	336.69
383.31	338.69
383.535	358.69
383.761	342.69
383.986	335.69
384.211	341.69
384.436	341.69
384.662	351.69
384.887	363.69
385.112	344.69
385.337	360.69
385.562	348.69
385.787	362.69
386.013	360.69
386.238	354.69
386.463	375.69
386.688	350.69
386.913	361.69
387.138	362.69
387.363	357.69
387.588	354.69
387.813	368.69
388.038	326.69
388.263	344.69
388.488	361.69
388.713	370.69
388.938	356.69
389.163	355.69
389.387	365.69
389.612	356.69
389.837	368.69
390.062	356.69
390.287	354.69
390.512	357.69
390.736	354.69
390.961	361.69
391.186	340.69
391.411	361.69
391.636	351.69
391.86	351.69
392.085	375.69
392.31	354.69
392.534	367.69
392.759	356.69
392.984	390.69
393.208	365.69
393.433	365.69
393.658	375.69
393.882	340.69
394.107	378.69
394.331	358.69
394.556	354.69
394.78	365.69
395.005	371.69
395.229	360.69
395.454	367.69
395.678	379.69
395.903	382.69
396.127	396.69
396.352	421.69
396.576	391.69
396.801	352.69
397.025	371.69
397.249	381.69
397.474	378.69
397.698	371.69
397.922	396.69
398.147	402.69
398.371	415.69
398.595	408.69
398.82	388.69
399.044	387.69
399.268	411.69
399.492	428.69
399.717	439.69
399.941	463.69
400.165	496.69
400.389	475.69
400.613	463.69
400.837	455.69
401.062	439.69
401.286	430.69
401.51	419.69
401.734	398.69
401.958	386.69
402.182	416.69
402.406	426.69
402.63	419.69
402.854	409.69
403.078	403.69
403.302	428.69
403.526	434.69
403.75	402.69
403.974	405.69
404.198	417.69
404.422	429.69
404.645	439.69
404.869	439.69
405.093	461.69
405.317	479.69
405.541	487.69
405.765	494.69
405.988	441.69
406.212	450.69
406.436	476.69
406.66	489.69
406.883	468.69
407.107	468.69
407.331	495.69
407.555	556.69
407.778	553.69
408.002	510.69
408.226	450.69
408.449	441.69
408.673	471.69
408.896	493.69
409.12	520.69
409.344	472.69
409.567	436.69
409.791	431.69
410.014	432.69
410.238	448.69
410.461	407.69
410.685	450.69
410.908	443.69
411.132	473.69
411.355	485.69
411.578	456.69
411.802	441.69
412.025	442.69
412.249	431.69
412.472	459.69
412.695	490.69
412.919	487.69
413.142	426.69
413.365	427.69
413.589	411.69
413.812	411.69
414.035	405.69
414.258	402.69
414.482	390.69
414.705	385.69
414.928	392.69
415.151	405.69
415.374	387.69
415.597	403.69
415.821	382.69
416.044	404.69
416.267	404.69
416.49	392.69
416.713	383.69
416.936	405.69
417.159	392.69
417.382	394.69
417.605	406.69
417.828	416.69
418.051	421.69
418.274	389.69
418.497	388.69
418.72	405.69
418.943	396.69
419.166	410.69
419.389	429.69
419.611	434.69
419.834	412.69
420.057	432.69
420.28	421.69
420.503	415.69
420.726	416.69
420.948	438.69
421.171	459.69
421.394	473.69
421.617	448.69
421.839	418.69
422.062	416.69
422.285	434.69
422.507	475.69
422.73	552.69
422.953	524.69
423.175	477.69
423.398	446.69
423.621	439.69
423.843	452.69
424.066	461.69
424.288	444.69
424.511	486.69
424.733	521.69
424.956	572.69
425.178	542.69
425.401	548.69
425.623	568.69
425.846	499.69
426.068	452.69
426.291	442.69
426.513	446.69
426.735	460.69
426.958	476.69
427.18	564.69
427.402	668.69
427.625	716.69
427.847	652.69
428.069	581.69
428.292	504.69
428.514	447.69
428.736	426.69
428.958	432.69
429.181	426.69
429.403	434.69
429.625	457.69
429.847	455.69
430.069	517.69
430.292	519.69
430.514	441.69
430.736	427.69
430.958	424.69
431.18	413.69
431.402	381.69
431.624	396.69
431.846	414.69
432.068	391.69
432.29	396.69
432.512	396.69
432.734	406.69
432.956	409.69
433.178	438.69
433.4	432.69
433.622	401.69
433.844	412.69
434.066	396.69
434.287	398.69
434.509	412.69
434.731	420.69
434.953	432.69
435.175	429.69
435.397	452.69
435.618	472.69
435.84	502.69
436.062	574.69
436.284	595.69
436.505	514.69
436.727	472.69
436.949	430.69
437.17	439.69
437.392	450.69
437.614	426.69
437.835	461.69
438.057	567.69
438.278	619.69
438.5	629.69
438.721	652.69
438.943	637.69
439.165	499.69
439.386	474.69
439.608	500.69
439.829	470.69
440.05	496.69
440.272	529.69
440.493	487.69
440.715	464.69
440.936	421.69
441.158	432.69
441.379	418.69
441.6	456.69
441.822	454.69
442.043	495.69
442.264	562.69
442.486	592.69
442.707	501.69
442.928	466.69
443.149	481.69
443.371	501.69
443.592	547.69
443.813	597.69
444.034	656.69
444.255	532.69
444.476	492.69
444.698	468.69
444.919	455.69
445.14	586.69
445.361	525.69
445.582	504.69
445.803	551.69
446.024	640.69
446.245	628.69
446.466	564.69
446.687	506.69
446.908	464.69
447.129	454.69
447.35	433.69
447.571	446.69
447.792	412.69
448.013	440.69
448.234	461.69
448.455	503.69
448.675	596.69
448.896	670.69
449.117	591.69
449.338	548.69
449.559	628.69
449.779	698.69
450	568.69
450.221	481.69
450.442	437.69
450.662	415.69
450.883	420.69
451.104	434.69
451.324	429.69
451.545	420.69
451.766	406.69
451.986	407.69
452.207	411.69
452.428	395.69
452.648	401.69
452.869	372.69
453.089	390.69
453.31	403.69
453.53	395.69
453.751	389.69
453.971	376.69
454.192	424.69
454.412	395.69
454.633	377.69
454.853	390.69
455.073	384.69
455.294	405.69
455.514	464.69
455.734	450.69
455.955	383.69
456.175	370.69
456.395	380.69
456.616	364.69
456.836	374.69
457.056	374.69
457.276	352.69
457.497	365.69
457.717	374.69
457.937	363.69
458.157	380.69
458.377	391.69
458.598	399.69
458.818	454.69
459.038	503.69
459.258	530.69
459.478	442.69
459.698	419.69
459.918	405.69
460.138	396.69
460.358	402.69
460.578	400.69
460.798	392.69
461.018	415.69
461.238	410.69
461.458	404.69
461.678	399.69
461.898	413.69
462.118	407.69
462.338	427.69
462.558	405.69
462.777	404.69
462.997	424.69
463.217	410.69
463.437	423.69
463.657	437.69
463.876	414.69
464.096	444.69
464.316	448.69
464.536	436.69
464.755	445.69
464.975	437.69
465.195	499.69
465.414	549.69
465.634	500.69
465.854	448.69
466.073	413.69
466.293	398.69
466.512	395.69
466.732	404.69
466.951	404.69
467.171	407.69
467.391	406.69
467.61	432.69
467.829	414.69
468.049	414.69
468.268	415.69
468.488	400.69
468.707	403.69
468.927	379.69
469.146	381.69
469.365	377.69
469.585	396.69
469.804	412.69
470.023	390.69
470.243	388.69
470.462	422.69
470.681	432.69
470.901	421.69
471.12	399.69
471.339	401.69
471.558	432.69
471.777	410.69
471.997	388.69
472.216	428.69
472.435	447.69
472.654	428.69
472.873	404.69
473.092	410.69
473.311	409.69
473.53	410.69
473.749	420.69
473.968	450.69
474.187	535.69
474.406	543.69
474.625	469.69
474.844	438.69
475.063	414.69
475.282	415.69
475.501	415.69
475.72	413.69
475.939	411.69
476.158	412.69
476.377	427.69
476.596	408.69
476.814	411.69
477.033	424.69
477.252	404.69
477.471	439.69
477.69	439.69
477.908	443.69
478.127	417.69
478.346	440.69
478.564	458.69
478.783	450.69
479.002	449.69
479.22	469.69
479.439	467.69
479.658	484.69
479.876	470.69
480.095	477.69
480.313	532.69
480.532	491.69
480.751	482.69
480.969	494.69
481.188	575.69
481.406	622.69
481.624	523.69
481.843	485.69
482.061	487.69
482.28	466.69
482.498	475.69
482.717	476.69
482.935	473.69
483.153	477.69
483.372	485.69
483.59	464.69
483.808	468.69
484.027	491.69
484.245	446.69
484.463	478.69
484.681	499.69
484.9	488.69
485.118	487.69
485.336	479.69
485.554	459.69
485.772	474.69
485.99	486.69
486.209	470.69
486.427	504.69
486.645	504.69
486.863	510.69
487.081	512.69
487.299	510.69
487.517	500.69
487.735	479.69
487.953	510.69
488.171	504.69
488.389	517.69
488.607	517.69
488.825	518.69
489.043	510.69
489.261	494.69
489.479	501.69
489.696	526.69
489.914	499.69
490.132	531.69
490.35	537.69
490.568	519.69
490.786	560.69
491.003	552.69
491.221	554.69
491.439	575.69
491.657	570.69
491.874	555.69
492.092	575.69
492.31	565.69
492.527	567.69
492.745	597.69
492.963	590.69
493.18	588.69
493.398	604.69
493.615	620.69
493.833	604.69
494.05	590.69
494.268	599.69
494.485	600.69
494.703	594.69
494.92	595.69
495.138	620.69
495.355	598.69
495.573	593.69
495.79	610.69
496.008	592.69
496.225	610.69
496.442	585.69
496.66	610.69
496.877	597.69
497.094	586.69
497.312	614.69
497.529	600.69
497.746	634.69
497.963	642.69
498.181	647.69
498.398	657.69
498.615	660.69
498.832	672.69
499.049	644.69
499.267	683.69
499.484	673.69
499.701	696.69
499.918	688.69
500.135	719.69
500.352	748.69
500.569	755.69
500.786	746.69
501.003	788.69
501.22	740.69
501.437	715.69
501.654	704.69
501.871	726.69
502.088	700.69
