Data from 1965.PennyLincolnUp.Lamp.En5.5.200Scan.071719.P1._HRD10591_14-09-24-911.txt Node
Date: Thu Jul 18 14:09:24 EDT 2019
User: cochatt
Spectrometer: HR+D1059
Trigger mode: 1
Integration Time (sec): 1.000000E-1
Scans to average: 1
Electric dark correction enabled: true
Nonlinearity correction enabled: false
Boxcar width: 0
XAxis mode: Wavelengths
Number of Pixels in Spectrum: 2048
>>>>>Begin Spectral Data<<<<<
223.165	-15.06
223.4	-15.06
223.635	-15.06
223.869	-26.06
224.104	-20.06
224.338	-25.06
224.573	-10.06
224.808	-5.06
225.042	8.94
225.277	-11.06
225.511	-8.06
225.746	7.94
225.98	-0.06
226.215	16.94
226.449	17.94
226.683	16.94
226.918	13.94
227.152	37.94
227.387	21.94
227.621	38.94
227.856	39.94
228.09	34.94
228.324	50.94
228.559	60.94
228.793	66.94
229.027	89.94
229.262	100.94
229.496	111.94
229.73	142.94
229.964	159.94
230.199	134.94
230.433	101.94
230.667	107.94
230.901	115.94
231.136	102.94
231.37	98.94
231.604	106.94
231.838	113.94
232.072	108.94
232.306	106.94
232.541	117.94
232.775	101.94
233.009	94.94
233.243	100.94
233.477	111.94
233.711	93.94
233.945	102.94
234.179	115.94
234.413	114.94
234.647	109.94
234.881	106.94
235.115	114.94
235.349	110.94
235.583	102.94
235.817	106.94
236.051	105.94
236.285	119.94
236.519	118.94
236.753	122.94
236.987	131.94
237.221	184.94
237.455	221.94
237.689	162.94
237.922	121.94
238.156	126.94
238.39	126.94
238.624	120.94
238.858	109.94
239.091	116.94
239.325	118.94
239.559	108.94
239.793	130.94
240.027	118.94
240.26	125.94
240.494	157.94
240.728	135.94
240.961	152.94
241.195	140.94
241.429	130.94
241.662	122.94
241.896	109.94
242.13	118.94
242.363	130.94
242.597	138.94
242.83	124.94
243.064	131.94
243.298	123.94
243.531	129.94
243.765	127.94
243.998	135.94
244.232	130.94
244.465	132.94
244.699	137.94
244.932	139.94
245.166	133.94
245.399	130.94
245.633	134.94
245.866	127.94
246.099	144.94
246.333	144.94
246.566	136.94
246.8	140.94
247.033	141.94
247.266	136.94
247.5	143.94
247.733	151.94
247.966	143.94
248.2	140.94
248.433	149.94
248.666	138.94
248.899	162.94
249.133	172.94
249.366	178.94
249.599	181.94
249.832	179.94
250.066	182.94
250.299	157.94
250.532	179.94
250.765	191.94
250.998	202.94
251.231	194.94
251.465	205.94
251.698	176.94
251.931	198.94
252.164	173.94
252.397	173.94
252.63	190.94
252.863	190.94
253.096	212.94
253.329	218.94
253.562	203.94
253.795	211.94
254.028	200.94
254.261	202.94
254.494	195.94
254.727	229.94
254.96	229.94
255.193	229.94
255.426	222.94
255.659	212.94
255.892	216.94
256.124	234.94
256.357	216.94
256.59	226.94
256.823	200.94
257.056	196.94
257.289	198.94
257.521	204.94
257.754	199.94
257.987	191.94
258.22	201.94
258.452	193.94
258.685	182.94
258.918	175.94
259.151	210.94
259.383	187.94
259.616	186.94
259.849	206.94
260.081	224.94
260.314	252.94
260.547	236.94
260.779	237.94
261.012	222.94
261.244	220.94
261.477	209.94
261.71	206.94
261.942	219.94
262.175	202.94
262.407	200.94
262.64	207.94
262.872	207.94
263.105	195.94
263.337	183.94
263.57	187.94
263.802	205.94
264.035	184.94
264.267	212.94
264.499	196.94
264.732	191.94
264.964	200.94
265.197	203.94
265.429	185.94
265.661	188.94
265.894	178.94
266.126	198.94
266.358	188.94
266.591	198.94
266.823	205.94
267.055	192.94
267.287	208.94
267.52	199.94
267.752	188.94
267.984	213.94
268.216	207.94
268.448	204.94
268.681	203.94
268.913	221.94
269.145	231.94
269.377	232.94
269.609	244.94
269.841	252.94
270.073	268.94
270.306	263.94
270.538	278.94
270.77	270.94
271.002	267.94
271.234	258.94
271.466	255.94
271.698	273.94
271.93	274.94
272.162	292.94
272.394	282.94
272.626	277.94
272.858	267.94
273.09	247.94
273.322	253.94
273.553	238.94
273.785	229.94
274.017	238.94
274.249	231.94
274.481	249.94
274.713	251.94
274.945	240.94
275.176	231.94
275.408	228.94
275.64	234.94
275.872	236.94
276.104	239.94
276.335	223.94
276.567	249.94
276.799	261.94
277.031	278.94
277.262	283.94
277.494	282.94
277.726	284.94
277.957	252.94
278.189	255.94
278.421	240.94
278.652	239.94
278.884	228.94
279.115	238.94
279.347	238.94
279.579	230.94
279.81	219.94
280.042	229.94
280.273	215.94
280.505	238.94
280.736	226.94
280.968	241.94
281.199	255.94
281.431	222.94
281.662	254.94
281.894	224.94
282.125	232.94
282.356	264.94
282.588	279.94
282.819	270.94
283.051	261.94
283.282	233.94
283.513	250.94
283.745	242.94
283.976	233.94
284.207	240.94
284.439	264.94
284.67	237.94
284.901	256.94
285.132	258.94
285.364	236.94
285.595	246.94
285.826	246.94
286.057	252.94
286.288	260.94
286.52	263.94
286.751	242.94
286.982	235.94
287.213	241.94
287.444	247.94
287.675	247.94
287.906	244.94
288.138	258.94
288.369	268.94
288.6	263.94
288.831	265.94
289.062	262.94
289.293	254.94
289.524	250.94
289.755	261.94
289.986	249.94
290.217	257.94
290.448	261.94
290.679	268.94
290.91	239.94
291.141	247.94
291.371	260.94
291.602	252.94
291.833	253.94
292.064	246.94
292.295	252.94
292.526	259.94
292.757	248.94
292.987	254.94
293.218	247.94
293.449	260.94
293.68	256.94
293.91	240.94
294.141	265.94
294.372	252.94
294.603	251.94
294.833	238.94
295.064	251.94
295.295	268.94
295.525	267.94
295.756	261.94
295.987	276.94
296.217	265.94
296.448	307.94
296.679	278.94
296.909	280.94
297.14	268.94
297.37	276.94
297.601	272.94
297.831	272.94
298.062	264.94
298.292	262.94
298.523	253.94
298.753	267.94
298.984	251.94
299.214	264.94
299.445	268.94
299.675	275.94
299.905	281.94
300.136	275.94
300.366	270.94
300.597	268.94
300.827	266.94
301.057	280.94
301.288	293.94
301.518	286.94
301.748	288.94
301.979	285.94
302.209	286.94
302.439	291.94
302.669	276.94
302.9	282.94
303.13	288.94
303.36	290.94
303.59	279.94
303.82	306.94
304.051	308.94
304.281	305.94
304.511	276.94
304.741	278.94
304.971	287.94
305.201	288.94
305.431	285.94
305.661	279.94
305.891	278.94
306.121	277.94
306.352	284.94
306.582	302.94
306.812	270.94
307.042	290.94
307.272	290.94
307.502	310.94
307.731	304.94
307.961	303.94
308.191	284.94
308.421	294.94
308.651	288.94
308.881	299.94
309.111	308.94
309.341	286.94
309.571	303.94
309.8	316.94
310.03	328.94
310.26	333.94
310.49	322.94
310.72	339.94
310.949	351.94
311.179	367.94
311.409	349.94
311.639	326.94
311.868	348.94
312.098	323.94
312.328	328.94
312.557	352.94
312.787	360.94
313.017	364.94
313.246	349.94
313.476	342.94
313.706	356.94
313.935	372.94
314.165	360.94
314.394	355.94
314.624	365.94
314.853	349.94
315.083	327.94
315.312	335.94
315.542	322.94
315.771	335.94
316.001	323.94
316.23	325.94
316.46	324.94
316.689	319.94
316.919	351.94
317.148	350.94
317.377	343.94
317.607	333.94
317.836	338.94
318.065	332.94
318.295	316.94
318.524	327.94
318.753	330.94
318.983	323.94
319.212	321.94
319.441	347.94
319.67	364.94
319.9	331.94
320.129	334.94
320.358	349.94
320.587	358.94
320.816	352.94
321.046	362.94
321.275	375.94
321.504	356.94
321.733	372.94
321.962	371.94
322.191	386.94
322.42	399.94
322.649	402.94
322.878	411.94
323.108	431.94
323.337	426.94
323.566	467.94
323.795	524.94
324.024	566.94
324.253	702.94
324.482	991.94
324.71	1556.94
324.939	2109.94
325.168	1759.94
325.397	930.94
325.626	596.94
325.855	505.94
326.084	479.94
326.313	466.94
326.542	451.94
326.77	527.94
326.999	657.94
327.228	873.94
327.457	1336.94
327.686	1523.94
327.914	1036.94
328.143	684.94
328.372	593.94
328.6	546.94
328.829	530.94
329.058	557.94
329.287	568.94
329.515	504.94
329.744	465.94
329.972	469.94
330.201	498.94
330.43	526.94
330.658	564.94
330.887	579.94
331.115	545.94
331.344	488.94
331.572	448.94
331.801	456.94
332.03	440.94
332.258	423.94
332.486	396.94
332.715	420.94
332.943	398.94
333.172	397.94
333.4	406.94
333.629	412.94
333.857	429.94
334.085	454.94
334.314	433.94
334.542	478.94
334.771	507.94
334.999	464.94
335.227	426.94
335.455	407.94
335.684	386.94
335.912	399.94
336.14	390.94
336.369	385.94
336.597	406.94
336.825	395.94
337.053	388.94
337.281	389.94
337.51	380.94
337.738	386.94
337.966	388.94
338.194	382.94
338.422	391.94
338.65	396.94
338.878	398.94
339.106	392.94
339.334	371.94
339.562	373.94
339.79	388.94
340.018	393.94
340.246	391.94
340.474	386.94
340.702	377.94
340.93	370.94
341.158	376.94
341.386	385.94
341.614	396.94
341.842	379.94
342.07	394.94
342.298	377.94
342.526	368.94
342.754	357.94
342.981	370.94
343.209	367.94
343.437	380.94
343.665	364.94
343.893	355.94
344.12	377.94
344.348	391.94
344.576	395.94
344.804	380.94
345.031	381.94
345.259	399.94
345.487	383.94
345.714	385.94
345.942	360.94
346.17	374.94
346.397	354.94
346.625	367.94
346.853	370.94
347.08	372.94
347.308	379.94
347.535	400.94
347.763	392.94
347.99	389.94
348.218	388.94
348.445	374.94
348.673	383.94
348.9	372.94
349.128	383.94
349.355	367.94
349.583	360.94
349.81	351.94
350.037	362.94
350.265	363.94
350.492	366.94
350.72	360.94
350.947	374.94
351.174	383.94
351.402	380.94
351.629	377.94
351.856	370.94
352.083	388.94
352.311	405.94
352.538	391.94
352.765	382.94
352.992	390.94
353.22	363.94
353.447	364.94
353.674	376.94
353.901	340.94
354.128	344.94
354.355	334.94
354.583	346.94
354.81	345.94
355.037	345.94
355.264	331.94
355.491	324.94
355.718	342.94
355.945	336.94
356.172	324.94
356.399	329.94
356.626	332.94
356.853	351.94
357.08	350.94
357.307	315.94
357.534	338.94
357.761	310.94
357.988	328.94
358.215	323.94
358.441	341.94
358.668	351.94
358.895	365.94
359.122	340.94
359.349	358.94
359.576	368.94
359.802	396.94
360.029	408.94
360.256	445.94
360.483	394.94
360.709	368.94
360.936	386.94
361.163	367.94
361.39	353.94
361.616	373.94
361.843	383.94
362.07	385.94
362.296	370.94
362.523	374.94
362.749	371.94
362.976	368.94
363.203	350.94
363.429	360.94
363.656	347.94
363.882	352.94
364.109	359.94
364.335	349.94
364.562	340.94
364.788	350.94
365.015	358.94
365.241	335.94
365.468	358.94
365.694	361.94
365.92	365.94
366.147	336.94
366.373	347.94
366.599	331.94
366.826	359.94
367.052	336.94
367.278	348.94
367.505	371.94
367.731	362.94
367.957	336.94
368.184	345.94
368.41	348.94
368.636	364.94
368.862	372.94
369.089	362.94
369.315	345.94
369.541	378.94
369.767	345.94
369.993	361.94
370.219	351.94
370.445	345.94
370.672	342.94
370.898	345.94
371.124	358.94
371.35	358.94
371.576	355.94
371.802	356.94
372.028	339.94
372.254	351.94
372.48	348.94
372.706	358.94
372.932	345.94
373.158	343.94
373.384	338.94
373.61	331.94
373.835	362.94
374.061	342.94
374.287	335.94
374.513	365.94
374.739	335.94
374.965	351.94
375.191	357.94
375.416	356.94
375.642	323.94
375.868	357.94
376.094	333.94
376.319	353.94
376.545	348.94
376.771	356.94
376.997	348.94
377.222	347.94
377.448	331.94
377.674	338.94
377.899	344.94
378.125	372.94
378.35	333.94
378.576	347.94
378.802	360.94
379.027	328.94
379.253	345.94
379.478	348.94
379.704	346.94
379.929	336.94
380.155	365.94
380.38	333.94
380.606	349.94
380.831	354.94
381.057	349.94
381.282	354.94
381.507	353.94
381.733	355.94
381.958	336.94
382.184	337.94
382.409	358.94
382.634	339.94
382.86	361.94
383.085	360.94
383.31	347.94
383.535	352.94
383.761	351.94
383.986	360.94
384.211	361.94
384.436	349.94
384.662	370.94
384.887	360.94
385.112	358.94
385.337	375.94
385.562	359.94
385.787	368.94
386.013	380.94
386.238	393.94
386.463	373.94
386.688	372.94
386.913	363.94
387.138	382.94
387.363	379.94
387.588	372.94
387.813	348.94
388.038	367.94
388.263	365.94
388.488	361.94
388.713	389.94
388.938	360.94
389.163	372.94
389.387	386.94
389.612	369.94
389.837	350.94
390.062	377.94
390.287	386.94
390.512	374.94
390.736	370.94
390.961	374.94
391.186	374.94
391.411	380.94
391.636	391.94
391.86	375.94
392.085	374.94
392.31	385.94
392.534	384.94
392.759	364.94
392.984	368.94
393.208	387.94
393.433	367.94
393.658	364.94
393.882	351.94
394.107	374.94
394.331	348.94
394.556	360.94
394.78	356.94
395.005	363.94
395.229	371.94
395.454	379.94
395.678	387.94
395.903	403.94
396.127	409.94
396.352	411.94
396.576	390.94
396.801	385.94
397.025	379.94
397.249	390.94
397.474	367.94
397.698	386.94
397.922	390.94
398.147	408.94
398.371	423.94
398.595	416.94
398.82	427.94
399.044	429.94
399.268	428.94
399.492	434.94
399.717	459.94
399.941	484.94
400.165	501.94
400.389	512.94
400.613	455.94
400.837	442.94
401.062	420.94
401.286	414.94
401.51	432.94
401.734	401.94
401.958	413.94
402.182	448.94
402.406	429.94
402.63	450.94
402.854	418.94
403.078	446.94
403.302	446.94
403.526	435.94
403.75	425.94
403.974	415.94
404.198	447.94
404.422	439.94
404.645	431.94
404.869	420.94
405.093	488.94
405.317	493.94
405.541	496.94
405.765	477.94
405.988	471.94
406.212	488.94
406.436	504.94
406.66	517.94
406.883	478.94
407.107	500.94
407.331	518.94
407.555	575.94
407.778	576.94
408.002	529.94
408.226	503.94
408.449	472.94
408.673	482.94
408.896	486.94
409.12	525.94
409.344	479.94
409.567	436.94
409.791	427.94
410.014	441.94
410.238	439.94
410.461	440.94
410.685	439.94
410.908	456.94
411.132	474.94
411.355	503.94
411.578	485.94
411.802	453.94
412.025	443.94
412.249	442.94
412.472	494.94
412.695	484.94
412.919	463.94
413.142	463.94
413.365	428.94
413.589	417.94
413.812	440.94
414.035	412.94
414.258	414.94
414.482	410.94
414.705	397.94
414.928	416.94
415.151	419.94
415.374	431.94
415.597	404.94
415.821	421.94
416.044	416.94
416.267	407.94
416.49	414.94
416.713	398.94
416.936	407.94
417.159	412.94
417.382	401.94
417.605	423.94
417.828	429.94
418.051	442.94
418.274	439.94
418.497	412.94
418.72	399.94
418.943	416.94
419.166	405.94
419.389	448.94
419.611	442.94
419.834	425.94
420.057	429.94
420.28	441.94
420.503	436.94
420.726	443.94
420.948	441.94
421.171	474.94
421.394	502.94
421.617	429.94
421.839	449.94
422.062	425.94
422.285	442.94
422.507	481.94
422.73	535.94
422.953	521.94
423.175	482.94
423.398	460.94
423.621	456.94
423.843	472.94
424.066	462.94
424.288	454.94
424.511	487.94
424.733	518.94
424.956	602.94
425.178	566.94
425.401	575.94
425.623	564.94
425.846	516.94
426.068	482.94
426.291	456.94
426.513	462.94
426.735	493.94
426.958	515.94
427.18	586.94
427.402	674.94
427.625	743.94
427.847	693.94
428.069	600.94
428.292	488.94
428.514	501.94
428.736	463.94
428.958	451.94
429.181	444.94
429.403	438.94
429.625	458.94
429.847	482.94
430.069	509.94
430.292	542.94
430.514	441.94
430.736	438.94
430.958	426.94
431.18	416.94
431.402	410.94
431.624	416.94
431.846	406.94
432.068	399.94
432.29	410.94
432.512	406.94
432.734	422.94
432.956	422.94
433.178	422.94
433.4	428.94
433.622	420.94
433.844	416.94
434.066	397.94
434.287	409.94
434.509	430.94
434.731	414.94
434.953	440.94
435.175	451.94
435.397	462.94
435.618	487.94
435.84	516.94
436.062	588.94
436.284	636.94
436.505	559.94
436.727	486.94
436.949	450.94
437.17	435.94
437.392	460.94
437.614	479.94
437.835	478.94
438.057	550.94
438.278	630.94
438.5	669.94
438.721	696.94
438.943	656.94
439.165	536.94
439.386	477.94
439.608	495.94
439.829	520.94
440.05	531.94
440.272	534.94
440.493	512.94
440.715	467.94
440.936	457.94
441.158	436.94
441.379	452.94
441.6	443.94
441.822	467.94
442.043	496.94
442.264	574.94
442.486	613.94
442.707	509.94
442.928	490.94
443.149	504.94
443.371	510.94
443.592	540.94
443.813	615.94
444.034	646.94
444.255	550.94
444.476	495.94
444.698	460.94
444.919	472.94
445.14	580.94
445.361	554.94
445.582	525.94
445.803	564.94
446.024	672.94
446.245	660.94
446.466	605.94
446.687	502.94
446.908	481.94
447.129	435.94
447.35	446.94
447.571	448.94
447.792	451.94
448.013	436.94
448.234	479.94
448.455	489.94
448.675	596.94
448.896	680.94
449.117	594.94
449.338	578.94
449.559	654.94
449.779	726.94
450	579.94
450.221	502.94
450.442	469.94
450.662	457.94
450.883	448.94
451.104	472.94
451.324	464.94
451.545	434.94
451.766	412.94
451.986	399.94
452.207	404.94
452.428	381.94
452.648	406.94
452.869	386.94
453.089	404.94
453.31	422.94
453.53	402.94
453.751	400.94
453.971	425.94
454.192	431.94
454.412	430.94
454.633	411.94
454.853	408.94
455.073	410.94
455.294	425.94
455.514	492.94
455.734	463.94
455.955	395.94
456.175	380.94
456.395	358.94
456.616	380.94
456.836	356.94
457.056	357.94
457.276	368.94
457.497	375.94
457.717	356.94
457.937	353.94
458.157	373.94
458.377	400.94
458.598	400.94
458.818	472.94
459.038	542.94
459.258	553.94
459.478	473.94
459.698	414.94
459.918	421.94
460.138	411.94
460.358	406.94
460.578	438.94
460.798	419.94
461.018	425.94
461.238	414.94
461.458	430.94
461.678	420.94
461.898	414.94
462.118	405.94
462.338	411.94
462.558	408.94
462.777	437.94
462.997	441.94
463.217	436.94
463.437	430.94
463.657	435.94
463.876	436.94
464.096	447.94
464.316	454.94
464.536	418.94
464.755	447.94
464.975	462.94
465.195	512.94
465.414	597.94
465.634	502.94
465.854	457.94
466.073	436.94
466.293	433.94
466.512	407.94
466.732	423.94
466.951	422.94
467.171	392.94
467.391	425.94
467.61	437.94
467.829	414.94
468.049	424.94
468.268	427.94
468.488	421.94
468.707	396.94
468.927	410.94
469.146	393.94
469.365	381.94
469.585	393.94
469.804	404.94
470.023	415.94
470.243	412.94
470.462	439.94
470.681	454.94
470.901	430.94
471.12	405.94
471.339	416.94
471.558	400.94
471.777	406.94
471.997	390.94
472.216	435.94
472.435	483.94
472.654	434.94
472.873	434.94
473.092	431.94
473.311	416.94
473.53	404.94
473.749	418.94
473.968	446.94
474.187	557.94
474.406	551.94
474.625	474.94
474.844	422.94
475.063	422.94
475.282	417.94
475.501	445.94
475.72	410.94
475.939	420.94
476.158	403.94
476.377	396.94
476.596	421.94
476.814	437.94
477.033	436.94
477.252	417.94
477.471	425.94
477.69	441.94
477.908	428.94
478.127	436.94
478.346	456.94
478.564	479.94
478.783	455.94
479.002	446.94
479.22	465.94
479.439	491.94
479.658	500.94
479.876	496.94
480.095	504.94
480.313	534.94
480.532	492.94
480.751	484.94
480.969	503.94
481.188	600.94
481.406	639.94
481.624	544.94
481.843	491.94
482.061	507.94
482.28	500.94
482.498	466.94
482.717	487.94
482.935	486.94
483.153	475.94
483.372	465.94
483.59	474.94
483.808	498.94
484.027	478.94
484.245	485.94
484.463	453.94
484.681	495.94
484.9	481.94
485.118	479.94
485.336	498.94
485.554	495.94
485.772	502.94
485.99	498.94
486.209	487.94
486.427	504.94
486.645	506.94
486.863	538.94
487.081	533.94
487.299	514.94
487.517	512.94
487.735	500.94
487.953	518.94
488.171	511.94
488.389	518.94
488.607	518.94
488.825	528.94
489.043	513.94
489.261	524.94
489.479	529.94
489.696	526.94
489.914	532.94
490.132	517.94
490.35	542.94
490.568	549.94
490.786	546.94
491.003	558.94
491.221	564.94
491.439	565.94
491.657	574.94
491.874	598.94
492.092	606.94
492.31	587.94
492.527	584.94
492.745	587.94
492.963	604.94
493.18	601.94
493.398	611.94
493.615	600.94
493.833	610.94
494.05	611.94
494.268	632.94
494.485	606.94
494.703	607.94
494.92	591.94
495.138	606.94
495.355	602.94
495.573	603.94
495.79	591.94
496.008	603.94
496.225	613.94
496.442	607.94
496.66	614.94
496.877	616.94
497.094	616.94
497.312	635.94
497.529	631.94
497.746	613.94
497.963	635.94
498.181	662.94
498.398	669.94
498.615	670.94
498.832	678.94
499.049	687.94
499.267	675.94
499.484	703.94
499.701	717.94
499.918	731.94
500.135	768.94
500.352	794.94
500.569	784.94
500.786	778.94
501.003	792.94
501.22	770.94
501.437	765.94
501.654	766.94
501.871	742.94
