Data from 1965.PennyLincolnUp.Lamp.En5.5.200Scan.071719.P1._HRD10591_14-10-19-912.txt Node
Date: Thu Jul 18 14:10:19 EDT 2019
User: cochatt
Spectrometer: HR+D1059
Trigger mode: 1
Integration Time (sec): 1.000000E-1
Scans to average: 1
Electric dark correction enabled: true
Nonlinearity correction enabled: false
Boxcar width: 0
XAxis mode: Wavelengths
Number of Pixels in Spectrum: 2048
>>>>>Begin Spectral Data<<<<<
223.165	-20.56
223.4	-20.56
223.635	-20.56
223.869	-9.56
224.104	-11.56
224.338	-4.56
224.573	-10.56
224.808	-6.56
225.042	-6.56
225.277	-10.56
225.511	0.44
225.746	1.44
225.98	0.44
226.215	15.44
226.449	8.44
226.683	-1.56
226.918	21.44
227.152	34.44
227.387	47.44
227.621	21.44
227.856	31.44
228.09	41.44
228.324	49.44
228.559	62.44
228.793	67.44
229.027	103.44
229.262	98.44
229.496	100.44
229.73	136.44
229.964	152.44
230.199	128.44
230.433	96.44
230.667	108.44
230.901	122.44
231.136	100.44
231.37	112.44
231.604	107.44
231.838	114.44
232.072	110.44
232.306	118.44
232.541	104.44
232.775	102.44
233.009	123.44
233.243	108.44
233.477	117.44
233.711	118.44
233.945	112.44
234.179	99.44
234.413	106.44
234.647	99.44
234.881	113.44
235.115	107.44
235.349	106.44
235.583	114.44
235.817	126.44
236.051	112.44
236.285	114.44
236.519	124.44
236.753	123.44
236.987	135.44
237.221	172.44
237.455	221.44
237.689	190.44
237.922	139.44
238.156	130.44
238.39	124.44
238.624	113.44
238.858	142.44
239.091	124.44
239.325	135.44
239.559	123.44
239.793	103.44
240.027	125.44
240.26	120.44
240.494	149.44
240.728	127.44
240.961	140.44
241.195	138.44
241.429	121.44
241.662	119.44
241.896	130.44
242.13	130.44
242.363	134.44
242.597	126.44
242.83	119.44
243.064	124.44
243.298	120.44
243.531	108.44
243.765	126.44
243.998	127.44
244.232	129.44
244.465	143.44
244.699	139.44
244.932	142.44
245.166	135.44
245.399	144.44
245.633	137.44
245.866	146.44
246.099	130.44
246.333	138.44
246.566	139.44
246.8	134.44
247.033	126.44
247.266	124.44
247.5	147.44
247.733	162.44
247.966	161.44
248.2	165.44
248.433	161.44
248.666	150.44
248.899	178.44
249.133	179.44
249.366	185.44
249.599	174.44
249.832	178.44
250.066	178.44
250.299	164.44
250.532	173.44
250.765	179.44
250.998	194.44
251.231	206.44
251.465	194.44
251.698	181.44
251.931	195.44
252.164	192.44
252.397	185.44
252.63	184.44
252.863	183.44
253.096	192.44
253.329	195.44
253.562	192.44
253.795	198.44
254.028	195.44
254.261	206.44
254.494	224.44
254.727	246.44
254.96	253.44
255.193	251.44
255.426	230.44
255.659	221.44
255.892	201.44
256.124	223.44
256.357	208.44
256.59	205.44
256.823	213.44
257.056	195.44
257.289	185.44
257.521	186.44
257.754	200.44
257.987	192.44
258.22	197.44
258.452	186.44
258.685	172.44
258.918	190.44
259.151	196.44
259.383	207.44
259.616	183.44
259.849	214.44
260.081	213.44
260.314	226.44
260.547	219.44
260.779	210.44
261.012	212.44
261.244	203.44
261.477	218.44
261.71	211.44
261.942	222.44
262.175	244.44
262.407	228.44
262.64	211.44
262.872	189.44
263.105	181.44
263.337	189.44
263.57	201.44
263.802	193.44
264.035	183.44
264.267	195.44
264.499	188.44
264.732	179.44
264.964	200.44
265.197	192.44
265.429	213.44
265.661	186.44
265.894	197.44
266.126	205.44
266.358	210.44
266.591	194.44
266.823	202.44
267.055	200.44
267.287	203.44
267.52	197.44
267.752	194.44
267.984	206.44
268.216	220.44
268.448	229.44
268.681	228.44
268.913	229.44
269.145	232.44
269.377	258.44
269.609	247.44
269.841	257.44
270.073	261.44
270.306	272.44
270.538	283.44
270.77	278.44
271.002	247.44
271.234	254.44
271.466	265.44
271.698	277.44
271.93	280.44
272.162	279.44
272.394	282.44
272.626	306.44
272.858	280.44
273.09	233.44
273.322	237.44
273.553	235.44
273.785	243.44
274.017	233.44
274.249	243.44
274.481	244.44
274.713	233.44
274.945	246.44
275.176	245.44
275.408	232.44
275.64	226.44
275.872	233.44
276.104	249.44
276.335	257.44
276.567	243.44
276.799	275.44
277.031	279.44
277.262	285.44
277.494	297.44
277.726	268.44
277.957	256.44
278.189	263.44
278.421	236.44
278.652	250.44
278.884	232.44
279.115	220.44
279.347	236.44
279.579	235.44
279.81	230.44
280.042	242.44
280.273	231.44
280.505	236.44
280.736	238.44
280.968	224.44
281.199	232.44
281.431	238.44
281.662	233.44
281.894	256.44
282.125	233.44
282.356	260.44
282.588	272.44
282.819	268.44
283.051	263.44
283.282	235.44
283.513	227.44
283.745	247.44
283.976	257.44
284.207	268.44
284.439	261.44
284.67	252.44
284.901	245.44
285.132	252.44
285.364	249.44
285.595	234.44
285.826	245.44
286.057	228.44
286.288	243.44
286.52	246.44
286.751	243.44
286.982	234.44
287.213	251.44
287.444	252.44
287.675	252.44
287.906	263.44
288.138	269.44
288.369	258.44
288.6	264.44
288.831	261.44
289.062	255.44
289.293	255.44
289.524	256.44
289.755	262.44
289.986	270.44
290.217	266.44
290.448	229.44
290.679	249.44
290.91	248.44
291.141	230.44
291.371	256.44
291.602	258.44
291.833	246.44
292.064	255.44
292.295	247.44
292.526	273.44
292.757	271.44
292.987	247.44
293.218	242.44
293.449	250.44
293.68	249.44
293.91	260.44
294.141	243.44
294.372	259.44
294.603	258.44
294.833	250.44
295.064	261.44
295.295	262.44
295.525	254.44
295.756	274.44
295.987	281.44
296.217	291.44
296.448	287.44
296.679	264.44
296.909	269.44
297.14	266.44
297.37	260.44
297.601	264.44
297.831	266.44
298.062	281.44
298.292	262.44
298.523	256.44
298.753	279.44
298.984	269.44
299.214	268.44
299.445	260.44
299.675	286.44
299.905	268.44
300.136	263.44
300.366	271.44
300.597	279.44
300.827	276.44
301.057	297.44
301.288	287.44
301.518	292.44
301.748	292.44
301.979	292.44
302.209	293.44
302.439	302.44
302.669	324.44
302.9	294.44
303.13	285.44
303.36	286.44
303.59	289.44
303.82	278.44
304.051	300.44
304.281	288.44
304.511	273.44
304.741	292.44
304.971	281.44
305.201	304.44
305.431	278.44
305.661	291.44
305.891	293.44
306.121	294.44
306.352	286.44
306.582	295.44
306.812	286.44
307.042	286.44
307.272	285.44
307.502	283.44
307.731	273.44
307.961	298.44
308.191	293.44
308.421	281.44
308.651	299.44
308.881	314.44
309.111	308.44
309.341	305.44
309.571	318.44
309.8	340.44
310.03	344.44
310.26	347.44
310.49	343.44
310.72	340.44
310.949	350.44
311.179	362.44
311.409	344.44
311.639	329.44
311.868	336.44
312.098	338.44
312.328	343.44
312.557	386.44
312.787	368.44
313.017	388.44
313.246	356.44
313.476	339.44
313.706	341.44
313.935	354.44
314.165	356.44
314.394	375.44
314.624	343.44
314.853	362.44
315.083	337.44
315.312	341.44
315.542	315.44
315.771	347.44
316.001	345.44
316.23	339.44
316.46	341.44
316.689	345.44
316.919	346.44
317.148	341.44
317.377	335.44
317.607	349.44
317.836	331.44
318.065	348.44
318.295	347.44
318.524	327.44
318.753	329.44
318.983	340.44
319.212	320.44
319.441	340.44
319.67	352.44
319.9	340.44
320.129	340.44
320.358	336.44
320.587	350.44
320.816	372.44
321.046	362.44
321.275	356.44
321.504	364.44
321.733	364.44
321.962	382.44
322.191	404.44
322.42	418.44
322.649	426.44
322.878	421.44
323.108	427.44
323.337	446.44
323.566	462.44
323.795	517.44
324.024	560.44
324.253	679.44
324.482	1052.44
324.71	1564.44
324.939	2169.44
325.168	1756.44
325.397	940.44
325.626	668.44
325.855	538.44
326.084	514.44
326.313	471.44
326.542	486.44
326.77	532.44
326.999	670.44
327.228	898.44
327.457	1364.44
327.686	1579.44
327.914	1044.44
328.143	701.44
328.372	642.44
328.6	573.44
328.829	531.44
329.058	545.44
329.287	569.44
329.515	541.44
329.744	490.44
329.972	462.44
330.201	491.44
330.43	564.44
330.658	582.44
330.887	583.44
331.115	555.44
331.344	481.44
331.572	452.44
331.801	441.44
332.03	455.44
332.258	444.44
332.486	405.44
332.715	411.44
332.943	401.44
333.172	398.44
333.4	403.44
333.629	443.44
333.857	424.44
334.085	441.44
334.314	470.44
334.542	501.44
334.771	515.44
334.999	457.44
335.227	417.44
335.455	421.44
335.684	409.44
335.912	373.44
336.14	407.44
336.369	391.44
336.597	388.44
336.825	402.44
337.053	398.44
337.281	381.44
337.51	397.44
337.738	388.44
337.966	392.44
338.194	398.44
338.422	402.44
338.65	400.44
338.878	372.44
339.106	366.44
339.334	390.44
339.562	377.44
339.79	378.44
340.018	364.44
340.246	390.44
340.474	387.44
340.702	409.44
340.93	387.44
341.158	389.44
341.386	397.44
341.614	405.44
341.842	404.44
342.07	381.44
342.298	364.44
342.526	379.44
342.754	376.44
342.981	353.44
343.209	368.44
343.437	390.44
343.665	380.44
343.893	377.44
344.12	373.44
344.348	393.44
344.576	374.44
344.804	391.44
345.031	378.44
345.259	413.44
345.487	398.44
345.714	363.44
345.942	376.44
346.17	392.44
346.397	353.44
346.625	357.44
346.853	364.44
347.08	361.44
347.308	378.44
347.535	384.44
347.763	386.44
347.99	392.44
348.218	391.44
348.445	409.44
348.673	384.44
348.9	377.44
349.128	382.44
349.355	373.44
349.583	362.44
349.81	370.44
350.037	372.44
350.265	369.44
350.492	356.44
350.72	373.44
350.947	368.44
351.174	381.44
351.402	387.44
351.629	369.44
351.856	382.44
352.083	395.44
352.311	400.44
352.538	392.44
352.765	404.44
352.992	380.44
353.22	381.44
353.447	353.44
353.674	374.44
353.901	360.44
354.128	349.44
354.355	360.44
354.583	331.44
354.81	355.44
355.037	353.44
355.264	349.44
355.491	357.44
355.718	333.44
355.945	345.44
356.172	325.44
356.399	338.44
356.626	330.44
356.853	337.44
357.08	334.44
357.307	357.44
357.534	335.44
357.761	334.44
357.988	348.44
358.215	340.44
358.441	342.44
358.668	351.44
358.895	349.44
359.122	353.44
359.349	361.44
359.576	381.44
359.802	409.44
360.029	437.44
360.256	428.44
360.483	428.44
360.709	390.44
360.936	376.44
361.163	391.44
361.39	377.44
361.616	362.44
361.843	353.44
362.07	377.44
362.296	388.44
362.523	388.44
362.749	373.44
362.976	376.44
363.203	357.44
363.429	369.44
363.656	355.44
363.882	359.44
364.109	352.44
364.335	368.44
364.562	351.44
364.788	339.44
365.015	362.44
365.241	351.44
365.468	362.44
365.694	357.44
365.92	368.44
366.147	357.44
366.373	369.44
366.599	343.44
366.826	342.44
367.052	334.44
367.278	348.44
367.505	354.44
367.731	356.44
367.957	360.44
368.184	358.44
368.41	361.44
368.636	360.44
368.862	369.44
369.089	380.44
369.315	340.44
369.541	370.44
369.767	340.44
369.993	356.44
370.219	350.44
370.445	344.44
370.672	373.44
370.898	350.44
371.124	339.44
371.35	349.44
371.576	357.44
371.802	338.44
372.028	354.44
372.254	361.44
372.48	358.44
372.706	346.44
372.932	336.44
373.158	321.44
373.384	353.44
373.61	348.44
373.835	354.44
374.061	363.44
374.287	348.44
374.513	361.44
374.739	364.44
374.965	360.44
375.191	357.44
375.416	349.44
375.642	355.44
375.868	342.44
376.094	333.44
376.319	351.44
376.545	350.44
376.771	339.44
376.997	350.44
377.222	357.44
377.448	340.44
377.674	340.44
377.899	354.44
378.125	332.44
378.35	337.44
378.576	338.44
378.802	314.44
379.027	344.44
379.253	346.44
379.478	317.44
379.704	356.44
379.929	359.44
380.155	350.44
380.38	355.44
380.606	372.44
380.831	333.44
381.057	353.44
381.282	333.44
381.507	364.44
381.733	341.44
381.958	346.44
382.184	330.44
382.409	329.44
382.634	358.44
382.86	340.44
383.085	342.44
383.31	355.44
383.535	354.44
383.761	351.44
383.986	342.44
384.211	352.44
384.436	353.44
384.662	379.44
384.887	363.44
385.112	361.44
385.337	362.44
385.562	345.44
385.787	360.44
386.013	376.44
386.238	381.44
386.463	376.44
386.688	380.44
386.913	359.44
387.138	380.44
387.363	370.44
387.588	366.44
387.813	364.44
388.038	369.44
388.263	361.44
388.488	356.44
388.713	366.44
388.938	379.44
389.163	378.44
389.387	387.44
389.612	386.44
389.837	375.44
390.062	374.44
390.287	371.44
390.512	378.44
390.736	376.44
390.961	366.44
391.186	376.44
391.411	362.44
391.636	386.44
391.86	380.44
392.085	365.44
392.31	378.44
392.534	370.44
392.759	364.44
392.984	356.44
393.208	361.44
393.433	374.44
393.658	370.44
393.882	376.44
394.107	360.44
394.331	375.44
394.556	389.44
394.78	360.44
395.005	394.44
395.229	378.44
395.454	373.44
395.678	374.44
395.903	392.44
396.127	410.44
396.352	396.44
396.576	404.44
396.801	382.44
397.025	378.44
397.249	404.44
397.474	408.44
397.698	380.44
397.922	406.44
398.147	422.44
398.371	414.44
398.595	399.44
398.82	392.44
399.044	406.44
399.268	407.44
399.492	464.44
399.717	456.44
399.941	450.44
400.165	499.44
400.389	526.44
400.613	466.44
400.837	429.44
401.062	420.44
401.286	401.44
401.51	403.44
401.734	426.44
401.958	406.44
402.182	417.44
402.406	442.44
402.63	429.44
402.854	430.44
403.078	406.44
403.302	412.44
403.526	433.44
403.75	444.44
403.974	427.44
404.198	448.44
404.422	447.44
404.645	451.44
404.869	467.44
405.093	473.44
405.317	513.44
405.541	544.44
405.765	496.44
405.988	471.44
406.212	470.44
406.436	471.44
406.66	516.44
406.883	483.44
407.107	491.44
407.331	529.44
407.555	573.44
407.778	578.44
408.002	536.44
408.226	465.44
408.449	483.44
408.673	507.44
408.896	516.44
409.12	502.44
409.344	508.44
409.567	445.44
409.791	431.44
410.014	434.44
410.238	428.44
410.461	448.44
410.685	439.44
410.908	477.44
411.132	499.44
411.355	525.44
411.578	472.44
411.802	430.44
412.025	453.44
412.249	433.44
412.472	472.44
412.695	500.44
412.919	499.44
413.142	456.44
413.365	444.44
413.589	423.44
413.812	435.44
414.035	407.44
414.258	411.44
414.482	425.44
414.705	406.44
414.928	419.44
415.151	411.44
415.374	419.44
415.597	409.44
415.821	390.44
416.044	404.44
416.267	406.44
416.49	414.44
416.713	413.44
416.936	412.44
417.159	399.44
417.382	442.44
417.605	408.44
417.828	430.44
418.051	428.44
418.274	440.44
418.497	417.44
418.72	418.44
418.943	401.44
419.166	426.44
419.389	424.44
419.611	419.44
419.834	449.44
420.057	460.44
420.28	455.44
420.503	425.44
420.726	426.44
420.948	457.44
421.171	485.44
421.394	512.44
421.617	448.44
421.839	437.44
422.062	440.44
422.285	433.44
422.507	515.44
422.73	534.44
422.953	540.44
423.175	474.44
423.398	437.44
423.621	458.44
423.843	473.44
424.066	462.44
424.288	488.44
424.511	471.44
424.733	558.44
424.956	591.44
425.178	596.44
425.401	572.44
425.623	571.44
425.846	517.44
426.068	479.44
426.291	496.44
426.513	464.44
426.735	483.44
426.958	522.44
427.18	585.44
427.402	692.44
427.625	776.44
427.847	710.44
428.069	596.44
428.292	546.44
428.514	480.44
428.736	449.44
428.958	463.44
429.181	450.44
429.403	454.44
429.625	448.44
429.847	483.44
430.069	535.44
430.292	530.44
430.514	478.44
430.736	439.44
430.958	444.44
431.18	436.44
431.402	418.44
431.624	410.44
431.846	412.44
432.068	422.44
432.29	404.44
432.512	414.44
432.734	415.44
432.956	420.44
433.178	438.44
433.4	447.44
433.622	418.44
433.844	419.44
434.066	403.44
434.287	393.44
434.509	417.44
434.731	403.44
434.953	440.44
435.175	434.44
435.397	456.44
435.618	464.44
435.84	497.44
436.062	600.44
436.284	661.44
436.505	545.44
436.727	491.44
436.949	473.44
437.17	452.44
437.392	467.44
437.614	458.44
437.835	524.44
438.057	603.44
438.278	650.44
438.5	642.44
438.721	728.44
438.943	688.44
439.165	560.44
439.386	500.44
439.608	489.44
439.829	506.44
440.05	532.44
440.272	566.44
440.493	529.44
440.715	457.44
440.936	478.44
441.158	456.44
441.379	452.44
441.6	457.44
441.822	469.44
442.043	536.44
442.264	589.44
442.486	605.44
442.707	541.44
442.928	509.44
443.149	503.44
443.371	551.44
443.592	554.44
443.813	615.44
444.034	674.44
444.255	559.44
444.476	485.44
444.698	480.44
444.919	466.44
445.14	563.44
445.361	534.44
445.582	537.44
445.803	599.44
446.024	679.44
446.245	683.44
446.466	628.44
446.687	521.44
446.908	485.44
447.129	456.44
447.35	451.44
447.571	426.44
447.792	432.44
448.013	430.44
448.234	476.44
448.455	499.44
448.675	621.44
448.896	694.44
449.117	601.44
449.338	550.44
449.559	656.44
449.779	732.44
450	571.44
450.221	483.44
450.442	456.44
450.662	449.44
450.883	461.44
451.104	469.44
451.324	441.44
451.545	421.44
451.766	425.44
451.986	413.44
452.207	396.44
452.428	397.44
452.648	387.44
452.869	398.44
453.089	411.44
453.31	445.44
453.53	410.44
453.751	408.44
453.971	425.44
454.192	447.44
454.412	403.44
454.633	409.44
454.853	380.44
455.073	400.44
455.294	433.44
455.514	491.44
455.734	455.44
455.955	411.44
456.175	389.44
456.395	389.44
456.616	377.44
456.836	367.44
457.056	376.44
457.276	356.44
457.497	364.44
457.717	373.44
457.937	373.44
458.157	410.44
458.377	414.44
458.598	414.44
458.818	469.44
459.038	558.44
459.258	557.44
459.478	472.44
459.698	422.44
459.918	406.44
460.138	406.44
460.358	417.44
460.578	406.44
460.798	418.44
461.018	440.44
461.238	400.44
461.458	405.44
461.678	411.44
461.898	419.44
462.118	413.44
462.338	412.44
462.558	416.44
462.777	417.44
462.997	445.44
463.217	439.44
463.437	453.44
463.657	444.44
463.876	441.44
464.096	434.44
464.316	426.44
464.536	466.44
464.755	428.44
464.975	445.44
465.195	498.44
465.414	600.44
465.634	524.44
465.854	451.44
466.073	435.44
466.293	413.44
466.512	388.44
466.732	414.44
466.951	418.44
467.171	398.44
467.391	410.44
467.61	422.44
467.829	421.44
468.049	400.44
468.268	430.44
468.488	398.44
468.707	400.44
468.927	403.44
469.146	407.44
469.365	386.44
469.585	393.44
469.804	399.44
470.023	423.44
470.243	427.44
470.462	420.44
470.681	435.44
470.901	436.44
471.12	425.44
471.339	404.44
471.558	404.44
471.777	412.44
471.997	412.44
472.216	431.44
472.435	456.44
472.654	427.44
472.873	429.44
473.092	411.44
473.311	411.44
473.53	425.44
473.749	416.44
473.968	472.44
474.187	566.44
474.406	560.44
474.625	487.44
474.844	449.44
475.063	435.44
475.282	424.44
475.501	410.44
475.72	441.44
475.939	420.44
476.158	442.44
476.377	430.44
476.596	429.44
476.814	426.44
477.033	419.44
477.252	440.44
477.471	441.44
477.69	444.44
477.908	452.44
478.127	448.44
478.346	449.44
478.564	454.44
478.783	455.44
479.002	480.44
479.22	476.44
479.439	477.44
479.658	489.44
479.876	502.44
480.095	499.44
480.313	523.44
480.532	516.44
480.751	520.44
480.969	534.44
481.188	596.44
481.406	626.44
481.624	549.44
481.843	529.44
482.061	487.44
482.28	488.44
482.498	487.44
482.717	507.44
482.935	499.44
483.153	489.44
483.372	481.44
483.59	467.44
483.808	471.44
484.027	516.44
484.245	497.44
484.463	469.44
484.681	496.44
484.9	511.44
485.118	505.44
485.336	506.44
485.554	511.44
485.772	489.44
485.99	514.44
486.209	508.44
486.427	496.44
486.645	525.44
486.863	561.44
487.081	550.44
487.299	517.44
487.517	535.44
487.735	532.44
487.953	525.44
488.171	532.44
488.389	510.44
488.607	523.44
488.825	497.44
489.043	513.44
489.261	545.44
489.479	547.44
489.696	531.44
489.914	545.44
490.132	530.44
490.35	555.44
490.568	549.44
490.786	578.44
491.003	556.44
491.221	593.44
491.439	594.44
491.657	593.44
491.874	614.44
492.092	609.44
492.31	616.44
492.527	612.44
492.745	590.44
492.963	619.44
493.18	614.44
493.398	620.44
493.615	598.44
493.833	617.44
494.05	625.44
494.268	628.44
494.485	608.44
494.703	612.44
494.92	615.44
495.138	623.44
495.355	613.44
495.573	624.44
495.79	612.44
496.008	638.44
496.225	620.44
496.442	625.44
496.66	624.44
496.877	618.44
497.094	653.44
497.312	658.44
497.529	648.44
497.746	637.44
497.963	646.44
498.181	676.44
498.398	649.44
498.615	658.44
498.832	697.44
499.049	683.44
499.267	677.44
499.484	682.44
499.701	730.44
499.918	714.44
500.135	742.44
500.352	770.44
500.569	789.44
500.786	789.44
501.003	795.44
501.22	790.44
501.437	757.44
501.654	739.44
501.871	734.44
502.088	730.44
