Data from 1965.PennyLincolnUp.Lamp.En5.5.200Scan.071719.P1._HRD10591_14-09-27-912.txt Node
Date: Thu Jul 18 14:09:27 EDT 2019
User: cochatt
Spectrometer: HR+D1059
Trigger mode: 1
Integration Time (sec): 1.000000E-1
Scans to average: 1
Electric dark correction enabled: true
Nonlinearity correction enabled: false
Boxcar width: 0
XAxis mode: Wavelengths
Number of Pixels in Spectrum: 2048
>>>>>Begin Spectral Data<<<<<
223.165	-19.06
223.4	-19.06
223.635	-19.06
223.869	-13.06
224.104	-18.06
224.338	-13.06
224.573	-13.06
224.808	-12.06
225.042	6.94
225.277	-15.06
225.511	15.94
225.746	-1.06
225.98	0.94
226.215	10.94
226.449	19.94
226.683	12.94
226.918	24.94
227.152	11.94
227.387	26.94
227.621	50.94
227.856	58.94
228.09	55.94
228.324	33.94
228.559	57.94
228.793	75.94
229.027	108.94
229.262	107.94
229.496	113.94
229.73	132.94
229.964	158.94
230.199	141.94
230.433	101.94
230.667	112.94
230.901	99.94
231.136	102.94
231.37	118.94
231.604	104.94
231.838	105.94
232.072	118.94
232.306	93.94
232.541	119.94
232.775	120.94
233.009	111.94
233.243	100.94
233.477	109.94
233.711	125.94
233.945	106.94
234.179	114.94
234.413	123.94
234.647	127.94
234.881	111.94
235.115	125.94
235.349	130.94
235.583	117.94
235.817	121.94
236.051	124.94
236.285	121.94
236.519	130.94
236.753	110.94
236.987	155.94
237.221	177.94
237.455	212.94
237.689	195.94
237.922	125.94
238.156	128.94
238.39	132.94
238.624	126.94
238.858	116.94
239.091	114.94
239.325	115.94
239.559	118.94
239.793	123.94
240.027	124.94
240.26	138.94
240.494	141.94
240.728	143.94
240.961	148.94
241.195	158.94
241.429	142.94
241.662	127.94
241.896	119.94
242.13	122.94
242.363	134.94
242.597	130.94
242.83	126.94
243.064	132.94
243.298	136.94
243.531	146.94
243.765	126.94
243.998	141.94
244.232	143.94
244.465	123.94
244.699	134.94
244.932	142.94
245.166	133.94
245.399	142.94
245.633	141.94
245.866	126.94
246.099	131.94
246.333	134.94
246.566	126.94
246.8	137.94
247.033	159.94
247.266	145.94
247.5	168.94
247.733	162.94
247.966	160.94
248.2	156.94
248.433	144.94
248.666	162.94
248.899	159.94
249.133	178.94
249.366	182.94
249.599	186.94
249.832	166.94
250.066	177.94
250.299	177.94
250.532	181.94
250.765	171.94
250.998	181.94
251.231	208.94
251.465	198.94
251.698	176.94
251.931	175.94
252.164	167.94
252.397	194.94
252.63	160.94
252.863	176.94
253.096	188.94
253.329	203.94
253.562	193.94
253.795	199.94
254.028	205.94
254.261	217.94
254.494	217.94
254.727	232.94
254.96	246.94
255.193	252.94
255.426	240.94
255.659	221.94
255.892	210.94
256.124	215.94
256.357	211.94
256.59	205.94
256.823	209.94
257.056	196.94
257.289	204.94
257.521	182.94
257.754	207.94
257.987	186.94
258.22	197.94
258.452	178.94
258.685	198.94
258.918	201.94
259.151	192.94
259.383	202.94
259.616	198.94
259.849	206.94
260.081	210.94
260.314	217.94
260.547	231.94
260.779	239.94
261.012	221.94
261.244	210.94
261.477	214.94
261.71	208.94
261.942	215.94
262.175	224.94
262.407	226.94
262.64	204.94
262.872	194.94
263.105	205.94
263.337	210.94
263.57	209.94
263.802	198.94
264.035	203.94
264.267	190.94
264.499	198.94
264.732	203.94
264.964	209.94
265.197	192.94
265.429	192.94
265.661	193.94
265.894	182.94
266.126	195.94
266.358	182.94
266.591	198.94
266.823	193.94
267.055	190.94
267.287	216.94
267.52	193.94
267.752	201.94
267.984	198.94
268.216	201.94
268.448	214.94
268.681	208.94
268.913	224.94
269.145	253.94
269.377	245.94
269.609	242.94
269.841	263.94
270.073	251.94
270.306	257.94
270.538	278.94
270.77	289.94
271.002	268.94
271.234	263.94
271.466	283.94
271.698	292.94
271.93	284.94
272.162	274.94
272.394	304.94
272.626	273.94
272.858	271.94
273.09	246.94
273.322	250.94
273.553	251.94
273.785	237.94
274.017	260.94
274.249	241.94
274.481	246.94
274.713	236.94
274.945	249.94
275.176	241.94
275.408	233.94
275.64	236.94
275.872	230.94
276.104	247.94
276.335	231.94
276.567	237.94
276.799	265.94
277.031	276.94
277.262	296.94
277.494	295.94
277.726	263.94
277.957	280.94
278.189	245.94
278.421	247.94
278.652	241.94
278.884	243.94
279.115	218.94
279.347	254.94
279.579	241.94
279.81	231.94
280.042	240.94
280.273	253.94
280.505	240.94
280.736	236.94
280.968	250.94
281.199	236.94
281.431	238.94
281.662	240.94
281.894	247.94
282.125	258.94
282.356	268.94
282.588	278.94
282.819	275.94
283.051	248.94
283.282	240.94
283.513	234.94
283.745	258.94
283.976	263.94
284.207	247.94
284.439	251.94
284.67	258.94
284.901	240.94
285.132	251.94
285.364	241.94
285.595	260.94
285.826	241.94
286.057	249.94
286.288	266.94
286.52	247.94
286.751	246.94
286.982	267.94
287.213	257.94
287.444	248.94
287.675	265.94
287.906	271.94
288.138	251.94
288.369	263.94
288.6	261.94
288.831	272.94
289.062	270.94
289.293	244.94
289.524	265.94
289.755	260.94
289.986	253.94
290.217	251.94
290.448	254.94
290.679	256.94
290.91	245.94
291.141	263.94
291.371	249.94
291.602	249.94
291.833	261.94
292.064	238.94
292.295	246.94
292.526	267.94
292.757	264.94
292.987	239.94
293.218	255.94
293.449	254.94
293.68	278.94
293.91	258.94
294.141	273.94
294.372	248.94
294.603	262.94
294.833	277.94
295.064	261.94
295.295	275.94
295.525	268.94
295.756	261.94
295.987	279.94
296.217	299.94
296.448	284.94
296.679	259.94
296.909	283.94
297.14	253.94
297.37	262.94
297.601	265.94
297.831	243.94
298.062	266.94
298.292	286.94
298.523	249.94
298.753	270.94
298.984	265.94
299.214	261.94
299.445	276.94
299.675	269.94
299.905	271.94
300.136	280.94
300.366	279.94
300.597	280.94
300.827	299.94
301.057	297.94
301.288	299.94
301.518	297.94
301.748	261.94
301.979	292.94
302.209	295.94
302.439	315.94
302.669	293.94
302.9	297.94
303.13	299.94
303.36	277.94
303.59	291.94
303.82	299.94
304.051	291.94
304.281	304.94
304.511	301.94
304.741	291.94
304.971	291.94
305.201	297.94
305.431	293.94
305.661	297.94
305.891	301.94
306.121	299.94
306.352	303.94
306.582	318.94
306.812	285.94
307.042	290.94
307.272	303.94
307.502	301.94
307.731	313.94
307.961	289.94
308.191	297.94
308.421	296.94
308.651	298.94
308.881	303.94
309.111	299.94
309.341	318.94
309.571	328.94
309.8	325.94
310.03	335.94
310.26	347.94
310.49	346.94
310.72	361.94
310.949	360.94
311.179	360.94
311.409	326.94
311.639	325.94
311.868	336.94
312.098	341.94
312.328	346.94
312.557	370.94
312.787	387.94
313.017	378.94
313.246	354.94
313.476	332.94
313.706	343.94
313.935	355.94
314.165	357.94
314.394	371.94
314.624	359.94
314.853	366.94
315.083	346.94
315.312	346.94
315.542	322.94
315.771	341.94
316.001	334.94
316.23	334.94
316.46	330.94
316.689	343.94
316.919	356.94
317.148	335.94
317.377	349.94
317.607	349.94
317.836	350.94
318.065	334.94
318.295	328.94
318.524	344.94
318.753	330.94
318.983	339.94
319.212	318.94
319.441	355.94
319.67	345.94
319.9	350.94
320.129	324.94
320.358	339.94
320.587	359.94
320.816	374.94
321.046	360.94
321.275	366.94
321.504	370.94
321.733	378.94
321.962	371.94
322.191	380.94
322.42	402.94
322.649	417.94
322.878	422.94
323.108	457.94
323.337	462.94
323.566	454.94
323.795	505.94
324.024	562.94
324.253	730.94
324.482	1072.94
324.71	1594.94
324.939	2161.94
325.168	1813.94
325.397	942.94
325.626	643.94
325.855	520.94
326.084	467.94
326.313	471.94
326.542	495.94
326.77	554.94
326.999	654.94
327.228	930.94
327.457	1356.94
327.686	1607.94
327.914	1097.94
328.143	704.94
328.372	607.94
328.6	582.94
328.829	555.94
329.058	552.94
329.287	582.94
329.515	528.94
329.744	486.94
329.972	513.94
330.201	525.94
330.43	558.94
330.658	586.94
330.887	595.94
331.115	577.94
331.344	505.94
331.572	445.94
331.801	429.94
332.03	450.94
332.258	425.94
332.486	410.94
332.715	419.94
332.943	388.94
333.172	387.94
333.4	413.94
333.629	415.94
333.857	457.94
334.085	455.94
334.314	438.94
334.542	486.94
334.771	520.94
334.999	427.94
335.227	432.94
335.455	408.94
335.684	395.94
335.912	384.94
336.14	407.94
336.369	386.94
336.597	407.94
336.825	413.94
337.053	392.94
337.281	393.94
337.51	380.94
337.738	403.94
337.966	403.94
338.194	414.94
338.422	389.94
338.65	394.94
338.878	389.94
339.106	383.94
339.334	381.94
339.562	358.94
339.79	385.94
340.018	385.94
340.246	390.94
340.474	391.94
340.702	381.94
340.93	389.94
341.158	382.94
341.386	394.94
341.614	387.94
341.842	394.94
342.07	369.94
342.298	360.94
342.526	370.94
342.754	359.94
342.981	382.94
343.209	362.94
343.437	375.94
343.665	369.94
343.893	375.94
344.12	387.94
344.348	385.94
344.576	410.94
344.804	401.94
345.031	391.94
345.259	427.94
345.487	383.94
345.714	388.94
345.942	386.94
346.17	375.94
346.397	381.94
346.625	356.94
346.853	375.94
347.08	390.94
347.308	383.94
347.535	379.94
347.763	389.94
347.99	393.94
348.218	409.94
348.445	394.94
348.673	397.94
348.9	364.94
349.128	370.94
349.355	368.94
349.583	368.94
349.81	358.94
350.037	361.94
350.265	376.94
350.492	353.94
350.72	365.94
350.947	374.94
351.174	379.94
351.402	390.94
351.629	378.94
351.856	375.94
352.083	386.94
352.311	399.94
352.538	404.94
352.765	393.94
352.992	391.94
353.22	390.94
353.447	375.94
353.674	370.94
353.901	373.94
354.128	359.94
354.355	338.94
354.583	354.94
354.81	356.94
355.037	343.94
355.264	329.94
355.491	343.94
355.718	346.94
355.945	343.94
356.172	342.94
356.399	343.94
356.626	335.94
356.853	349.94
357.08	353.94
357.307	348.94
357.534	341.94
357.761	322.94
357.988	334.94
358.215	335.94
358.441	330.94
358.668	337.94
358.895	342.94
359.122	365.94
359.349	357.94
359.576	367.94
359.802	398.94
360.029	450.94
360.256	451.94
360.483	419.94
360.709	395.94
360.936	383.94
361.163	378.94
361.39	400.94
361.616	392.94
361.843	378.94
362.07	393.94
362.296	401.94
362.523	377.94
362.749	371.94
362.976	368.94
363.203	368.94
363.429	361.94
363.656	362.94
363.882	358.94
364.109	359.94
364.335	351.94
364.562	357.94
364.788	345.94
365.015	347.94
365.241	348.94
365.468	363.94
365.694	383.94
365.92	364.94
366.147	350.94
366.373	350.94
366.599	350.94
366.826	339.94
367.052	338.94
367.278	342.94
367.505	347.94
367.731	355.94
367.957	341.94
368.184	369.94
368.41	353.94
368.636	358.94
368.862	382.94
369.089	354.94
369.315	338.94
369.541	366.94
369.767	357.94
369.993	358.94
370.219	359.94
370.445	345.94
370.672	362.94
370.898	346.94
371.124	333.94
371.35	348.94
371.576	340.94
371.802	344.94
372.028	351.94
372.254	351.94
372.48	349.94
372.706	364.94
372.932	339.94
373.158	330.94
373.384	330.94
373.61	347.94
373.835	332.94
374.061	363.94
374.287	343.94
374.513	353.94
374.739	331.94
374.965	338.94
375.191	354.94
375.416	341.94
375.642	340.94
375.868	333.94
376.094	334.94
376.319	352.94
376.545	354.94
376.771	342.94
376.997	316.94
377.222	326.94
377.448	347.94
377.674	341.94
377.899	353.94
378.125	358.94
378.35	352.94
378.576	337.94
378.802	306.94
379.027	349.94
379.253	339.94
379.478	354.94
379.704	329.94
379.929	337.94
380.155	347.94
380.38	350.94
380.606	362.94
380.831	349.94
381.057	356.94
381.282	339.94
381.507	339.94
381.733	330.94
381.958	338.94
382.184	338.94
382.409	327.94
382.634	350.94
382.86	329.94
383.085	332.94
383.31	358.94
383.535	363.94
383.761	349.94
383.986	343.94
384.211	349.94
384.436	361.94
384.662	371.94
384.887	343.94
385.112	351.94
385.337	365.94
385.562	344.94
385.787	379.94
386.013	393.94
386.238	381.94
386.463	362.94
386.688	361.94
386.913	382.94
387.138	364.94
387.363	370.94
387.588	367.94
387.813	363.94
388.038	357.94
388.263	357.94
388.488	370.94
388.713	366.94
388.938	353.94
389.163	355.94
389.387	350.94
389.612	373.94
389.837	377.94
390.062	366.94
390.287	385.94
390.512	373.94
390.736	366.94
390.961	367.94
391.186	366.94
391.411	363.94
391.636	390.94
391.86	377.94
392.085	384.94
392.31	380.94
392.534	381.94
392.759	403.94
392.984	363.94
393.208	365.94
393.433	373.94
393.658	385.94
393.882	374.94
394.107	379.94
394.331	403.94
394.556	366.94
394.78	371.94
395.005	367.94
395.229	370.94
395.454	378.94
395.678	373.94
395.903	390.94
396.127	405.94
396.352	413.94
396.576	381.94
396.801	387.94
397.025	380.94
397.249	388.94
397.474	402.94
397.698	389.94
397.922	389.94
398.147	410.94
398.371	439.94
398.595	415.94
398.82	418.94
399.044	423.94
399.268	400.94
399.492	424.94
399.717	459.94
399.941	509.94
400.165	515.94
400.389	511.94
400.613	457.94
400.837	447.94
401.062	437.94
401.286	411.94
401.51	412.94
401.734	409.94
401.958	428.94
402.182	428.94
402.406	421.94
402.63	423.94
402.854	409.94
403.078	430.94
403.302	425.94
403.526	429.94
403.75	432.94
403.974	410.94
404.198	453.94
404.422	445.94
404.645	459.94
404.869	454.94
405.093	477.94
405.317	493.94
405.541	519.94
405.765	487.94
405.988	451.94
406.212	478.94
406.436	480.94
406.66	501.94
406.883	460.94
407.107	501.94
407.331	530.94
407.555	567.94
407.778	567.94
408.002	502.94
408.226	493.94
408.449	458.94
408.673	481.94
408.896	475.94
409.12	536.94
409.344	490.94
409.567	455.94
409.791	455.94
410.014	417.94
410.238	445.94
410.461	435.94
410.685	421.94
410.908	449.94
411.132	470.94
411.355	492.94
411.578	484.94
411.802	455.94
412.025	457.94
412.249	447.94
412.472	449.94
412.695	502.94
412.919	466.94
413.142	455.94
413.365	440.94
413.589	433.94
413.812	415.94
414.035	403.94
414.258	412.94
414.482	429.94
414.705	407.94
414.928	397.94
415.151	394.94
415.374	410.94
415.597	426.94
415.821	416.94
416.044	412.94
416.267	407.94
416.49	418.94
416.713	416.94
416.936	388.94
417.159	401.94
417.382	416.94
417.605	417.94
417.828	416.94
418.051	419.94
418.274	433.94
418.497	415.94
418.72	412.94
418.943	413.94
419.166	428.94
419.389	439.94
419.611	433.94
419.834	445.94
420.057	428.94
420.28	429.94
420.503	426.94
420.726	449.94
420.948	460.94
421.171	454.94
421.394	496.94
421.617	442.94
421.839	425.94
422.062	426.94
422.285	450.94
422.507	506.94
422.73	567.94
422.953	539.94
423.175	495.94
423.398	460.94
423.621	446.94
423.843	467.94
424.066	466.94
424.288	456.94
424.511	461.94
424.733	545.94
424.956	599.94
425.178	573.94
425.401	561.94
425.623	569.94
425.846	497.94
426.068	494.94
426.291	462.94
426.513	459.94
426.735	473.94
426.958	527.94
427.18	585.94
427.402	686.94
427.625	736.94
427.847	687.94
428.069	602.94
428.292	509.94
428.514	472.94
428.736	453.94
428.958	460.94
429.181	434.94
429.403	416.94
429.625	431.94
429.847	467.94
430.069	511.94
430.292	504.94
430.514	445.94
430.736	449.94
430.958	424.94
431.18	426.94
431.402	419.94
431.624	409.94
431.846	407.94
432.068	418.94
432.29	412.94
432.512	419.94
432.734	397.94
432.956	409.94
433.178	409.94
433.4	444.94
433.622	407.94
433.844	404.94
434.066	401.94
434.287	405.94
434.509	423.94
434.731	430.94
434.953	439.94
435.175	429.94
435.397	454.94
435.618	481.94
435.84	505.94
436.062	604.94
436.284	622.94
436.505	546.94
436.727	486.94
436.949	453.94
437.17	452.94
437.392	458.94
437.614	437.94
437.835	489.94
438.057	590.94
438.278	658.94
438.5	656.94
438.721	702.94
438.943	647.94
439.165	543.94
439.386	492.94
439.608	486.94
439.829	482.94
440.05	530.94
440.272	560.94
440.493	522.94
440.715	470.94
440.936	465.94
441.158	453.94
441.379	449.94
441.6	448.94
441.822	467.94
442.043	513.94
442.264	583.94
442.486	609.94
442.707	550.94
442.928	505.94
443.149	547.94
443.371	531.94
443.592	553.94
443.813	625.94
444.034	677.94
444.255	552.94
444.476	507.94
444.698	460.94
444.919	459.94
445.14	583.94
445.361	541.94
445.582	534.94
445.803	555.94
446.024	651.94
446.245	680.94
446.466	593.94
446.687	493.94
446.908	503.94
447.129	453.94
447.35	463.94
447.571	431.94
447.792	442.94
448.013	455.94
448.234	479.94
448.455	514.94
448.675	614.94
448.896	702.94
449.117	578.94
449.338	551.94
449.559	646.94
449.779	722.94
450	585.94
450.221	485.94
450.442	440.94
450.662	441.94
450.883	455.94
451.104	482.94
451.324	462.94
451.545	416.94
451.766	399.94
451.986	412.94
452.207	391.94
452.428	394.94
452.648	410.94
452.869	388.94
453.089	391.94
453.31	414.94
453.53	430.94
453.751	409.94
453.971	425.94
454.192	431.94
454.412	423.94
454.633	405.94
454.853	407.94
455.073	403.94
455.294	417.94
455.514	515.94
455.734	470.94
455.955	407.94
456.175	385.94
456.395	371.94
456.616	380.94
456.836	382.94
457.056	353.94
457.276	363.94
457.497	352.94
457.717	369.94
457.937	374.94
458.157	391.94
458.377	387.94
458.598	415.94
458.818	462.94
459.038	570.94
459.258	567.94
459.478	473.94
459.698	445.94
459.918	414.94
460.138	418.94
460.358	425.94
460.578	386.94
460.798	421.94
461.018	427.94
461.238	426.94
461.458	415.94
461.678	401.94
461.898	418.94
462.118	432.94
462.338	419.94
462.558	411.94
462.777	426.94
462.997	437.94
463.217	451.94
463.437	439.94
463.657	432.94
463.876	441.94
464.096	456.94
464.316	446.94
464.536	463.94
464.755	443.94
464.975	470.94
465.195	505.94
465.414	608.94
465.634	517.94
465.854	467.94
466.073	457.94
466.293	450.94
466.512	402.94
466.732	417.94
466.951	423.94
467.171	416.94
467.391	405.94
467.61	434.94
467.829	443.94
468.049	413.94
468.268	421.94
468.488	417.94
468.707	414.94
468.927	392.94
469.146	389.94
469.365	383.94
469.585	412.94
469.804	401.94
470.023	415.94
470.243	421.94
470.462	415.94
470.681	442.94
470.901	441.94
471.12	414.94
471.339	421.94
471.558	424.94
471.777	433.94
471.997	413.94
472.216	418.94
472.435	476.94
472.654	442.94
472.873	424.94
473.092	411.94
473.311	408.94
473.53	412.94
473.749	429.94
473.968	459.94
474.187	550.94
474.406	549.94
474.625	459.94
474.844	431.94
475.063	419.94
475.282	406.94
475.501	404.94
475.72	413.94
475.939	413.94
476.158	436.94
476.377	441.94
476.596	431.94
476.814	416.94
477.033	448.94
477.252	443.94
477.471	431.94
477.69	450.94
477.908	448.94
478.127	457.94
478.346	439.94
478.564	445.94
478.783	443.94
479.002	461.94
479.22	467.94
479.439	485.94
479.658	493.94
479.876	519.94
480.095	517.94
480.313	509.94
480.532	498.94
480.751	495.94
480.969	515.94
481.188	602.94
481.406	642.94
481.624	549.94
481.843	523.94
482.061	502.94
482.28	503.94
482.498	468.94
482.717	487.94
482.935	478.94
483.153	489.94
483.372	498.94
483.59	475.94
483.808	500.94
484.027	482.94
484.245	501.94
484.463	496.94
484.681	498.94
484.9	493.94
485.118	495.94
485.336	493.94
485.554	477.94
485.772	521.94
485.99	522.94
486.209	494.94
486.427	513.94
486.645	500.94
486.863	535.94
487.081	535.94
487.299	538.94
487.517	504.94
487.735	515.94
487.953	494.94
488.171	539.94
488.389	539.94
488.607	518.94
488.825	512.94
489.043	490.94
489.261	499.94
489.479	519.94
489.696	529.94
489.914	521.94
490.132	536.94
490.35	539.94
490.568	537.94
490.786	546.94
491.003	536.94
491.221	555.94
491.439	569.94
491.657	574.94
491.874	600.94
492.092	574.94
492.31	583.94
492.527	602.94
492.745	601.94
492.963	591.94
493.18	578.94
493.398	627.94
493.615	600.94
493.833	626.94
494.05	625.94
494.268	615.94
494.485	597.94
494.703	614.94
494.92	588.94
495.138	621.94
495.355	605.94
495.573	629.94
495.79	616.94
496.008	629.94
496.225	592.94
496.442	620.94
496.66	617.94
496.877	601.94
497.094	639.94
497.312	642.94
497.529	631.94
497.746	630.94
497.963	641.94
498.181	674.94
498.398	661.94
498.615	673.94
498.832	656.94
499.049	680.94
499.267	696.94
499.484	695.94
499.701	737.94
499.918	730.94
500.135	749.94
500.352	755.94
500.569	757.94
500.786	789.94
501.003	796.94
501.22	754.94
501.437	737.94
501.654	738.94
501.871	732.94
