Data from 1965.PennyLincolnUp.Lamp.En5.5.200Scan.071719.P1._HRD10591_14-10-11-912.txt Node
Date: Thu Jul 18 14:10:11 EDT 2019
User: cochatt
Spectrometer: HR+D1059
Trigger mode: 1
Integration Time (sec): 1.000000E-1
Scans to average: 1
Electric dark correction enabled: true
Nonlinearity correction enabled: false
Boxcar width: 0
XAxis mode: Wavelengths
Number of Pixels in Spectrum: 2048
>>>>>Begin Spectral Data<<<<<
223.165	-8.38
223.4	-8.38
223.635	-8.38
223.869	-22.38
224.104	-19.38
224.338	-14.38
224.573	-10.38
224.808	-0.38
225.042	-11.38
225.277	-10.38
225.511	-4.38
225.746	9.62
225.98	11.62
226.215	14.62
226.449	6.62
226.683	15.62
226.918	17.62
227.152	25.62
227.387	33.62
227.621	34.62
227.856	42.62
228.09	47.62
228.324	39.62
228.559	56.62
228.793	55.62
229.027	100.62
229.262	108.62
229.496	105.62
229.73	131.62
229.964	131.62
230.199	125.62
230.433	120.62
230.667	108.62
230.901	112.62
231.136	111.62
231.37	103.62
231.604	92.62
231.838	95.62
232.072	88.62
232.306	98.62
232.541	89.62
232.775	96.62
233.009	108.62
233.243	103.62
233.477	92.62
233.711	117.62
233.945	105.62
234.179	96.62
234.413	105.62
234.647	99.62
234.881	112.62
235.115	111.62
235.349	96.62
235.583	114.62
235.817	111.62
236.051	119.62
236.285	126.62
236.519	105.62
236.753	118.62
236.987	139.62
237.221	165.62
237.455	216.62
237.689	181.62
237.922	142.62
238.156	124.62
238.39	118.62
238.624	112.62
238.858	119.62
239.091	104.62
239.325	121.62
239.559	111.62
239.793	121.62
240.027	122.62
240.26	137.62
240.494	147.62
240.728	134.62
240.961	137.62
241.195	143.62
241.429	120.62
241.662	127.62
241.896	131.62
242.13	131.62
242.363	126.62
242.597	119.62
242.83	121.62
243.064	113.62
243.298	131.62
243.531	131.62
243.765	125.62
243.998	122.62
244.232	125.62
244.465	135.62
244.699	141.62
244.932	146.62
245.166	129.62
245.399	132.62
245.633	140.62
245.866	133.62
246.099	134.62
246.333	137.62
246.566	139.62
246.8	136.62
247.033	141.62
247.266	152.62
247.5	143.62
247.733	149.62
247.966	139.62
248.2	165.62
248.433	153.62
248.666	156.62
248.899	170.62
249.133	189.62
249.366	179.62
249.599	178.62
249.832	165.62
250.066	162.62
250.299	163.62
250.532	173.62
250.765	167.62
250.998	207.62
251.231	194.62
251.465	194.62
251.698	191.62
251.931	183.62
252.164	191.62
252.397	179.62
252.63	162.62
252.863	181.62
253.096	191.62
253.329	209.62
253.562	194.62
253.795	194.62
254.028	185.62
254.261	197.62
254.494	203.62
254.727	222.62
254.96	249.62
255.193	234.62
255.426	232.62
255.659	218.62
255.892	217.62
256.124	208.62
256.357	215.62
256.59	201.62
256.823	203.62
257.056	189.62
257.289	185.62
257.521	205.62
257.754	184.62
257.987	189.62
258.22	181.62
258.452	182.62
258.685	193.62
258.918	164.62
259.151	166.62
259.383	199.62
259.616	180.62
259.849	201.62
260.081	215.62
260.314	239.62
260.547	225.62
260.779	193.62
261.012	199.62
261.244	206.62
261.477	199.62
261.71	204.62
261.942	184.62
262.175	211.62
262.407	203.62
262.64	180.62
262.872	193.62
263.105	193.62
263.337	183.62
263.57	197.62
263.802	179.62
264.035	199.62
264.267	196.62
264.499	191.62
264.732	208.62
264.964	201.62
265.197	186.62
265.429	178.62
265.661	183.62
265.894	187.62
266.126	188.62
266.358	197.62
266.591	205.62
266.823	211.62
267.055	213.62
267.287	209.62
267.52	218.62
267.752	198.62
267.984	187.62
268.216	187.62
268.448	196.62
268.681	228.62
268.913	227.62
269.145	240.62
269.377	224.62
269.609	251.62
269.841	230.62
270.073	257.62
270.306	273.62
270.538	274.62
270.77	276.62
271.002	280.62
271.234	259.62
271.466	279.62
271.698	275.62
271.93	278.62
272.162	289.62
272.394	283.62
272.626	288.62
272.858	249.62
273.09	254.62
273.322	231.62
273.553	244.62
273.785	247.62
274.017	225.62
274.249	235.62
274.481	245.62
274.713	238.62
274.945	237.62
275.176	235.62
275.408	234.62
275.64	235.62
275.872	244.62
276.104	222.62
276.335	253.62
276.567	249.62
276.799	278.62
277.031	266.62
277.262	287.62
277.494	287.62
277.726	280.62
277.957	271.62
278.189	246.62
278.421	255.62
278.652	256.62
278.884	231.62
279.115	247.62
279.347	234.62
279.579	230.62
279.81	235.62
280.042	253.62
280.273	242.62
280.505	239.62
280.736	229.62
280.968	242.62
281.199	228.62
281.431	225.62
281.662	233.62
281.894	236.62
282.125	248.62
282.356	250.62
282.588	277.62
282.819	259.62
283.051	241.62
283.282	243.62
283.513	249.62
283.745	248.62
283.976	263.62
284.207	240.62
284.439	259.62
284.67	261.62
284.901	252.62
285.132	242.62
285.364	234.62
285.595	237.62
285.826	236.62
286.057	241.62
286.288	236.62
286.52	249.62
286.751	257.62
286.982	240.62
287.213	253.62
287.444	262.62
287.675	263.62
287.906	266.62
288.138	276.62
288.369	264.62
288.6	267.62
288.831	278.62
289.062	277.62
289.293	259.62
289.524	242.62
289.755	246.62
289.986	247.62
290.217	245.62
290.448	235.62
290.679	259.62
290.91	240.62
291.141	237.62
291.371	252.62
291.602	254.62
291.833	247.62
292.064	255.62
292.295	267.62
292.526	256.62
292.757	263.62
292.987	255.62
293.218	231.62
293.449	234.62
293.68	249.62
293.91	248.62
294.141	247.62
294.372	267.62
294.603	266.62
294.833	259.62
295.064	241.62
295.295	243.62
295.525	245.62
295.756	261.62
295.987	272.62
296.217	284.62
296.448	285.62
296.679	269.62
296.909	268.62
297.14	264.62
297.37	255.62
297.601	259.62
297.831	251.62
298.062	227.62
298.292	257.62
298.523	265.62
298.753	264.62
298.984	270.62
299.214	279.62
299.445	259.62
299.675	278.62
299.905	275.62
300.136	288.62
300.366	250.62
300.597	259.62
300.827	293.62
301.057	289.62
301.288	291.62
301.518	283.62
301.748	263.62
301.979	291.62
302.209	291.62
302.439	300.62
302.669	286.62
302.9	289.62
303.13	283.62
303.36	295.62
303.59	284.62
303.82	296.62
304.051	292.62
304.281	294.62
304.511	281.62
304.741	284.62
304.971	280.62
305.201	294.62
305.431	265.62
305.661	287.62
305.891	287.62
306.121	286.62
306.352	291.62
306.582	296.62
306.812	277.62
307.042	282.62
307.272	294.62
307.502	293.62
307.731	299.62
307.961	310.62
308.191	301.62
308.421	307.62
308.651	299.62
308.881	309.62
309.111	307.62
309.341	295.62
309.571	291.62
309.8	315.62
310.03	337.62
310.26	337.62
310.49	326.62
310.72	341.62
310.949	369.62
311.179	379.62
311.409	349.62
311.639	319.62
311.868	351.62
312.098	361.62
312.328	343.62
312.557	338.62
312.787	371.62
313.017	383.62
313.246	349.62
313.476	334.62
313.706	331.62
313.935	333.62
314.165	327.62
314.394	345.62
314.624	364.62
314.853	370.62
315.083	342.62
315.312	354.62
315.542	326.62
315.771	336.62
316.001	333.62
316.23	331.62
316.46	330.62
316.689	331.62
316.919	331.62
317.148	354.62
317.377	364.62
317.607	355.62
317.836	341.62
318.065	333.62
318.295	338.62
318.524	327.62
318.753	333.62
318.983	332.62
319.212	326.62
319.441	349.62
319.67	358.62
319.9	351.62
320.129	363.62
320.358	347.62
320.587	341.62
320.816	355.62
321.046	373.62
321.275	364.62
321.504	337.62
321.733	371.62
321.962	383.62
322.191	385.62
322.42	384.62
322.649	400.62
322.878	410.62
323.108	444.62
323.337	444.62
323.566	462.62
323.795	492.62
324.024	577.62
324.253	705.62
324.482	1030.62
324.71	1615.62
324.939	2142.62
325.168	1769.62
325.397	964.62
325.626	634.62
325.855	521.62
326.084	475.62
326.313	490.62
326.542	484.62
326.77	534.62
326.999	639.62
327.228	916.62
327.457	1387.62
327.686	1593.62
327.914	1026.62
328.143	699.62
328.372	625.62
328.6	556.62
328.829	525.62
329.058	563.62
329.287	553.62
329.515	498.62
329.744	479.62
329.972	485.62
330.201	519.62
330.43	551.62
330.658	579.62
330.887	606.62
331.115	563.62
331.344	473.62
331.572	471.62
331.801	460.62
332.03	451.62
332.258	438.62
332.486	421.62
332.715	402.62
332.943	398.62
333.172	401.62
333.4	401.62
333.629	437.62
333.857	437.62
334.085	424.62
334.314	460.62
334.542	478.62
334.771	499.62
334.999	463.62
335.227	423.62
335.455	408.62
335.684	400.62
335.912	402.62
336.14	412.62
336.369	399.62
336.597	393.62
336.825	402.62
337.053	389.62
337.281	376.62
337.51	396.62
337.738	393.62
337.966	363.62
338.194	400.62
338.422	395.62
338.65	387.62
338.878	405.62
339.106	387.62
339.334	360.62
339.562	392.62
339.79	385.62
340.018	381.62
340.246	377.62
340.474	396.62
340.702	379.62
340.93	372.62
341.158	380.62
341.386	386.62
341.614	391.62
341.842	373.62
342.07	385.62
342.298	365.62
342.526	338.62
342.754	365.62
342.981	352.62
343.209	361.62
343.437	365.62
343.665	361.62
343.893	359.62
344.12	373.62
344.348	389.62
344.576	384.62
344.804	395.62
345.031	395.62
345.259	416.62
345.487	399.62
345.714	377.62
345.942	380.62
346.17	371.62
346.397	376.62
346.625	363.62
346.853	361.62
347.08	349.62
347.308	387.62
347.535	374.62
347.763	395.62
347.99	388.62
348.218	381.62
348.445	393.62
348.673	391.62
348.9	365.62
349.128	374.62
349.355	380.62
349.583	358.62
349.81	349.62
350.037	363.62
350.265	342.62
350.492	363.62
350.72	361.62
350.947	368.62
351.174	388.62
351.402	385.62
351.629	393.62
351.856	385.62
352.083	393.62
352.311	385.62
352.538	391.62
352.765	383.62
352.992	374.62
353.22	360.62
353.447	379.62
353.674	367.62
353.901	365.62
354.128	347.62
354.355	352.62
354.583	364.62
354.81	355.62
355.037	340.62
355.264	342.62
355.491	341.62
355.718	345.62
355.945	322.62
356.172	327.62
356.399	344.62
356.626	336.62
356.853	331.62
357.08	357.62
357.307	331.62
357.534	327.62
357.761	343.62
357.988	333.62
358.215	330.62
358.441	354.62
358.668	343.62
358.895	360.62
359.122	359.62
359.349	343.62
359.576	381.62
359.802	411.62
360.029	421.62
360.256	414.62
360.483	405.62
360.709	372.62
360.936	368.62
361.163	388.62
361.39	375.62
361.616	364.62
361.843	362.62
362.07	376.62
362.296	394.62
362.523	381.62
362.749	360.62
362.976	378.62
363.203	368.62
363.429	347.62
363.656	355.62
363.882	346.62
364.109	355.62
364.335	355.62
364.562	346.62
364.788	343.62
365.015	344.62
365.241	363.62
365.468	361.62
365.694	363.62
365.92	356.62
366.147	341.62
366.373	367.62
366.599	359.62
366.826	348.62
367.052	349.62
367.278	348.62
367.505	315.62
367.731	344.62
367.957	358.62
368.184	359.62
368.41	343.62
368.636	363.62
368.862	364.62
369.089	362.62
369.315	332.62
369.541	359.62
369.767	360.62
369.993	350.62
370.219	340.62
370.445	351.62
370.672	334.62
370.898	344.62
371.124	340.62
371.35	333.62
371.576	345.62
371.802	349.62
372.028	353.62
372.254	350.62
372.48	339.62
372.706	345.62
372.932	345.62
373.158	343.62
373.384	359.62
373.61	349.62
373.835	345.62
374.061	350.62
374.287	342.62
374.513	352.62
374.739	347.62
374.965	349.62
375.191	330.62
375.416	356.62
375.642	341.62
375.868	332.62
376.094	339.62
376.319	348.62
376.545	345.62
376.771	350.62
376.997	340.62
377.222	332.62
377.448	325.62
377.674	342.62
377.899	323.62
378.125	348.62
378.35	352.62
378.576	339.62
378.802	332.62
379.027	337.62
379.253	338.62
379.478	334.62
379.704	346.62
379.929	346.62
380.155	327.62
380.38	335.62
380.606	340.62
380.831	340.62
381.057	356.62
381.282	348.62
381.507	354.62
381.733	343.62
381.958	347.62
382.184	343.62
382.409	341.62
382.634	362.62
382.86	343.62
383.085	341.62
383.31	363.62
383.535	353.62
383.761	346.62
383.986	359.62
384.211	365.62
384.436	370.62
384.662	335.62
384.887	344.62
385.112	362.62
385.337	345.62
385.562	362.62
385.787	373.62
386.013	389.62
386.238	369.62
386.463	377.62
386.688	362.62
386.913	367.62
387.138	345.62
387.363	369.62
387.588	381.62
387.813	384.62
388.038	361.62
388.263	358.62
388.488	368.62
388.713	365.62
388.938	364.62
389.163	369.62
389.387	371.62
389.612	348.62
389.837	353.62
390.062	362.62
390.287	357.62
390.512	354.62
390.736	365.62
390.961	353.62
391.186	374.62
391.411	365.62
391.636	369.62
391.86	359.62
392.085	385.62
392.31	364.62
392.534	368.62
392.759	377.62
392.984	380.62
393.208	362.62
393.433	364.62
393.658	375.62
393.882	359.62
394.107	383.62
394.331	379.62
394.556	363.62
394.78	364.62
395.005	376.62
395.229	377.62
395.454	366.62
395.678	381.62
395.903	378.62
396.127	419.62
396.352	419.62
396.576	382.62
396.801	377.62
397.025	377.62
397.249	394.62
397.474	397.62
397.698	389.62
397.922	397.62
398.147	396.62
398.371	419.62
398.595	414.62
398.82	415.62
399.044	430.62
399.268	432.62
399.492	427.62
399.717	474.62
399.941	473.62
400.165	492.62
400.389	507.62
400.613	472.62
400.837	468.62
401.062	433.62
401.286	447.62
401.51	412.62
401.734	400.62
401.958	437.62
402.182	394.62
402.406	431.62
402.63	435.62
402.854	419.62
403.078	440.62
403.302	439.62
403.526	450.62
403.75	440.62
403.974	444.62
404.198	421.62
404.422	442.62
404.645	447.62
404.869	449.62
405.093	478.62
405.317	507.62
405.541	526.62
405.765	480.62
405.988	446.62
406.212	475.62
406.436	502.62
406.66	491.62
406.883	483.62
407.107	484.62
407.331	548.62
407.555	599.62
407.778	569.62
408.002	502.62
408.226	467.62
408.449	469.62
408.673	461.62
408.896	492.62
409.12	525.62
409.344	509.62
409.567	448.62
409.791	457.62
410.014	442.62
410.238	423.62
410.461	434.62
410.685	438.62
410.908	471.62
411.132	461.62
411.355	538.62
411.578	485.62
411.802	439.62
412.025	442.62
412.249	453.62
412.472	472.62
412.695	505.62
412.919	478.62
413.142	441.62
413.365	433.62
413.589	425.62
413.812	398.62
414.035	422.62
414.258	408.62
414.482	406.62
414.705	422.62
414.928	402.62
415.151	416.62
415.374	403.62
415.597	394.62
415.821	416.62
416.044	413.62
416.267	423.62
416.49	426.62
416.713	405.62
416.936	413.62
417.159	427.62
417.382	409.62
417.605	408.62
417.828	427.62
418.051	426.62
418.274	426.62
418.497	417.62
418.72	416.62
418.943	404.62
419.166	428.62
419.389	441.62
419.611	427.62
419.834	432.62
420.057	441.62
420.28	444.62
420.503	433.62
420.726	428.62
420.948	445.62
421.171	480.62
421.394	494.62
421.617	453.62
421.839	412.62
422.062	448.62
422.285	470.62
422.507	499.62
422.73	551.62
422.953	533.62
423.175	461.62
423.398	450.62
423.621	467.62
423.843	467.62
424.066	466.62
424.288	460.62
424.511	469.62
424.733	536.62
424.956	577.62
425.178	567.62
425.401	577.62
425.623	593.62
425.846	490.62
426.068	471.62
426.291	469.62
426.513	467.62
426.735	477.62
426.958	515.62
427.18	579.62
427.402	712.62
427.625	765.62
427.847	695.62
428.069	604.62
428.292	515.62
428.514	489.62
428.736	452.62
428.958	471.62
429.181	439.62
429.403	424.62
429.625	453.62
429.847	467.62
430.069	509.62
430.292	517.62
430.514	456.62
430.736	467.62
430.958	441.62
431.18	416.62
431.402	431.62
431.624	419.62
431.846	421.62
432.068	433.62
432.29	414.62
432.512	416.62
432.734	392.62
432.956	424.62
433.178	431.62
433.4	436.62
433.622	437.62
433.844	410.62
434.066	405.62
434.287	420.62
434.509	413.62
434.731	411.62
434.953	428.62
435.175	420.62
435.397	449.62
435.618	499.62
435.84	518.62
436.062	580.62
436.284	623.62
436.505	543.62
436.727	458.62
436.949	460.62
437.17	444.62
437.392	431.62
437.614	464.62
437.835	483.62
438.057	602.62
438.278	659.62
438.5	660.62
438.721	706.62
438.943	666.62
439.165	517.62
439.386	495.62
439.608	484.62
439.829	487.62
440.05	510.62
440.272	555.62
440.493	517.62
440.715	466.62
440.936	449.62
441.158	442.62
441.379	435.62
441.6	466.62
441.822	488.62
442.043	523.62
442.264	589.62
442.486	610.62
442.707	517.62
442.928	489.62
443.149	495.62
443.371	511.62
443.592	559.62
443.813	610.62
444.034	662.62
444.255	552.62
444.476	488.62
444.698	465.62
444.919	467.62
445.14	561.62
445.361	519.62
445.582	515.62
445.803	590.62
446.024	656.62
446.245	683.62
446.466	619.62
446.687	542.62
446.908	500.62
447.129	467.62
447.35	447.62
447.571	455.62
447.792	438.62
448.013	444.62
448.234	451.62
448.455	523.62
448.675	617.62
448.896	698.62
449.117	579.62
449.338	554.62
449.559	654.62
449.779	738.62
450	591.62
450.221	477.62
450.442	460.62
450.662	450.62
450.883	441.62
451.104	467.62
451.324	452.62
451.545	446.62
451.766	415.62
451.986	419.62
452.207	398.62
452.428	391.62
452.648	388.62
452.869	411.62
453.089	397.62
453.31	416.62
453.53	420.62
453.751	409.62
453.971	414.62
454.192	439.62
454.412	419.62
454.633	407.62
454.853	371.62
455.073	398.62
455.294	434.62
455.514	485.62
455.734	457.62
455.955	419.62
456.175	374.62
456.395	365.62
456.616	366.62
456.836	375.62
457.056	364.62
457.276	373.62
457.497	369.62
457.717	383.62
457.937	391.62
458.157	394.62
458.377	389.62
458.598	431.62
458.818	475.62
459.038	590.62
459.258	549.62
459.478	466.62
459.698	447.62
459.918	407.62
460.138	410.62
460.358	400.62
460.578	422.62
460.798	403.62
461.018	394.62
461.238	377.62
461.458	402.62
461.678	391.62
461.898	417.62
462.118	406.62
462.338	405.62
462.558	420.62
462.777	431.62
462.997	421.62
463.217	423.62
463.437	447.62
463.657	440.62
463.876	433.62
464.096	442.62
464.316	454.62
464.536	453.62
464.755	453.62
464.975	466.62
465.195	519.62
465.414	611.62
465.634	500.62
465.854	470.62
466.073	449.62
466.293	423.62
466.512	416.62
466.732	422.62
466.951	394.62
467.171	392.62
467.391	410.62
467.61	416.62
467.829	446.62
468.049	413.62
468.268	433.62
468.488	427.62
468.707	425.62
468.927	387.62
469.146	393.62
469.365	395.62
469.585	399.62
469.804	397.62
470.023	421.62
470.243	427.62
470.462	435.62
470.681	449.62
470.901	456.62
471.12	436.62
471.339	428.62
471.558	415.62
471.777	408.62
471.997	388.62
472.216	417.62
472.435	475.62
472.654	447.62
472.873	422.62
473.092	410.62
473.311	399.62
473.53	401.62
473.749	417.62
473.968	477.62
474.187	565.62
474.406	569.62
474.625	456.62
474.844	426.62
475.063	421.62
475.282	426.62
475.501	421.62
475.72	419.62
475.939	407.62
476.158	411.62
476.377	419.62
476.596	418.62
476.814	434.62
477.033	441.62
477.252	452.62
477.471	419.62
477.69	448.62
477.908	441.62
478.127	463.62
478.346	456.62
478.564	440.62
478.783	444.62
479.002	456.62
479.22	452.62
479.439	489.62
479.658	497.62
479.876	507.62
480.095	504.62
480.313	517.62
480.532	521.62
480.751	495.62
480.969	510.62
481.188	588.62
481.406	646.62
481.624	554.62
481.843	519.62
482.061	497.62
482.28	507.62
482.498	485.62
482.717	497.62
482.935	471.62
483.153	477.62
483.372	477.62
483.59	477.62
483.808	467.62
484.027	483.62
484.245	481.62
484.463	484.62
484.681	495.62
484.9	492.62
485.118	480.62
485.336	500.62
485.554	491.62
485.772	498.62
485.99	498.62
486.209	482.62
486.427	523.62
486.645	513.62
486.863	533.62
487.081	531.62
487.299	524.62
487.517	533.62
487.735	513.62
487.953	504.62
488.171	526.62
488.389	520.62
488.607	530.62
488.825	511.62
489.043	536.62
489.261	547.62
489.479	537.62
489.696	526.62
489.914	525.62
490.132	536.62
490.35	569.62
490.568	548.62
490.786	563.62
491.003	584.62
491.221	557.62
491.439	588.62
491.657	587.62
491.874	588.62
492.092	608.62
492.31	599.62
492.527	588.62
492.745	599.62
492.963	632.62
493.18	597.62
493.398	607.62
493.615	613.62
493.833	641.62
494.05	611.62
494.268	611.62
494.485	600.62
494.703	606.62
494.92	608.62
495.138	618.62
495.355	622.62
495.573	625.62
495.79	611.62
496.008	633.62
496.225	608.62
496.442	602.62
496.66	626.62
496.877	611.62
497.094	627.62
497.312	627.62
497.529	630.62
497.746	629.62
497.963	650.62
498.181	665.62
498.398	659.62
498.615	669.62
498.832	693.62
499.049	665.62
499.267	691.62
499.484	675.62
499.701	721.62
499.918	760.62
500.135	773.62
500.352	809.62
500.569	779.62
500.786	761.62
501.003	794.62
501.22	785.62
501.437	753.62
501.654	747.62
501.871	745.62
502.088	771.62
