Data from 1965.PennyLincolnUp.Lamp.En5.5.200Scan.071719.P1._HRD10591_14-08-13-910.txt Node
Date: Thu Jul 18 14:08:13 EDT 2019
User: cochatt
Spectrometer: HR+D1059
Trigger mode: 1
Integration Time (sec): 1.000000E-1
Scans to average: 1
Electric dark correction enabled: true
Nonlinearity correction enabled: false
Boxcar width: 0
XAxis mode: Wavelengths
Number of Pixels in Spectrum: 2048
>>>>>Begin Spectral Data<<<<<
223.165	-20.38
223.4	-20.38
223.635	-20.38
223.869	-17.38
224.104	-8.38
224.338	-27.38
224.573	-23.38
224.808	-9.38
225.042	-9.38
225.277	-10.38
225.511	5.62
225.746	13.62
225.98	14.62
226.215	15.62
226.449	15.62
226.683	10.62
226.918	17.62
227.152	32.62
227.387	23.62
227.621	47.62
227.856	32.62
228.09	38.62
228.324	54.62
228.559	62.62
228.793	76.62
229.027	82.62
229.262	92.62
229.496	119.62
229.73	113.62
229.964	133.62
230.199	118.62
230.433	89.62
230.667	95.62
230.901	106.62
231.136	98.62
231.37	89.62
231.604	108.62
231.838	103.62
232.072	99.62
232.306	101.62
232.541	93.62
232.775	99.62
233.009	99.62
233.243	96.62
233.477	105.62
233.711	103.62
233.945	104.62
234.179	93.62
234.413	107.62
234.647	100.62
234.881	109.62
235.115	114.62
235.349	91.62
235.583	119.62
235.817	110.62
236.051	123.62
236.285	114.62
236.519	114.62
236.753	127.62
236.987	145.62
237.221	156.62
237.455	173.62
237.689	150.62
237.922	130.62
238.156	101.62
238.39	100.62
238.624	111.62
238.858	114.62
239.091	112.62
239.325	96.62
239.559	126.62
239.793	103.62
240.027	126.62
240.26	112.62
240.494	119.62
240.728	127.62
240.961	140.62
241.195	132.62
241.429	130.62
241.662	122.62
241.896	118.62
242.13	126.62
242.363	117.62
242.597	103.62
242.83	111.62
243.064	119.62
243.298	127.62
243.531	124.62
243.765	126.62
243.998	110.62
244.232	137.62
244.465	121.62
244.699	119.62
244.932	123.62
245.166	119.62
245.399	129.62
245.633	132.62
245.866	132.62
246.099	131.62
246.333	118.62
246.566	132.62
246.8	128.62
247.033	128.62
247.266	153.62
247.5	140.62
247.733	153.62
247.966	148.62
248.2	135.62
248.433	148.62
248.666	151.62
248.899	166.62
249.133	165.62
249.366	167.62
249.599	181.62
249.832	169.62
250.066	155.62
250.299	165.62
250.532	178.62
250.765	178.62
250.998	186.62
251.231	184.62
251.465	177.62
251.698	178.62
251.931	161.62
252.164	154.62
252.397	166.62
252.63	180.62
252.863	174.62
253.096	180.62
253.329	203.62
253.562	174.62
253.795	188.62
254.028	191.62
254.261	193.62
254.494	204.62
254.727	198.62
254.96	224.62
255.193	219.62
255.426	210.62
255.659	197.62
255.892	203.62
256.124	196.62
256.357	203.62
256.59	187.62
256.823	181.62
257.056	177.62
257.289	176.62
257.521	171.62
257.754	181.62
257.987	160.62
258.22	165.62
258.452	172.62
258.685	178.62
258.918	182.62
259.151	186.62
259.383	190.62
259.616	188.62
259.849	190.62
260.081	198.62
260.314	191.62
260.547	197.62
260.779	196.62
261.012	177.62
261.244	182.62
261.477	188.62
261.71	179.62
261.942	197.62
262.175	211.62
262.407	201.62
262.64	176.62
262.872	186.62
263.105	181.62
263.337	190.62
263.57	186.62
263.802	174.62
264.035	176.62
264.267	183.62
264.499	178.62
264.732	167.62
264.964	155.62
265.197	172.62
265.429	179.62
265.661	170.62
265.894	178.62
266.126	169.62
266.358	174.62
266.591	173.62
266.823	185.62
267.055	194.62
267.287	191.62
267.52	181.62
267.752	194.62
267.984	188.62
268.216	190.62
268.448	202.62
268.681	201.62
268.913	199.62
269.145	215.62
269.377	211.62
269.609	222.62
269.841	219.62
270.073	227.62
270.306	246.62
270.538	247.62
270.77	249.62
271.002	232.62
271.234	237.62
271.466	256.62
271.698	257.62
271.93	248.62
272.162	247.62
272.394	246.62
272.626	259.62
272.858	235.62
273.09	239.62
273.322	234.62
273.553	217.62
273.785	215.62
274.017	223.62
274.249	230.62
274.481	214.62
274.713	217.62
274.945	225.62
275.176	228.62
275.408	218.62
275.64	207.62
275.872	212.62
276.104	225.62
276.335	201.62
276.567	228.62
276.799	232.62
277.031	234.62
277.262	241.62
277.494	272.62
277.726	234.62
277.957	238.62
278.189	246.62
278.421	238.62
278.652	219.62
278.884	218.62
279.115	214.62
279.347	207.62
279.579	210.62
279.81	228.62
280.042	223.62
280.273	210.62
280.505	228.62
280.736	212.62
280.968	210.62
281.199	222.62
281.431	220.62
281.662	235.62
281.894	232.62
282.125	239.62
282.356	238.62
282.588	244.62
282.819	250.62
283.051	226.62
283.282	224.62
283.513	236.62
283.745	238.62
283.976	243.62
284.207	220.62
284.439	229.62
284.67	209.62
284.901	230.62
285.132	244.62
285.364	238.62
285.595	218.62
285.826	220.62
286.057	232.62
286.288	219.62
286.52	232.62
286.751	235.62
286.982	238.62
287.213	235.62
287.444	214.62
287.675	224.62
287.906	245.62
288.138	245.62
288.369	221.62
288.6	230.62
288.831	243.62
289.062	236.62
289.293	221.62
289.524	230.62
289.755	233.62
289.986	238.62
290.217	218.62
290.448	248.62
290.679	224.62
290.91	242.62
291.141	236.62
291.371	228.62
291.602	234.62
291.833	232.62
292.064	225.62
292.295	226.62
292.526	234.62
292.757	248.62
292.987	247.62
293.218	226.62
293.449	223.62
293.68	226.62
293.91	241.62
294.141	236.62
294.372	244.62
294.603	254.62
294.833	243.62
295.064	234.62
295.295	242.62
295.525	245.62
295.756	260.62
295.987	258.62
296.217	271.62
296.448	270.62
296.679	250.62
296.909	253.62
297.14	263.62
297.37	227.62
297.601	238.62
297.831	247.62
298.062	238.62
298.292	234.62
298.523	265.62
298.753	264.62
298.984	244.62
299.214	246.62
299.445	249.62
299.675	258.62
299.905	253.62
300.136	258.62
300.366	239.62
300.597	272.62
300.827	249.62
301.057	263.62
301.288	275.62
301.518	251.62
301.748	279.62
301.979	260.62
302.209	251.62
302.439	262.62
302.669	249.62
302.9	267.62
303.13	253.62
303.36	269.62
303.59	262.62
303.82	293.62
304.051	279.62
304.281	272.62
304.511	255.62
304.741	265.62
304.971	274.62
305.201	254.62
305.431	258.62
305.661	262.62
305.891	256.62
306.121	284.62
306.352	270.62
306.582	265.62
306.812	263.62
307.042	269.62
307.272	260.62
307.502	268.62
307.731	275.62
307.961	262.62
308.191	263.62
308.421	278.62
308.651	298.62
308.881	268.62
309.111	269.62
309.341	280.62
309.571	293.62
309.8	308.62
310.03	289.62
310.26	296.62
310.49	297.62
310.72	293.62
310.949	326.62
311.179	320.62
311.409	329.62
311.639	314.62
311.868	304.62
312.098	329.62
312.328	313.62
312.557	312.62
312.787	325.62
313.017	314.62
313.246	311.62
313.476	308.62
313.706	300.62
313.935	322.62
314.165	341.62
314.394	326.62
314.624	335.62
314.853	322.62
315.083	303.62
315.312	304.62
315.542	303.62
315.771	293.62
316.001	310.62
316.23	302.62
316.46	288.62
316.689	301.62
316.919	323.62
317.148	314.62
317.377	326.62
317.607	314.62
317.836	322.62
318.065	299.62
318.295	311.62
318.524	304.62
318.753	304.62
318.983	316.62
319.212	317.62
319.441	312.62
319.67	323.62
319.9	316.62
320.129	306.62
320.358	319.62
320.587	322.62
320.816	314.62
321.046	331.62
321.275	349.62
321.504	334.62
321.733	334.62
321.962	328.62
322.191	342.62
322.42	336.62
322.649	361.62
322.878	376.62
323.108	378.62
323.337	386.62
323.566	416.62
323.795	446.62
324.024	482.62
324.253	591.62
324.482	839.62
324.71	1277.62
324.939	1742.62
325.168	1444.62
325.397	788.62
325.626	532.62
325.855	456.62
326.084	443.62
326.313	408.62
326.542	407.62
326.77	469.62
326.999	564.62
327.228	742.62
327.457	1106.62
327.686	1284.62
327.914	856.62
328.143	570.62
328.372	510.62
328.6	493.62
328.829	472.62
329.058	471.62
329.287	486.62
329.515	446.62
329.744	438.62
329.972	418.62
330.201	460.62
330.43	477.62
330.658	476.62
330.887	487.62
331.115	499.62
331.344	414.62
331.572	395.62
331.801	394.62
332.03	387.62
332.258	377.62
332.486	381.62
332.715	378.62
332.943	379.62
333.172	362.62
333.4	362.62
333.629	378.62
333.857	372.62
334.085	393.62
334.314	406.62
334.542	416.62
334.771	438.62
334.999	424.62
335.227	388.62
335.455	380.62
335.684	366.62
335.912	362.62
336.14	352.62
336.369	344.62
336.597	366.62
336.825	338.62
337.053	357.62
337.281	357.62
337.51	351.62
337.738	358.62
337.966	364.62
338.194	358.62
338.422	354.62
338.65	361.62
338.878	360.62
339.106	349.62
339.334	338.62
339.562	336.62
339.79	332.62
340.018	348.62
340.246	347.62
340.474	371.62
340.702	341.62
340.93	345.62
341.158	357.62
341.386	363.62
341.614	348.62
341.842	338.62
342.07	336.62
342.298	334.62
342.526	327.62
342.754	340.62
342.981	334.62
343.209	342.62
343.437	356.62
343.665	354.62
343.893	355.62
344.12	348.62
344.348	344.62
344.576	361.62
344.804	367.62
345.031	390.62
345.259	364.62
345.487	343.62
345.714	340.62
345.942	334.62
346.17	345.62
346.397	355.62
346.625	370.62
346.853	354.62
347.08	330.62
347.308	345.62
347.535	343.62
347.763	365.62
347.99	341.62
348.218	328.62
348.445	351.62
348.673	363.62
348.9	327.62
349.128	346.62
349.355	351.62
349.583	327.62
349.81	306.62
350.037	343.62
350.265	317.62
350.492	325.62
350.72	341.62
350.947	342.62
351.174	354.62
351.402	359.62
351.629	352.62
351.856	330.62
352.083	346.62
352.311	343.62
352.538	354.62
352.765	357.62
352.992	362.62
353.22	356.62
353.447	353.62
353.674	337.62
353.901	325.62
354.128	333.62
354.355	312.62
354.583	313.62
354.81	315.62
355.037	327.62
355.264	322.62
355.491	320.62
355.718	328.62
355.945	319.62
356.172	319.62
356.399	319.62
356.626	315.62
356.853	315.62
357.08	318.62
357.307	318.62
357.534	318.62
357.761	319.62
357.988	298.62
358.215	301.62
358.441	311.62
358.668	309.62
358.895	319.62
359.122	339.62
359.349	331.62
359.576	352.62
359.802	355.62
360.029	389.62
360.256	402.62
360.483	389.62
360.709	359.62
360.936	359.62
361.163	364.62
361.39	341.62
361.616	331.62
361.843	350.62
362.07	354.62
362.296	327.62
362.523	342.62
362.749	341.62
362.976	337.62
363.203	322.62
363.429	343.62
363.656	339.62
363.882	332.62
364.109	325.62
364.335	312.62
364.562	320.62
364.788	332.62
365.015	324.62
365.241	327.62
365.468	337.62
365.694	339.62
365.92	331.62
366.147	333.62
366.373	315.62
366.599	315.62
366.826	295.62
367.052	322.62
367.278	352.62
367.505	298.62
367.731	325.62
367.957	310.62
368.184	316.62
368.41	318.62
368.636	333.62
368.862	347.62
369.089	322.62
369.315	323.62
369.541	311.62
369.767	322.62
369.993	335.62
370.219	340.62
370.445	316.62
370.672	316.62
370.898	324.62
371.124	317.62
371.35	317.62
371.576	341.62
371.802	314.62
372.028	326.62
372.254	319.62
372.48	339.62
372.706	307.62
372.932	326.62
373.158	331.62
373.384	323.62
373.61	308.62
373.835	315.62
374.061	306.62
374.287	319.62
374.513	324.62
374.739	330.62
374.965	336.62
375.191	341.62
375.416	325.62
375.642	324.62
375.868	325.62
376.094	322.62
376.319	328.62
376.545	326.62
376.771	329.62
376.997	324.62
377.222	335.62
377.448	310.62
377.674	330.62
377.899	335.62
378.125	324.62
378.35	315.62
378.576	313.62
378.802	310.62
379.027	327.62
379.253	315.62
379.478	312.62
379.704	328.62
379.929	318.62
380.155	331.62
380.38	319.62
380.606	321.62
380.831	310.62
381.057	324.62
381.282	318.62
381.507	333.62
381.733	318.62
381.958	326.62
382.184	338.62
382.409	341.62
382.634	325.62
382.86	326.62
383.085	313.62
383.31	326.62
383.535	331.62
383.761	317.62
383.986	319.62
384.211	328.62
384.436	332.62
384.662	354.62
384.887	355.62
385.112	346.62
385.337	349.62
385.562	330.62
385.787	342.62
386.013	340.62
386.238	345.62
386.463	360.62
386.688	345.62
386.913	366.62
387.138	336.62
387.363	334.62
387.588	343.62
387.813	348.62
388.038	343.62
388.263	347.62
388.488	349.62
388.713	356.62
388.938	341.62
389.163	351.62
389.387	362.62
389.612	354.62
389.837	360.62
390.062	318.62
390.287	325.62
390.512	341.62
390.736	339.62
390.961	350.62
391.186	348.62
391.411	353.62
391.636	349.62
391.86	349.62
392.085	382.62
392.31	356.62
392.534	340.62
392.759	355.62
392.984	351.62
393.208	355.62
393.433	363.62
393.658	360.62
393.882	347.62
394.107	360.62
394.331	343.62
394.556	348.62
394.78	356.62
395.005	347.62
395.229	349.62
395.454	355.62
395.678	356.62
395.903	378.62
396.127	367.62
396.352	388.62
396.576	367.62
396.801	368.62
397.025	359.62
397.249	361.62
397.474	367.62
397.698	380.62
397.922	396.62
398.147	381.62
398.371	409.62
398.595	384.62
398.82	370.62
399.044	400.62
399.268	416.62
399.492	409.62
399.717	429.62
399.941	449.62
400.165	476.62
400.389	452.62
400.613	420.62
400.837	418.62
401.062	389.62
401.286	391.62
401.51	389.62
401.734	383.62
401.958	397.62
402.182	393.62
402.406	385.62
402.63	417.62
402.854	406.62
403.078	413.62
403.302	407.62
403.526	406.62
403.75	398.62
403.974	397.62
404.198	394.62
404.422	409.62
404.645	423.62
404.869	422.62
405.093	416.62
405.317	460.62
405.541	475.62
405.765	448.62
405.988	442.62
406.212	439.62
406.436	454.62
406.66	472.62
406.883	456.62
407.107	453.62
407.331	490.62
407.555	518.62
407.778	537.62
408.002	478.62
408.226	444.62
408.449	443.62
408.673	438.62
408.896	454.62
409.12	472.62
409.344	442.62
409.567	413.62
409.791	393.62
410.014	405.62
410.238	407.62
410.461	411.62
410.685	433.62
410.908	420.62
411.132	442.62
411.355	476.62
411.578	446.62
411.802	413.62
412.025	385.62
412.249	412.62
412.472	436.62
412.695	443.62
412.919	434.62
413.142	416.62
413.365	402.62
413.589	413.62
413.812	375.62
414.035	397.62
414.258	380.62
414.482	377.62
414.705	382.62
414.928	379.62
415.151	370.62
415.374	382.62
415.597	397.62
415.821	389.62
416.044	381.62
416.267	386.62
416.49	380.62
416.713	379.62
416.936	378.62
417.159	372.62
417.382	383.62
417.605	374.62
417.828	396.62
418.051	400.62
418.274	382.62
418.497	389.62
418.72	376.62
418.943	377.62
419.166	410.62
419.389	414.62
419.611	405.62
419.834	400.62
420.057	394.62
420.28	405.62
420.503	388.62
420.726	406.62
420.948	419.62
421.171	446.62
421.394	469.62
421.617	405.62
421.839	404.62
422.062	412.62
422.285	399.62
422.507	453.62
422.73	498.62
422.953	485.62
423.175	421.62
423.398	419.62
423.621	396.62
423.843	414.62
424.066	424.62
424.288	418.62
424.511	447.62
424.733	496.62
424.956	531.62
425.178	510.62
425.401	507.62
425.623	514.62
425.846	455.62
426.068	414.62
426.291	422.62
426.513	418.62
426.735	427.62
426.958	484.62
427.18	531.62
427.402	634.62
427.625	689.62
427.847	606.62
428.069	540.62
428.292	491.62
428.514	437.62
428.736	427.62
428.958	410.62
429.181	391.62
429.403	394.62
429.625	406.62
429.847	441.62
430.069	483.62
430.292	450.62
430.514	412.62
430.736	417.62
430.958	403.62
431.18	387.62
431.402	382.62
431.624	386.62
431.846	379.62
432.068	364.62
432.29	372.62
432.512	394.62
432.734	398.62
432.956	403.62
433.178	400.62
433.4	426.62
433.622	376.62
433.844	383.62
434.066	380.62
434.287	407.62
434.509	388.62
434.731	388.62
434.953	376.62
435.175	412.62
435.397	436.62
435.618	423.62
435.84	464.62
436.062	531.62
436.284	568.62
436.505	527.62
436.727	435.62
436.949	416.62
437.17	390.62
437.392	409.62
437.614	417.62
437.835	463.62
438.057	506.62
438.278	584.62
438.5	555.62
438.721	639.62
438.943	604.62
439.165	490.62
439.386	444.62
439.608	457.62
439.829	431.62
440.05	472.62
440.272	518.62
440.493	471.62
440.715	454.62
440.936	424.62
441.158	409.62
441.379	397.62
441.6	408.62
441.822	439.62
442.043	464.62
442.264	523.62
442.486	562.62
442.707	493.62
442.928	433.62
443.149	456.62
443.371	468.62
443.592	494.62
443.813	562.62
444.034	593.62
444.255	525.62
444.476	444.62
444.698	444.62
444.919	427.62
445.14	518.62
445.361	484.62
445.582	464.62
445.803	531.62
446.024	603.62
446.245	593.62
446.466	575.62
446.687	453.62
446.908	438.62
447.129	435.62
447.35	420.62
447.571	431.62
447.792	398.62
448.013	417.62
448.234	441.62
448.455	480.62
448.675	557.62
448.896	621.62
449.117	524.62
449.338	500.62
449.559	590.62
449.779	644.62
450	517.62
450.221	446.62
450.442	444.62
450.662	421.62
450.883	406.62
451.104	403.62
451.324	406.62
451.545	397.62
451.766	390.62
451.986	380.62
452.207	372.62
452.428	380.62
452.648	359.62
452.869	366.62
453.089	372.62
453.31	384.62
453.53	381.62
453.751	372.62
453.971	378.62
454.192	397.62
454.412	388.62
454.633	361.62
454.853	356.62
455.073	379.62
455.294	382.62
455.514	452.62
455.734	424.62
455.955	366.62
456.175	356.62
456.395	335.62
456.616	335.62
456.836	351.62
457.056	356.62
457.276	350.62
457.497	347.62
457.717	363.62
457.937	350.62
458.157	351.62
458.377	352.62
458.598	375.62
458.818	427.62
459.038	504.62
459.258	503.62
459.478	449.62
459.698	392.62
459.918	405.62
460.138	380.62
460.358	374.62
460.578	365.62
460.798	408.62
461.018	400.62
461.238	388.62
461.458	375.62
461.678	371.62
461.898	399.62
462.118	390.62
462.338	407.62
462.558	401.62
462.777	384.62
462.997	416.62
463.217	406.62
463.437	418.62
463.657	403.62
463.876	410.62
464.096	415.62
464.316	399.62
464.536	398.62
464.755	407.62
464.975	423.62
465.195	477.62
465.414	506.62
465.634	468.62
465.854	396.62
466.073	418.62
466.293	387.62
466.512	382.62
466.732	378.62
466.951	367.62
467.171	368.62
467.391	378.62
467.61	395.62
467.829	398.62
468.049	374.62
468.268	398.62
468.488	378.62
468.707	365.62
468.927	354.62
469.146	359.62
469.365	365.62
469.585	365.62
469.804	365.62
470.023	405.62
470.243	373.62
470.462	399.62
470.681	395.62
470.901	411.62
471.12	372.62
471.339	393.62
471.558	383.62
471.777	391.62
471.997	377.62
472.216	392.62
472.435	402.62
472.654	412.62
472.873	394.62
473.092	386.62
473.311	382.62
473.53	372.62
473.749	401.62
473.968	429.62
474.187	496.62
474.406	518.62
474.625	422.62
474.844	394.62
475.063	394.62
475.282	394.62
475.501	373.62
475.72	382.62
475.939	402.62
476.158	397.62
476.377	384.62
476.596	389.62
476.814	420.62
477.033	421.62
477.252	404.62
477.471	397.62
477.69	402.62
477.908	388.62
478.127	409.62
478.346	413.62
478.564	421.62
478.783	445.62
479.002	443.62
479.22	446.62
479.439	461.62
479.658	466.62
479.876	460.62
480.095	462.62
480.313	486.62
480.532	489.62
480.751	462.62
480.969	483.62
481.188	527.62
481.406	554.62
481.624	483.62
481.843	456.62
482.061	456.62
482.28	449.62
482.498	447.62
482.717	449.62
482.935	466.62
483.153	433.62
483.372	455.62
483.59	452.62
483.808	448.62
484.027	457.62
484.245	466.62
484.463	470.62
484.681	467.62
484.9	460.62
485.118	462.62
485.336	466.62
485.554	475.62
485.772	471.62
485.99	460.62
486.209	463.62
486.427	462.62
486.645	459.62
486.863	484.62
487.081	492.62
487.299	478.62
487.517	466.62
487.735	482.62
487.953	474.62
488.171	477.62
488.389	459.62
488.607	492.62
488.825	482.62
489.043	477.62
489.261	491.62
489.479	497.62
489.696	506.62
489.914	486.62
490.132	478.62
490.35	493.62
490.568	509.62
490.786	504.62
491.003	516.62
491.221	533.62
491.439	528.62
491.657	530.62
491.874	518.62
492.092	534.62
492.31	527.62
492.527	555.62
492.745	540.62
492.963	548.62
493.18	557.62
493.398	567.62
493.615	557.62
493.833	550.62
494.05	553.62
494.268	562.62
494.485	538.62
494.703	553.62
494.92	555.62
495.138	560.62
495.355	574.62
495.573	559.62
495.79	568.62
496.008	589.62
496.225	580.62
496.442	580.62
496.66	562.62
496.877	563.62
497.094	564.62
497.312	566.62
497.529	565.62
497.746	580.62
497.963	582.62
498.181	618.62
498.398	630.62
498.615	606.62
498.832	636.62
499.049	636.62
499.267	654.62
499.484	666.62
499.701	690.62
499.918	675.62
500.135	722.62
500.352	714.62
500.569	733.62
500.786	751.62
501.003	738.62
501.22	736.62
501.437	703.62
501.654	700.62
501.871	685.62
502.088	677.62
