Data from 1965.PennyLincolnUp.Lamp.En5.5.200Scan.071719.P1._HRD10591_14-09-29-911.txt Node
Date: Thu Jul 18 14:09:29 EDT 2019
User: cochatt
Spectrometer: HR+D1059
Trigger mode: 1
Integration Time (sec): 1.000000E-1
Scans to average: 1
Electric dark correction enabled: true
Nonlinearity correction enabled: false
Boxcar width: 0
XAxis mode: Wavelengths
Number of Pixels in Spectrum: 2048
>>>>>Begin Spectral Data<<<<<
223.165	-24.44
223.4	-24.44
223.635	-24.44
223.869	-24.44
224.104	-12.44
224.338	-19.44
224.573	-9.44
224.808	-12.44
225.042	-7.44
225.277	2.56
225.511	3.56
225.746	0.56
225.98	6.56
226.215	17.56
226.449	14.56
226.683	6.56
226.918	13.56
227.152	44.56
227.387	41.56
227.621	35.56
227.856	57.56
228.09	47.56
228.324	41.56
228.559	56.56
228.793	69.56
229.027	95.56
229.262	114.56
229.496	112.56
229.73	128.56
229.964	133.56
230.199	126.56
230.433	79.56
230.667	99.56
230.901	103.56
231.136	106.56
231.37	103.56
231.604	109.56
231.838	117.56
232.072	101.56
232.306	103.56
232.541	120.56
232.775	105.56
233.009	104.56
233.243	115.56
233.477	103.56
233.711	127.56
233.945	126.56
234.179	106.56
234.413	100.56
234.647	108.56
234.881	115.56
235.115	115.56
235.349	126.56
235.583	111.56
235.817	119.56
236.051	118.56
236.285	127.56
236.519	117.56
236.753	116.56
236.987	145.56
237.221	179.56
237.455	204.56
237.689	187.56
237.922	141.56
238.156	137.56
238.39	128.56
238.624	125.56
238.858	121.56
239.091	118.56
239.325	125.56
239.559	112.56
239.793	124.56
240.027	130.56
240.26	124.56
240.494	139.56
240.728	133.56
240.961	152.56
241.195	133.56
241.429	143.56
241.662	129.56
241.896	129.56
242.13	115.56
242.363	112.56
242.597	123.56
242.83	127.56
243.064	125.56
243.298	120.56
243.531	133.56
243.765	124.56
243.998	126.56
244.232	125.56
244.465	120.56
244.699	128.56
244.932	145.56
245.166	132.56
245.399	140.56
245.633	149.56
245.866	135.56
246.099	155.56
246.333	112.56
246.566	137.56
246.8	103.56
247.033	135.56
247.266	144.56
247.5	135.56
247.733	159.56
247.966	159.56
248.2	156.56
248.433	151.56
248.666	163.56
248.899	178.56
249.133	195.56
249.366	191.56
249.599	179.56
249.832	183.56
250.066	158.56
250.299	170.56
250.532	181.56
250.765	188.56
250.998	211.56
251.231	198.56
251.465	190.56
251.698	184.56
251.931	197.56
252.164	183.56
252.397	174.56
252.63	169.56
252.863	186.56
253.096	194.56
253.329	202.56
253.562	197.56
253.795	201.56
254.028	201.56
254.261	195.56
254.494	208.56
254.727	233.56
254.96	249.56
255.193	258.56
255.426	234.56
255.659	207.56
255.892	197.56
256.124	219.56
256.357	217.56
256.59	217.56
256.823	212.56
257.056	183.56
257.289	184.56
257.521	199.56
257.754	196.56
257.987	184.56
258.22	196.56
258.452	205.56
258.685	191.56
258.918	196.56
259.151	208.56
259.383	208.56
259.616	208.56
259.849	220.56
260.081	210.56
260.314	233.56
260.547	246.56
260.779	222.56
261.012	206.56
261.244	192.56
261.477	216.56
261.71	212.56
261.942	197.56
262.175	205.56
262.407	210.56
262.64	195.56
262.872	205.56
263.105	190.56
263.337	195.56
263.57	198.56
263.802	199.56
264.035	190.56
264.267	226.56
264.499	198.56
264.732	196.56
264.964	182.56
265.197	176.56
265.429	196.56
265.661	179.56
265.894	189.56
266.126	201.56
266.358	194.56
266.591	197.56
266.823	204.56
267.055	203.56
267.287	201.56
267.52	201.56
267.752	186.56
267.984	219.56
268.216	222.56
268.448	215.56
268.681	224.56
268.913	215.56
269.145	223.56
269.377	252.56
269.609	235.56
269.841	228.56
270.073	251.56
270.306	283.56
270.538	272.56
270.77	293.56
271.002	267.56
271.234	259.56
271.466	266.56
271.698	267.56
271.93	288.56
272.162	296.56
272.394	279.56
272.626	289.56
272.858	273.56
273.09	242.56
273.322	267.56
273.553	228.56
273.785	239.56
274.017	225.56
274.249	247.56
274.481	262.56
274.713	245.56
274.945	239.56
275.176	231.56
275.408	238.56
275.64	250.56
275.872	220.56
276.104	228.56
276.335	223.56
276.567	264.56
276.799	258.56
277.031	266.56
277.262	279.56
277.494	290.56
277.726	264.56
277.957	261.56
278.189	260.56
278.421	231.56
278.652	248.56
278.884	239.56
279.115	238.56
279.347	232.56
279.579	234.56
279.81	237.56
280.042	236.56
280.273	240.56
280.505	247.56
280.736	216.56
280.968	221.56
281.199	231.56
281.431	243.56
281.662	239.56
281.894	237.56
282.125	240.56
282.356	267.56
282.588	279.56
282.819	283.56
283.051	247.56
283.282	253.56
283.513	242.56
283.745	256.56
283.976	255.56
284.207	251.56
284.439	261.56
284.67	239.56
284.901	240.56
285.132	231.56
285.364	247.56
285.595	264.56
285.826	244.56
286.057	247.56
286.288	252.56
286.52	239.56
286.751	237.56
286.982	245.56
287.213	239.56
287.444	245.56
287.675	246.56
287.906	273.56
288.138	237.56
288.369	256.56
288.6	267.56
288.831	261.56
289.062	260.56
289.293	277.56
289.524	260.56
289.755	262.56
289.986	265.56
290.217	249.56
290.448	253.56
290.679	257.56
290.91	256.56
291.141	253.56
291.371	270.56
291.602	258.56
291.833	236.56
292.064	276.56
292.295	253.56
292.526	265.56
292.757	258.56
292.987	265.56
293.218	271.56
293.449	283.56
293.68	279.56
293.91	259.56
294.141	250.56
294.372	245.56
294.603	267.56
294.833	250.56
295.064	273.56
295.295	249.56
295.525	272.56
295.756	263.56
295.987	275.56
296.217	293.56
296.448	302.56
296.679	261.56
296.909	264.56
297.14	251.56
297.37	281.56
297.601	259.56
297.831	267.56
298.062	271.56
298.292	259.56
298.523	270.56
298.753	272.56
298.984	265.56
299.214	280.56
299.445	267.56
299.675	285.56
299.905	283.56
300.136	284.56
300.366	284.56
300.597	283.56
300.827	261.56
301.057	290.56
301.288	304.56
301.518	284.56
301.748	280.56
301.979	284.56
302.209	284.56
302.439	290.56
302.669	293.56
302.9	297.56
303.13	282.56
303.36	291.56
303.59	295.56
303.82	303.56
304.051	311.56
304.281	304.56
304.511	293.56
304.741	299.56
304.971	301.56
305.201	299.56
305.431	287.56
305.661	288.56
305.891	288.56
306.121	298.56
306.352	272.56
306.582	296.56
306.812	291.56
307.042	305.56
307.272	303.56
307.502	288.56
307.731	293.56
307.961	301.56
308.191	331.56
308.421	294.56
308.651	317.56
308.881	314.56
309.111	311.56
309.341	333.56
309.571	317.56
309.8	332.56
310.03	341.56
310.26	341.56
310.49	327.56
310.72	335.56
310.949	381.56
311.179	374.56
311.409	346.56
311.639	355.56
311.868	360.56
312.098	349.56
312.328	379.56
312.557	387.56
312.787	378.56
313.017	371.56
313.246	350.56
313.476	347.56
313.706	349.56
313.935	349.56
314.165	356.56
314.394	366.56
314.624	381.56
314.853	360.56
315.083	355.56
315.312	343.56
315.542	345.56
315.771	331.56
316.001	339.56
316.23	331.56
316.46	333.56
316.689	347.56
316.919	359.56
317.148	362.56
317.377	351.56
317.607	352.56
317.836	374.56
318.065	354.56
318.295	355.56
318.524	357.56
318.753	329.56
318.983	326.56
319.212	337.56
319.441	345.56
319.67	357.56
319.9	348.56
320.129	344.56
320.358	352.56
320.587	360.56
320.816	360.56
321.046	354.56
321.275	364.56
321.504	370.56
321.733	381.56
321.962	391.56
322.191	398.56
322.42	386.56
322.649	405.56
322.878	429.56
323.108	418.56
323.337	454.56
323.566	478.56
323.795	503.56
324.024	567.56
324.253	727.56
324.482	1005.56
324.71	1563.56
324.939	2156.56
325.168	1789.56
325.397	936.56
325.626	653.56
325.855	553.56
326.084	472.56
326.313	484.56
326.542	476.56
326.77	543.56
326.999	641.56
327.228	892.56
327.457	1340.56
327.686	1582.56
327.914	1069.56
328.143	707.56
328.372	612.56
328.6	558.56
328.829	561.56
329.058	549.56
329.287	554.56
329.515	529.56
329.744	476.56
329.972	485.56
330.201	491.56
330.43	548.56
330.658	569.56
330.887	589.56
331.115	567.56
331.344	513.56
331.572	472.56
331.801	464.56
332.03	452.56
332.258	439.56
332.486	412.56
332.715	409.56
332.943	403.56
333.172	395.56
333.4	429.56
333.629	412.56
333.857	429.56
334.085	443.56
334.314	461.56
334.542	473.56
334.771	523.56
334.999	469.56
335.227	429.56
335.455	420.56
335.684	404.56
335.912	392.56
336.14	395.56
336.369	403.56
336.597	404.56
336.825	414.56
337.053	406.56
337.281	383.56
337.51	363.56
337.738	388.56
337.966	405.56
338.194	396.56
338.422	413.56
338.65	396.56
338.878	376.56
339.106	397.56
339.334	380.56
339.562	377.56
339.79	395.56
340.018	381.56
340.246	383.56
340.474	389.56
340.702	385.56
340.93	375.56
341.158	378.56
341.386	389.56
341.614	392.56
341.842	389.56
342.07	360.56
342.298	357.56
342.526	359.56
342.754	357.56
342.981	379.56
343.209	377.56
343.437	379.56
343.665	364.56
343.893	383.56
344.12	381.56
344.348	397.56
344.576	394.56
344.804	402.56
345.031	398.56
345.259	417.56
345.487	407.56
345.714	390.56
345.942	383.56
346.17	373.56
346.397	383.56
346.625	383.56
346.853	344.56
347.08	377.56
347.308	381.56
347.535	389.56
347.763	403.56
347.99	389.56
348.218	387.56
348.445	397.56
348.673	401.56
348.9	375.56
349.128	367.56
349.355	360.56
349.583	346.56
349.81	365.56
350.037	376.56
350.265	377.56
350.492	372.56
350.72	378.56
350.947	382.56
351.174	383.56
351.402	373.56
351.629	372.56
351.856	372.56
352.083	386.56
352.311	409.56
352.538	385.56
352.765	407.56
352.992	391.56
353.22	381.56
353.447	383.56
353.674	371.56
353.901	356.56
354.128	367.56
354.355	324.56
354.583	359.56
354.81	355.56
355.037	333.56
355.264	328.56
355.491	348.56
355.718	333.56
355.945	339.56
356.172	341.56
356.399	351.56
356.626	360.56
356.853	360.56
357.08	345.56
357.307	355.56
357.534	346.56
357.761	340.56
357.988	349.56
358.215	365.56
358.441	360.56
358.668	350.56
358.895	345.56
359.122	372.56
359.349	359.56
359.576	381.56
359.802	412.56
360.029	441.56
360.256	436.56
360.483	429.56
360.709	394.56
360.936	365.56
361.163	359.56
361.39	382.56
361.616	397.56
361.843	380.56
362.07	386.56
362.296	377.56
362.523	380.56
362.749	355.56
362.976	371.56
363.203	362.56
363.429	345.56
363.656	360.56
363.882	349.56
364.109	355.56
364.335	351.56
364.562	349.56
364.788	372.56
365.015	359.56
365.241	366.56
365.468	372.56
365.694	387.56
365.92	351.56
366.147	367.56
366.373	364.56
366.599	366.56
366.826	351.56
367.052	349.56
367.278	356.56
367.505	346.56
367.731	361.56
367.957	377.56
368.184	339.56
368.41	364.56
368.636	378.56
368.862	378.56
369.089	366.56
369.315	356.56
369.541	361.56
369.767	355.56
369.993	340.56
370.219	341.56
370.445	350.56
370.672	346.56
370.898	343.56
371.124	335.56
371.35	346.56
371.576	342.56
371.802	344.56
372.028	349.56
372.254	353.56
372.48	344.56
372.706	332.56
372.932	325.56
373.158	360.56
373.384	355.56
373.61	368.56
373.835	365.56
374.061	350.56
374.287	346.56
374.513	364.56
374.739	373.56
374.965	366.56
375.191	364.56
375.416	351.56
375.642	358.56
375.868	364.56
376.094	341.56
376.319	352.56
376.545	333.56
376.771	351.56
376.997	329.56
377.222	333.56
377.448	357.56
377.674	355.56
377.899	357.56
378.125	328.56
378.35	343.56
378.576	352.56
378.802	340.56
379.027	336.56
379.253	340.56
379.478	347.56
379.704	338.56
379.929	357.56
380.155	340.56
380.38	365.56
380.606	351.56
380.831	332.56
381.057	348.56
381.282	345.56
381.507	360.56
381.733	354.56
381.958	353.56
382.184	343.56
382.409	344.56
382.634	333.56
382.86	353.56
383.085	363.56
383.31	360.56
383.535	360.56
383.761	359.56
383.986	366.56
384.211	352.56
384.436	352.56
384.662	357.56
384.887	392.56
385.112	373.56
385.337	353.56
385.562	357.56
385.787	365.56
386.013	389.56
386.238	385.56
386.463	376.56
386.688	379.56
386.913	369.56
387.138	360.56
387.363	365.56
387.588	360.56
387.813	391.56
388.038	363.56
388.263	369.56
388.488	371.56
388.713	377.56
388.938	369.56
389.163	376.56
389.387	369.56
389.612	360.56
389.837	382.56
390.062	380.56
390.287	383.56
390.512	366.56
390.736	390.56
390.961	405.56
391.186	381.56
391.411	368.56
391.636	384.56
391.86	389.56
392.085	368.56
392.31	383.56
392.534	381.56
392.759	392.56
392.984	383.56
393.208	377.56
393.433	365.56
393.658	379.56
393.882	371.56
394.107	380.56
394.331	373.56
394.556	379.56
394.78	371.56
395.005	362.56
395.229	371.56
395.454	383.56
395.678	390.56
395.903	409.56
396.127	421.56
396.352	411.56
396.576	384.56
396.801	389.56
397.025	385.56
397.249	390.56
397.474	382.56
397.698	397.56
397.922	399.56
398.147	423.56
398.371	430.56
398.595	417.56
398.82	414.56
399.044	428.56
399.268	432.56
399.492	462.56
399.717	476.56
399.941	493.56
400.165	496.56
400.389	526.56
400.613	468.56
400.837	445.56
401.062	444.56
401.286	423.56
401.51	419.56
401.734	428.56
401.958	407.56
402.182	439.56
402.406	461.56
402.63	466.56
402.854	446.56
403.078	439.56
403.302	452.56
403.526	453.56
403.75	449.56
403.974	427.56
404.198	436.56
404.422	455.56
404.645	430.56
404.869	450.56
405.093	462.56
405.317	505.56
405.541	528.56
405.765	487.56
405.988	481.56
406.212	443.56
406.436	506.56
406.66	507.56
406.883	478.56
407.107	526.56
407.331	533.56
407.555	583.56
407.778	592.56
408.002	542.56
408.226	487.56
408.449	472.56
408.673	490.56
408.896	502.56
409.12	522.56
409.344	521.56
409.567	453.56
409.791	445.56
410.014	428.56
410.238	424.56
410.461	420.56
410.685	461.56
410.908	455.56
411.132	485.56
411.355	528.56
411.578	470.56
411.802	435.56
412.025	407.56
412.249	440.56
412.472	447.56
412.695	495.56
412.919	505.56
413.142	435.56
413.365	431.56
413.589	423.56
413.812	430.56
414.035	409.56
414.258	412.56
414.482	410.56
414.705	405.56
414.928	421.56
415.151	414.56
415.374	410.56
415.597	404.56
415.821	398.56
416.044	417.56
416.267	425.56
416.49	423.56
416.713	430.56
416.936	427.56
417.159	426.56
417.382	417.56
417.605	412.56
417.828	431.56
418.051	439.56
418.274	426.56
418.497	429.56
418.72	417.56
418.943	400.56
419.166	444.56
419.389	465.56
419.611	438.56
419.834	450.56
420.057	441.56
420.28	450.56
420.503	410.56
420.726	431.56
420.948	457.56
421.171	491.56
421.394	513.56
421.617	460.56
421.839	437.56
422.062	451.56
422.285	448.56
422.507	485.56
422.73	565.56
422.953	535.56
423.175	487.56
423.398	446.56
423.621	447.56
423.843	487.56
424.066	475.56
424.288	459.56
424.511	479.56
424.733	542.56
424.956	602.56
425.178	609.56
425.401	585.56
425.623	567.56
425.846	497.56
426.068	499.56
426.291	485.56
426.513	481.56
426.735	475.56
426.958	527.56
427.18	586.56
427.402	695.56
427.625	772.56
427.847	681.56
428.069	575.56
428.292	515.56
428.514	481.56
428.736	448.56
428.958	448.56
429.181	427.56
429.403	447.56
429.625	449.56
429.847	489.56
430.069	513.56
430.292	548.56
430.514	475.56
430.736	448.56
430.958	439.56
431.18	414.56
431.402	445.56
431.624	403.56
431.846	430.56
432.068	403.56
432.29	430.56
432.512	411.56
432.734	426.56
432.956	420.56
433.178	419.56
433.4	428.56
433.622	433.56
433.844	415.56
434.066	407.56
434.287	417.56
434.509	416.56
434.731	408.56
434.953	433.56
435.175	430.56
435.397	465.56
435.618	478.56
435.84	515.56
436.062	611.56
436.284	633.56
436.505	537.56
436.727	513.56
436.949	460.56
437.17	464.56
437.392	461.56
437.614	471.56
437.835	490.56
438.057	580.56
438.278	679.56
438.5	651.56
438.721	708.56
438.943	678.56
439.165	536.56
439.386	507.56
439.608	498.56
439.829	496.56
440.05	524.56
440.272	529.56
440.493	528.56
440.715	451.56
440.936	438.56
441.158	444.56
441.379	454.56
441.6	457.56
441.822	492.56
442.043	517.56
442.264	583.56
442.486	636.56
442.707	544.56
442.928	509.56
443.149	511.56
443.371	522.56
443.592	558.56
443.813	646.56
444.034	679.56
444.255	549.56
444.476	505.56
444.698	473.56
444.919	465.56
445.14	606.56
445.361	533.56
445.582	533.56
445.803	581.56
446.024	663.56
446.245	664.56
446.466	648.56
446.687	530.56
446.908	466.56
447.129	455.56
447.35	463.56
447.571	432.56
447.792	460.56
448.013	460.56
448.234	465.56
448.455	525.56
448.675	621.56
448.896	696.56
449.117	591.56
449.338	561.56
449.559	662.56
449.779	719.56
450	612.56
450.221	493.56
450.442	459.56
450.662	446.56
450.883	446.56
451.104	463.56
451.324	469.56
451.545	438.56
451.766	429.56
451.986	418.56
452.207	405.56
452.428	393.56
452.648	401.56
452.869	397.56
453.089	413.56
453.31	425.56
453.53	427.56
453.751	412.56
453.971	418.56
454.192	444.56
454.412	425.56
454.633	413.56
454.853	400.56
455.073	418.56
455.294	435.56
455.514	497.56
455.734	464.56
455.955	411.56
456.175	399.56
456.395	375.56
456.616	376.56
456.836	397.56
457.056	374.56
457.276	359.56
457.497	361.56
457.717	380.56
457.937	390.56
458.157	391.56
458.377	397.56
458.598	428.56
458.818	476.56
459.038	557.56
459.258	541.56
459.478	487.56
459.698	420.56
459.918	411.56
460.138	408.56
460.358	423.56
460.578	418.56
460.798	423.56
461.018	403.56
461.238	421.56
461.458	420.56
461.678	402.56
461.898	400.56
462.118	411.56
462.338	418.56
462.558	419.56
462.777	441.56
462.997	437.56
463.217	443.56
463.437	443.56
463.657	439.56
463.876	439.56
464.096	442.56
464.316	431.56
464.536	459.56
464.755	449.56
464.975	463.56
465.195	505.56
465.414	594.56
465.634	503.56
465.854	470.56
466.073	454.56
466.293	439.56
466.512	415.56
466.732	392.56
466.951	405.56
467.171	387.56
467.391	413.56
467.61	419.56
467.829	417.56
468.049	399.56
468.268	406.56
468.488	395.56
468.707	389.56
468.927	391.56
469.146	421.56
469.365	389.56
469.585	407.56
469.804	420.56
470.023	400.56
470.243	426.56
470.462	429.56
470.681	445.56
470.901	412.56
471.12	410.56
471.339	432.56
471.558	432.56
471.777	428.56
471.997	404.56
472.216	427.56
472.435	464.56
472.654	431.56
472.873	433.56
473.092	404.56
473.311	413.56
473.53	426.56
473.749	424.56
473.968	456.56
474.187	569.56
474.406	577.56
474.625	481.56
474.844	447.56
475.063	427.56
475.282	430.56
475.501	409.56
475.72	418.56
475.939	432.56
476.158	440.56
476.377	420.56
476.596	427.56
476.814	460.56
477.033	454.56
477.252	457.56
477.471	445.56
477.69	450.56
477.908	456.56
478.127	444.56
478.346	460.56
478.564	450.56
478.783	458.56
479.002	475.56
479.22	487.56
479.439	508.56
479.658	509.56
479.876	517.56
480.095	519.56
480.313	552.56
480.532	516.56
480.751	503.56
480.969	529.56
481.188	577.56
481.406	633.56
481.624	570.56
481.843	517.56
482.061	496.56
482.28	491.56
482.498	490.56
482.717	506.56
482.935	500.56
483.153	487.56
483.372	475.56
483.59	473.56
483.808	487.56
484.027	485.56
484.245	487.56
484.463	493.56
484.681	502.56
484.9	511.56
485.118	515.56
485.336	502.56
485.554	492.56
485.772	507.56
485.99	491.56
486.209	516.56
486.427	509.56
486.645	524.56
486.863	567.56
487.081	529.56
487.299	526.56
487.517	527.56
487.735	526.56
487.953	537.56
488.171	531.56
488.389	531.56
488.607	550.56
488.825	505.56
489.043	529.56
489.261	539.56
489.479	547.56
489.696	544.56
489.914	524.56
490.132	537.56
490.35	559.56
490.568	560.56
490.786	573.56
491.003	578.56
491.221	558.56
491.439	600.56
491.657	567.56
491.874	567.56
492.092	597.56
492.31	609.56
492.527	593.56
492.745	599.56
492.963	621.56
493.18	621.56
493.398	607.56
493.615	620.56
493.833	612.56
494.05	620.56
494.268	623.56
494.485	622.56
494.703	612.56
494.92	627.56
495.138	616.56
495.355	625.56
495.573	629.56
495.79	630.56
496.008	639.56
496.225	603.56
496.442	624.56
496.66	633.56
496.877	631.56
497.094	634.56
497.312	647.56
497.529	635.56
497.746	647.56
497.963	654.56
498.181	669.56
498.398	645.56
498.615	661.56
498.832	684.56
499.049	694.56
499.267	693.56
499.484	727.56
499.701	725.56
499.918	744.56
500.135	773.56
500.352	797.56
500.569	805.56
500.786	785.56
501.003	800.56
501.22	783.56
501.437	787.56
501.654	767.56
501.871	773.56
502.088	759.56
