Data from 1965.PennyLincolnUp.Lamp.En5.5.200Scan.071719.P1._HRD10591_14-10-50-913.txt Node
Date: Thu Jul 18 14:10:50 EDT 2019
User: cochatt
Spectrometer: HR+D1059
Trigger mode: 1
Integration Time (sec): 1.000000E-1
Scans to average: 1
Electric dark correction enabled: true
Nonlinearity correction enabled: false
Boxcar width: 0
XAxis mode: Wavelengths
Number of Pixels in Spectrum: 2048
>>>>>Begin Spectral Data<<<<<
223.165	-18.38
223.4	-18.38
223.635	-18.38
223.869	-17.38
224.104	-16.38
224.338	-12.38
224.573	-24.38
224.808	-14.38
225.042	-20.38
225.277	-14.38
225.511	3.62
225.746	10.62
225.98	19.62
226.215	14.62
226.449	10.62
226.683	15.62
226.918	32.62
227.152	30.62
227.387	31.62
227.621	33.62
227.856	56.62
228.09	44.62
228.324	45.62
228.559	33.62
228.793	68.62
229.027	93.62
229.262	108.62
229.496	105.62
229.73	148.62
229.964	148.62
230.199	127.62
230.433	98.62
230.667	101.62
230.901	101.62
231.136	106.62
231.37	110.62
231.604	120.62
231.838	102.62
232.072	110.62
232.306	125.62
232.541	112.62
232.775	122.62
233.009	126.62
233.243	110.62
233.477	118.62
233.711	107.62
233.945	99.62
234.179	115.62
234.413	114.62
234.647	119.62
234.881	110.62
235.115	116.62
235.349	113.62
235.583	124.62
235.817	115.62
236.051	124.62
236.285	107.62
236.519	104.62
236.753	121.62
236.987	154.62
237.221	181.62
237.455	203.62
237.689	176.62
237.922	136.62
238.156	134.62
238.39	127.62
238.624	126.62
238.858	103.62
239.091	120.62
239.325	118.62
239.559	124.62
239.793	112.62
240.027	130.62
240.26	124.62
240.494	165.62
240.728	140.62
240.961	152.62
241.195	122.62
241.429	126.62
241.662	132.62
241.896	127.62
242.13	122.62
242.363	125.62
242.597	125.62
242.83	135.62
243.064	128.62
243.298	149.62
243.531	136.62
243.765	141.62
243.998	132.62
244.232	126.62
244.465	135.62
244.699	153.62
244.932	132.62
245.166	140.62
245.399	135.62
245.633	140.62
245.866	146.62
246.099	140.62
246.333	134.62
246.566	136.62
246.8	150.62
247.033	135.62
247.266	123.62
247.5	145.62
247.733	144.62
247.966	175.62
248.2	159.62
248.433	155.62
248.666	177.62
248.899	179.62
249.133	198.62
249.366	197.62
249.599	182.62
249.832	165.62
250.066	185.62
250.299	161.62
250.532	176.62
250.765	203.62
250.998	202.62
251.231	209.62
251.465	205.62
251.698	190.62
251.931	188.62
252.164	192.62
252.397	187.62
252.63	188.62
252.863	192.62
253.096	196.62
253.329	218.62
253.562	214.62
253.795	206.62
254.028	203.62
254.261	218.62
254.494	198.62
254.727	225.62
254.96	249.62
255.193	263.62
255.426	236.62
255.659	209.62
255.892	226.62
256.124	222.62
256.357	214.62
256.59	213.62
256.823	195.62
257.056	198.62
257.289	213.62
257.521	202.62
257.754	196.62
257.987	186.62
258.22	184.62
258.452	184.62
258.685	205.62
258.918	189.62
259.151	202.62
259.383	203.62
259.616	211.62
259.849	210.62
260.081	222.62
260.314	239.62
260.547	237.62
260.779	237.62
261.012	218.62
261.244	202.62
261.477	210.62
261.71	210.62
261.942	214.62
262.175	221.62
262.407	234.62
262.64	204.62
262.872	197.62
263.105	205.62
263.337	190.62
263.57	217.62
263.802	192.62
264.035	200.62
264.267	190.62
264.499	197.62
264.732	204.62
264.964	188.62
265.197	184.62
265.429	184.62
265.661	176.62
265.894	191.62
266.126	213.62
266.358	212.62
266.591	193.62
266.823	192.62
267.055	194.62
267.287	207.62
267.52	200.62
267.752	205.62
267.984	210.62
268.216	217.62
268.448	212.62
268.681	220.62
268.913	215.62
269.145	252.62
269.377	254.62
269.609	250.62
269.841	233.62
270.073	249.62
270.306	282.62
270.538	284.62
270.77	284.62
271.002	265.62
271.234	272.62
271.466	276.62
271.698	281.62
271.93	293.62
272.162	298.62
272.394	298.62
272.626	296.62
272.858	289.62
273.09	256.62
273.322	258.62
273.553	240.62
273.785	266.62
274.017	252.62
274.249	259.62
274.481	253.62
274.713	237.62
274.945	245.62
275.176	250.62
275.408	266.62
275.64	250.62
275.872	235.62
276.104	242.62
276.335	244.62
276.567	258.62
276.799	273.62
277.031	287.62
277.262	284.62
277.494	300.62
277.726	287.62
277.957	269.62
278.189	243.62
278.421	253.62
278.652	253.62
278.884	251.62
279.115	230.62
279.347	240.62
279.579	243.62
279.81	256.62
280.042	215.62
280.273	250.62
280.505	233.62
280.736	252.62
280.968	247.62
281.199	245.62
281.431	247.62
281.662	241.62
281.894	246.62
282.125	261.62
282.356	271.62
282.588	289.62
282.819	285.62
283.051	245.62
283.282	247.62
283.513	236.62
283.745	259.62
283.976	256.62
284.207	260.62
284.439	258.62
284.67	255.62
284.901	258.62
285.132	258.62
285.364	254.62
285.595	254.62
285.826	263.62
286.057	252.62
286.288	246.62
286.52	255.62
286.751	258.62
286.982	240.62
287.213	250.62
287.444	247.62
287.675	238.62
287.906	263.62
288.138	266.62
288.369	268.62
288.6	279.62
288.831	270.62
289.062	262.62
289.293	278.62
289.524	276.62
289.755	251.62
289.986	273.62
290.217	268.62
290.448	239.62
290.679	258.62
290.91	259.62
291.141	261.62
291.371	278.62
291.602	258.62
291.833	258.62
292.064	265.62
292.295	260.62
292.526	246.62
292.757	274.62
292.987	262.62
293.218	264.62
293.449	261.62
293.68	281.62
293.91	262.62
294.141	278.62
294.372	263.62
294.603	248.62
294.833	262.62
295.064	260.62
295.295	254.62
295.525	266.62
295.756	271.62
295.987	278.62
296.217	288.62
296.448	326.62
296.679	283.62
296.909	268.62
297.14	262.62
297.37	267.62
297.601	274.62
297.831	262.62
298.062	264.62
298.292	259.62
298.523	277.62
298.753	255.62
298.984	267.62
299.214	262.62
299.445	278.62
299.675	289.62
299.905	276.62
300.136	282.62
300.366	301.62
300.597	273.62
300.827	295.62
301.057	291.62
301.288	295.62
301.518	313.62
301.748	286.62
301.979	283.62
302.209	288.62
302.439	290.62
302.669	304.62
302.9	288.62
303.13	285.62
303.36	299.62
303.59	298.62
303.82	318.62
304.051	295.62
304.281	294.62
304.511	318.62
304.741	297.62
304.971	297.62
305.201	299.62
305.431	308.62
305.661	281.62
305.891	298.62
306.121	300.62
306.352	291.62
306.582	290.62
306.812	295.62
307.042	307.62
307.272	303.62
307.502	294.62
307.731	296.62
307.961	293.62
308.191	287.62
308.421	306.62
308.651	308.62
308.881	302.62
309.111	302.62
309.341	292.62
309.571	317.62
309.8	336.62
310.03	356.62
310.26	347.62
310.49	358.62
310.72	360.62
310.949	364.62
311.179	374.62
311.409	335.62
311.639	326.62
311.868	347.62
312.098	374.62
312.328	357.62
312.557	381.62
312.787	382.62
313.017	344.62
313.246	363.62
313.476	340.62
313.706	342.62
313.935	339.62
314.165	348.62
314.394	357.62
314.624	375.62
314.853	353.62
315.083	334.62
315.312	336.62
315.542	341.62
315.771	354.62
316.001	354.62
316.23	360.62
316.46	344.62
316.689	350.62
316.919	343.62
317.148	367.62
317.377	349.62
317.607	357.62
317.836	356.62
318.065	351.62
318.295	354.62
318.524	339.62
318.753	344.62
318.983	340.62
319.212	334.62
319.441	348.62
319.67	361.62
319.9	372.62
320.129	343.62
320.358	342.62
320.587	355.62
320.816	366.62
321.046	358.62
321.275	353.62
321.504	359.62
321.733	390.62
321.962	401.62
322.191	378.62
322.42	430.62
322.649	416.62
322.878	427.62
323.108	445.62
323.337	478.62
323.566	478.62
323.795	540.62
324.024	580.62
324.253	703.62
324.482	1067.62
324.71	1644.62
324.939	2284.62
325.168	1909.62
325.397	994.62
325.626	652.62
325.855	557.62
326.084	518.62
326.313	502.62
326.542	518.62
326.77	566.62
326.999	677.62
327.228	943.62
327.457	1417.62
327.686	1700.62
327.914	1102.62
328.143	724.62
328.372	663.62
328.6	586.62
328.829	571.62
329.058	570.62
329.287	572.62
329.515	534.62
329.744	479.62
329.972	526.62
330.201	550.62
330.43	579.62
330.658	610.62
330.887	642.62
331.115	599.62
331.344	488.62
331.572	485.62
331.801	484.62
332.03	487.62
332.258	455.62
332.486	427.62
332.715	415.62
332.943	415.62
333.172	419.62
333.4	412.62
333.629	439.62
333.857	439.62
334.085	445.62
334.314	474.62
334.542	524.62
334.771	526.62
334.999	479.62
335.227	422.62
335.455	426.62
335.684	427.62
335.912	398.62
336.14	405.62
336.369	416.62
336.597	411.62
336.825	429.62
337.053	398.62
337.281	398.62
337.51	367.62
337.738	396.62
337.966	380.62
338.194	382.62
338.422	406.62
338.65	391.62
338.878	401.62
339.106	381.62
339.334	388.62
339.562	378.62
339.79	385.62
340.018	396.62
340.246	394.62
340.474	401.62
340.702	381.62
340.93	371.62
341.158	379.62
341.386	393.62
341.614	409.62
341.842	374.62
342.07	386.62
342.298	380.62
342.526	395.62
342.754	359.62
342.981	372.62
343.209	359.62
343.437	376.62
343.665	383.62
343.893	385.62
344.12	395.62
344.348	385.62
344.576	379.62
344.804	401.62
345.031	404.62
345.259	434.62
345.487	427.62
345.714	384.62
345.942	392.62
346.17	390.62
346.397	390.62
346.625	391.62
346.853	382.62
347.08	393.62
347.308	362.62
347.535	396.62
347.763	402.62
347.99	395.62
348.218	390.62
348.445	406.62
348.673	400.62
348.9	396.62
349.128	390.62
349.355	375.62
349.583	366.62
349.81	373.62
350.037	346.62
350.265	380.62
350.492	367.62
350.72	364.62
350.947	394.62
351.174	410.62
351.402	392.62
351.629	388.62
351.856	389.62
352.083	393.62
352.311	400.62
352.538	395.62
352.765	401.62
352.992	400.62
353.22	380.62
353.447	389.62
353.674	358.62
353.901	377.62
354.128	354.62
354.355	361.62
354.583	354.62
354.81	348.62
355.037	343.62
355.264	358.62
355.491	345.62
355.718	338.62
355.945	349.62
356.172	334.62
356.399	335.62
356.626	344.62
356.853	358.62
357.08	342.62
357.307	339.62
357.534	348.62
357.761	339.62
357.988	368.62
358.215	341.62
358.441	349.62
358.668	363.62
358.895	368.62
359.122	354.62
359.349	387.62
359.576	369.62
359.802	408.62
360.029	423.62
360.256	425.62
360.483	428.62
360.709	390.62
360.936	371.62
361.163	374.62
361.39	388.62
361.616	391.62
361.843	389.62
362.07	380.62
362.296	382.62
362.523	389.62
362.749	358.62
362.976	364.62
363.203	366.62
363.429	355.62
363.656	348.62
363.882	377.62
364.109	343.62
364.335	374.62
364.562	362.62
364.788	367.62
365.015	357.62
365.241	363.62
365.468	370.62
365.694	360.62
365.92	375.62
366.147	351.62
366.373	334.62
366.599	357.62
366.826	351.62
367.052	352.62
367.278	359.62
367.505	367.62
367.731	360.62
367.957	367.62
368.184	373.62
368.41	362.62
368.636	362.62
368.862	357.62
369.089	377.62
369.315	364.62
369.541	353.62
369.767	348.62
369.993	354.62
370.219	371.62
370.445	369.62
370.672	370.62
370.898	357.62
371.124	347.62
371.35	351.62
371.576	359.62
371.802	328.62
372.028	338.62
372.254	355.62
372.48	351.62
372.706	354.62
372.932	344.62
373.158	360.62
373.384	356.62
373.61	355.62
373.835	333.62
374.061	345.62
374.287	355.62
374.513	345.62
374.739	349.62
374.965	363.62
375.191	373.62
375.416	354.62
375.642	359.62
375.868	344.62
376.094	361.62
376.319	344.62
376.545	348.62
376.771	373.62
376.997	364.62
377.222	349.62
377.448	347.62
377.674	357.62
377.899	340.62
378.125	335.62
378.35	347.62
378.576	323.62
378.802	349.62
379.027	348.62
379.253	340.62
379.478	339.62
379.704	325.62
379.929	362.62
380.155	358.62
380.38	351.62
380.606	341.62
380.831	339.62
381.057	339.62
381.282	347.62
381.507	342.62
381.733	354.62
381.958	347.62
382.184	354.62
382.409	352.62
382.634	352.62
382.86	338.62
383.085	340.62
383.31	355.62
383.535	378.62
383.761	350.62
383.986	378.62
384.211	375.62
384.436	343.62
384.662	364.62
384.887	347.62
385.112	361.62
385.337	352.62
385.562	362.62
385.787	388.62
386.013	370.62
386.238	384.62
386.463	395.62
386.688	366.62
386.913	370.62
387.138	356.62
387.363	390.62
387.588	374.62
387.813	370.62
388.038	379.62
388.263	360.62
388.488	398.62
388.713	383.62
388.938	390.62
389.163	383.62
389.387	379.62
389.612	366.62
389.837	380.62
390.062	380.62
390.287	396.62
390.512	367.62
390.736	372.62
390.961	388.62
391.186	386.62
391.411	391.62
391.636	366.62
391.86	391.62
392.085	382.62
392.31	377.62
392.534	372.62
392.759	392.62
392.984	383.62
393.208	383.62
393.433	379.62
393.658	391.62
393.882	372.62
394.107	353.62
394.331	376.62
394.556	381.62
394.78	382.62
395.005	363.62
395.229	357.62
395.454	398.62
395.678	388.62
395.903	420.62
396.127	412.62
396.352	396.62
396.576	398.62
396.801	392.62
397.025	389.62
397.249	415.62
397.474	406.62
397.698	391.62
397.922	415.62
398.147	415.62
398.371	424.62
398.595	415.62
398.82	404.62
399.044	430.62
399.268	446.62
399.492	445.62
399.717	488.62
399.941	477.62
400.165	515.62
400.389	524.62
400.613	464.62
400.837	434.62
401.062	440.62
401.286	438.62
401.51	415.62
401.734	412.62
401.958	414.62
402.182	422.62
402.406	453.62
402.63	446.62
402.854	431.62
403.078	449.62
403.302	430.62
403.526	442.62
403.75	435.62
403.974	428.62
404.198	442.62
404.422	442.62
404.645	428.62
404.869	439.62
405.093	477.62
405.317	512.62
405.541	549.62
405.765	491.62
405.988	472.62
406.212	506.62
406.436	512.62
406.66	517.62
406.883	476.62
407.107	507.62
407.331	517.62
407.555	592.62
407.778	574.62
408.002	531.62
408.226	493.62
408.449	477.62
408.673	485.62
408.896	500.62
409.12	545.62
409.344	527.62
409.567	476.62
409.791	463.62
410.014	431.62
410.238	426.62
410.461	450.62
410.685	448.62
410.908	457.62
411.132	504.62
411.355	510.62
411.578	482.62
411.802	447.62
412.025	443.62
412.249	459.62
412.472	472.62
412.695	495.62
412.919	492.62
413.142	445.62
413.365	453.62
413.589	439.62
413.812	428.62
414.035	412.62
414.258	408.62
414.482	425.62
414.705	412.62
414.928	410.62
415.151	430.62
415.374	407.62
415.597	404.62
415.821	403.62
416.044	415.62
416.267	407.62
416.49	422.62
416.713	422.62
416.936	430.62
417.159	416.62
417.382	429.62
417.605	432.62
417.828	437.62
418.051	444.62
418.274	431.62
418.497	431.62
418.72	414.62
418.943	426.62
419.166	430.62
419.389	444.62
419.611	425.62
419.834	446.62
420.057	441.62
420.28	456.62
420.503	433.62
420.726	453.62
420.948	445.62
421.171	470.62
421.394	522.62
421.617	465.62
421.839	439.62
422.062	427.62
422.285	470.62
422.507	514.62
422.73	563.62
422.953	509.62
423.175	462.62
423.398	454.62
423.621	465.62
423.843	494.62
424.066	466.62
424.288	475.62
424.511	492.62
424.733	535.62
424.956	612.62
425.178	610.62
425.401	598.62
425.623	595.62
425.846	512.62
426.068	483.62
426.291	475.62
426.513	490.62
426.735	488.62
426.958	528.62
427.18	604.62
427.402	700.62
427.625	770.62
427.847	709.62
428.069	608.62
428.292	554.62
428.514	493.62
428.736	465.62
428.958	465.62
429.181	456.62
429.403	442.62
429.625	461.62
429.847	482.62
430.069	551.62
430.292	530.62
430.514	473.62
430.736	443.62
430.958	432.62
431.18	425.62
431.402	412.62
431.624	406.62
431.846	414.62
432.068	409.62
432.29	414.62
432.512	420.62
432.734	412.62
432.956	417.62
433.178	442.62
433.4	444.62
433.622	442.62
433.844	404.62
434.066	410.62
434.287	426.62
434.509	432.62
434.731	440.62
434.953	441.62
435.175	443.62
435.397	470.62
435.618	513.62
435.84	524.62
436.062	591.62
436.284	663.62
436.505	551.62
436.727	489.62
436.949	480.62
437.17	450.62
437.392	463.62
437.614	455.62
437.835	485.62
438.057	600.62
438.278	687.62
438.5	646.62
438.721	728.62
438.943	693.62
439.165	549.62
439.386	505.62
439.608	510.62
439.829	513.62
440.05	524.62
440.272	566.62
440.493	530.62
440.715	501.62
440.936	471.62
441.158	467.62
441.379	464.62
441.6	460.62
441.822	494.62
442.043	523.62
442.264	586.62
442.486	617.62
442.707	557.62
442.928	505.62
443.149	526.62
443.371	540.62
443.592	586.62
443.813	645.62
444.034	682.62
444.255	570.62
444.476	489.62
444.698	490.62
444.919	478.62
445.14	550.62
445.361	529.62
445.582	538.62
445.803	597.62
446.024	704.62
446.245	694.62
446.466	637.62
446.687	536.62
446.908	491.62
447.129	485.62
447.35	466.62
447.571	452.62
447.792	438.62
448.013	460.62
448.234	477.62
448.455	533.62
448.675	628.62
448.896	725.62
449.117	613.62
449.338	596.62
449.559	660.62
449.779	732.62
450	613.62
450.221	512.62
450.442	465.62
450.662	443.62
450.883	475.62
451.104	468.62
451.324	459.62
451.545	439.62
451.766	431.62
451.986	413.62
452.207	400.62
452.428	405.62
452.648	413.62
452.869	427.62
453.089	413.62
453.31	436.62
453.53	437.62
453.751	413.62
453.971	426.62
454.192	452.62
454.412	414.62
454.633	424.62
454.853	401.62
455.073	412.62
455.294	451.62
455.514	501.62
455.734	492.62
455.955	418.62
456.175	398.62
456.395	400.62
456.616	400.62
456.836	368.62
457.056	379.62
457.276	383.62
457.497	367.62
457.717	392.62
457.937	401.62
458.157	389.62
458.377	420.62
458.598	426.62
458.818	478.62
459.038	556.62
459.258	579.62
459.478	472.62
459.698	424.62
459.918	410.62
460.138	404.62
460.358	422.62
460.578	423.62
460.798	422.62
461.018	431.62
461.238	423.62
461.458	427.62
461.678	422.62
461.898	423.62
462.118	412.62
462.338	424.62
462.558	420.62
462.777	444.62
462.997	424.62
463.217	441.62
463.437	438.62
463.657	467.62
463.876	426.62
464.096	447.62
464.316	424.62
464.536	444.62
464.755	451.62
464.975	470.62
465.195	503.62
465.414	624.62
465.634	517.62
465.854	474.62
466.073	431.62
466.293	398.62
466.512	426.62
466.732	439.62
466.951	400.62
467.171	420.62
467.391	419.62
467.61	443.62
467.829	432.62
468.049	419.62
468.268	434.62
468.488	413.62
468.707	419.62
468.927	379.62
469.146	398.62
469.365	416.62
469.585	403.62
469.804	419.62
470.023	438.62
470.243	421.62
470.462	442.62
470.681	432.62
470.901	415.62
471.12	426.62
471.339	414.62
471.558	435.62
471.777	422.62
471.997	398.62
472.216	407.62
472.435	474.62
472.654	446.62
472.873	437.62
473.092	438.62
473.311	420.62
473.53	424.62
473.749	427.62
473.968	464.62
474.187	582.62
474.406	582.62
474.625	474.62
474.844	425.62
475.063	417.62
475.282	429.62
475.501	411.62
475.72	440.62
475.939	404.62
476.158	436.62
476.377	439.62
476.596	426.62
476.814	440.62
477.033	453.62
477.252	458.62
477.471	444.62
477.69	451.62
477.908	450.62
478.127	470.62
478.346	447.62
478.564	476.62
478.783	464.62
479.002	465.62
479.22	490.62
479.439	484.62
479.658	528.62
479.876	515.62
480.095	514.62
480.313	531.62
480.532	521.62
480.751	526.62
480.969	520.62
481.188	615.62
481.406	678.62
481.624	555.62
481.843	514.62
482.061	500.62
482.28	509.62
482.498	491.62
482.717	475.62
482.935	494.62
483.153	481.62
483.372	500.62
483.59	506.62
483.808	512.62
484.027	503.62
484.245	499.62
484.463	501.62
484.681	519.62
484.9	506.62
485.118	491.62
485.336	497.62
485.554	498.62
485.772	509.62
485.99	490.62
486.209	542.62
486.427	530.62
486.645	529.62
486.863	566.62
487.081	538.62
487.299	548.62
487.517	547.62
487.735	540.62
487.953	536.62
488.171	541.62
488.389	528.62
488.607	536.62
488.825	553.62
489.043	523.62
489.261	543.62
489.479	538.62
489.696	546.62
489.914	551.62
490.132	536.62
490.35	541.62
490.568	566.62
490.786	569.62
491.003	557.62
491.221	588.62
491.439	606.62
491.657	592.62
491.874	613.62
492.092	612.62
492.31	622.62
492.527	596.62
492.745	605.62
492.963	617.62
493.18	610.62
493.398	617.62
493.615	621.62
493.833	627.62
494.05	621.62
494.268	638.62
494.485	608.62
494.703	616.62
494.92	640.62
495.138	646.62
495.355	626.62
495.573	636.62
495.79	633.62
496.008	635.62
496.225	635.62
496.442	631.62
496.66	645.62
496.877	614.62
497.094	630.62
497.312	642.62
497.529	631.62
497.746	664.62
497.963	653.62
498.181	673.62
498.398	687.62
498.615	670.62
498.832	708.62
499.049	693.62
499.267	702.62
499.484	720.62
499.701	732.62
499.918	740.62
500.135	757.62
500.352	764.62
500.569	795.62
500.786	798.62
501.003	796.62
501.22	775.62
501.437	749.62
501.654	759.62
501.871	775.62
