Data from 1965.PennyLincolnUp.Lamp.En5.5.200Scan.071719.P1._HRD10591_14-08-29-911.txt Node
Date: Thu Jul 18 14:08:29 EDT 2019
User: cochatt
Spectrometer: HR+D1059
Trigger mode: 1
Integration Time (sec): 1.000000E-1
Scans to average: 1
Electric dark correction enabled: true
Nonlinearity correction enabled: false
Boxcar width: 0
XAxis mode: Wavelengths
Number of Pixels in Spectrum: 2048
>>>>>Begin Spectral Data<<<<<
223.165	-25.5
223.4	-25.5
223.635	-25.5
223.869	-14.5
224.104	-15.5
224.338	-27.5
224.573	-10.5
224.808	-19.5
225.042	-12.5
225.277	-12.5
225.511	-0.5
225.746	0.5
225.98	16.5
226.215	2.5
226.449	32.5
226.683	34.5
226.918	22.5
227.152	29.5
227.387	27.5
227.621	27.5
227.856	30.5
228.09	47.5
228.324	42.5
228.559	53.5
228.793	59.5
229.027	93.5
229.262	103.5
229.496	98.5
229.73	108.5
229.964	130.5
230.199	124.5
230.433	95.5
230.667	115.5
230.901	97.5
231.136	112.5
231.37	94.5
231.604	104.5
231.838	98.5
232.072	106.5
232.306	103.5
232.541	104.5
232.775	97.5
233.009	101.5
233.243	112.5
233.477	97.5
233.711	107.5
233.945	115.5
234.179	95.5
234.413	104.5
234.647	117.5
234.881	97.5
235.115	93.5
235.349	116.5
235.583	90.5
235.817	106.5
236.051	122.5
236.285	112.5
236.519	114.5
236.753	117.5
236.987	133.5
237.221	176.5
237.455	196.5
237.689	154.5
237.922	123.5
238.156	117.5
238.39	116.5
238.624	122.5
238.858	103.5
239.091	119.5
239.325	99.5
239.559	121.5
239.793	105.5
240.027	120.5
240.26	121.5
240.494	141.5
240.728	139.5
240.961	121.5
241.195	135.5
241.429	125.5
241.662	126.5
241.896	125.5
242.13	98.5
242.363	108.5
242.597	129.5
242.83	115.5
243.064	141.5
243.298	129.5
243.531	117.5
243.765	123.5
243.998	121.5
244.232	125.5
244.465	141.5
244.699	130.5
244.932	122.5
245.166	119.5
245.399	117.5
245.633	123.5
245.866	130.5
246.099	121.5
246.333	135.5
246.566	131.5
246.8	132.5
247.033	135.5
247.266	146.5
247.5	145.5
247.733	139.5
247.966	159.5
248.2	149.5
248.433	147.5
248.666	144.5
248.899	149.5
249.133	180.5
249.366	170.5
249.599	175.5
249.832	164.5
250.066	154.5
250.299	163.5
250.532	153.5
250.765	183.5
250.998	182.5
251.231	197.5
251.465	188.5
251.698	170.5
251.931	171.5
252.164	181.5
252.397	172.5
252.63	186.5
252.863	185.5
253.096	177.5
253.329	197.5
253.562	194.5
253.795	200.5
254.028	183.5
254.261	185.5
254.494	207.5
254.727	254.5
254.96	235.5
255.193	221.5
255.426	202.5
255.659	202.5
255.892	196.5
256.124	198.5
256.357	203.5
256.59	178.5
256.823	187.5
257.056	188.5
257.289	186.5
257.521	192.5
257.754	164.5
257.987	173.5
258.22	192.5
258.452	181.5
258.685	183.5
258.918	178.5
259.151	182.5
259.383	187.5
259.616	195.5
259.849	188.5
260.081	195.5
260.314	197.5
260.547	211.5
260.779	206.5
261.012	193.5
261.244	205.5
261.477	195.5
261.71	196.5
261.942	195.5
262.175	192.5
262.407	197.5
262.64	192.5
262.872	188.5
263.105	193.5
263.337	193.5
263.57	205.5
263.802	201.5
264.035	184.5
264.267	192.5
264.499	189.5
264.732	187.5
264.964	172.5
265.197	178.5
265.429	171.5
265.661	179.5
265.894	179.5
266.126	176.5
266.358	180.5
266.591	182.5
266.823	196.5
267.055	203.5
267.287	197.5
267.52	192.5
267.752	192.5
267.984	187.5
268.216	190.5
268.448	183.5
268.681	199.5
268.913	205.5
269.145	228.5
269.377	237.5
269.609	219.5
269.841	214.5
270.073	239.5
270.306	236.5
270.538	246.5
270.77	288.5
271.002	248.5
271.234	253.5
271.466	244.5
271.698	264.5
271.93	274.5
272.162	259.5
272.394	277.5
272.626	255.5
272.858	228.5
273.09	239.5
273.322	237.5
273.553	250.5
273.785	231.5
274.017	244.5
274.249	212.5
274.481	223.5
274.713	235.5
274.945	213.5
275.176	217.5
275.408	200.5
275.64	204.5
275.872	243.5
276.104	215.5
276.335	236.5
276.567	242.5
276.799	245.5
277.031	258.5
277.262	258.5
277.494	255.5
277.726	247.5
277.957	263.5
278.189	242.5
278.421	236.5
278.652	224.5
278.884	232.5
279.115	221.5
279.347	234.5
279.579	225.5
279.81	212.5
280.042	228.5
280.273	226.5
280.505	229.5
280.736	226.5
280.968	215.5
281.199	227.5
281.431	224.5
281.662	240.5
281.894	239.5
282.125	241.5
282.356	226.5
282.588	255.5
282.819	255.5
283.051	244.5
283.282	242.5
283.513	233.5
283.745	254.5
283.976	236.5
284.207	239.5
284.439	235.5
284.67	231.5
284.901	221.5
285.132	215.5
285.364	216.5
285.595	231.5
285.826	221.5
286.057	216.5
286.288	227.5
286.52	226.5
286.751	228.5
286.982	230.5
287.213	229.5
287.444	225.5
287.675	224.5
287.906	250.5
288.138	260.5
288.369	236.5
288.6	245.5
288.831	243.5
289.062	261.5
289.293	252.5
289.524	243.5
289.755	232.5
289.986	249.5
290.217	231.5
290.448	248.5
290.679	249.5
290.91	239.5
291.141	241.5
291.371	253.5
291.602	240.5
291.833	230.5
292.064	242.5
292.295	246.5
292.526	225.5
292.757	243.5
292.987	222.5
293.218	229.5
293.449	230.5
293.68	253.5
293.91	225.5
294.141	237.5
294.372	248.5
294.603	255.5
294.833	236.5
295.064	245.5
295.295	230.5
295.525	239.5
295.756	247.5
295.987	245.5
296.217	286.5
296.448	280.5
296.679	276.5
296.909	240.5
297.14	261.5
297.37	258.5
297.601	243.5
297.831	259.5
298.062	259.5
298.292	253.5
298.523	255.5
298.753	260.5
298.984	256.5
299.214	258.5
299.445	274.5
299.675	237.5
299.905	266.5
300.136	253.5
300.366	269.5
300.597	248.5
300.827	263.5
301.057	272.5
301.288	266.5
301.518	280.5
301.748	262.5
301.979	268.5
302.209	259.5
302.439	260.5
302.669	282.5
302.9	271.5
303.13	253.5
303.36	270.5
303.59	282.5
303.82	269.5
304.051	275.5
304.281	268.5
304.511	269.5
304.741	248.5
304.971	281.5
305.201	272.5
305.431	271.5
305.661	267.5
305.891	268.5
306.121	276.5
306.352	270.5
306.582	294.5
306.812	295.5
307.042	267.5
307.272	266.5
307.502	273.5
307.731	282.5
307.961	265.5
308.191	280.5
308.421	281.5
308.651	282.5
308.881	282.5
309.111	285.5
309.341	271.5
309.571	292.5
309.8	314.5
310.03	305.5
310.26	317.5
310.49	297.5
310.72	329.5
310.949	323.5
311.179	338.5
311.409	334.5
311.639	330.5
311.868	312.5
312.098	319.5
312.328	328.5
312.557	339.5
312.787	354.5
313.017	355.5
313.246	321.5
313.476	300.5
313.706	327.5
313.935	342.5
314.165	323.5
314.394	352.5
314.624	341.5
314.853	320.5
315.083	331.5
315.312	315.5
315.542	314.5
315.771	313.5
316.001	308.5
316.23	307.5
316.46	312.5
316.689	310.5
316.919	331.5
317.148	330.5
317.377	327.5
317.607	331.5
317.836	351.5
318.065	321.5
318.295	331.5
318.524	332.5
318.753	311.5
318.983	329.5
319.212	321.5
319.441	327.5
319.67	317.5
319.9	354.5
320.129	335.5
320.358	333.5
320.587	333.5
320.816	336.5
321.046	335.5
321.275	351.5
321.504	361.5
321.733	331.5
321.962	337.5
322.191	364.5
322.42	358.5
322.649	363.5
322.878	396.5
323.108	390.5
323.337	408.5
323.566	440.5
323.795	474.5
324.024	505.5
324.253	651.5
324.482	930.5
324.71	1385.5
324.939	1891.5
325.168	1627.5
325.397	844.5
325.626	596.5
325.855	481.5
326.084	462.5
326.313	436.5
326.542	451.5
326.77	481.5
326.999	577.5
327.228	822.5
327.457	1201.5
327.686	1399.5
327.914	931.5
328.143	610.5
328.372	580.5
328.6	521.5
328.829	493.5
329.058	519.5
329.287	525.5
329.515	484.5
329.744	425.5
329.972	439.5
330.201	476.5
330.43	497.5
330.658	517.5
330.887	548.5
331.115	532.5
331.344	450.5
331.572	417.5
331.801	416.5
332.03	416.5
332.258	413.5
332.486	376.5
332.715	388.5
332.943	371.5
333.172	389.5
333.4	376.5
333.629	393.5
333.857	403.5
334.085	418.5
334.314	418.5
334.542	412.5
334.771	472.5
334.999	420.5
335.227	394.5
335.455	374.5
335.684	388.5
335.912	351.5
336.14	347.5
336.369	369.5
336.597	396.5
336.825	391.5
337.053	362.5
337.281	372.5
337.51	355.5
337.738	365.5
337.966	377.5
338.194	373.5
338.422	387.5
338.65	380.5
338.878	352.5
339.106	339.5
339.334	342.5
339.562	353.5
339.79	344.5
340.018	349.5
340.246	361.5
340.474	347.5
340.702	358.5
340.93	354.5
341.158	342.5
341.386	357.5
341.614	375.5
341.842	360.5
342.07	367.5
342.298	348.5
342.526	358.5
342.754	349.5
342.981	345.5
343.209	332.5
343.437	330.5
343.665	353.5
343.893	362.5
344.12	354.5
344.348	371.5
344.576	369.5
344.804	376.5
345.031	395.5
345.259	391.5
345.487	362.5
345.714	356.5
345.942	348.5
346.17	371.5
346.397	337.5
346.625	336.5
346.853	341.5
347.08	351.5
347.308	376.5
347.535	367.5
347.763	356.5
347.99	359.5
348.218	368.5
348.445	393.5
348.673	369.5
348.9	346.5
349.128	355.5
349.355	351.5
349.583	337.5
349.81	339.5
350.037	327.5
350.265	334.5
350.492	343.5
350.72	331.5
350.947	343.5
351.174	347.5
351.402	366.5
351.629	355.5
351.856	371.5
352.083	370.5
352.311	353.5
352.538	364.5
352.765	378.5
352.992	350.5
353.22	352.5
353.447	355.5
353.674	329.5
353.901	334.5
354.128	323.5
354.355	312.5
354.583	330.5
354.81	318.5
355.037	332.5
355.264	324.5
355.491	323.5
355.718	335.5
355.945	313.5
356.172	314.5
356.399	322.5
356.626	308.5
356.853	314.5
357.08	322.5
357.307	324.5
357.534	303.5
357.761	338.5
357.988	340.5
358.215	321.5
358.441	327.5
358.668	320.5
358.895	337.5
359.122	312.5
359.349	327.5
359.576	351.5
359.802	363.5
360.029	395.5
360.256	391.5
360.483	412.5
360.709	339.5
360.936	369.5
361.163	355.5
361.39	344.5
361.616	368.5
361.843	339.5
362.07	356.5
362.296	356.5
362.523	343.5
362.749	335.5
362.976	345.5
363.203	348.5
363.429	321.5
363.656	343.5
363.882	349.5
364.109	328.5
364.335	337.5
364.562	338.5
364.788	347.5
365.015	336.5
365.241	343.5
365.468	330.5
365.694	361.5
365.92	348.5
366.147	327.5
366.373	319.5
366.599	317.5
366.826	329.5
367.052	339.5
367.278	325.5
367.505	330.5
367.731	329.5
367.957	307.5
368.184	324.5
368.41	343.5
368.636	357.5
368.862	344.5
369.089	323.5
369.315	304.5
369.541	315.5
369.767	321.5
369.993	329.5
370.219	321.5
370.445	338.5
370.672	337.5
370.898	308.5
371.124	342.5
371.35	336.5
371.576	324.5
371.802	345.5
372.028	328.5
372.254	315.5
372.48	322.5
372.706	327.5
372.932	325.5
373.158	344.5
373.384	358.5
373.61	325.5
373.835	319.5
374.061	331.5
374.287	326.5
374.513	324.5
374.739	327.5
374.965	336.5
375.191	337.5
375.416	321.5
375.642	319.5
375.868	342.5
376.094	323.5
376.319	320.5
376.545	330.5
376.771	320.5
376.997	327.5
377.222	344.5
377.448	332.5
377.674	324.5
377.899	344.5
378.125	316.5
378.35	325.5
378.576	324.5
378.802	320.5
379.027	338.5
379.253	341.5
379.478	317.5
379.704	323.5
379.929	338.5
380.155	333.5
380.38	340.5
380.606	321.5
380.831	340.5
381.057	351.5
381.282	341.5
381.507	319.5
381.733	317.5
381.958	346.5
382.184	337.5
382.409	351.5
382.634	337.5
382.86	339.5
383.085	321.5
383.31	320.5
383.535	321.5
383.761	329.5
383.986	348.5
384.211	344.5
384.436	334.5
384.662	345.5
384.887	350.5
385.112	338.5
385.337	345.5
385.562	332.5
385.787	344.5
386.013	350.5
386.238	371.5
386.463	364.5
386.688	372.5
386.913	347.5
387.138	357.5
387.363	377.5
387.588	357.5
387.813	348.5
388.038	344.5
388.263	342.5
388.488	365.5
388.713	353.5
388.938	376.5
389.163	360.5
389.387	362.5
389.612	339.5
389.837	347.5
390.062	341.5
390.287	355.5
390.512	343.5
390.736	354.5
390.961	350.5
391.186	353.5
391.411	354.5
391.636	348.5
391.86	351.5
392.085	370.5
392.31	343.5
392.534	348.5
392.759	353.5
392.984	362.5
393.208	353.5
393.433	365.5
393.658	350.5
393.882	345.5
394.107	353.5
394.331	346.5
394.556	337.5
394.78	353.5
395.005	358.5
395.229	363.5
395.454	361.5
395.678	375.5
395.903	367.5
396.127	380.5
396.352	371.5
396.576	385.5
396.801	354.5
397.025	371.5
397.249	381.5
397.474	387.5
397.698	372.5
397.922	391.5
398.147	401.5
398.371	394.5
398.595	406.5
398.82	380.5
399.044	418.5
399.268	396.5
399.492	398.5
399.717	417.5
399.941	463.5
400.165	465.5
400.389	474.5
400.613	435.5
400.837	427.5
401.062	416.5
401.286	410.5
401.51	397.5
401.734	411.5
401.958	398.5
402.182	403.5
402.406	422.5
402.63	424.5
402.854	417.5
403.078	402.5
403.302	421.5
403.526	420.5
403.75	413.5
403.974	417.5
404.198	426.5
404.422	424.5
404.645	422.5
404.869	435.5
405.093	447.5
405.317	464.5
405.541	507.5
405.765	472.5
405.988	420.5
406.212	465.5
406.436	487.5
406.66	468.5
406.883	445.5
407.107	461.5
407.331	492.5
407.555	544.5
407.778	532.5
408.002	499.5
408.226	471.5
408.449	459.5
408.673	458.5
408.896	491.5
409.12	492.5
409.344	466.5
409.567	428.5
409.791	429.5
410.014	425.5
410.238	414.5
410.461	398.5
410.685	409.5
410.908	424.5
411.132	461.5
411.355	491.5
411.578	450.5
411.802	412.5
412.025	405.5
412.249	410.5
412.472	441.5
412.695	475.5
412.919	441.5
413.142	433.5
413.365	436.5
413.589	427.5
413.812	394.5
414.035	417.5
414.258	372.5
414.482	388.5
414.705	375.5
414.928	368.5
415.151	388.5
415.374	397.5
415.597	389.5
415.821	377.5
416.044	405.5
416.267	379.5
416.49	394.5
416.713	403.5
416.936	383.5
417.159	384.5
417.382	380.5
417.605	404.5
417.828	404.5
418.051	402.5
418.274	407.5
418.497	380.5
418.72	373.5
418.943	381.5
419.166	373.5
419.389	433.5
419.611	429.5
419.834	402.5
420.057	395.5
420.28	409.5
420.503	404.5
420.726	421.5
420.948	409.5
421.171	452.5
421.394	467.5
421.617	417.5
421.839	407.5
422.062	398.5
422.285	420.5
422.507	457.5
422.73	537.5
422.953	499.5
423.175	452.5
423.398	419.5
423.621	431.5
423.843	452.5
424.066	462.5
424.288	440.5
424.511	459.5
424.733	499.5
424.956	551.5
425.178	531.5
425.401	531.5
425.623	555.5
425.846	474.5
426.068	451.5
426.291	459.5
426.513	447.5
426.735	445.5
426.958	475.5
427.18	563.5
427.402	644.5
427.625	703.5
427.847	637.5
428.069	530.5
428.292	475.5
428.514	441.5
428.736	405.5
428.958	423.5
429.181	413.5
429.403	419.5
429.625	419.5
429.847	463.5
430.069	523.5
430.292	495.5
430.514	432.5
430.736	416.5
430.958	403.5
431.18	413.5
431.402	407.5
431.624	383.5
431.846	411.5
432.068	388.5
432.29	415.5
432.512	396.5
432.734	387.5
432.956	403.5
433.178	400.5
433.4	396.5
433.622	397.5
433.844	385.5
434.066	372.5
434.287	396.5
434.509	403.5
434.731	409.5
434.953	395.5
435.175	431.5
435.397	453.5
435.618	442.5
435.84	485.5
436.062	553.5
436.284	587.5
436.505	490.5
436.727	460.5
436.949	425.5
437.17	442.5
437.392	451.5
437.614	456.5
437.835	481.5
438.057	531.5
438.278	595.5
438.5	616.5
438.721	682.5
438.943	645.5
439.165	519.5
439.386	492.5
439.608	457.5
439.829	447.5
440.05	490.5
440.272	516.5
440.493	499.5
440.715	445.5
440.936	428.5
441.158	420.5
441.379	425.5
441.6	431.5
441.822	447.5
442.043	483.5
442.264	543.5
442.486	578.5
442.707	487.5
442.928	460.5
443.149	479.5
443.371	499.5
443.592	533.5
443.813	576.5
444.034	623.5
444.255	513.5
444.476	463.5
444.698	446.5
444.919	455.5
445.14	538.5
445.361	491.5
445.582	491.5
445.803	540.5
446.024	637.5
446.245	629.5
446.466	568.5
446.687	487.5
446.908	449.5
447.129	436.5
447.35	419.5
447.571	407.5
447.792	411.5
448.013	437.5
448.234	435.5
448.455	499.5
448.675	548.5
448.896	675.5
449.117	564.5
449.338	517.5
449.559	624.5
449.779	678.5
450	559.5
450.221	461.5
450.442	419.5
450.662	427.5
450.883	442.5
451.104	431.5
451.324	431.5
451.545	411.5
451.766	392.5
451.986	379.5
452.207	393.5
452.428	392.5
452.648	377.5
452.869	375.5
453.089	392.5
453.31	400.5
453.53	404.5
453.751	383.5
453.971	387.5
454.192	409.5
454.412	398.5
454.633	377.5
454.853	370.5
455.073	382.5
455.294	429.5
455.514	455.5
455.734	441.5
455.955	358.5
456.175	372.5
456.395	359.5
456.616	361.5
456.836	375.5
457.056	349.5
457.276	359.5
457.497	347.5
457.717	362.5
457.937	373.5
458.157	371.5
458.377	367.5
458.598	400.5
458.818	447.5
459.038	516.5
459.258	519.5
459.478	416.5
459.698	410.5
459.918	408.5
460.138	376.5
460.358	411.5
460.578	380.5
460.798	400.5
461.018	413.5
461.238	412.5
461.458	388.5
461.678	389.5
461.898	402.5
462.118	377.5
462.338	405.5
462.558	377.5
462.777	407.5
462.997	412.5
463.217	414.5
463.437	428.5
463.657	407.5
463.876	409.5
464.096	419.5
464.316	392.5
464.536	407.5
464.755	421.5
464.975	430.5
465.195	481.5
465.414	544.5
465.634	479.5
465.854	447.5
466.073	411.5
466.293	393.5
466.512	407.5
466.732	373.5
466.951	386.5
467.171	380.5
467.391	379.5
467.61	389.5
467.829	411.5
468.049	414.5
468.268	415.5
468.488	396.5
468.707	383.5
468.927	377.5
469.146	373.5
469.365	386.5
469.585	379.5
469.804	399.5
470.023	419.5
470.243	402.5
470.462	388.5
470.681	414.5
470.901	412.5
471.12	410.5
471.339	391.5
471.558	380.5
471.777	382.5
471.997	392.5
472.216	398.5
472.435	447.5
472.654	433.5
472.873	400.5
473.092	387.5
473.311	405.5
473.53	377.5
473.749	391.5
473.968	437.5
474.187	523.5
474.406	526.5
474.625	440.5
474.844	437.5
475.063	408.5
475.282	401.5
475.501	403.5
475.72	397.5
475.939	395.5
476.158	392.5
476.377	387.5
476.596	383.5
476.814	410.5
477.033	447.5
477.252	418.5
477.471	436.5
477.69	401.5
477.908	422.5
478.127	419.5
478.346	428.5
478.564	432.5
478.783	447.5
479.002	463.5
479.22	442.5
479.439	452.5
479.658	465.5
479.876	481.5
480.095	488.5
480.313	489.5
480.532	481.5
480.751	461.5
480.969	505.5
481.188	525.5
481.406	589.5
481.624	525.5
481.843	481.5
482.061	466.5
482.28	495.5
482.498	470.5
482.717	462.5
482.935	464.5
483.153	466.5
483.372	466.5
483.59	459.5
483.808	461.5
484.027	475.5
484.245	448.5
484.463	466.5
484.681	482.5
484.9	485.5
485.118	479.5
485.336	471.5
485.554	462.5
485.772	476.5
485.99	488.5
486.209	489.5
486.427	463.5
486.645	494.5
486.863	491.5
487.081	492.5
487.299	488.5
487.517	504.5
487.735	492.5
487.953	497.5
488.171	491.5
488.389	491.5
488.607	514.5
488.825	509.5
489.043	481.5
489.261	503.5
489.479	504.5
489.696	487.5
489.914	507.5
490.132	516.5
490.35	532.5
490.568	492.5
490.786	535.5
491.003	533.5
491.221	548.5
491.439	548.5
491.657	568.5
491.874	567.5
492.092	545.5
492.31	584.5
492.527	576.5
492.745	554.5
492.963	553.5
493.18	554.5
493.398	580.5
493.615	585.5
493.833	579.5
494.05	561.5
494.268	557.5
494.485	558.5
494.703	563.5
494.92	569.5
495.138	603.5
495.355	576.5
495.573	586.5
495.79	601.5
496.008	601.5
496.225	588.5
496.442	576.5
496.66	572.5
496.877	575.5
497.094	613.5
497.312	605.5
497.529	582.5
497.746	603.5
497.963	617.5
498.181	613.5
498.398	628.5
498.615	635.5
498.832	638.5
499.049	645.5
499.267	668.5
499.484	667.5
499.701	666.5
499.918	690.5
500.135	741.5
500.352	727.5
500.569	756.5
500.786	767.5
501.003	717.5
501.22	759.5
501.437	730.5
501.654	691.5
501.871	694.5
502.088	701.5
502.305	680.5
502.522	645.5
502.739	631.5
502.956	613.5
503.172	604.5
503.389	616.5
503.606	615.5
503.823	600.5
504.04	613.5
504.256	548.5
504.473	595.5
504.69	567.5
504.907	596.5
505.123	559.5
505.34	579.5
505.557	556.5
505.773	561.5
505.99	572.5
506.207	556.5
506.423	568.5
506.64	543.5
506.856	537.5
507.073	547.5
507.289	540.5
507.506	543.5
507.722	575.5
507.939	587.5
508.155	554.5
508.372	564.5
508.588	551.5
508.805	550.5
509.021	550.5
509.238	544.5
509.454	564.5
509.67	568.5
509.887	533.5
510.103	547.5
510.319	560.5
510.536	647.5
510.752	1129.5
510.968	937.5
511.184	554.5
511.401	533.5
511.617	530.5
511.833	509.5
512.049	524.5
512.265	523.5
512.481	516.5
512.698	534.5
512.914	519.5
513.13	513.5
513.346	504.5
513.562	528.5
513.778	511.5
513.994	512.5
514.21	547.5
514.426	579.5
514.642	614.5
514.858	629.5
515.074	679.5
515.29	833.5
515.506	1244.5
515.721	1011.5
515.937	658.5
516.153	595.5
516.369	549.5
516.585	574.5
516.801	537.5
517.016	526.5
517.232	517.5
517.448	513.5
517.664	513.5
517.879	538.5
518.095	531.5
518.311	521.5
518.527	526.5
518.742	523.5
518.958	510.5
519.173	517.5
519.389	499.5
519.605	516.5
519.82	512.5
520.036	525.5
