Data from 1965.PennyLincolnUp.Lamp.En5.5.200Scan.071719.P1._HRD10591_14-10-02-912.txt Node
Date: Thu Jul 18 14:10:02 EDT 2019
User: cochatt
Spectrometer: HR+D1059
Trigger mode: 1
Integration Time (sec): 1.000000E-1
Scans to average: 1
Electric dark correction enabled: true
Nonlinearity correction enabled: false
Boxcar width: 0
XAxis mode: Wavelengths
Number of Pixels in Spectrum: 2048
>>>>>Begin Spectral Data<<<<<
223.165	-25.56
223.4	-25.56
223.635	-25.56
223.869	-17.56
224.104	-10.56
224.338	-17.56
224.573	-12.56
224.808	-9.56
225.042	-5.56
225.277	-7.56
225.511	-7.56
225.746	-1.56
225.98	8.44
226.215	19.44
226.449	16.44
226.683	17.44
226.918	28.44
227.152	25.44
227.387	23.44
227.621	34.44
227.856	25.44
228.09	35.44
228.324	52.44
228.559	55.44
228.793	79.44
229.027	82.44
229.262	110.44
229.496	111.44
229.73	130.44
229.964	138.44
230.199	114.44
230.433	102.44
230.667	111.44
230.901	108.44
231.136	107.44
231.37	89.44
231.604	115.44
231.838	118.44
232.072	111.44
232.306	116.44
232.541	104.44
232.775	119.44
233.009	105.44
233.243	104.44
233.477	104.44
233.711	108.44
233.945	104.44
234.179	117.44
234.413	122.44
234.647	109.44
234.881	128.44
235.115	92.44
235.349	102.44
235.583	104.44
235.817	120.44
236.051	118.44
236.285	122.44
236.519	119.44
236.753	111.44
236.987	146.44
237.221	187.44
237.455	206.44
237.689	166.44
237.922	134.44
238.156	125.44
238.39	118.44
238.624	122.44
238.858	125.44
239.091	118.44
239.325	118.44
239.559	123.44
239.793	103.44
240.027	134.44
240.26	130.44
240.494	155.44
240.728	152.44
240.961	144.44
241.195	141.44
241.429	132.44
241.662	137.44
241.896	107.44
242.13	105.44
242.363	128.44
242.597	127.44
242.83	111.44
243.064	125.44
243.298	126.44
243.531	138.44
243.765	136.44
243.998	122.44
244.232	140.44
244.465	133.44
244.699	136.44
244.932	129.44
245.166	131.44
245.399	129.44
245.633	132.44
245.866	119.44
246.099	130.44
246.333	136.44
246.566	140.44
246.8	145.44
247.033	146.44
247.266	144.44
247.5	151.44
247.733	138.44
247.966	156.44
248.2	154.44
248.433	152.44
248.666	157.44
248.899	176.44
249.133	178.44
249.366	192.44
249.599	185.44
249.832	162.44
250.066	168.44
250.299	173.44
250.532	175.44
250.765	179.44
250.998	198.44
251.231	205.44
251.465	189.44
251.698	191.44
251.931	182.44
252.164	190.44
252.397	179.44
252.63	183.44
252.863	183.44
253.096	184.44
253.329	185.44
253.562	195.44
253.795	203.44
254.028	182.44
254.261	192.44
254.494	200.44
254.727	224.44
254.96	256.44
255.193	241.44
255.426	210.44
255.659	205.44
255.892	198.44
256.124	209.44
256.357	202.44
256.59	215.44
256.823	193.44
257.056	190.44
257.289	188.44
257.521	206.44
257.754	183.44
257.987	186.44
258.22	183.44
258.452	178.44
258.685	189.44
258.918	193.44
259.151	205.44
259.383	202.44
259.616	202.44
259.849	204.44
260.081	223.44
260.314	224.44
260.547	231.44
260.779	216.44
261.012	213.44
261.244	197.44
261.477	203.44
261.71	201.44
261.942	214.44
262.175	207.44
262.407	198.44
262.64	202.44
262.872	207.44
263.105	197.44
263.337	185.44
263.57	194.44
263.802	195.44
264.035	190.44
264.267	188.44
264.499	190.44
264.732	197.44
264.964	165.44
265.197	186.44
265.429	190.44
265.661	199.44
265.894	194.44
266.126	212.44
266.358	197.44
266.591	200.44
266.823	198.44
267.055	183.44
267.287	196.44
267.52	196.44
267.752	195.44
267.984	210.44
268.216	210.44
268.448	216.44
268.681	216.44
268.913	230.44
269.145	234.44
269.377	239.44
269.609	247.44
269.841	229.44
270.073	243.44
270.306	269.44
270.538	295.44
270.77	284.44
271.002	277.44
271.234	262.44
271.466	278.44
271.698	298.44
271.93	277.44
272.162	279.44
272.394	293.44
272.626	279.44
272.858	262.44
273.09	244.44
273.322	249.44
273.553	237.44
273.785	239.44
274.017	236.44
274.249	244.44
274.481	245.44
274.713	228.44
274.945	243.44
275.176	232.44
275.408	229.44
275.64	229.44
275.872	243.44
276.104	242.44
276.335	235.44
276.567	261.44
276.799	260.44
277.031	277.44
277.262	298.44
277.494	273.44
277.726	263.44
277.957	264.44
278.189	243.44
278.421	249.44
278.652	229.44
278.884	248.44
279.115	216.44
279.347	236.44
279.579	243.44
279.81	218.44
280.042	222.44
280.273	229.44
280.505	247.44
280.736	258.44
280.968	232.44
281.199	228.44
281.431	227.44
281.662	232.44
281.894	242.44
282.125	232.44
282.356	235.44
282.588	278.44
282.819	284.44
283.051	235.44
283.282	239.44
283.513	236.44
283.745	260.44
283.976	252.44
284.207	243.44
284.439	232.44
284.67	239.44
284.901	260.44
285.132	244.44
285.364	252.44
285.595	245.44
285.826	248.44
286.057	254.44
286.288	243.44
286.52	232.44
286.751	244.44
286.982	231.44
287.213	247.44
287.444	237.44
287.675	245.44
287.906	267.44
288.138	263.44
288.369	259.44
288.6	267.44
288.831	258.44
289.062	263.44
289.293	263.44
289.524	269.44
289.755	270.44
289.986	258.44
290.217	249.44
290.448	258.44
290.679	248.44
290.91	251.44
291.141	263.44
291.371	254.44
291.602	258.44
291.833	248.44
292.064	253.44
292.295	260.44
292.526	240.44
292.757	251.44
292.987	266.44
293.218	248.44
293.449	251.44
293.68	261.44
293.91	277.44
294.141	238.44
294.372	245.44
294.603	258.44
294.833	262.44
295.064	269.44
295.295	268.44
295.525	237.44
295.756	250.44
295.987	276.44
296.217	297.44
296.448	290.44
296.679	266.44
296.909	266.44
297.14	247.44
297.37	249.44
297.601	255.44
297.831	259.44
298.062	270.44
298.292	278.44
298.523	276.44
298.753	273.44
298.984	271.44
299.214	259.44
299.445	276.44
299.675	275.44
299.905	268.44
300.136	262.44
300.366	266.44
300.597	263.44
300.827	270.44
301.057	284.44
301.288	285.44
301.518	280.44
301.748	289.44
301.979	271.44
302.209	274.44
302.439	296.44
302.669	295.44
302.9	279.44
303.13	277.44
303.36	298.44
303.59	290.44
303.82	293.44
304.051	289.44
304.281	279.44
304.511	286.44
304.741	280.44
304.971	288.44
305.201	290.44
305.431	280.44
305.661	286.44
305.891	291.44
306.121	292.44
306.352	299.44
306.582	296.44
306.812	288.44
307.042	279.44
307.272	297.44
307.502	298.44
307.731	288.44
307.961	298.44
308.191	295.44
308.421	295.44
308.651	307.44
308.881	305.44
309.111	315.44
309.341	311.44
309.571	337.44
309.8	311.44
310.03	334.44
310.26	352.44
310.49	310.44
310.72	336.44
310.949	341.44
311.179	354.44
311.409	320.44
311.639	330.44
311.868	345.44
312.098	348.44
312.328	336.44
312.557	356.44
312.787	370.44
313.017	362.44
313.246	355.44
313.476	337.44
313.706	341.44
313.935	332.44
314.165	352.44
314.394	367.44
314.624	356.44
314.853	339.44
315.083	343.44
315.312	335.44
315.542	340.44
315.771	332.44
316.001	333.44
316.23	331.44
316.46	308.44
316.689	339.44
316.919	336.44
317.148	335.44
317.377	370.44
317.607	330.44
317.836	341.44
318.065	334.44
318.295	333.44
318.524	324.44
318.753	319.44
318.983	318.44
319.212	335.44
319.441	364.44
319.67	361.44
319.9	353.44
320.129	355.44
320.358	340.44
320.587	326.44
320.816	342.44
321.046	362.44
321.275	342.44
321.504	360.44
321.733	362.44
321.962	382.44
322.191	396.44
322.42	389.44
322.649	424.44
322.878	398.44
323.108	404.44
323.337	429.44
323.566	482.44
323.795	492.44
324.024	555.44
324.253	678.44
324.482	1001.44
324.71	1565.44
324.939	2086.44
325.168	1766.44
325.397	946.44
325.626	649.44
325.855	526.44
326.084	478.44
326.313	490.44
326.542	487.44
326.77	536.44
326.999	662.44
327.228	901.44
327.457	1344.44
327.686	1583.44
327.914	1049.44
328.143	713.44
328.372	623.44
328.6	572.44
328.829	542.44
329.058	528.44
329.287	557.44
329.515	509.44
329.744	482.44
329.972	486.44
330.201	499.44
330.43	556.44
330.658	574.44
330.887	614.44
331.115	567.44
331.344	499.44
331.572	454.44
331.801	423.44
332.03	448.44
332.258	418.44
332.486	409.44
332.715	412.44
332.943	390.44
333.172	393.44
333.4	408.44
333.629	399.44
333.857	422.44
334.085	444.44
334.314	447.44
334.542	496.44
334.771	474.44
334.999	453.44
335.227	429.44
335.455	406.44
335.684	403.44
335.912	385.44
336.14	370.44
336.369	390.44
336.597	389.44
336.825	387.44
337.053	389.44
337.281	376.44
337.51	383.44
337.738	370.44
337.966	387.44
338.194	397.44
338.422	386.44
338.65	394.44
338.878	371.44
339.106	354.44
339.334	380.44
339.562	386.44
339.79	377.44
340.018	364.44
340.246	375.44
340.474	380.44
340.702	401.44
340.93	362.44
341.158	375.44
341.386	373.44
341.614	372.44
341.842	381.44
342.07	372.44
342.298	365.44
342.526	360.44
342.754	359.44
342.981	357.44
343.209	376.44
343.437	370.44
343.665	376.44
343.893	370.44
344.12	378.44
344.348	389.44
344.576	392.44
344.804	381.44
345.031	380.44
345.259	398.44
345.487	391.44
345.714	383.44
345.942	357.44
346.17	378.44
346.397	374.44
346.625	363.44
346.853	362.44
347.08	349.44
347.308	371.44
347.535	374.44
347.763	362.44
347.99	388.44
348.218	382.44
348.445	393.44
348.673	395.44
348.9	354.44
349.128	350.44
349.355	370.44
349.583	342.44
349.81	372.44
350.037	366.44
350.265	357.44
350.492	354.44
350.72	370.44
350.947	368.44
351.174	379.44
351.402	372.44
351.629	381.44
351.856	392.44
352.083	381.44
352.311	393.44
352.538	401.44
352.765	386.44
352.992	381.44
353.22	370.44
353.447	370.44
353.674	339.44
353.901	363.44
354.128	336.44
354.355	326.44
354.583	341.44
354.81	339.44
355.037	342.44
355.264	333.44
355.491	327.44
355.718	340.44
355.945	331.44
356.172	334.44
356.399	330.44
356.626	331.44
356.853	330.44
357.08	327.44
357.307	350.44
357.534	345.44
357.761	341.44
357.988	332.44
358.215	330.44
358.441	333.44
358.668	334.44
358.895	338.44
359.122	355.44
359.349	356.44
359.576	359.44
359.802	409.44
360.029	434.44
360.256	428.44
360.483	404.44
360.709	368.44
360.936	363.44
361.163	377.44
361.39	357.44
361.616	372.44
361.843	356.44
362.07	365.44
362.296	386.44
362.523	365.44
362.749	365.44
362.976	367.44
363.203	367.44
363.429	362.44
363.656	350.44
363.882	361.44
364.109	362.44
364.335	350.44
364.562	341.44
364.788	343.44
365.015	350.44
365.241	340.44
365.468	365.44
365.694	350.44
365.92	357.44
366.147	350.44
366.373	348.44
366.599	335.44
366.826	353.44
367.052	352.44
367.278	354.44
367.505	354.44
367.731	349.44
367.957	352.44
368.184	347.44
368.41	347.44
368.636	339.44
368.862	376.44
369.089	362.44
369.315	344.44
369.541	346.44
369.767	344.44
369.993	335.44
370.219	334.44
370.445	326.44
370.672	328.44
370.898	336.44
371.124	345.44
371.35	333.44
371.576	338.44
371.802	346.44
372.028	326.44
372.254	331.44
372.48	346.44
372.706	348.44
372.932	344.44
373.158	351.44
373.384	348.44
373.61	330.44
373.835	335.44
374.061	340.44
374.287	356.44
374.513	328.44
374.739	342.44
374.965	360.44
375.191	335.44
375.416	338.44
375.642	344.44
375.868	335.44
376.094	340.44
376.319	314.44
376.545	341.44
376.771	341.44
376.997	359.44
377.222	327.44
377.448	321.44
377.674	336.44
377.899	344.44
378.125	344.44
378.35	315.44
378.576	338.44
378.802	317.44
379.027	352.44
379.253	338.44
379.478	345.44
379.704	332.44
379.929	339.44
380.155	334.44
380.38	356.44
380.606	336.44
380.831	333.44
381.057	325.44
381.282	349.44
381.507	351.44
381.733	351.44
381.958	345.44
382.184	339.44
382.409	326.44
382.634	346.44
382.86	328.44
383.085	350.44
383.31	349.44
383.535	350.44
383.761	347.44
383.986	363.44
384.211	352.44
384.436	368.44
384.662	349.44
384.887	337.44
385.112	355.44
385.337	339.44
385.562	346.44
385.787	355.44
386.013	360.44
386.238	379.44
386.463	380.44
386.688	360.44
386.913	367.44
387.138	357.44
387.363	359.44
387.588	365.44
387.813	344.44
388.038	340.44
388.263	355.44
388.488	360.44
388.713	367.44
388.938	375.44
389.163	377.44
389.387	372.44
389.612	359.44
389.837	344.44
390.062	354.44
390.287	370.44
390.512	365.44
390.736	353.44
390.961	363.44
391.186	340.44
391.411	350.44
391.636	365.44
391.86	353.44
392.085	373.44
392.31	350.44
392.534	366.44
392.759	365.44
392.984	350.44
393.208	361.44
393.433	358.44
393.658	366.44
393.882	365.44
394.107	364.44
394.331	338.44
394.556	340.44
394.78	349.44
395.005	372.44
395.229	366.44
395.454	361.44
395.678	359.44
395.903	382.44
396.127	404.44
396.352	395.44
396.576	384.44
396.801	384.44
397.025	354.44
397.249	370.44
397.474	390.44
397.698	406.44
397.922	400.44
398.147	404.44
398.371	404.44
398.595	394.44
398.82	358.44
399.044	414.44
399.268	386.44
399.492	429.44
399.717	444.44
399.941	458.44
400.165	507.44
400.389	490.44
400.613	445.44
400.837	414.44
401.062	413.44
401.286	404.44
401.51	419.44
401.734	390.44
401.958	396.44
402.182	423.44
402.406	437.44
402.63	420.44
402.854	432.44
403.078	418.44
403.302	408.44
403.526	410.44
403.75	425.44
403.974	420.44
404.198	432.44
404.422	407.44
404.645	423.44
404.869	447.44
405.093	445.44
405.317	487.44
405.541	506.44
405.765	495.44
405.988	430.44
406.212	460.44
406.436	496.44
406.66	470.44
406.883	471.44
407.107	486.44
407.331	518.44
407.555	529.44
407.778	544.44
408.002	508.44
408.226	491.44
408.449	472.44
408.673	459.44
408.896	485.44
409.12	514.44
409.344	502.44
409.567	428.44
409.791	436.44
410.014	427.44
410.238	422.44
410.461	427.44
410.685	428.44
410.908	444.44
411.132	460.44
411.355	475.44
411.578	475.44
411.802	445.44
412.025	415.44
412.249	429.44
412.472	457.44
412.695	478.44
412.919	468.44
413.142	442.44
413.365	434.44
413.589	420.44
413.812	406.44
414.035	409.44
414.258	405.44
414.482	400.44
414.705	398.44
414.928	392.44
415.151	398.44
415.374	397.44
415.597	407.44
415.821	387.44
416.044	405.44
416.267	386.44
416.49	402.44
416.713	405.44
416.936	395.44
417.159	390.44
417.382	393.44
417.605	412.44
417.828	421.44
418.051	426.44
418.274	419.44
418.497	402.44
418.72	401.44
418.943	394.44
419.166	404.44
419.389	438.44
419.611	442.44
419.834	414.44
420.057	439.44
420.28	447.44
420.503	407.44
420.726	424.44
420.948	468.44
421.171	454.44
421.394	486.44
421.617	416.44
421.839	426.44
422.062	439.44
422.285	438.44
422.507	483.44
422.73	559.44
422.953	526.44
423.175	475.44
423.398	451.44
423.621	455.44
423.843	458.44
424.066	447.44
424.288	465.44
424.511	495.44
424.733	526.44
424.956	593.44
425.178	564.44
425.401	556.44
425.623	579.44
425.846	496.44
426.068	475.44
426.291	468.44
426.513	451.44
426.735	470.44
426.958	521.44
427.18	582.44
427.402	681.44
427.625	755.44
427.847	670.44
428.069	594.44
428.292	525.44
428.514	451.44
428.736	453.44
428.958	444.44
429.181	424.44
429.403	425.44
429.625	448.44
429.847	476.44
430.069	507.44
430.292	516.44
430.514	447.44
430.736	438.44
430.958	431.44
431.18	410.44
431.402	387.44
431.624	384.44
431.846	414.44
432.068	395.44
432.29	416.44
432.512	393.44
432.734	414.44
432.956	420.44
433.178	427.44
433.4	423.44
433.622	426.44
433.844	401.44
434.066	410.44
434.287	412.44
434.509	397.44
434.731	394.44
434.953	431.44
435.175	430.44
435.397	462.44
435.618	472.44
435.84	494.44
436.062	580.44
436.284	631.44
436.505	534.44
436.727	488.44
436.949	456.44
437.17	419.44
437.392	448.44
437.614	446.44
437.835	486.44
438.057	579.44
438.278	663.44
438.5	644.44
438.721	704.44
438.943	657.44
439.165	558.44
439.386	505.44
439.608	494.44
439.829	477.44
440.05	505.44
440.272	548.44
440.493	514.44
440.715	473.44
440.936	468.44
441.158	462.44
441.379	463.44
441.6	452.44
441.822	479.44
442.043	502.44
442.264	581.44
442.486	607.44
442.707	523.44
442.928	483.44
443.149	491.44
443.371	500.44
443.592	542.44
443.813	608.44
444.034	651.44
444.255	545.44
444.476	486.44
444.698	473.44
444.919	467.44
445.14	590.44
445.361	548.44
445.582	504.44
445.803	594.44
446.024	653.44
446.245	665.44
446.466	606.44
446.687	503.44
446.908	478.44
447.129	436.44
447.35	437.44
447.571	450.44
447.792	445.44
448.013	433.44
448.234	463.44
448.455	490.44
448.675	612.44
448.896	672.44
449.117	590.44
449.338	568.44
449.559	640.44
449.779	692.44
450	584.44
450.221	484.44
450.442	460.44
450.662	425.44
450.883	476.44
451.104	449.44
451.324	469.44
451.545	446.44
451.766	406.44
451.986	393.44
452.207	383.44
452.428	386.44
452.648	400.44
452.869	388.44
453.089	397.44
453.31	430.44
453.53	393.44
453.751	413.44
453.971	422.44
454.192	426.44
454.412	397.44
454.633	399.44
454.853	377.44
455.073	394.44
455.294	428.44
455.514	467.44
455.734	467.44
455.955	399.44
456.175	395.44
456.395	376.44
456.616	367.44
456.836	354.44
457.056	380.44
457.276	357.44
457.497	357.44
457.717	366.44
457.937	365.44
458.157	373.44
458.377	386.44
458.598	390.44
458.818	455.44
459.038	560.44
459.258	546.44
459.478	454.44
459.698	427.44
459.918	430.44
460.138	399.44
460.358	416.44
460.578	412.44
460.798	410.44
461.018	419.44
461.238	385.44
461.458	407.44
461.678	399.44
461.898	399.44
462.118	389.44
462.338	438.44
462.558	418.44
462.777	411.44
462.997	410.44
463.217	414.44
463.437	420.44
463.657	419.44
463.876	417.44
464.096	434.44
464.316	432.44
464.536	441.44
464.755	430.44
464.975	458.44
465.195	506.44
465.414	596.44
465.634	499.44
465.854	444.44
466.073	434.44
466.293	412.44
466.512	423.44
466.732	393.44
466.951	391.44
467.171	400.44
467.391	409.44
467.61	396.44
467.829	406.44
468.049	419.44
468.268	386.44
468.488	393.44
468.707	392.44
468.927	392.44
469.146	398.44
469.365	393.44
469.585	375.44
469.804	403.44
470.023	404.44
470.243	389.44
470.462	408.44
470.681	414.44
470.901	436.44
471.12	413.44
471.339	404.44
471.558	391.44
471.777	399.44
471.997	408.44
472.216	428.44
472.435	474.44
472.654	445.44
472.873	420.44
473.092	404.44
473.311	401.44
473.53	426.44
473.749	413.44
473.968	468.44
474.187	567.44
474.406	562.44
474.625	448.44
474.844	430.44
475.063	396.44
475.282	431.44
475.501	402.44
475.72	394.44
475.939	406.44
476.158	410.44
476.377	405.44
476.596	428.44
476.814	434.44
477.033	431.44
477.252	438.44
477.471	436.44
477.69	438.44
477.908	442.44
478.127	441.44
478.346	427.44
478.564	424.44
478.783	431.44
479.002	448.44
479.22	434.44
479.439	459.44
479.658	486.44
479.876	492.44
480.095	488.44
480.313	503.44
480.532	500.44
480.751	487.44
480.969	498.44
481.188	568.44
481.406	607.44
481.624	556.44
481.843	520.44
482.061	488.44
482.28	476.44
482.498	480.44
482.717	471.44
482.935	479.44
483.153	504.44
483.372	486.44
483.59	478.44
483.808	464.44
484.027	457.44
484.245	475.44
484.463	491.44
484.681	499.44
484.9	469.44
485.118	463.44
485.336	480.44
485.554	492.44
485.772	503.44
485.99	458.44
486.209	475.44
486.427	526.44
486.645	502.44
486.863	541.44
487.081	518.44
487.299	517.44
487.517	525.44
487.735	490.44
487.953	509.44
488.171	500.44
488.389	508.44
488.607	518.44
488.825	516.44
489.043	493.44
489.261	520.44
489.479	521.44
489.696	522.44
489.914	544.44
490.132	516.44
490.35	533.44
490.568	539.44
490.786	540.44
491.003	553.44
491.221	558.44
491.439	572.44
491.657	582.44
491.874	578.44
492.092	571.44
492.31	576.44
492.527	573.44
492.745	587.44
492.963	580.44
493.18	580.44
493.398	604.44
493.615	594.44
493.833	602.44
494.05	599.44
494.268	607.44
494.485	595.44
494.703	591.44
494.92	592.44
495.138	595.44
495.355	620.44
495.573	623.44
495.79	613.44
496.008	602.44
496.225	606.44
496.442	577.44
496.66	592.44
496.877	627.44
497.094	604.44
497.312	628.44
497.529	613.44
497.746	606.44
497.963	617.44
498.181	645.44
498.398	636.44
498.615	636.44
498.832	662.44
499.049	655.44
499.267	671.44
499.484	670.44
499.701	692.44
499.918	725.44
500.135	738.44
500.352	738.44
500.569	743.44
500.786	789.44
501.003	772.44
501.22	743.44
501.437	750.44
501.654	751.44
501.871	748.44
