Data from 1965.PennyLincolnUp.Lamp.En5.5.200Scan.071719.P1._HRD10591_14-08-49-911.txt Node
Date: Thu Jul 18 14:08:49 EDT 2019
User: cochatt
Spectrometer: HR+D1059
Trigger mode: 1
Integration Time (sec): 1.000000E-1
Scans to average: 1
Electric dark correction enabled: true
Nonlinearity correction enabled: false
Boxcar width: 0
XAxis mode: Wavelengths
Number of Pixels in Spectrum: 2048
>>>>>Begin Spectral Data<<<<<
223.165	-16.88
223.4	-16.88
223.635	-16.88
223.869	-25.88
224.104	-6.88
224.338	-13.88
224.573	2.12
224.808	-4.88
225.042	-14.88
225.277	-5.88
225.511	1.12
225.746	-8.88
225.98	6.12
226.215	19.12
226.449	9.12
226.683	16.12
226.918	30.12
227.152	14.12
227.387	31.12
227.621	42.12
227.856	42.12
228.09	43.12
228.324	54.12
228.559	59.12
228.793	60.12
229.027	97.12
229.262	106.12
229.496	104.12
229.73	123.12
229.964	136.12
230.199	127.12
230.433	129.12
230.667	114.12
230.901	117.12
231.136	103.12
231.37	110.12
231.604	114.12
231.838	108.12
232.072	106.12
232.306	93.12
232.541	101.12
232.775	115.12
233.009	115.12
233.243	118.12
233.477	105.12
233.711	109.12
233.945	112.12
234.179	119.12
234.413	106.12
234.647	118.12
234.881	114.12
235.115	112.12
235.349	92.12
235.583	111.12
235.817	110.12
236.051	114.12
236.285	116.12
236.519	117.12
236.753	111.12
236.987	128.12
237.221	163.12
237.455	208.12
237.689	171.12
237.922	133.12
238.156	136.12
238.39	118.12
238.624	129.12
238.858	127.12
239.091	119.12
239.325	101.12
239.559	119.12
239.793	119.12
240.027	121.12
240.26	144.12
240.494	155.12
240.728	138.12
240.961	134.12
241.195	122.12
241.429	127.12
241.662	129.12
241.896	135.12
242.13	125.12
242.363	122.12
242.597	135.12
242.83	129.12
243.064	121.12
243.298	133.12
243.531	132.12
243.765	125.12
243.998	138.12
244.232	134.12
244.465	127.12
244.699	130.12
244.932	146.12
245.166	132.12
245.399	142.12
245.633	139.12
245.866	135.12
246.099	136.12
246.333	147.12
246.566	153.12
246.8	134.12
247.033	143.12
247.266	148.12
247.5	148.12
247.733	149.12
247.966	171.12
248.2	156.12
248.433	165.12
248.666	158.12
248.899	159.12
249.133	176.12
249.366	177.12
249.599	186.12
249.832	163.12
250.066	162.12
250.299	164.12
250.532	155.12
250.765	198.12
250.998	206.12
251.231	205.12
251.465	202.12
251.698	188.12
251.931	185.12
252.164	179.12
252.397	168.12
252.63	168.12
252.863	178.12
253.096	189.12
253.329	190.12
253.562	196.12
253.795	202.12
254.028	182.12
254.261	203.12
254.494	204.12
254.727	224.12
254.96	238.12
255.193	239.12
255.426	215.12
255.659	209.12
255.892	191.12
256.124	202.12
256.357	218.12
256.59	210.12
256.823	194.12
257.056	187.12
257.289	187.12
257.521	194.12
257.754	185.12
257.987	182.12
258.22	197.12
258.452	176.12
258.685	187.12
258.918	185.12
259.151	195.12
259.383	196.12
259.616	198.12
259.849	193.12
260.081	226.12
260.314	229.12
260.547	224.12
260.779	208.12
261.012	205.12
261.244	210.12
261.477	194.12
261.71	202.12
261.942	206.12
262.175	213.12
262.407	213.12
262.64	191.12
262.872	197.12
263.105	191.12
263.337	188.12
263.57	198.12
263.802	197.12
264.035	197.12
264.267	163.12
264.499	194.12
264.732	175.12
264.964	181.12
265.197	189.12
265.429	184.12
265.661	177.12
265.894	181.12
266.126	211.12
266.358	213.12
266.591	192.12
266.823	192.12
267.055	191.12
267.287	209.12
267.52	205.12
267.752	210.12
267.984	225.12
268.216	208.12
268.448	201.12
268.681	206.12
268.913	213.12
269.145	221.12
269.377	234.12
269.609	242.12
269.841	236.12
270.073	240.12
270.306	250.12
270.538	277.12
270.77	273.12
271.002	268.12
271.234	252.12
271.466	257.12
271.698	266.12
271.93	281.12
272.162	281.12
272.394	264.12
272.626	259.12
272.858	266.12
273.09	242.12
273.322	241.12
273.553	242.12
273.785	233.12
274.017	233.12
274.249	224.12
274.481	224.12
274.713	228.12
274.945	245.12
275.176	234.12
275.408	217.12
275.64	220.12
275.872	222.12
276.104	240.12
276.335	225.12
276.567	248.12
276.799	232.12
277.031	268.12
277.262	281.12
277.494	277.12
277.726	262.12
277.957	247.12
278.189	237.12
278.421	226.12
278.652	237.12
278.884	240.12
279.115	225.12
279.347	234.12
279.579	236.12
279.81	218.12
280.042	227.12
280.273	236.12
280.505	234.12
280.736	233.12
280.968	229.12
281.199	236.12
281.431	237.12
281.662	225.12
281.894	237.12
282.125	235.12
282.356	258.12
282.588	265.12
282.819	274.12
283.051	240.12
283.282	216.12
283.513	232.12
283.745	236.12
283.976	252.12
284.207	242.12
284.439	246.12
284.67	255.12
284.901	227.12
285.132	240.12
285.364	236.12
285.595	246.12
285.826	249.12
286.057	229.12
286.288	241.12
286.52	247.12
286.751	239.12
286.982	225.12
287.213	246.12
287.444	242.12
287.675	240.12
287.906	265.12
288.138	269.12
288.369	270.12
288.6	262.12
288.831	236.12
289.062	253.12
289.293	265.12
289.524	243.12
289.755	247.12
289.986	230.12
290.217	264.12
290.448	257.12
290.679	251.12
290.91	240.12
291.141	270.12
291.371	238.12
291.602	245.12
291.833	252.12
292.064	246.12
292.295	260.12
292.526	261.12
292.757	251.12
292.987	249.12
293.218	254.12
293.449	254.12
293.68	243.12
293.91	240.12
294.141	248.12
294.372	258.12
294.603	234.12
294.833	261.12
295.064	272.12
295.295	248.12
295.525	268.12
295.756	267.12
295.987	280.12
296.217	290.12
296.448	279.12
296.679	271.12
296.909	259.12
297.14	243.12
297.37	254.12
297.601	274.12
297.831	265.12
298.062	270.12
298.292	262.12
298.523	274.12
298.753	247.12
298.984	266.12
299.214	262.12
299.445	264.12
299.675	272.12
299.905	281.12
300.136	276.12
300.366	281.12
300.597	275.12
300.827	275.12
301.057	281.12
301.288	295.12
301.518	289.12
301.748	280.12
301.979	271.12
302.209	286.12
302.439	295.12
302.669	287.12
302.9	289.12
303.13	267.12
303.36	291.12
303.59	288.12
303.82	280.12
304.051	285.12
304.281	284.12
304.511	285.12
304.741	282.12
304.971	279.12
305.201	280.12
305.431	273.12
305.661	286.12
305.891	281.12
306.121	286.12
306.352	287.12
306.582	301.12
306.812	277.12
307.042	283.12
307.272	283.12
307.502	284.12
307.731	291.12
307.961	294.12
308.191	281.12
308.421	275.12
308.651	311.12
308.881	299.12
309.111	313.12
309.341	314.12
309.571	309.12
309.8	311.12
310.03	319.12
310.26	311.12
310.49	331.12
310.72	328.12
310.949	331.12
311.179	338.12
311.409	344.12
311.639	320.12
311.868	335.12
312.098	347.12
312.328	330.12
312.557	347.12
312.787	355.12
313.017	366.12
313.246	342.12
313.476	327.12
313.706	335.12
313.935	334.12
314.165	333.12
314.394	348.12
314.624	349.12
314.853	334.12
315.083	350.12
315.312	328.12
315.542	335.12
315.771	330.12
316.001	332.12
316.23	318.12
316.46	303.12
316.689	345.12
316.919	338.12
317.148	337.12
317.377	352.12
317.607	329.12
317.836	338.12
318.065	333.12
318.295	335.12
318.524	314.12
318.753	344.12
318.983	325.12
319.212	325.12
319.441	335.12
319.67	348.12
319.9	318.12
320.129	345.12
320.358	316.12
320.587	344.12
320.816	352.12
321.046	350.12
321.275	358.12
321.504	358.12
321.733	353.12
321.962	361.12
322.191	376.12
322.42	401.12
322.649	391.12
322.878	394.12
323.108	409.12
323.337	433.12
323.566	454.12
323.795	512.12
324.024	549.12
324.253	671.12
324.482	935.12
324.71	1469.12
324.939	1938.12
325.168	1712.12
325.397	886.12
325.626	604.12
325.855	515.12
326.084	457.12
326.313	459.12
326.542	457.12
326.77	503.12
326.999	598.12
327.228	851.12
327.457	1249.12
327.686	1491.12
327.914	990.12
328.143	672.12
328.372	583.12
328.6	571.12
328.829	499.12
329.058	519.12
329.287	540.12
329.515	499.12
329.744	473.12
329.972	475.12
330.201	507.12
330.43	516.12
330.658	541.12
330.887	558.12
331.115	535.12
331.344	463.12
331.572	435.12
331.801	439.12
332.03	426.12
332.258	417.12
332.486	408.12
332.715	387.12
332.943	382.12
333.172	403.12
333.4	400.12
333.629	416.12
333.857	430.12
334.085	422.12
334.314	455.12
334.542	465.12
334.771	467.12
334.999	457.12
335.227	410.12
335.455	377.12
335.684	383.12
335.912	398.12
336.14	383.12
336.369	383.12
336.597	359.12
336.825	405.12
337.053	370.12
337.281	373.12
337.51	387.12
337.738	379.12
337.966	374.12
338.194	383.12
338.422	366.12
338.65	365.12
338.878	366.12
339.106	371.12
339.334	382.12
339.562	369.12
339.79	368.12
340.018	364.12
340.246	355.12
340.474	356.12
340.702	381.12
340.93	383.12
341.158	366.12
341.386	364.12
341.614	368.12
341.842	374.12
342.07	364.12
342.298	339.12
342.526	359.12
342.754	345.12
342.981	358.12
343.209	337.12
343.437	346.12
343.665	362.12
343.893	368.12
344.12	380.12
344.348	367.12
344.576	371.12
344.804	368.12
345.031	387.12
345.259	385.12
345.487	382.12
345.714	379.12
345.942	383.12
346.17	348.12
346.397	375.12
346.625	351.12
346.853	357.12
347.08	381.12
347.308	358.12
347.535	375.12
347.763	375.12
347.99	358.12
348.218	381.12
348.445	381.12
348.673	390.12
348.9	370.12
349.128	357.12
349.355	365.12
349.583	337.12
349.81	374.12
350.037	329.12
350.265	378.12
350.492	364.12
350.72	354.12
350.947	352.12
351.174	374.12
351.402	377.12
351.629	382.12
351.856	371.12
352.083	378.12
352.311	379.12
352.538	397.12
352.765	379.12
352.992	376.12
353.22	343.12
353.447	368.12
353.674	360.12
353.901	350.12
354.128	335.12
354.355	349.12
354.583	336.12
354.81	346.12
355.037	323.12
355.264	328.12
355.491	336.12
355.718	323.12
355.945	327.12
356.172	347.12
356.399	338.12
356.626	327.12
356.853	335.12
357.08	339.12
357.307	320.12
357.534	317.12
357.761	328.12
357.988	328.12
358.215	315.12
358.441	345.12
358.668	358.12
358.895	334.12
359.122	335.12
359.349	370.12
359.576	379.12
359.802	407.12
360.029	399.12
360.256	425.12
360.483	400.12
360.709	382.12
360.936	355.12
361.163	367.12
361.39	359.12
361.616	374.12
361.843	362.12
362.07	349.12
362.296	358.12
362.523	377.12
362.749	373.12
362.976	351.12
363.203	353.12
363.429	335.12
363.656	346.12
363.882	339.12
364.109	348.12
364.335	362.12
364.562	352.12
364.788	352.12
365.015	338.12
365.241	338.12
365.468	362.12
365.694	355.12
365.92	354.12
366.147	340.12
366.373	350.12
366.599	346.12
366.826	329.12
367.052	333.12
367.278	332.12
367.505	315.12
367.731	341.12
367.957	352.12
368.184	355.12
368.41	334.12
368.636	354.12
368.862	347.12
369.089	337.12
369.315	340.12
369.541	337.12
369.767	335.12
369.993	340.12
370.219	354.12
370.445	330.12
370.672	344.12
370.898	340.12
371.124	349.12
371.35	325.12
371.576	329.12
371.802	335.12
372.028	330.12
372.254	338.12
372.48	321.12
372.706	325.12
372.932	345.12
373.158	364.12
373.384	344.12
373.61	353.12
373.835	327.12
374.061	351.12
374.287	345.12
374.513	349.12
374.739	354.12
374.965	335.12
375.191	337.12
375.416	342.12
375.642	337.12
375.868	343.12
376.094	343.12
376.319	346.12
376.545	339.12
376.771	344.12
376.997	331.12
377.222	333.12
377.448	324.12
377.674	336.12
377.899	342.12
378.125	330.12
378.35	339.12
378.576	333.12
378.802	315.12
379.027	339.12
379.253	338.12
379.478	351.12
379.704	341.12
379.929	329.12
380.155	339.12
380.38	348.12
380.606	339.12
380.831	333.12
381.057	342.12
381.282	334.12
381.507	341.12
381.733	346.12
381.958	335.12
382.184	319.12
382.409	338.12
382.634	339.12
382.86	351.12
383.085	350.12
383.31	322.12
383.535	343.12
383.761	333.12
383.986	338.12
384.211	349.12
384.436	339.12
384.662	355.12
384.887	365.12
385.112	353.12
385.337	357.12
385.562	366.12
385.787	355.12
386.013	370.12
386.238	357.12
386.463	351.12
386.688	353.12
386.913	361.12
387.138	359.12
387.363	348.12
387.588	366.12
387.813	360.12
388.038	366.12
388.263	358.12
388.488	368.12
388.713	345.12
388.938	380.12
389.163	351.12
389.387	360.12
389.612	345.12
389.837	366.12
390.062	347.12
390.287	367.12
390.512	349.12
390.736	366.12
390.961	373.12
391.186	361.12
391.411	362.12
391.636	356.12
391.86	378.12
392.085	357.12
392.31	373.12
392.534	377.12
392.759	362.12
392.984	369.12
393.208	375.12
393.433	334.12
393.658	366.12
393.882	363.12
394.107	353.12
394.331	349.12
394.556	367.12
394.78	363.12
395.005	373.12
395.229	374.12
395.454	362.12
395.678	379.12
395.903	371.12
396.127	375.12
396.352	393.12
396.576	380.12
396.801	382.12
397.025	374.12
397.249	393.12
397.474	374.12
397.698	377.12
397.922	398.12
398.147	393.12
398.371	391.12
398.595	402.12
398.82	383.12
399.044	413.12
399.268	408.12
399.492	433.12
399.717	457.12
399.941	471.12
400.165	489.12
400.389	479.12
400.613	431.12
400.837	423.12
401.062	423.12
401.286	401.12
401.51	421.12
401.734	418.12
401.958	411.12
402.182	408.12
402.406	409.12
402.63	415.12
402.854	403.12
403.078	397.12
403.302	425.12
403.526	419.12
403.75	441.12
403.974	417.12
404.198	411.12
404.422	408.12
404.645	448.12
404.869	445.12
405.093	441.12
405.317	470.12
405.541	508.12
405.765	477.12
405.988	438.12
406.212	447.12
406.436	461.12
406.66	494.12
406.883	461.12
407.107	467.12
407.331	490.12
407.555	544.12
407.778	551.12
408.002	513.12
408.226	455.12
408.449	471.12
408.673	470.12
408.896	468.12
409.12	480.12
409.344	486.12
409.567	447.12
409.791	451.12
410.014	424.12
410.238	418.12
410.461	410.12
410.685	454.12
410.908	441.12
411.132	480.12
411.355	491.12
411.578	464.12
411.802	455.12
412.025	430.12
412.249	411.12
412.472	456.12
412.695	466.12
412.919	475.12
413.142	445.12
413.365	404.12
413.589	403.12
413.812	414.12
414.035	409.12
414.258	417.12
414.482	403.12
414.705	389.12
414.928	394.12
415.151	391.12
415.374	366.12
415.597	414.12
415.821	413.12
416.044	386.12
416.267	393.12
416.49	412.12
416.713	397.12
416.936	409.12
417.159	387.12
417.382	400.12
417.605	403.12
417.828	405.12
418.051	423.12
418.274	403.12
418.497	401.12
418.72	404.12
418.943	414.12
419.166	411.12
419.389	414.12
419.611	419.12
419.834	410.12
420.057	430.12
420.28	427.12
420.503	409.12
420.726	429.12
420.948	443.12
421.171	445.12
421.394	493.12
421.617	452.12
421.839	423.12
422.062	423.12
422.285	439.12
422.507	497.12
422.73	537.12
422.953	491.12
423.175	460.12
423.398	425.12
423.621	445.12
423.843	457.12
424.066	463.12
424.288	447.12
424.511	464.12
424.733	521.12
424.956	575.12
425.178	553.12
425.401	542.12
425.623	568.12
425.846	487.12
426.068	465.12
426.291	455.12
426.513	445.12
426.735	460.12
426.958	506.12
427.18	558.12
427.402	673.12
427.625	706.12
427.847	658.12
428.069	586.12
428.292	495.12
428.514	478.12
428.736	447.12
428.958	439.12
429.181	419.12
429.403	448.12
429.625	431.12
429.847	462.12
430.069	515.12
430.292	509.12
430.514	460.12
430.736	435.12
430.958	429.12
431.18	421.12
431.402	404.12
431.624	399.12
431.846	385.12
432.068	404.12
432.29	397.12
432.512	402.12
432.734	393.12
432.956	393.12
433.178	402.12
433.4	418.12
433.622	389.12
433.844	408.12
434.066	403.12
434.287	397.12
434.509	408.12
434.731	414.12
434.953	423.12
435.175	448.12
435.397	457.12
435.618	453.12
435.84	497.12
436.062	567.12
436.284	609.12
436.505	526.12
436.727	456.12
436.949	446.12
437.17	418.12
437.392	427.12
437.614	451.12
437.835	464.12
438.057	555.12
438.278	624.12
438.5	647.12
438.721	661.12
438.943	645.12
439.165	515.12
439.386	473.12
439.608	478.12
439.829	477.12
440.05	495.12
440.272	529.12
440.493	487.12
440.715	450.12
440.936	430.12
441.158	455.12
441.379	445.12
441.6	453.12
441.822	452.12
442.043	499.12
442.264	554.12
442.486	603.12
442.707	505.12
442.928	482.12
443.149	485.12
443.371	502.12
443.592	517.12
443.813	604.12
444.034	640.12
444.255	519.12
444.476	495.12
444.698	463.12
444.919	474.12
445.14	575.12
445.361	492.12
445.582	507.12
445.803	555.12
446.024	630.12
446.245	623.12
446.466	601.12
446.687	511.12
446.908	479.12
447.129	433.12
447.35	436.12
447.571	449.12
447.792	434.12
448.013	453.12
448.234	430.12
448.455	503.12
448.675	591.12
448.896	642.12
449.117	567.12
449.338	553.12
449.559	618.12
449.779	674.12
450	541.12
450.221	471.12
450.442	441.12
450.662	423.12
450.883	445.12
451.104	471.12
451.324	448.12
451.545	408.12
451.766	426.12
451.986	392.12
452.207	380.12
452.428	389.12
452.648	391.12
452.869	375.12
453.089	414.12
453.31	401.12
453.53	410.12
453.751	395.12
453.971	393.12
454.192	432.12
454.412	402.12
454.633	389.12
454.853	400.12
455.073	374.12
455.294	411.12
455.514	469.12
455.734	463.12
455.955	380.12
456.175	374.12
456.395	364.12
456.616	363.12
456.836	365.12
457.056	360.12
457.276	347.12
457.497	366.12
457.717	374.12
457.937	369.12
458.157	375.12
458.377	382.12
458.598	385.12
458.818	470.12
459.038	524.12
459.258	544.12
459.478	426.12
459.698	402.12
459.918	404.12
460.138	406.12
460.358	409.12
460.578	404.12
460.798	418.12
461.018	394.12
461.238	395.12
461.458	400.12
461.678	389.12
461.898	387.12
462.118	396.12
462.338	405.12
462.558	417.12
462.777	439.12
462.997	411.12
463.217	439.12
463.437	417.12
463.657	439.12
463.876	406.12
464.096	433.12
464.316	440.12
464.536	410.12
464.755	417.12
464.975	442.12
465.195	512.12
465.414	561.12
465.634	492.12
465.854	442.12
466.073	401.12
466.293	412.12
466.512	416.12
466.732	389.12
466.951	401.12
467.171	402.12
467.391	396.12
467.61	418.12
467.829	403.12
468.049	400.12
468.268	393.12
468.488	413.12
468.707	369.12
468.927	388.12
469.146	381.12
469.365	377.12
469.585	375.12
469.804	393.12
470.023	412.12
470.243	389.12
470.462	418.12
470.681	424.12
470.901	431.12
471.12	406.12
471.339	399.12
471.558	411.12
471.777	403.12
471.997	411.12
472.216	419.12
472.435	437.12
472.654	425.12
472.873	432.12
473.092	401.12
473.311	404.12
473.53	398.12
473.749	408.12
473.968	435.12
474.187	535.12
474.406	550.12
474.625	461.12
474.844	425.12
475.063	415.12
475.282	399.12
475.501	409.12
475.72	429.12
475.939	395.12
476.158	432.12
476.377	410.12
476.596	398.12
476.814	416.12
477.033	419.12
477.252	432.12
477.471	419.12
477.69	423.12
477.908	449.12
478.127	457.12
478.346	434.12
478.564	437.12
478.783	463.12
479.002	438.12
479.22	424.12
479.439	467.12
479.658	490.12
479.876	482.12
480.095	453.12
480.313	506.12
480.532	487.12
480.751	479.12
480.969	511.12
481.188	563.12
481.406	607.12
481.624	526.12
481.843	497.12
482.061	463.12
482.28	474.12
482.498	479.12
482.717	471.12
482.935	459.12
483.153	462.12
483.372	453.12
483.59	463.12
483.808	467.12
484.027	479.12
484.245	464.12
484.463	475.12
484.681	482.12
484.9	501.12
485.118	487.12
485.336	494.12
485.554	478.12
485.772	504.12
485.99	502.12
486.209	511.12
486.427	493.12
486.645	504.12
486.863	525.12
487.081	518.12
487.299	525.12
487.517	542.12
487.735	498.12
487.953	500.12
488.171	501.12
488.389	509.12
488.607	497.12
488.825	507.12
489.043	511.12
489.261	503.12
489.479	514.12
489.696	508.12
489.914	512.12
490.132	515.12
490.35	527.12
490.568	529.12
490.786	530.12
491.003	533.12
491.221	549.12
491.439	570.12
491.657	550.12
491.874	560.12
492.092	583.12
492.31	576.12
492.527	568.12
492.745	587.12
492.963	585.12
493.18	571.12
493.398	597.12
493.615	583.12
493.833	595.12
494.05	578.12
494.268	563.12
494.485	628.12
494.703	589.12
494.92	573.12
495.138	606.12
495.355	594.12
495.573	602.12
495.79	577.12
496.008	593.12
496.225	576.12
496.442	591.12
496.66	602.12
496.877	583.12
497.094	611.12
497.312	615.12
497.529	593.12
497.746	627.12
497.963	616.12
498.181	635.12
498.398	627.12
498.615	643.12
498.832	637.12
499.049	655.12
499.267	659.12
499.484	639.12
499.701	708.12
499.918	729.12
500.135	727.12
500.352	738.12
500.569	738.12
500.786	763.12
501.003	747.12
501.22	770.12
501.437	746.12
501.654	725.12
501.871	744.12
502.088	717.12
