Data from 1965.PennyLincolnUp.Lamp.En5.5.200Scan.071719.P1._HRD10591_14-10-53-912.txt Node
Date: Thu Jul 18 14:10:53 EDT 2019
User: cochatt
Spectrometer: HR+D1059
Trigger mode: 1
Integration Time (sec): 1.000000E-1
Scans to average: 1
Electric dark correction enabled: true
Nonlinearity correction enabled: false
Boxcar width: 0
XAxis mode: Wavelengths
Number of Pixels in Spectrum: 2048
>>>>>Begin Spectral Data<<<<<
223.165	-2.19
223.4	-2.19
223.635	-2.19
223.869	-22.19
224.104	-22.19
224.338	-15.19
224.573	-21.19
224.808	6.81
225.042	-8.19
225.277	-11.19
225.511	-6.19
225.746	-2.19
225.98	0.81
226.215	11.81
226.449	18.81
226.683	22.81
226.918	35.81
227.152	13.81
227.387	46.81
227.621	42.81
227.856	42.81
228.09	37.81
228.324	49.81
228.559	58.81
228.793	82.81
229.027	95.81
229.262	117.81
229.496	113.81
229.73	133.81
229.964	151.81
230.199	133.81
230.433	112.81
230.667	99.81
230.901	101.81
231.136	109.81
231.37	110.81
231.604	111.81
231.838	112.81
232.072	117.81
232.306	113.81
232.541	119.81
232.775	113.81
233.009	100.81
233.243	102.81
233.477	122.81
233.711	110.81
233.945	124.81
234.179	107.81
234.413	119.81
234.647	112.81
234.881	118.81
235.115	108.81
235.349	118.81
235.583	117.81
235.817	124.81
236.051	118.81
236.285	136.81
236.519	121.81
236.753	132.81
236.987	140.81
237.221	179.81
237.455	247.81
237.689	183.81
237.922	148.81
238.156	131.81
238.39	131.81
238.624	128.81
238.858	131.81
239.091	140.81
239.325	121.81
239.559	136.81
239.793	126.81
240.027	125.81
240.26	127.81
240.494	135.81
240.728	144.81
240.961	143.81
241.195	137.81
241.429	120.81
241.662	131.81
241.896	125.81
242.13	128.81
242.363	124.81
242.597	126.81
242.83	133.81
243.064	125.81
243.298	118.81
243.531	131.81
243.765	136.81
243.998	132.81
244.232	135.81
244.465	135.81
244.699	146.81
244.932	133.81
245.166	122.81
245.399	135.81
245.633	134.81
245.866	135.81
246.099	147.81
246.333	132.81
246.566	138.81
246.8	139.81
247.033	144.81
247.266	160.81
247.5	139.81
247.733	155.81
247.966	169.81
248.2	163.81
248.433	156.81
248.666	171.81
248.899	178.81
249.133	195.81
249.366	204.81
249.599	193.81
249.832	168.81
250.066	171.81
250.299	175.81
250.532	175.81
250.765	183.81
250.998	203.81
251.231	221.81
251.465	205.81
251.698	202.81
251.931	172.81
252.164	176.81
252.397	182.81
252.63	204.81
252.863	191.81
253.096	198.81
253.329	208.81
253.562	220.81
253.795	197.81
254.028	211.81
254.261	212.81
254.494	219.81
254.727	241.81
254.96	256.81
255.193	260.81
255.426	232.81
255.659	214.81
255.892	223.81
256.124	207.81
256.357	220.81
256.59	216.81
256.823	200.81
257.056	216.81
257.289	175.81
257.521	209.81
257.754	211.81
257.987	183.81
258.22	191.81
258.452	190.81
258.685	197.81
258.918	200.81
259.151	188.81
259.383	215.81
259.616	196.81
259.849	218.81
260.081	214.81
260.314	238.81
260.547	224.81
260.779	221.81
261.012	206.81
261.244	206.81
261.477	203.81
261.71	223.81
261.942	218.81
262.175	226.81
262.407	211.81
262.64	210.81
262.872	199.81
263.105	212.81
263.337	198.81
263.57	199.81
263.802	197.81
264.035	190.81
264.267	187.81
264.499	202.81
264.732	196.81
264.964	205.81
265.197	188.81
265.429	196.81
265.661	202.81
265.894	174.81
266.126	206.81
266.358	207.81
266.591	200.81
266.823	204.81
267.055	207.81
267.287	220.81
267.52	195.81
267.752	206.81
267.984	206.81
268.216	200.81
268.448	205.81
268.681	210.81
268.913	235.81
269.145	248.81
269.377	251.81
269.609	245.81
269.841	257.81
270.073	251.81
270.306	277.81
270.538	285.81
270.77	300.81
271.002	281.81
271.234	281.81
271.466	269.81
271.698	295.81
271.93	300.81
272.162	303.81
272.394	303.81
272.626	285.81
272.858	270.81
273.09	257.81
273.322	252.81
273.553	235.81
273.785	240.81
274.017	229.81
274.249	233.81
274.481	226.81
274.713	235.81
274.945	251.81
275.176	252.81
275.408	252.81
275.64	223.81
275.872	245.81
276.104	225.81
276.335	228.81
276.567	267.81
276.799	266.81
277.031	299.81
277.262	290.81
277.494	281.81
277.726	288.81
277.957	289.81
278.189	253.81
278.421	247.81
278.652	262.81
278.884	248.81
279.115	253.81
279.347	248.81
279.579	245.81
279.81	257.81
280.042	229.81
280.273	250.81
280.505	232.81
280.736	241.81
280.968	248.81
281.199	244.81
281.431	239.81
281.662	237.81
281.894	249.81
282.125	255.81
282.356	264.81
282.588	295.81
282.819	272.81
283.051	277.81
283.282	261.81
283.513	249.81
283.745	244.81
283.976	259.81
284.207	264.81
284.439	266.81
284.67	240.81
284.901	249.81
285.132	269.81
285.364	244.81
285.595	262.81
285.826	265.81
286.057	263.81
286.288	254.81
286.52	236.81
286.751	253.81
286.982	262.81
287.213	251.81
287.444	258.81
287.675	257.81
287.906	271.81
288.138	259.81
288.369	262.81
288.6	276.81
288.831	280.81
289.062	260.81
289.293	261.81
289.524	248.81
289.755	266.81
289.986	247.81
290.217	251.81
290.448	243.81
290.679	260.81
290.91	269.81
291.141	265.81
291.371	271.81
291.602	270.81
291.833	252.81
292.064	279.81
292.295	251.81
292.526	261.81
292.757	256.81
292.987	246.81
293.218	246.81
293.449	285.81
293.68	239.81
293.91	288.81
294.141	251.81
294.372	247.81
294.603	240.81
294.833	270.81
295.064	259.81
295.295	268.81
295.525	259.81
295.756	253.81
295.987	271.81
296.217	281.81
296.448	328.81
296.679	286.81
296.909	254.81
297.14	265.81
297.37	269.81
297.601	276.81
297.831	267.81
298.062	247.81
298.292	279.81
298.523	251.81
298.753	276.81
298.984	253.81
299.214	261.81
299.445	272.81
299.675	284.81
299.905	281.81
300.136	267.81
300.366	277.81
300.597	272.81
300.827	296.81
301.057	293.81
301.288	281.81
301.518	284.81
301.748	294.81
301.979	297.81
302.209	305.81
302.439	302.81
302.669	295.81
302.9	298.81
303.13	295.81
303.36	296.81
303.59	305.81
303.82	311.81
304.051	311.81
304.281	287.81
304.511	278.81
304.741	292.81
304.971	285.81
305.201	292.81
305.431	293.81
305.661	285.81
305.891	284.81
306.121	300.81
306.352	287.81
306.582	277.81
306.812	298.81
307.042	296.81
307.272	313.81
307.502	297.81
307.731	296.81
307.961	304.81
308.191	305.81
308.421	287.81
308.651	304.81
308.881	310.81
309.111	296.81
309.341	297.81
309.571	307.81
309.8	327.81
310.03	340.81
310.26	345.81
310.49	360.81
310.72	352.81
310.949	379.81
311.179	364.81
311.409	346.81
311.639	358.81
311.868	343.81
312.098	346.81
312.328	367.81
312.557	372.81
312.787	387.81
313.017	386.81
313.246	360.81
313.476	338.81
313.706	357.81
313.935	364.81
314.165	361.81
314.394	355.81
314.624	360.81
314.853	358.81
315.083	345.81
315.312	368.81
315.542	343.81
315.771	330.81
316.001	343.81
316.23	327.81
316.46	335.81
316.689	379.81
316.919	366.81
317.148	347.81
317.377	364.81
317.607	359.81
317.836	354.81
318.065	336.81
318.295	339.81
318.524	353.81
318.753	342.81
318.983	345.81
319.212	361.81
319.441	351.81
319.67	359.81
319.9	355.81
320.129	347.81
320.358	342.81
320.587	348.81
320.816	367.81
321.046	380.81
321.275	375.81
321.504	363.81
321.733	377.81
321.962	399.81
322.191	411.81
322.42	400.81
322.649	416.81
322.878	426.81
323.108	444.81
323.337	481.81
323.566	495.81
323.795	532.81
324.024	591.81
324.253	733.81
324.482	1081.81
324.71	1661.81
324.939	2272.81
325.168	1904.81
325.397	998.81
325.626	656.81
325.855	539.81
326.084	506.81
326.313	462.81
326.542	496.81
326.77	563.81
326.999	667.81
327.228	957.81
327.457	1433.81
327.686	1667.81
327.914	1126.81
328.143	771.81
328.372	650.81
328.6	600.81
328.829	569.81
329.058	562.81
329.287	593.81
329.515	531.81
329.744	499.81
329.972	507.81
330.201	526.81
330.43	560.81
330.658	606.81
330.887	603.81
331.115	586.81
331.344	502.81
331.572	467.81
331.801	473.81
332.03	464.81
332.258	456.81
332.486	419.81
332.715	423.81
332.943	420.81
333.172	430.81
333.4	407.81
333.629	420.81
333.857	456.81
334.085	450.81
334.314	479.81
334.542	512.81
334.771	528.81
334.999	466.81
335.227	443.81
335.455	426.81
335.684	397.81
335.912	406.81
336.14	407.81
336.369	396.81
336.597	415.81
336.825	400.81
337.053	399.81
337.281	393.81
337.51	398.81
337.738	398.81
337.966	399.81
338.194	395.81
338.422	414.81
338.65	392.81
338.878	393.81
339.106	376.81
339.334	384.81
339.562	388.81
339.79	368.81
340.018	391.81
340.246	381.81
340.474	401.81
340.702	388.81
340.93	381.81
341.158	402.81
341.386	384.81
341.614	395.81
341.842	400.81
342.07	383.81
342.298	376.81
342.526	380.81
342.754	380.81
342.981	384.81
343.209	367.81
343.437	361.81
343.665	373.81
343.893	384.81
344.12	384.81
344.348	389.81
344.576	368.81
344.804	395.81
345.031	395.81
345.259	424.81
345.487	394.81
345.714	389.81
345.942	380.81
346.17	388.81
346.397	384.81
346.625	376.81
346.853	378.81
347.08	374.81
347.308	401.81
347.535	398.81
347.763	384.81
347.99	378.81
348.218	403.81
348.445	422.81
348.673	389.81
348.9	383.81
349.128	366.81
349.355	374.81
349.583	379.81
349.81	379.81
350.037	378.81
350.265	388.81
350.492	351.81
350.72	371.81
350.947	370.81
351.174	380.81
351.402	391.81
351.629	383.81
351.856	387.81
352.083	382.81
352.311	401.81
352.538	406.81
352.765	397.81
352.992	382.81
353.22	384.81
353.447	387.81
353.674	375.81
353.901	360.81
354.128	353.81
354.355	364.81
354.583	375.81
354.81	371.81
355.037	358.81
355.264	364.81
355.491	354.81
355.718	356.81
355.945	348.81
356.172	337.81
356.399	340.81
356.626	344.81
356.853	346.81
357.08	358.81
357.307	354.81
357.534	331.81
357.761	358.81
357.988	346.81
358.215	339.81
358.441	343.81
358.668	340.81
358.895	356.81
359.122	353.81
359.349	359.81
359.576	383.81
359.802	425.81
360.029	435.81
360.256	442.81
360.483	413.81
360.709	393.81
360.936	371.81
361.163	386.81
361.39	396.81
361.616	394.81
361.843	371.81
362.07	376.81
362.296	378.81
362.523	375.81
362.749	379.81
362.976	355.81
363.203	373.81
363.429	362.81
363.656	350.81
363.882	361.81
364.109	376.81
364.335	343.81
364.562	361.81
364.788	358.81
365.015	354.81
365.241	340.81
365.468	372.81
365.694	372.81
365.92	390.81
366.147	369.81
366.373	367.81
366.599	363.81
366.826	351.81
367.052	345.81
367.278	346.81
367.505	349.81
367.731	376.81
367.957	358.81
368.184	363.81
368.41	365.81
368.636	360.81
368.862	366.81
369.089	358.81
369.315	337.81
369.541	342.81
369.767	356.81
369.993	349.81
370.219	362.81
370.445	365.81
370.672	357.81
370.898	341.81
371.124	340.81
371.35	348.81
371.576	324.81
371.802	345.81
372.028	355.81
372.254	363.81
372.48	337.81
372.706	357.81
372.932	368.81
373.158	357.81
373.384	355.81
373.61	362.81
373.835	345.81
374.061	337.81
374.287	350.81
374.513	351.81
374.739	355.81
374.965	344.81
375.191	357.81
375.416	341.81
375.642	337.81
375.868	351.81
376.094	350.81
376.319	350.81
376.545	339.81
376.771	336.81
376.997	359.81
377.222	343.81
377.448	347.81
377.674	337.81
377.899	351.81
378.125	335.81
378.35	350.81
378.576	353.81
378.802	331.81
379.027	323.81
379.253	346.81
379.478	360.81
379.704	349.81
379.929	345.81
380.155	347.81
380.38	349.81
380.606	341.81
380.831	346.81
381.057	345.81
381.282	352.81
381.507	352.81
381.733	377.81
381.958	350.81
382.184	341.81
382.409	359.81
382.634	346.81
382.86	351.81
383.085	339.81
383.31	348.81
383.535	339.81
383.761	351.81
383.986	359.81
384.211	383.81
384.436	367.81
384.662	380.81
384.887	368.81
385.112	371.81
385.337	347.81
385.562	358.81
385.787	375.81
386.013	363.81
386.238	371.81
386.463	355.81
386.688	372.81
386.913	363.81
387.138	371.81
387.363	374.81
387.588	380.81
387.813	376.81
388.038	372.81
388.263	371.81
388.488	367.81
388.713	373.81
388.938	373.81
389.163	377.81
389.387	385.81
389.612	374.81
389.837	387.81
390.062	364.81
390.287	377.81
390.512	352.81
390.736	365.81
390.961	376.81
391.186	381.81
391.411	362.81
391.636	377.81
391.86	365.81
392.085	385.81
392.31	367.81
392.534	378.81
392.759	377.81
392.984	381.81
393.208	376.81
393.433	383.81
393.658	366.81
393.882	359.81
394.107	381.81
394.331	375.81
394.556	374.81
394.78	396.81
395.005	389.81
395.229	367.81
395.454	384.81
395.678	415.81
395.903	401.81
396.127	433.81
396.352	435.81
396.576	384.81
396.801	389.81
397.025	392.81
397.249	384.81
397.474	396.81
397.698	397.81
397.922	390.81
398.147	428.81
398.371	428.81
398.595	408.81
398.82	415.81
399.044	429.81
399.268	443.81
399.492	446.81
399.717	459.81
399.941	473.81
400.165	497.81
400.389	503.81
400.613	478.81
400.837	446.81
401.062	435.81
401.286	421.81
401.51	421.81
401.734	404.81
401.958	421.81
402.182	437.81
402.406	428.81
402.63	457.81
402.854	415.81
403.078	436.81
403.302	447.81
403.526	423.81
403.75	444.81
403.974	443.81
404.198	432.81
404.422	439.81
404.645	448.81
404.869	458.81
405.093	471.81
405.317	513.81
405.541	509.81
405.765	482.81
405.988	479.81
406.212	481.81
406.436	510.81
406.66	499.81
406.883	475.81
407.107	481.81
407.331	540.81
407.555	576.81
407.778	573.81
408.002	524.81
408.226	491.81
408.449	478.81
408.673	484.81
408.896	485.81
409.12	540.81
409.344	511.81
409.567	448.81
409.791	464.81
410.014	444.81
410.238	436.81
410.461	430.81
410.685	443.81
410.908	467.81
411.132	494.81
411.355	518.81
411.578	488.81
411.802	456.81
412.025	447.81
412.249	461.81
412.472	479.81
412.695	509.81
412.919	495.81
413.142	448.81
413.365	437.81
413.589	432.81
413.812	448.81
414.035	424.81
414.258	413.81
414.482	397.81
414.705	421.81
414.928	433.81
415.151	410.81
415.374	409.81
415.597	395.81
415.821	408.81
416.044	405.81
416.267	424.81
416.49	413.81
416.713	399.81
416.936	414.81
417.159	415.81
417.382	421.81
417.605	405.81
417.828	435.81
418.051	438.81
418.274	422.81
418.497	419.81
418.72	422.81
418.943	412.81
419.166	430.81
419.389	455.81
419.611	430.81
419.834	454.81
420.057	442.81
420.28	443.81
420.503	439.81
420.726	429.81
420.948	455.81
421.171	476.81
421.394	499.81
421.617	447.81
421.839	449.81
422.062	432.81
422.285	433.81
422.507	494.81
422.73	583.81
422.953	553.81
423.175	476.81
423.398	451.81
423.621	487.81
423.843	473.81
424.066	460.81
424.288	479.81
424.511	485.81
424.733	554.81
424.956	630.81
425.178	575.81
425.401	583.81
425.623	598.81
425.846	505.81
426.068	484.81
426.291	476.81
426.513	475.81
426.735	488.81
426.958	533.81
427.18	601.81
427.402	720.81
427.625	794.81
427.847	721.81
428.069	606.81
428.292	524.81
428.514	490.81
428.736	482.81
428.958	457.81
429.181	463.81
429.403	453.81
429.625	473.81
429.847	478.81
430.069	541.81
430.292	529.81
430.514	477.81
430.736	446.81
430.958	429.81
431.18	432.81
431.402	419.81
431.624	420.81
431.846	399.81
432.068	405.81
432.29	415.81
432.512	414.81
432.734	429.81
432.956	406.81
433.178	437.81
433.4	421.81
433.622	415.81
433.844	423.81
434.066	409.81
434.287	424.81
434.509	416.81
434.731	431.81
434.953	420.81
435.175	443.81
435.397	452.81
435.618	472.81
435.84	526.81
436.062	615.81
436.284	664.81
436.505	571.81
436.727	471.81
436.949	449.81
437.17	475.81
437.392	468.81
437.614	464.81
437.835	500.81
438.057	601.81
438.278	654.81
438.5	642.81
438.721	721.81
438.943	676.81
439.165	546.81
439.386	486.81
439.608	491.81
439.829	480.81
440.05	519.81
440.272	539.81
440.493	540.81
440.715	488.81
440.936	447.81
441.158	441.81
441.379	432.81
441.6	479.81
441.822	464.81
442.043	532.81
442.264	604.81
442.486	618.81
442.707	530.81
442.928	499.81
443.149	503.81
443.371	519.81
443.592	571.81
443.813	633.81
444.034	656.81
444.255	586.81
444.476	510.81
444.698	486.81
444.919	487.81
445.14	539.81
445.361	536.81
445.582	511.81
445.803	591.81
446.024	694.81
446.245	688.81
446.466	627.81
446.687	533.81
446.908	485.81
447.129	472.81
447.35	472.81
447.571	429.81
447.792	449.81
448.013	446.81
448.234	481.81
448.455	533.81
448.675	635.81
448.896	701.81
449.117	620.81
449.338	595.81
449.559	688.81
449.779	736.81
450	599.81
450.221	503.81
450.442	460.81
450.662	437.81
450.883	436.81
451.104	491.81
451.324	471.81
451.545	433.81
451.766	419.81
451.986	417.81
452.207	400.81
452.428	395.81
452.648	398.81
452.869	416.81
453.089	446.81
453.31	440.81
453.53	405.81
453.751	400.81
453.971	398.81
454.192	417.81
454.412	416.81
454.633	414.81
454.853	417.81
455.073	393.81
455.294	440.81
455.514	502.81
455.734	473.81
455.955	399.81
456.175	393.81
456.395	379.81
456.616	397.81
456.836	364.81
457.056	352.81
457.276	368.81
457.497	393.81
457.717	381.81
457.937	394.81
458.157	395.81
458.377	413.81
458.598	439.81
458.818	482.81
459.038	543.81
459.258	563.81
459.478	474.81
459.698	424.81
459.918	427.81
460.138	405.81
460.358	401.81
460.578	414.81
460.798	411.81
461.018	445.81
461.238	406.81
461.458	419.81
461.678	398.81
461.898	430.81
462.118	387.81
462.338	425.81
462.558	436.81
462.777	417.81
462.997	437.81
463.217	417.81
463.437	455.81
463.657	439.81
463.876	457.81
464.096	425.81
464.316	436.81
464.536	445.81
464.755	446.81
464.975	433.81
465.195	496.81
465.414	604.81
465.634	517.81
465.854	481.81
466.073	449.81
466.293	413.81
466.512	413.81
466.732	417.81
466.951	418.81
467.171	412.81
467.391	394.81
467.61	428.81
467.829	469.81
468.049	439.81
468.268	436.81
468.488	420.81
468.707	396.81
468.927	389.81
469.146	389.81
469.365	392.81
469.585	418.81
469.804	428.81
470.023	427.81
470.243	432.81
470.462	429.81
470.681	452.81
470.901	449.81
471.12	429.81
471.339	411.81
471.558	424.81
471.777	416.81
471.997	423.81
472.216	417.81
472.435	480.81
472.654	467.81
472.873	407.81
473.092	413.81
473.311	422.81
473.53	428.81
473.749	444.81
473.968	458.81
474.187	580.81
474.406	575.81
474.625	513.81
474.844	455.81
475.063	459.81
475.282	415.81
475.501	430.81
475.72	433.81
475.939	438.81
476.158	427.81
476.377	430.81
476.596	427.81
476.814	440.81
477.033	457.81
477.252	452.81
477.471	439.81
477.69	448.81
477.908	429.81
478.127	439.81
478.346	449.81
478.564	457.81
478.783	444.81
479.002	468.81
479.22	484.81
479.439	504.81
479.658	513.81
479.876	489.81
480.095	519.81
480.313	548.81
480.532	535.81
480.751	501.81
480.969	527.81
481.188	597.81
481.406	663.81
481.624	556.81
481.843	515.81
482.061	495.81
482.28	513.81
482.498	501.81
482.717	478.81
482.935	492.81
483.153	500.81
483.372	502.81
483.59	493.81
483.808	509.81
484.027	516.81
484.245	480.81
484.463	489.81
484.681	488.81
484.9	485.81
485.118	503.81
485.336	492.81
485.554	503.81
485.772	506.81
485.99	485.81
486.209	487.81
486.427	513.81
486.645	514.81
486.863	517.81
487.081	554.81
487.299	534.81
487.517	536.81
487.735	517.81
487.953	531.81
488.171	541.81
488.389	537.81
488.607	544.81
488.825	533.81
489.043	547.81
489.261	540.81
489.479	522.81
489.696	542.81
489.914	554.81
490.132	541.81
490.35	538.81
490.568	533.81
490.786	559.81
491.003	589.81
491.221	575.81
491.439	600.81
491.657	578.81
491.874	608.81
492.092	603.81
492.31	637.81
492.527	635.81
492.745	617.81
492.963	607.81
493.18	628.81
493.398	634.81
493.615	647.81
493.833	618.81
494.05	619.81
494.268	613.81
494.485	624.81
494.703	644.81
494.92	620.81
495.138	631.81
495.355	619.81
495.573	604.81
495.79	622.81
496.008	617.81
496.225	635.81
496.442	643.81
496.66	640.81
496.877	639.81
497.094	634.81
497.312	661.81
497.529	646.81
497.746	642.81
497.963	662.81
498.181	689.81
498.398	681.81
498.615	662.81
498.832	693.81
499.049	685.81
499.267	671.81
499.484	727.81
499.701	687.81
499.918	737.81
500.135	762.81
500.352	758.81
500.569	795.81
500.786	765.81
501.003	786.81
501.22	745.81
501.437	763.81
501.654	732.81
501.871	758.81
