Data from 1965.PennyLincolnUp.Lamp.En5.5.200Scan.071719.P1._HRD10591_14-09-35-911.txt Node
Date: Thu Jul 18 14:09:35 EDT 2019
User: cochatt
Spectrometer: HR+D1059
Trigger mode: 1
Integration Time (sec): 1.000000E-1
Scans to average: 1
Electric dark correction enabled: true
Nonlinearity correction enabled: false
Boxcar width: 0
XAxis mode: Wavelengths
Number of Pixels in Spectrum: 2048
>>>>>Begin Spectral Data<<<<<
223.165	-11.62
223.4	-11.62
223.635	-11.62
223.869	-31.62
224.104	-8.62
224.338	-17.62
224.573	-9.62
224.808	-23.62
225.042	-11.62
225.277	-10.62
225.511	-2.62
225.746	5.38
225.98	6.38
226.215	7.38
226.449	11.38
226.683	31.38
226.918	27.38
227.152	38.38
227.387	36.38
227.621	30.38
227.856	50.38
228.09	56.38
228.324	41.38
228.559	63.38
228.793	76.38
229.027	74.38
229.262	99.38
229.496	127.38
229.73	130.38
229.964	158.38
230.199	126.38
230.433	122.38
230.667	109.38
230.901	111.38
231.136	96.38
231.37	101.38
231.604	114.38
231.838	118.38
232.072	93.38
232.306	98.38
232.541	96.38
232.775	95.38
233.009	89.38
233.243	109.38
233.477	122.38
233.711	106.38
233.945	109.38
234.179	119.38
234.413	106.38
234.647	111.38
234.881	113.38
235.115	104.38
235.349	118.38
235.583	122.38
235.817	109.38
236.051	108.38
236.285	122.38
236.519	121.38
236.753	132.38
236.987	143.38
237.221	175.38
237.455	196.38
237.689	149.38
237.922	113.38
238.156	123.38
238.39	122.38
238.624	131.38
238.858	114.38
239.091	118.38
239.325	123.38
239.559	117.38
239.793	115.38
240.027	126.38
240.26	134.38
240.494	127.38
240.728	142.38
240.961	123.38
241.195	141.38
241.429	134.38
241.662	122.38
241.896	132.38
242.13	120.38
242.363	124.38
242.597	118.38
242.83	122.38
243.064	115.38
243.298	116.38
243.531	125.38
243.765	126.38
243.998	117.38
244.232	120.38
244.465	130.38
244.699	128.38
244.932	141.38
245.166	121.38
245.399	120.38
245.633	144.38
245.866	146.38
246.099	139.38
246.333	132.38
246.566	141.38
246.8	136.38
247.033	145.38
247.266	143.38
247.5	134.38
247.733	142.38
247.966	153.38
248.2	148.38
248.433	149.38
248.666	160.38
248.899	167.38
249.133	190.38
249.366	179.38
249.599	200.38
249.832	181.38
250.066	181.38
250.299	168.38
250.532	157.38
250.765	196.38
250.998	184.38
251.231	196.38
251.465	195.38
251.698	188.38
251.931	171.38
252.164	182.38
252.397	188.38
252.63	190.38
252.863	201.38
253.096	191.38
253.329	210.38
253.562	205.38
253.795	202.38
254.028	192.38
254.261	198.38
254.494	204.38
254.727	246.38
254.96	258.38
255.193	233.38
255.426	211.38
255.659	207.38
255.892	192.38
256.124	200.38
256.357	196.38
256.59	203.38
256.823	195.38
257.056	199.38
257.289	185.38
257.521	191.38
257.754	178.38
257.987	190.38
258.22	180.38
258.452	188.38
258.685	176.38
258.918	197.38
259.151	187.38
259.383	197.38
259.616	219.38
259.849	201.38
260.081	229.38
260.314	236.38
260.547	232.38
260.779	203.38
261.012	206.38
261.244	214.38
261.477	190.38
261.71	191.38
261.942	204.38
262.175	226.38
262.407	195.38
262.64	195.38
262.872	198.38
263.105	196.38
263.337	187.38
263.57	192.38
263.802	186.38
264.035	189.38
264.267	183.38
264.499	199.38
264.732	182.38
264.964	195.38
265.197	178.38
265.429	190.38
265.661	176.38
265.894	191.38
266.126	203.38
266.358	198.38
266.591	182.38
266.823	188.38
267.055	199.38
267.287	196.38
267.52	202.38
267.752	210.38
267.984	192.38
268.216	198.38
268.448	205.38
268.681	207.38
268.913	219.38
269.145	226.38
269.377	242.38
269.609	234.38
269.841	227.38
270.073	239.38
270.306	253.38
270.538	263.38
270.77	267.38
271.002	257.38
271.234	266.38
271.466	249.38
271.698	252.38
271.93	269.38
272.162	268.38
272.394	282.38
272.626	264.38
272.858	268.38
273.09	249.38
273.322	234.38
273.553	223.38
273.785	235.38
274.017	225.38
274.249	216.38
274.481	222.38
274.713	228.38
274.945	250.38
275.176	231.38
275.408	239.38
275.64	226.38
275.872	208.38
276.104	240.38
276.335	232.38
276.567	248.38
276.799	270.38
277.031	281.38
277.262	284.38
277.494	279.38
277.726	260.38
277.957	236.38
278.189	264.38
278.421	250.38
278.652	217.38
278.884	245.38
279.115	232.38
279.347	232.38
279.579	229.38
279.81	232.38
280.042	255.38
280.273	240.38
280.505	230.38
280.736	237.38
280.968	237.38
281.199	235.38
281.431	234.38
281.662	225.38
281.894	220.38
282.125	234.38
282.356	236.38
282.588	272.38
282.819	299.38
283.051	231.38
283.282	233.38
283.513	231.38
283.745	239.38
283.976	230.38
284.207	246.38
284.439	242.38
284.67	236.38
284.901	252.38
285.132	247.38
285.364	242.38
285.595	232.38
285.826	247.38
286.057	244.38
286.288	230.38
286.52	249.38
286.751	228.38
286.982	238.38
287.213	231.38
287.444	241.38
287.675	253.38
287.906	269.38
288.138	245.38
288.369	250.38
288.6	257.38
288.831	249.38
289.062	252.38
289.293	230.38
289.524	252.38
289.755	234.38
289.986	232.38
290.217	233.38
290.448	233.38
290.679	243.38
290.91	261.38
291.141	250.38
291.371	262.38
291.602	256.38
291.833	237.38
292.064	247.38
292.295	229.38
292.526	262.38
292.757	250.38
292.987	249.38
293.218	263.38
293.449	262.38
293.68	247.38
293.91	262.38
294.141	243.38
294.372	248.38
294.603	249.38
294.833	250.38
295.064	244.38
295.295	234.38
295.525	246.38
295.756	249.38
295.987	277.38
296.217	287.38
296.448	293.38
296.679	280.38
296.909	266.38
297.14	248.38
297.37	254.38
297.601	256.38
297.831	247.38
298.062	259.38
298.292	271.38
298.523	275.38
298.753	257.38
298.984	265.38
299.214	265.38
299.445	261.38
299.675	272.38
299.905	266.38
300.136	275.38
300.366	262.38
300.597	253.38
300.827	274.38
301.057	278.38
301.288	267.38
301.518	284.38
301.748	271.38
301.979	269.38
302.209	276.38
302.439	272.38
302.669	283.38
302.9	287.38
303.13	270.38
303.36	283.38
303.59	279.38
303.82	296.38
304.051	298.38
304.281	280.38
304.511	291.38
304.741	251.38
304.971	275.38
305.201	280.38
305.431	287.38
305.661	283.38
305.891	267.38
306.121	278.38
306.352	281.38
306.582	278.38
306.812	298.38
307.042	293.38
307.272	285.38
307.502	288.38
307.731	302.38
307.961	287.38
308.191	288.38
308.421	266.38
308.651	292.38
308.881	281.38
309.111	286.38
309.341	302.38
309.571	319.38
309.8	332.38
310.03	329.38
310.26	325.38
310.49	330.38
310.72	331.38
310.949	331.38
311.179	375.38
311.409	346.38
311.639	324.38
311.868	356.38
312.098	333.38
312.328	340.38
312.557	349.38
312.787	358.38
313.017	369.38
313.246	357.38
313.476	318.38
313.706	326.38
313.935	355.38
314.165	359.38
314.394	347.38
314.624	337.38
314.853	330.38
315.083	342.38
315.312	328.38
315.542	293.38
315.771	317.38
316.001	322.38
316.23	311.38
316.46	342.38
316.689	334.38
316.919	328.38
317.148	342.38
317.377	333.38
317.607	338.38
317.836	352.38
318.065	335.38
318.295	330.38
318.524	335.38
318.753	319.38
318.983	319.38
319.212	326.38
319.441	332.38
319.67	351.38
319.9	349.38
320.129	333.38
320.358	348.38
320.587	334.38
320.816	361.38
321.046	348.38
321.275	349.38
321.504	358.38
321.733	367.38
321.962	365.38
322.191	372.38
322.42	394.38
322.649	398.38
322.878	399.38
323.108	410.38
323.337	446.38
323.566	468.38
323.795	485.38
324.024	538.38
324.253	679.38
324.482	1000.38
324.71	1499.38
324.939	2050.38
325.168	1718.38
325.397	909.38
325.626	627.38
325.855	508.38
326.084	477.38
326.313	465.38
326.542	475.38
326.77	522.38
326.999	638.38
327.228	893.38
327.457	1299.38
327.686	1496.38
327.914	983.38
328.143	685.38
328.372	605.38
328.6	562.38
328.829	547.38
329.058	554.38
329.287	542.38
329.515	489.38
329.744	472.38
329.972	471.38
330.201	487.38
330.43	526.38
330.658	534.38
330.887	579.38
331.115	538.38
331.344	468.38
331.572	468.38
331.801	448.38
332.03	442.38
332.258	431.38
332.486	375.38
332.715	417.38
332.943	386.38
333.172	393.38
333.4	398.38
333.629	382.38
333.857	405.38
334.085	429.38
334.314	443.38
334.542	483.38
334.771	475.38
334.999	443.38
335.227	407.38
335.455	398.38
335.684	403.38
335.912	387.38
336.14	367.38
336.369	390.38
336.597	386.38
336.825	365.38
337.053	392.38
337.281	369.38
337.51	382.38
337.738	388.38
337.966	384.38
338.194	380.38
338.422	379.38
338.65	376.38
338.878	382.38
339.106	367.38
339.334	367.38
339.562	367.38
339.79	382.38
340.018	387.38
340.246	372.38
340.474	361.38
340.702	388.38
340.93	396.38
341.158	376.38
341.386	390.38
341.614	382.38
341.842	386.38
342.07	363.38
342.298	361.38
342.526	356.38
342.754	359.38
342.981	344.38
343.209	353.38
343.437	362.38
343.665	359.38
343.893	350.38
344.12	350.38
344.348	354.38
344.576	380.38
344.804	379.38
345.031	381.38
345.259	403.38
345.487	396.38
345.714	382.38
345.942	370.38
346.17	358.38
346.397	367.38
346.625	365.38
346.853	374.38
347.08	365.38
347.308	368.38
347.535	380.38
347.763	396.38
347.99	375.38
348.218	382.38
348.445	378.38
348.673	377.38
348.9	374.38
349.128	355.38
349.355	362.38
349.583	345.38
349.81	358.38
350.037	354.38
350.265	358.38
350.492	355.38
350.72	357.38
350.947	359.38
351.174	389.38
351.402	386.38
351.629	373.38
351.856	364.38
352.083	392.38
352.311	385.38
352.538	382.38
352.765	372.38
352.992	386.38
353.22	367.38
353.447	370.38
353.674	362.38
353.901	336.38
354.128	351.38
354.355	341.38
354.583	350.38
354.81	324.38
355.037	330.38
355.264	340.38
355.491	322.38
355.718	312.38
355.945	336.38
356.172	326.38
356.399	335.38
356.626	323.38
356.853	323.38
357.08	336.38
357.307	336.38
357.534	321.38
357.761	316.38
357.988	322.38
358.215	323.38
358.441	330.38
358.668	332.38
358.895	360.38
359.122	348.38
359.349	334.38
359.576	370.38
359.802	365.38
360.029	410.38
360.256	433.38
360.483	407.38
360.709	363.38
360.936	373.38
361.163	370.38
361.39	382.38
361.616	375.38
361.843	353.38
362.07	370.38
362.296	353.38
362.523	357.38
362.749	358.38
362.976	344.38
363.203	366.38
363.429	350.38
363.656	344.38
363.882	350.38
364.109	342.38
364.335	336.38
364.562	335.38
364.788	330.38
365.015	350.38
365.241	348.38
365.468	347.38
365.694	354.38
365.92	356.38
366.147	356.38
366.373	329.38
366.599	333.38
366.826	348.38
367.052	326.38
367.278	336.38
367.505	357.38
367.731	336.38
367.957	328.38
368.184	356.38
368.41	363.38
368.636	347.38
368.862	375.38
369.089	355.38
369.315	349.38
369.541	331.38
369.767	330.38
369.993	342.38
370.219	341.38
370.445	350.38
370.672	332.38
370.898	348.38
371.124	333.38
371.35	331.38
371.576	333.38
371.802	333.38
372.028	334.38
372.254	310.38
372.48	323.38
372.706	330.38
372.932	322.38
373.158	338.38
373.384	320.38
373.61	330.38
373.835	346.38
374.061	325.38
374.287	352.38
374.513	322.38
374.739	348.38
374.965	336.38
375.191	334.38
375.416	341.38
375.642	333.38
375.868	340.38
376.094	324.38
376.319	328.38
376.545	342.38
376.771	324.38
376.997	324.38
377.222	346.38
377.448	332.38
377.674	345.38
377.899	329.38
378.125	330.38
378.35	330.38
378.576	338.38
378.802	331.38
379.027	324.38
379.253	341.38
379.478	322.38
379.704	324.38
379.929	340.38
380.155	337.38
380.38	315.38
380.606	336.38
380.831	347.38
381.057	346.38
381.282	330.38
381.507	339.38
381.733	333.38
381.958	326.38
382.184	302.38
382.409	338.38
382.634	340.38
382.86	341.38
383.085	342.38
383.31	326.38
383.535	318.38
383.761	335.38
383.986	331.38
384.211	358.38
384.436	353.38
384.662	355.38
384.887	358.38
385.112	331.38
385.337	348.38
385.562	356.38
385.787	346.38
386.013	366.38
386.238	356.38
386.463	362.38
386.688	355.38
386.913	377.38
387.138	382.38
387.363	333.38
387.588	348.38
387.813	366.38
388.038	339.38
388.263	356.38
388.488	355.38
388.713	355.38
388.938	366.38
389.163	362.38
389.387	351.38
389.612	343.38
389.837	344.38
390.062	360.38
390.287	362.38
390.512	359.38
390.736	362.38
390.961	352.38
391.186	360.38
391.411	374.38
391.636	380.38
391.86	361.38
392.085	362.38
392.31	362.38
392.534	343.38
392.759	346.38
392.984	373.38
393.208	371.38
393.433	387.38
393.658	353.38
393.882	375.38
394.107	364.38
394.331	376.38
394.556	335.38
394.78	362.38
395.005	364.38
395.229	351.38
395.454	382.38
395.678	366.38
395.903	378.38
396.127	403.38
396.352	386.38
396.576	377.38
396.801	390.38
397.025	389.38
397.249	379.38
397.474	373.38
397.698	386.38
397.922	408.38
398.147	395.38
398.371	406.38
398.595	381.38
398.82	396.38
399.044	415.38
399.268	418.38
399.492	434.38
399.717	444.38
399.941	456.38
400.165	476.38
400.389	490.38
400.613	445.38
400.837	425.38
401.062	414.38
401.286	414.38
401.51	403.38
401.734	407.38
401.958	424.38
402.182	395.38
402.406	425.38
402.63	410.38
402.854	435.38
403.078	408.38
403.302	422.38
403.526	424.38
403.75	396.38
403.974	404.38
404.198	412.38
404.422	424.38
404.645	431.38
404.869	444.38
405.093	477.38
405.317	486.38
405.541	515.38
405.765	472.38
405.988	446.38
406.212	468.38
406.436	478.38
406.66	478.38
406.883	456.38
407.107	495.38
407.331	519.38
407.555	541.38
407.778	538.38
408.002	503.38
408.226	464.38
408.449	470.38
408.673	474.38
408.896	498.38
409.12	508.38
409.344	514.38
409.567	450.38
409.791	447.38
410.014	425.38
410.238	446.38
410.461	426.38
410.685	441.38
410.908	452.38
411.132	456.38
411.355	488.38
411.578	467.38
411.802	446.38
412.025	422.38
412.249	438.38
412.472	436.38
412.695	477.38
412.919	473.38
413.142	427.38
413.365	407.38
413.589	426.38
413.812	417.38
414.035	397.38
414.258	406.38
414.482	420.38
414.705	392.38
414.928	392.38
415.151	404.38
415.374	392.38
415.597	400.38
415.821	381.38
416.044	400.38
416.267	406.38
416.49	399.38
416.713	393.38
416.936	401.38
417.159	404.38
417.382	415.38
417.605	422.38
417.828	420.38
418.051	437.38
418.274	401.38
418.497	388.38
418.72	413.38
418.943	397.38
419.166	420.38
419.389	412.38
419.611	418.38
419.834	404.38
420.057	414.38
420.28	426.38
420.503	408.38
420.726	414.38
420.948	448.38
421.171	460.38
421.394	476.38
421.617	432.38
421.839	424.38
422.062	447.38
422.285	450.38
422.507	499.38
422.73	540.38
422.953	548.38
423.175	432.38
423.398	468.38
423.621	431.38
423.843	468.38
424.066	462.38
424.288	453.38
424.511	471.38
424.733	509.38
424.956	551.38
425.178	550.38
425.401	534.38
425.623	565.38
425.846	486.38
426.068	472.38
426.291	460.38
426.513	464.38
426.735	457.38
426.958	502.38
427.18	555.38
427.402	651.38
427.625	726.38
427.847	695.38
428.069	585.38
428.292	512.38
428.514	456.38
428.736	453.38
428.958	433.38
429.181	435.38
429.403	434.38
429.625	426.38
429.847	467.38
430.069	510.38
430.292	514.38
430.514	452.38
430.736	422.38
430.958	420.38
431.18	401.38
431.402	409.38
431.624	387.38
431.846	389.38
432.068	390.38
432.29	397.38
432.512	401.38
432.734	399.38
432.956	397.38
433.178	405.38
433.4	406.38
433.622	406.38
433.844	401.38
434.066	389.38
434.287	392.38
434.509	390.38
434.731	394.38
434.953	419.38
435.175	417.38
435.397	448.38
435.618	448.38
435.84	501.38
436.062	558.38
436.284	627.38
436.505	498.38
436.727	477.38
436.949	463.38
437.17	429.38
437.392	413.38
437.614	437.38
437.835	484.38
438.057	566.38
438.278	622.38
438.5	600.38
438.721	658.38
438.943	636.38
439.165	531.38
439.386	476.38
439.608	477.38
439.829	477.38
440.05	502.38
440.272	536.38
440.493	491.38
440.715	472.38
440.936	444.38
441.158	449.38
441.379	450.38
441.6	444.38
441.822	452.38
442.043	488.38
442.264	579.38
442.486	583.38
442.707	506.38
442.928	470.38
443.149	482.38
443.371	501.38
443.592	536.38
443.813	603.38
444.034	661.38
444.255	545.38
444.476	469.38
444.698	453.38
444.919	452.38
445.14	571.38
445.361	540.38
445.582	502.38
445.803	573.38
446.024	617.38
446.245	642.38
446.466	600.38
446.687	515.38
446.908	472.38
447.129	425.38
447.35	447.38
447.571	420.38
447.792	419.38
448.013	423.38
448.234	451.38
448.455	502.38
448.675	581.38
448.896	643.38
449.117	582.38
449.338	538.38
449.559	654.38
449.779	714.38
450	559.38
450.221	491.38
450.442	431.38
450.662	429.38
450.883	429.38
451.104	466.38
451.324	438.38
451.545	412.38
451.766	399.38
451.986	406.38
452.207	391.38
452.428	397.38
452.648	388.38
452.869	391.38
453.089	413.38
453.31	420.38
453.53	406.38
453.751	358.38
453.971	388.38
454.192	427.38
454.412	399.38
454.633	382.38
454.853	406.38
455.073	382.38
455.294	431.38
455.514	461.38
455.734	434.38
455.955	400.38
456.175	384.38
456.395	366.38
456.616	351.38
456.836	378.38
457.056	364.38
457.276	382.38
457.497	368.38
457.717	365.38
457.937	361.38
458.157	371.38
458.377	382.38
458.598	379.38
458.818	454.38
459.038	526.38
459.258	533.38
459.478	440.38
459.698	414.38
459.918	382.38
460.138	405.38
460.358	392.38
460.578	407.38
460.798	396.38
461.018	427.38
461.238	390.38
461.458	418.38
461.678	409.38
461.898	417.38
462.118	394.38
462.338	392.38
462.558	399.38
462.777	423.38
462.997	438.38
463.217	430.38
463.437	426.38
463.657	425.38
463.876	423.38
464.096	410.38
464.316	411.38
464.536	422.38
464.755	429.38
464.975	455.38
465.195	516.38
465.414	574.38
465.634	503.38
465.854	455.38
466.073	405.38
466.293	392.38
466.512	421.38
466.732	381.38
466.951	395.38
467.171	393.38
467.391	393.38
467.61	412.38
467.829	392.38
468.049	439.38
468.268	404.38
468.488	399.38
468.707	376.38
468.927	377.38
469.146	375.38
469.365	364.38
469.585	364.38
469.804	395.38
470.023	408.38
470.243	408.38
470.462	422.38
470.681	416.38
470.901	437.38
471.12	408.38
471.339	407.38
471.558	412.38
471.777	409.38
471.997	399.38
472.216	388.38
472.435	436.38
472.654	410.38
472.873	394.38
473.092	403.38
473.311	389.38
473.53	394.38
473.749	419.38
473.968	438.38
474.187	535.38
474.406	524.38
474.625	475.38
474.844	406.38
475.063	408.38
475.282	393.38
475.501	420.38
475.72	413.38
475.939	388.38
476.158	437.38
476.377	417.38
476.596	426.38
476.814	425.38
477.033	422.38
477.252	434.38
477.471	429.38
477.69	423.38
477.908	431.38
478.127	430.38
478.346	430.38
478.564	426.38
478.783	453.38
479.002	448.38
479.22	438.38
479.439	469.38
479.658	486.38
479.876	465.38
480.095	499.38
480.313	500.38
480.532	493.38
480.751	472.38
480.969	504.38
481.188	575.38
481.406	592.38
481.624	546.38
481.843	494.38
482.061	488.38
482.28	483.38
482.498	465.38
482.717	470.38
482.935	476.38
483.153	484.38
483.372	463.38
483.59	482.38
483.808	469.38
484.027	462.38
484.245	471.38
484.463	483.38
484.681	477.38
484.9	477.38
485.118	481.38
485.336	483.38
485.554	506.38
485.772	512.38
485.99	479.38
486.209	496.38
486.427	480.38
486.645	499.38
486.863	528.38
487.081	518.38
487.299	500.38
487.517	512.38
487.735	473.38
487.953	498.38
488.171	491.38
488.389	491.38
488.607	511.38
488.825	502.38
489.043	501.38
489.261	506.38
489.479	505.38
489.696	514.38
489.914	514.38
490.132	527.38
490.35	542.38
490.568	537.38
490.786	530.38
491.003	550.38
491.221	559.38
491.439	553.38
491.657	568.38
491.874	564.38
492.092	582.38
492.31	579.38
492.527	589.38
492.745	596.38
492.963	623.38
493.18	579.38
493.398	597.38
493.615	595.38
493.833	600.38
494.05	569.38
494.268	568.38
494.485	578.38
494.703	572.38
494.92	575.38
495.138	600.38
495.355	595.38
495.573	596.38
495.79	612.38
496.008	606.38
496.225	598.38
496.442	599.38
496.66	596.38
496.877	608.38
497.094	597.38
497.312	588.38
497.529	601.38
497.746	608.38
497.963	634.38
498.181	645.38
498.398	640.38
498.615	674.38
498.832	662.38
499.049	655.38
499.267	667.38
499.484	693.38
499.701	708.38
499.918	730.38
500.135	730.38
500.352	758.38
500.569	783.38
500.786	741.38
501.003	757.38
501.22	732.38
501.437	734.38
501.654	697.38
501.871	740.38
502.088	701.38
