Data from 1965.PennyLincolnUp.Lamp.En5.5.200Scan.071719.P1._HRD10591_14-08-22-910.txt Node
Date: Thu Jul 18 14:08:22 EDT 2019
User: cochatt
Spectrometer: HR+D1059
Trigger mode: 1
Integration Time (sec): 1.000000E-1
Scans to average: 1
Electric dark correction enabled: true
Nonlinearity correction enabled: false
Boxcar width: 0
XAxis mode: Wavelengths
Number of Pixels in Spectrum: 2048
>>>>>Begin Spectral Data<<<<<
223.165	-3.69
223.4	-3.69
223.635	-3.69
223.869	-17.69
224.104	-23.69
224.338	-11.69
224.573	-6.69
224.808	-14.69
225.042	-19.69
225.277	1.31
225.511	1.31
225.746	7.31
225.98	1.31
226.215	14.31
226.449	15.31
226.683	13.31
226.918	15.31
227.152	28.31
227.387	42.31
227.621	40.31
227.856	34.31
228.09	49.31
228.324	48.31
228.559	56.31
228.793	65.31
229.027	92.31
229.262	81.31
229.496	111.31
229.73	120.31
229.964	141.31
230.199	144.31
230.433	105.31
230.667	113.31
230.901	101.31
231.136	101.31
231.37	116.31
231.604	94.31
231.838	101.31
232.072	122.31
232.306	104.31
232.541	106.31
232.775	101.31
233.009	115.31
233.243	92.31
233.477	108.31
233.711	101.31
233.945	101.31
234.179	112.31
234.413	113.31
234.647	100.31
234.881	114.31
235.115	105.31
235.349	109.31
235.583	107.31
235.817	109.31
236.051	113.31
236.285	102.31
236.519	112.31
236.753	117.31
236.987	139.31
237.221	158.31
237.455	193.31
237.689	165.31
237.922	144.31
238.156	136.31
238.39	126.31
238.624	122.31
238.858	112.31
239.091	122.31
239.325	117.31
239.559	112.31
239.793	120.31
240.027	124.31
240.26	120.31
240.494	148.31
240.728	143.31
240.961	144.31
241.195	140.31
241.429	129.31
241.662	122.31
241.896	126.31
242.13	113.31
242.363	118.31
242.597	110.31
242.83	130.31
243.064	126.31
243.298	118.31
243.531	120.31
243.765	132.31
243.998	126.31
244.232	122.31
244.465	100.31
244.699	118.31
244.932	138.31
245.166	128.31
245.399	128.31
245.633	151.31
245.866	129.31
246.099	124.31
246.333	139.31
246.566	133.31
246.8	145.31
247.033	143.31
247.266	137.31
247.5	152.31
247.733	141.31
247.966	141.31
248.2	165.31
248.433	153.31
248.666	168.31
248.899	165.31
249.133	164.31
249.366	151.31
249.599	172.31
249.832	141.31
250.066	152.31
250.299	167.31
250.532	160.31
250.765	160.31
250.998	176.31
251.231	184.31
251.465	173.31
251.698	179.31
251.931	181.31
252.164	168.31
252.397	200.31
252.63	188.31
252.863	184.31
253.096	180.31
253.329	200.31
253.562	208.31
253.795	176.31
254.028	185.31
254.261	190.31
254.494	187.31
254.727	211.31
254.96	232.31
255.193	232.31
255.426	226.31
255.659	209.31
255.892	195.31
256.124	196.31
256.357	200.31
256.59	197.31
256.823	183.31
257.056	192.31
257.289	173.31
257.521	184.31
257.754	183.31
257.987	186.31
258.22	184.31
258.452	189.31
258.685	157.31
258.918	186.31
259.151	184.31
259.383	192.31
259.616	184.31
259.849	186.31
260.081	206.31
260.314	210.31
260.547	207.31
260.779	228.31
261.012	205.31
261.244	192.31
261.477	218.31
261.71	189.31
261.942	196.31
262.175	186.31
262.407	206.31
262.64	184.31
262.872	185.31
263.105	190.31
263.337	188.31
263.57	201.31
263.802	191.31
264.035	185.31
264.267	189.31
264.499	192.31
264.732	180.31
264.964	191.31
265.197	200.31
265.429	181.31
265.661	176.31
265.894	180.31
266.126	187.31
266.358	192.31
266.591	184.31
266.823	198.31
267.055	194.31
267.287	197.31
267.52	187.31
267.752	191.31
267.984	186.31
268.216	191.31
268.448	190.31
268.681	225.31
268.913	218.31
269.145	212.31
269.377	217.31
269.609	223.31
269.841	222.31
270.073	225.31
270.306	225.31
270.538	276.31
270.77	254.31
271.002	265.31
271.234	241.31
271.466	260.31
271.698	268.31
271.93	263.31
272.162	262.31
272.394	270.31
272.626	260.31
272.858	246.31
273.09	230.31
273.322	232.31
273.553	229.31
273.785	223.31
274.017	208.31
274.249	222.31
274.481	241.31
274.713	229.31
274.945	226.31
275.176	227.31
275.408	233.31
275.64	216.31
275.872	207.31
276.104	227.31
276.335	241.31
276.567	226.31
276.799	245.31
277.031	254.31
277.262	256.31
277.494	255.31
277.726	260.31
277.957	239.31
278.189	237.31
278.421	215.31
278.652	236.31
278.884	231.31
279.115	222.31
279.347	230.31
279.579	233.31
279.81	230.31
280.042	214.31
280.273	222.31
280.505	224.31
280.736	232.31
280.968	222.31
281.199	231.31
281.431	216.31
281.662	213.31
281.894	225.31
282.125	228.31
282.356	245.31
282.588	257.31
282.819	271.31
283.051	246.31
283.282	240.31
283.513	237.31
283.745	226.31
283.976	233.31
284.207	236.31
284.439	243.31
284.67	235.31
284.901	236.31
285.132	238.31
285.364	237.31
285.595	245.31
285.826	247.31
286.057	224.31
286.288	253.31
286.52	235.31
286.751	252.31
286.982	235.31
287.213	235.31
287.444	234.31
287.675	252.31
287.906	240.31
288.138	236.31
288.369	250.31
288.6	246.31
288.831	244.31
289.062	261.31
289.293	235.31
289.524	247.31
289.755	239.31
289.986	252.31
290.217	236.31
290.448	252.31
290.679	238.31
290.91	241.31
291.141	245.31
291.371	232.31
291.602	232.31
291.833	252.31
292.064	246.31
292.295	250.31
292.526	231.31
292.757	236.31
292.987	229.31
293.218	254.31
293.449	244.31
293.68	260.31
293.91	249.31
294.141	238.31
294.372	222.31
294.603	241.31
294.833	240.31
295.064	235.31
295.295	241.31
295.525	246.31
295.756	236.31
295.987	260.31
296.217	293.31
296.448	289.31
296.679	243.31
296.909	254.31
297.14	241.31
297.37	246.31
297.601	259.31
297.831	256.31
298.062	256.31
298.292	249.31
298.523	258.31
298.753	247.31
298.984	247.31
299.214	249.31
299.445	248.31
299.675	263.31
299.905	271.31
300.136	268.31
300.366	249.31
300.597	256.31
300.827	271.31
301.057	263.31
301.288	271.31
301.518	281.31
301.748	266.31
301.979	274.31
302.209	280.31
302.439	274.31
302.669	266.31
302.9	275.31
303.13	254.31
303.36	278.31
303.59	282.31
303.82	300.31
304.051	300.31
304.281	272.31
304.511	274.31
304.741	286.31
304.971	284.31
305.201	269.31
305.431	284.31
305.661	289.31
305.891	290.31
306.121	285.31
306.352	270.31
306.582	274.31
306.812	279.31
307.042	278.31
307.272	288.31
307.502	265.31
307.731	272.31
307.961	298.31
308.191	271.31
308.421	289.31
308.651	264.31
308.881	276.31
309.111	301.31
309.341	298.31
309.571	298.31
309.8	296.31
310.03	294.31
310.26	296.31
310.49	329.31
310.72	324.31
310.949	329.31
311.179	343.31
311.409	325.31
311.639	326.31
311.868	312.31
312.098	314.31
312.328	324.31
312.557	339.31
312.787	343.31
313.017	341.31
313.246	313.31
313.476	326.31
313.706	310.31
313.935	330.31
314.165	335.31
314.394	309.31
314.624	338.31
314.853	328.31
315.083	331.31
315.312	327.31
315.542	317.31
315.771	321.31
316.001	317.31
316.23	311.31
316.46	313.31
316.689	320.31
316.919	318.31
317.148	333.31
317.377	324.31
317.607	331.31
317.836	319.31
318.065	317.31
318.295	318.31
318.524	329.31
318.753	319.31
318.983	331.31
319.212	327.31
319.441	328.31
319.67	326.31
319.9	314.31
320.129	308.31
320.358	314.31
320.587	323.31
320.816	329.31
321.046	345.31
321.275	337.31
321.504	330.31
321.733	350.31
321.962	345.31
322.191	351.31
322.42	356.31
322.649	373.31
322.878	372.31
323.108	401.31
323.337	425.31
323.566	438.31
323.795	449.31
324.024	498.31
324.253	607.31
324.482	889.31
324.71	1360.31
324.939	1826.31
325.168	1545.31
325.397	823.31
325.626	553.31
325.855	494.31
326.084	422.31
326.313	433.31
326.542	452.31
326.77	470.31
326.999	558.31
327.228	779.31
327.457	1160.31
327.686	1357.31
327.914	898.31
328.143	613.31
328.372	520.31
328.6	494.31
328.829	473.31
329.058	484.31
329.287	510.31
329.515	476.31
329.744	426.31
329.972	458.31
330.201	445.31
330.43	478.31
330.658	525.31
330.887	521.31
331.115	534.31
331.344	460.31
331.572	416.31
331.801	438.31
332.03	417.31
332.258	392.31
332.486	380.31
332.715	377.31
332.943	374.31
333.172	384.31
333.4	384.31
333.629	381.31
333.857	413.31
334.085	391.31
334.314	424.31
334.542	437.31
334.771	468.31
334.999	408.31
335.227	392.31
335.455	382.31
335.684	386.31
335.912	371.31
336.14	355.31
336.369	370.31
336.597	362.31
336.825	385.31
337.053	360.31
337.281	359.31
337.51	379.31
337.738	362.31
337.966	363.31
338.194	381.31
338.422	400.31
338.65	354.31
338.878	362.31
339.106	365.31
339.334	343.31
339.562	358.31
339.79	358.31
340.018	374.31
340.246	376.31
340.474	367.31
340.702	342.31
340.93	359.31
341.158	348.31
341.386	350.31
341.614	370.31
341.842	347.31
342.07	356.31
342.298	355.31
342.526	364.31
342.754	337.31
342.981	347.31
343.209	333.31
343.437	352.31
343.665	348.31
343.893	366.31
344.12	369.31
344.348	354.31
344.576	360.31
344.804	351.31
345.031	382.31
345.259	396.31
345.487	373.31
345.714	367.31
345.942	367.31
346.17	364.31
346.397	350.31
346.625	375.31
346.853	356.31
347.08	341.31
347.308	341.31
347.535	363.31
347.763	367.31
347.99	353.31
348.218	365.31
348.445	355.31
348.673	376.31
348.9	368.31
349.128	350.31
349.355	339.31
349.583	352.31
349.81	346.31
350.037	352.31
350.265	344.31
350.492	326.31
350.72	343.31
350.947	329.31
351.174	345.31
351.402	353.31
351.629	381.31
351.856	365.31
352.083	360.31
352.311	359.31
352.538	348.31
352.765	380.31
352.992	364.31
353.22	353.31
353.447	354.31
353.674	333.31
353.901	349.31
354.128	319.31
354.355	328.31
354.583	324.31
354.81	342.31
355.037	325.31
355.264	325.31
355.491	315.31
355.718	307.31
355.945	320.31
356.172	312.31
356.399	327.31
356.626	316.31
356.853	330.31
357.08	321.31
357.307	329.31
357.534	328.31
357.761	327.31
357.988	335.31
358.215	349.31
358.441	338.31
358.668	333.31
358.895	318.31
359.122	325.31
359.349	337.31
359.576	341.31
359.802	354.31
360.029	401.31
360.256	398.31
360.483	384.31
360.709	376.31
360.936	340.31
361.163	362.31
361.39	361.31
361.616	345.31
361.843	356.31
362.07	318.31
362.296	336.31
362.523	357.31
362.749	353.31
362.976	352.31
363.203	353.31
363.429	336.31
363.656	333.31
363.882	335.31
364.109	328.31
364.335	327.31
364.562	338.31
364.788	328.31
365.015	333.31
365.241	350.31
365.468	333.31
365.694	328.31
365.92	350.31
366.147	350.31
366.373	320.31
366.599	330.31
366.826	315.31
367.052	332.31
367.278	325.31
367.505	332.31
367.731	346.31
367.957	338.31
368.184	321.31
368.41	334.31
368.636	331.31
368.862	370.31
369.089	339.31
369.315	326.31
369.541	338.31
369.767	339.31
369.993	308.31
370.219	346.31
370.445	331.31
370.672	330.31
370.898	336.31
371.124	333.31
371.35	323.31
371.576	331.31
371.802	331.31
372.028	335.31
372.254	351.31
372.48	343.31
372.706	342.31
372.932	344.31
373.158	333.31
373.384	341.31
373.61	326.31
373.835	330.31
374.061	340.31
374.287	334.31
374.513	333.31
374.739	320.31
374.965	338.31
375.191	332.31
375.416	334.31
375.642	342.31
375.868	358.31
376.094	323.31
376.319	337.31
376.545	326.31
376.771	338.31
376.997	314.31
377.222	331.31
377.448	334.31
377.674	345.31
377.899	314.31
378.125	345.31
378.35	319.31
378.576	342.31
378.802	319.31
379.027	335.31
379.253	330.31
379.478	344.31
379.704	330.31
379.929	338.31
380.155	343.31
380.38	356.31
380.606	341.31
380.831	340.31
381.057	334.31
381.282	351.31
381.507	345.31
381.733	350.31
381.958	320.31
382.184	327.31
382.409	344.31
382.634	344.31
382.86	354.31
383.085	331.31
383.31	342.31
383.535	347.31
383.761	343.31
383.986	350.31
384.211	352.31
384.436	357.31
384.662	348.31
384.887	339.31
385.112	353.31
385.337	352.31
385.562	344.31
385.787	353.31
386.013	376.31
386.238	360.31
386.463	373.31
386.688	345.31
386.913	349.31
387.138	354.31
387.363	347.31
387.588	352.31
387.813	367.31
388.038	359.31
388.263	346.31
388.488	373.31
388.713	360.31
388.938	361.31
389.163	360.31
389.387	368.31
389.612	367.31
389.837	352.31
390.062	349.31
390.287	358.31
390.512	356.31
390.736	366.31
390.961	369.31
391.186	353.31
391.411	361.31
391.636	356.31
391.86	349.31
392.085	360.31
392.31	345.31
392.534	360.31
392.759	353.31
392.984	369.31
393.208	346.31
393.433	361.31
393.658	357.31
393.882	338.31
394.107	343.31
394.331	347.31
394.556	343.31
394.78	352.31
395.005	354.31
395.229	345.31
395.454	388.31
395.678	380.31
395.903	389.31
396.127	380.31
396.352	378.31
396.576	370.31
396.801	370.31
397.025	361.31
397.249	389.31
397.474	378.31
397.698	397.31
397.922	398.31
398.147	412.31
398.371	392.31
398.595	388.31
398.82	396.31
399.044	393.31
399.268	400.31
399.492	426.31
399.717	449.31
399.941	457.31
400.165	465.31
400.389	481.31
400.613	463.31
400.837	415.31
401.062	408.31
401.286	404.31
401.51	408.31
401.734	392.31
401.958	399.31
402.182	431.31
402.406	433.31
402.63	426.31
402.854	419.31
403.078	425.31
403.302	445.31
403.526	419.31
403.75	418.31
403.974	428.31
404.198	406.31
404.422	424.31
404.645	397.31
404.869	421.31
405.093	444.31
405.317	481.31
405.541	481.31
405.765	471.31
405.988	429.31
406.212	446.31
406.436	493.31
406.66	482.31
406.883	461.31
407.107	471.31
407.331	509.31
407.555	538.31
407.778	557.31
408.002	504.31
408.226	477.31
408.449	477.31
408.673	465.31
408.896	503.31
409.12	494.31
409.344	489.31
409.567	446.31
409.791	410.31
410.014	426.31
410.238	429.31
410.461	425.31
410.685	412.31
410.908	432.31
411.132	453.31
411.355	470.31
411.578	445.31
411.802	408.31
412.025	416.31
412.249	424.31
412.472	434.31
412.695	465.31
412.919	469.31
413.142	433.31
413.365	410.31
413.589	399.31
413.812	394.31
414.035	406.31
414.258	408.31
414.482	405.31
414.705	414.31
414.928	398.31
415.151	406.31
415.374	401.31
415.597	398.31
415.821	387.31
416.044	369.31
416.267	397.31
416.49	399.31
416.713	380.31
416.936	399.31
417.159	378.31
417.382	379.31
417.605	382.31
417.828	409.31
418.051	401.31
418.274	416.31
418.497	388.31
418.72	382.31
418.943	399.31
419.166	395.31
419.389	428.31
419.611	406.31
419.834	414.31
420.057	415.31
420.28	423.31
420.503	436.31
420.726	424.31
420.948	413.31
421.171	452.31
421.394	459.31
421.617	429.31
421.839	414.31
422.062	415.31
422.285	434.31
422.507	459.31
422.73	532.31
422.953	525.31
423.175	458.31
423.398	421.31
423.621	442.31
423.843	440.31
424.066	437.31
424.288	438.31
424.511	461.31
424.733	493.31
424.956	557.31
425.178	547.31
425.401	538.31
425.623	532.31
425.846	479.31
426.068	445.31
426.291	438.31
426.513	452.31
426.735	460.31
426.958	473.31
427.18	561.31
427.402	670.31
427.625	725.31
427.847	614.31
428.069	541.31
428.292	488.31
428.514	447.31
428.736	440.31
428.958	434.31
429.181	429.31
429.403	412.31
429.625	422.31
429.847	439.31
430.069	485.31
430.292	484.31
430.514	422.31
430.736	403.31
430.958	410.31
431.18	401.31
431.402	404.31
431.624	393.31
431.846	376.31
432.068	380.31
432.29	397.31
432.512	397.31
432.734	397.31
432.956	406.31
433.178	412.31
433.4	412.31
433.622	390.31
433.844	403.31
434.066	394.31
434.287	384.31
434.509	406.31
434.731	409.31
434.953	393.31
435.175	426.31
435.397	440.31
435.618	448.31
435.84	467.31
436.062	546.31
436.284	582.31
436.505	495.31
436.727	462.31
436.949	432.31
437.17	432.31
437.392	431.31
437.614	437.31
437.835	480.31
438.057	564.31
438.278	597.31
438.5	601.31
438.721	649.31
438.943	642.31
439.165	513.31
439.386	464.31
439.608	459.31
439.829	473.31
440.05	451.31
440.272	531.31
440.493	470.31
440.715	456.31
440.936	441.31
441.158	403.31
441.379	446.31
441.6	429.31
441.822	440.31
442.043	472.31
442.264	552.31
442.486	555.31
442.707	498.31
442.928	468.31
443.149	466.31
443.371	479.31
443.592	488.31
443.813	589.31
444.034	625.31
444.255	542.31
444.476	469.31
444.698	427.31
444.919	436.31
445.14	539.31
445.361	492.31
445.582	500.31
445.803	540.31
446.024	620.31
446.245	632.31
446.466	564.31
446.687	479.31
446.908	465.31
447.129	419.31
447.35	411.31
447.571	409.31
447.792	401.31
448.013	422.31
448.234	435.31
448.455	486.31
448.675	554.31
448.896	634.31
449.117	559.31
449.338	520.31
449.559	623.31
449.779	676.31
450	540.31
450.221	463.31
450.442	415.31
450.662	413.31
450.883	410.31
451.104	422.31
451.324	421.31
451.545	409.31
451.766	391.31
451.986	382.31
452.207	382.31
452.428	389.31
452.648	365.31
452.869	382.31
453.089	400.31
453.31	398.31
453.53	394.31
453.751	388.31
453.971	388.31
454.192	411.31
454.412	387.31
454.633	385.31
454.853	353.31
455.073	375.31
455.294	413.31
455.514	448.31
455.734	458.31
455.955	391.31
456.175	365.31
456.395	356.31
456.616	362.31
456.836	365.31
457.056	350.31
457.276	340.31
457.497	341.31
457.717	360.31
457.937	374.31
458.157	364.31
458.377	394.31
458.598	400.31
458.818	439.31
459.038	534.31
459.258	524.31
459.478	433.31
459.698	423.31
459.918	429.31
460.138	399.31
460.358	401.31
460.578	397.31
460.798	401.31
461.018	406.31
461.238	401.31
461.458	380.31
461.678	388.31
461.898	396.31
462.118	400.31
462.338	403.31
462.558	408.31
462.777	436.31
462.997	414.31
463.217	430.31
463.437	426.31
463.657	434.31
463.876	428.31
464.096	438.31
464.316	412.31
464.536	425.31
464.755	439.31
464.975	441.31
465.195	469.31
465.414	544.31
465.634	480.31
465.854	429.31
466.073	425.31
466.293	413.31
466.512	398.31
466.732	390.31
466.951	377.31
467.171	375.31
467.391	386.31
467.61	382.31
467.829	409.31
468.049	415.31
468.268	405.31
468.488	398.31
468.707	378.31
468.927	384.31
469.146	388.31
469.365	386.31
469.585	374.31
469.804	380.31
470.023	399.31
470.243	391.31
470.462	406.31
470.681	429.31
470.901	390.31
471.12	405.31
471.339	403.31
471.558	397.31
471.777	388.31
471.997	374.31
472.216	395.31
472.435	421.31
472.654	431.31
472.873	395.31
473.092	401.31
473.311	408.31
473.53	405.31
473.749	393.31
473.968	439.31
474.187	520.31
474.406	522.31
474.625	455.31
474.844	420.31
475.063	415.31
475.282	385.31
475.501	389.31
475.72	389.31
475.939	398.31
476.158	400.31
476.377	399.31
476.596	408.31
476.814	412.31
477.033	398.31
477.252	431.31
477.471	424.31
477.69	411.31
477.908	414.31
478.127	428.31
478.346	416.31
478.564	431.31
478.783	432.31
479.002	439.31
479.22	439.31
479.439	457.31
479.658	486.31
479.876	468.31
480.095	461.31
480.313	484.31
480.532	497.31
480.751	481.31
480.969	482.31
481.188	539.31
481.406	580.31
481.624	513.31
481.843	475.31
482.061	475.31
482.28	459.31
482.498	462.31
482.717	456.31
482.935	464.31
483.153	473.31
483.372	464.31
483.59	468.31
483.808	470.31
484.027	478.31
484.245	459.31
484.463	454.31
484.681	456.31
484.9	460.31
485.118	474.31
485.336	475.31
485.554	464.31
485.772	478.31
485.99	483.31
486.209	493.31
486.427	486.31
486.645	461.31
486.863	519.31
487.081	497.31
487.299	504.31
487.517	486.31
487.735	470.31
487.953	517.31
488.171	513.31
488.389	485.31
488.607	494.31
488.825	502.31
489.043	486.31
489.261	520.31
489.479	506.31
489.696	509.31
489.914	516.31
490.132	521.31
490.35	521.31
490.568	527.31
490.786	532.31
491.003	517.31
491.221	531.31
491.439	533.31
491.657	540.31
491.874	570.31
492.092	576.31
492.31	548.31
492.527	553.31
492.745	554.31
492.963	577.31
493.18	576.31
493.398	570.31
493.615	574.31
493.833	580.31
494.05	571.31
494.268	560.31
494.485	578.31
494.703	554.31
494.92	569.31
495.138	566.31
495.355	544.31
495.573	575.31
495.79	594.31
496.008	577.31
496.225	579.31
496.442	582.31
496.66	589.31
496.877	591.31
497.094	584.31
497.312	577.31
497.529	575.31
497.746	600.31
497.963	619.31
498.181	615.31
498.398	644.31
498.615	634.31
498.832	681.31
499.049	631.31
499.267	642.31
499.484	657.31
499.701	683.31
499.918	704.31
500.135	718.31
500.352	735.31
500.569	744.31
500.786	760.31
501.003	726.31
501.22	746.31
501.437	707.31
501.654	699.31
501.871	703.31
502.088	666.31
