Data from 1965.PennyLincolnUp.Lamp.En5.5.200Scan.071719.P1._HRD10591_14-10-20-911.txt Node
Date: Thu Jul 18 14:10:20 EDT 2019
User: cochatt
Spectrometer: HR+D1059
Trigger mode: 1
Integration Time (sec): 1.000000E-1
Scans to average: 1
Electric dark correction enabled: true
Nonlinearity correction enabled: false
Boxcar width: 0
XAxis mode: Wavelengths
Number of Pixels in Spectrum: 2048
>>>>>Begin Spectral Data<<<<<
223.165	-22.69
223.4	-22.69
223.635	-22.69
223.869	-8.69
224.104	-21.69
224.338	-12.69
224.573	-15.69
224.808	-18.69
225.042	-17.69
225.277	-6.69
225.511	-3.69
225.746	10.31
225.98	4.31
226.215	8.31
226.449	15.31
226.683	12.31
226.918	42.31
227.152	35.31
227.387	32.31
227.621	35.31
227.856	48.31
228.09	47.31
228.324	57.31
228.559	57.31
228.793	53.31
229.027	101.31
229.262	111.31
229.496	98.31
229.73	149.31
229.964	159.31
230.199	120.31
230.433	99.31
230.667	130.31
230.901	118.31
231.136	111.31
231.37	106.31
231.604	115.31
231.838	115.31
232.072	103.31
232.306	114.31
232.541	102.31
232.775	116.31
233.009	107.31
233.243	123.31
233.477	111.31
233.711	92.31
233.945	101.31
234.179	117.31
234.413	111.31
234.647	117.31
234.881	104.31
235.115	103.31
235.349	103.31
235.583	117.31
235.817	116.31
236.051	123.31
236.285	121.31
236.519	122.31
236.753	130.31
236.987	135.31
237.221	169.31
237.455	229.31
237.689	176.31
237.922	143.31
238.156	115.31
238.39	117.31
238.624	126.31
238.858	123.31
239.091	120.31
239.325	121.31
239.559	115.31
239.793	128.31
240.027	123.31
240.26	134.31
240.494	144.31
240.728	145.31
240.961	153.31
241.195	137.31
241.429	133.31
241.662	140.31
241.896	131.31
242.13	129.31
242.363	137.31
242.597	123.31
242.83	131.31
243.064	137.31
243.298	130.31
243.531	119.31
243.765	133.31
243.998	137.31
244.232	145.31
244.465	139.31
244.699	123.31
244.932	131.31
245.166	135.31
245.399	144.31
245.633	129.31
245.866	146.31
246.099	121.31
246.333	139.31
246.566	138.31
246.8	154.31
247.033	156.31
247.266	140.31
247.5	139.31
247.733	151.31
247.966	160.31
248.2	176.31
248.433	163.31
248.666	172.31
248.899	165.31
249.133	191.31
249.366	193.31
249.599	187.31
249.832	172.31
250.066	171.31
250.299	189.31
250.532	195.31
250.765	187.31
250.998	213.31
251.231	207.31
251.465	211.31
251.698	197.31
251.931	192.31
252.164	204.31
252.397	193.31
252.63	195.31
252.863	186.31
253.096	213.31
253.329	198.31
253.562	203.31
253.795	206.31
254.028	214.31
254.261	203.31
254.494	209.31
254.727	239.31
254.96	260.31
255.193	251.31
255.426	222.31
255.659	217.31
255.892	214.31
256.124	204.31
256.357	207.31
256.59	213.31
256.823	198.31
257.056	203.31
257.289	213.31
257.521	199.31
257.754	195.31
257.987	208.31
258.22	210.31
258.452	196.31
258.685	205.31
258.918	195.31
259.151	210.31
259.383	187.31
259.616	183.31
259.849	206.31
260.081	229.31
260.314	255.31
260.547	220.31
260.779	225.31
261.012	223.31
261.244	218.31
261.477	218.31
261.71	203.31
261.942	197.31
262.175	214.31
262.407	209.31
262.64	202.31
262.872	187.31
263.105	201.31
263.337	198.31
263.57	190.31
263.802	202.31
264.035	192.31
264.267	190.31
264.499	204.31
264.732	196.31
264.964	179.31
265.197	191.31
265.429	200.31
265.661	190.31
265.894	187.31
266.126	195.31
266.358	184.31
266.591	213.31
266.823	224.31
267.055	229.31
267.287	220.31
267.52	207.31
267.752	219.31
267.984	226.31
268.216	217.31
268.448	214.31
268.681	222.31
268.913	227.31
269.145	230.31
269.377	259.31
269.609	241.31
269.841	232.31
270.073	243.31
270.306	260.31
270.538	300.31
270.77	302.31
271.002	270.31
271.234	278.31
271.466	297.31
271.698	288.31
271.93	296.31
272.162	301.31
272.394	312.31
272.626	301.31
272.858	288.31
273.09	265.31
273.322	259.31
273.553	237.31
273.785	263.31
274.017	251.31
274.249	240.31
274.481	240.31
274.713	259.31
274.945	233.31
275.176	246.31
275.408	230.31
275.64	238.31
275.872	257.31
276.104	252.31
276.335	240.31
276.567	260.31
276.799	284.31
277.031	300.31
277.262	318.31
277.494	307.31
277.726	302.31
277.957	255.31
278.189	263.31
278.421	268.31
278.652	257.31
278.884	240.31
279.115	243.31
279.347	251.31
279.579	236.31
279.81	263.31
280.042	240.31
280.273	245.31
280.505	251.31
280.736	239.31
280.968	233.31
281.199	257.31
281.431	241.31
281.662	240.31
281.894	258.31
282.125	224.31
282.356	254.31
282.588	289.31
282.819	292.31
283.051	264.31
283.282	249.31
283.513	255.31
283.745	261.31
283.976	269.31
284.207	251.31
284.439	239.31
284.67	247.31
284.901	246.31
285.132	253.31
285.364	245.31
285.595	267.31
285.826	249.31
286.057	244.31
286.288	248.31
286.52	252.31
286.751	255.31
286.982	243.31
287.213	260.31
287.444	252.31
287.675	274.31
287.906	241.31
288.138	280.31
288.369	289.31
288.6	255.31
288.831	269.31
289.062	263.31
289.293	286.31
289.524	264.31
289.755	268.31
289.986	239.31
290.217	249.31
290.448	269.31
290.679	253.31
290.91	264.31
291.141	259.31
291.371	252.31
291.602	269.31
291.833	274.31
292.064	263.31
292.295	257.31
292.526	272.31
292.757	273.31
292.987	261.31
293.218	269.31
293.449	275.31
293.68	269.31
293.91	251.31
294.141	263.31
294.372	256.31
294.603	247.31
294.833	244.31
295.064	292.31
295.295	284.31
295.525	279.31
295.756	306.31
295.987	288.31
296.217	303.31
296.448	294.31
296.679	278.31
296.909	273.31
297.14	267.31
297.37	268.31
297.601	289.31
297.831	298.31
298.062	271.31
298.292	272.31
298.523	273.31
298.753	279.31
298.984	287.31
299.214	270.31
299.445	277.31
299.675	285.31
299.905	300.31
300.136	285.31
300.366	280.31
300.597	291.31
300.827	293.31
301.057	298.31
301.288	281.31
301.518	295.31
301.748	291.31
301.979	295.31
302.209	285.31
302.439	319.31
302.669	317.31
302.9	302.31
303.13	301.31
303.36	306.31
303.59	317.31
303.82	310.31
304.051	305.31
304.281	315.31
304.511	304.31
304.741	288.31
304.971	298.31
305.201	295.31
305.431	316.31
305.661	295.31
305.891	289.31
306.121	293.31
306.352	317.31
306.582	305.31
306.812	316.31
307.042	289.31
307.272	314.31
307.502	312.31
307.731	288.31
307.961	296.31
308.191	296.31
308.421	304.31
308.651	287.31
308.881	316.31
309.111	320.31
309.341	326.31
309.571	330.31
309.8	344.31
310.03	334.31
310.26	354.31
310.49	351.31
310.72	346.31
310.949	350.31
311.179	371.31
311.409	360.31
311.639	349.31
311.868	358.31
312.098	355.31
312.328	364.31
312.557	357.31
312.787	391.31
313.017	387.31
313.246	365.31
313.476	354.31
313.706	349.31
313.935	355.31
314.165	368.31
314.394	374.31
314.624	368.31
314.853	339.31
315.083	355.31
315.312	353.31
315.542	347.31
315.771	340.31
316.001	325.31
316.23	348.31
316.46	330.31
316.689	354.31
316.919	373.31
317.148	356.31
317.377	348.31
317.607	350.31
317.836	365.31
318.065	346.31
318.295	331.31
318.524	346.31
318.753	345.31
318.983	353.31
319.212	352.31
319.441	344.31
319.67	376.31
319.9	351.31
320.129	347.31
320.358	329.31
320.587	354.31
320.816	387.31
321.046	391.31
321.275	378.31
321.504	371.31
321.733	388.31
321.962	379.31
322.191	405.31
322.42	419.31
322.649	429.31
322.878	432.31
323.108	470.31
323.337	460.31
323.566	492.31
323.795	528.31
324.024	565.31
324.253	736.31
324.482	1048.31
324.71	1597.31
324.939	2195.31
325.168	1822.31
325.397	962.31
325.626	637.31
325.855	538.31
326.084	489.31
326.313	484.31
326.542	500.31
326.77	551.31
326.999	656.31
327.228	931.31
327.457	1388.31
327.686	1608.31
327.914	1072.31
328.143	722.31
328.372	620.31
328.6	599.31
328.829	569.31
329.058	581.31
329.287	579.31
329.515	517.31
329.744	500.31
329.972	492.31
330.201	517.31
330.43	587.31
330.658	585.31
330.887	595.31
331.115	595.31
331.344	518.31
331.572	465.31
331.801	472.31
332.03	461.31
332.258	443.31
332.486	413.31
332.715	414.31
332.943	423.31
333.172	432.31
333.4	433.31
333.629	414.31
333.857	437.31
334.085	420.31
334.314	490.31
334.542	515.31
334.771	516.31
334.999	490.31
335.227	446.31
335.455	408.31
335.684	416.31
335.912	405.31
336.14	398.31
336.369	394.31
336.597	391.31
336.825	410.31
337.053	394.31
337.281	410.31
337.51	399.31
337.738	397.31
337.966	407.31
338.194	419.31
338.422	397.31
338.65	389.31
338.878	381.31
339.106	371.31
339.334	406.31
339.562	380.31
339.79	397.31
340.018	405.31
340.246	405.31
340.474	389.31
340.702	392.31
340.93	371.31
341.158	397.31
341.386	398.31
341.614	399.31
341.842	387.31
342.07	376.31
342.298	376.31
342.526	368.31
342.754	395.31
342.981	371.31
343.209	385.31
343.437	405.31
343.665	399.31
343.893	382.31
344.12	379.31
344.348	400.31
344.576	393.31
344.804	402.31
345.031	415.31
345.259	428.31
345.487	416.31
345.714	402.31
345.942	371.31
346.17	384.31
346.397	378.31
346.625	377.31
346.853	379.31
347.08	377.31
347.308	378.31
347.535	375.31
347.763	409.31
347.99	388.31
348.218	396.31
348.445	404.31
348.673	421.31
348.9	385.31
349.128	373.31
349.355	353.31
349.583	365.31
349.81	357.31
350.037	384.31
350.265	365.31
350.492	368.31
350.72	363.31
350.947	366.31
351.174	404.31
351.402	419.31
351.629	389.31
351.856	383.31
352.083	392.31
352.311	395.31
352.538	384.31
352.765	413.31
352.992	394.31
353.22	388.31
353.447	398.31
353.674	361.31
353.901	352.31
354.128	377.31
354.355	361.31
354.583	369.31
354.81	353.31
355.037	360.31
355.264	352.31
355.491	356.31
355.718	334.31
355.945	341.31
356.172	336.31
356.399	348.31
356.626	333.31
356.853	352.31
357.08	349.31
357.307	331.31
357.534	355.31
357.761	350.31
357.988	358.31
358.215	344.31
358.441	360.31
358.668	371.31
358.895	361.31
359.122	363.31
359.349	372.31
359.576	379.31
359.802	414.31
360.029	443.31
360.256	437.31
360.483	407.31
360.709	386.31
360.936	407.31
361.163	403.31
361.39	390.31
361.616	395.31
361.843	384.31
362.07	379.31
362.296	388.31
362.523	386.31
362.749	362.31
362.976	363.31
363.203	371.31
363.429	362.31
363.656	366.31
363.882	357.31
364.109	350.31
364.335	365.31
364.562	374.31
364.788	377.31
365.015	360.31
365.241	352.31
365.468	364.31
365.694	361.31
365.92	368.31
366.147	345.31
366.373	352.31
366.599	361.31
366.826	356.31
367.052	360.31
367.278	354.31
367.505	358.31
367.731	371.31
367.957	375.31
368.184	360.31
368.41	377.31
368.636	364.31
368.862	379.31
369.089	363.31
369.315	347.31
369.541	373.31
369.767	350.31
369.993	339.31
370.219	352.31
370.445	357.31
370.672	348.31
370.898	360.31
371.124	351.31
371.35	351.31
371.576	341.31
371.802	337.31
372.028	342.31
372.254	339.31
372.48	355.31
372.706	357.31
372.932	354.31
373.158	361.31
373.384	365.31
373.61	368.31
373.835	332.31
374.061	347.31
374.287	358.31
374.513	373.31
374.739	346.31
374.965	363.31
375.191	357.31
375.416	363.31
375.642	364.31
375.868	355.31
376.094	362.31
376.319	344.31
376.545	367.31
376.771	343.31
376.997	358.31
377.222	339.31
377.448	350.31
377.674	339.31
377.899	342.31
378.125	362.31
378.35	337.31
378.576	331.31
378.802	347.31
379.027	339.31
379.253	336.31
379.478	355.31
379.704	355.31
379.929	355.31
380.155	361.31
380.38	358.31
380.606	345.31
380.831	345.31
381.057	343.31
381.282	373.31
381.507	354.31
381.733	359.31
381.958	354.31
382.184	361.31
382.409	381.31
382.634	379.31
382.86	377.31
383.085	366.31
383.31	346.31
383.535	378.31
383.761	367.31
383.986	363.31
384.211	348.31
384.436	364.31
384.662	364.31
384.887	381.31
385.112	353.31
385.337	364.31
385.562	362.31
385.787	385.31
386.013	385.31
386.238	389.31
386.463	389.31
386.688	382.31
386.913	373.31
387.138	364.31
387.363	367.31
387.588	381.31
387.813	385.31
388.038	356.31
388.263	362.31
388.488	387.31
388.713	393.31
388.938	384.31
389.163	400.31
389.387	380.31
389.612	356.31
389.837	373.31
390.062	361.31
390.287	371.31
390.512	387.31
390.736	387.31
390.961	379.31
391.186	377.31
391.411	375.31
391.636	386.31
391.86	393.31
392.085	369.31
392.31	379.31
392.534	377.31
392.759	387.31
392.984	397.31
393.208	383.31
393.433	373.31
393.658	362.31
393.882	383.31
394.107	379.31
394.331	396.31
394.556	353.31
394.78	377.31
395.005	385.31
395.229	390.31
395.454	387.31
395.678	367.31
395.903	386.31
396.127	425.31
396.352	413.31
396.576	403.31
396.801	397.31
397.025	372.31
397.249	394.31
397.474	408.31
397.698	407.31
397.922	421.31
398.147	425.31
398.371	441.31
398.595	424.31
398.82	422.31
399.044	440.31
399.268	429.31
399.492	455.31
399.717	465.31
399.941	505.31
400.165	523.31
400.389	512.31
400.613	478.31
400.837	465.31
401.062	449.31
401.286	455.31
401.51	425.31
401.734	447.31
401.958	439.31
402.182	422.31
402.406	431.31
402.63	436.31
402.854	448.31
403.078	438.31
403.302	451.31
403.526	423.31
403.75	438.31
403.974	453.31
404.198	435.31
404.422	451.31
404.645	447.31
404.869	442.31
405.093	500.31
405.317	520.31
405.541	550.31
405.765	487.31
405.988	478.31
406.212	483.31
406.436	513.31
406.66	504.31
406.883	517.31
407.107	511.31
407.331	523.31
407.555	584.31
407.778	587.31
408.002	524.31
408.226	499.31
408.449	471.31
408.673	493.31
408.896	523.31
409.12	558.31
409.344	512.31
409.567	464.31
409.791	447.31
410.014	447.31
410.238	441.31
410.461	457.31
410.685	450.31
410.908	480.31
411.132	486.31
411.355	527.31
411.578	492.31
411.802	455.31
412.025	447.31
412.249	463.31
412.472	495.31
412.695	513.31
412.919	492.31
413.142	465.31
413.365	441.31
413.589	443.31
413.812	412.31
414.035	407.31
414.258	418.31
414.482	411.31
414.705	427.31
414.928	422.31
415.151	431.31
415.374	409.31
415.597	426.31
415.821	441.31
416.044	426.31
416.267	425.31
416.49	415.31
416.713	419.31
416.936	405.31
417.159	415.31
417.382	439.31
417.605	413.31
417.828	453.31
418.051	447.31
418.274	427.31
418.497	420.31
418.72	421.31
418.943	417.31
419.166	449.31
419.389	440.31
419.611	460.31
419.834	462.31
420.057	462.31
420.28	438.31
420.503	443.31
420.726	449.31
420.948	461.31
421.171	500.31
421.394	515.31
421.617	454.31
421.839	457.31
422.062	448.31
422.285	453.31
422.507	499.31
422.73	559.31
422.953	554.31
423.175	474.31
423.398	483.31
423.621	473.31
423.843	495.31
424.066	487.31
424.288	459.31
424.511	499.31
424.733	553.31
424.956	607.31
425.178	589.31
425.401	591.31
425.623	627.31
425.846	514.31
426.068	483.31
426.291	481.31
426.513	490.31
426.735	471.31
426.958	523.31
427.18	595.31
427.402	709.31
427.625	782.31
427.847	715.31
428.069	614.31
428.292	541.31
428.514	500.31
428.736	475.31
428.958	479.31
429.181	470.31
429.403	448.31
429.625	461.31
429.847	470.31
430.069	539.31
430.292	526.31
430.514	472.31
430.736	447.31
430.958	456.31
431.18	440.31
431.402	441.31
431.624	414.31
431.846	437.31
432.068	423.31
432.29	432.31
432.512	430.31
432.734	424.31
432.956	433.31
433.178	434.31
433.4	442.31
433.622	419.31
433.844	419.31
434.066	412.31
434.287	402.31
434.509	423.31
434.731	431.31
434.953	431.31
435.175	445.31
435.397	471.31
435.618	472.31
435.84	534.31
436.062	638.31
436.284	644.31
436.505	540.31
436.727	505.31
436.949	449.31
437.17	461.31
437.392	439.31
437.614	462.31
437.835	515.31
438.057	621.31
438.278	685.31
438.5	670.31
438.721	713.31
438.943	677.31
439.165	563.31
439.386	530.31
439.608	504.31
439.829	499.31
440.05	547.31
440.272	581.31
440.493	550.31
440.715	486.31
440.936	460.31
441.158	458.31
441.379	444.31
441.6	481.31
441.822	503.31
442.043	525.31
442.264	610.31
442.486	627.31
442.707	550.31
442.928	507.31
443.149	491.31
443.371	535.31
443.592	572.31
443.813	652.31
444.034	674.31
444.255	568.31
444.476	484.31
444.698	496.31
444.919	481.31
445.14	577.31
445.361	554.31
445.582	529.31
445.803	598.31
446.024	667.31
446.245	698.31
446.466	641.31
446.687	535.31
446.908	474.31
447.129	462.31
447.35	457.31
447.571	461.31
447.792	455.31
448.013	455.31
448.234	470.31
448.455	521.31
448.675	641.31
448.896	712.31
449.117	599.31
449.338	581.31
449.559	645.31
449.779	719.31
450	595.31
450.221	491.31
450.442	476.31
450.662	448.31
450.883	475.31
451.104	480.31
451.324	483.31
451.545	460.31
451.766	427.31
451.986	403.31
452.207	424.31
452.428	420.31
452.648	424.31
452.869	399.31
453.089	413.31
453.31	432.31
453.53	415.31
453.751	404.31
453.971	411.31
454.192	437.31
454.412	411.31
454.633	411.31
454.853	415.31
455.073	414.31
455.294	436.31
455.514	489.31
455.734	495.31
455.955	420.31
456.175	397.31
456.395	402.31
456.616	391.31
456.836	398.31
457.056	377.31
457.276	379.31
457.497	366.31
457.717	391.31
457.937	378.31
458.157	379.31
458.377	392.31
458.598	435.31
458.818	502.31
459.038	577.31
459.258	572.31
459.478	471.31
459.698	421.31
459.918	442.31
460.138	410.31
460.358	424.31
460.578	415.31
460.798	436.31
461.018	440.31
461.238	425.31
461.458	443.31
461.678	424.31
461.898	412.31
462.118	411.31
462.338	448.31
462.558	421.31
462.777	457.31
462.997	435.31
463.217	431.31
463.437	445.31
463.657	444.31
463.876	430.31
464.096	442.31
464.316	458.31
464.536	454.31
464.755	456.31
464.975	466.31
465.195	529.31
465.414	585.31
465.634	533.31
465.854	476.31
466.073	429.31
466.293	416.31
466.512	413.31
466.732	420.31
466.951	408.31
467.171	395.31
467.391	413.31
467.61	438.31
467.829	435.31
468.049	439.31
468.268	421.31
468.488	409.31
468.707	394.31
468.927	400.31
469.146	406.31
469.365	417.31
469.585	401.31
469.804	428.31
470.023	429.31
470.243	423.31
470.462	432.31
470.681	451.31
470.901	431.31
471.12	419.31
471.339	422.31
471.558	431.31
471.777	430.31
471.997	422.31
472.216	451.31
472.435	474.31
472.654	455.31
472.873	439.31
473.092	411.31
473.311	427.31
473.53	425.31
473.749	433.31
473.968	449.31
474.187	571.31
474.406	608.31
474.625	493.31
474.844	448.31
475.063	440.31
475.282	426.31
475.501	430.31
475.72	437.31
475.939	427.31
476.158	436.31
476.377	444.31
476.596	429.31
476.814	441.31
477.033	457.31
477.252	427.31
477.471	443.31
477.69	445.31
477.908	441.31
478.127	455.31
478.346	447.31
478.564	447.31
478.783	456.31
479.002	464.31
479.22	481.31
479.439	487.31
479.658	479.31
479.876	501.31
480.095	525.31
480.313	532.31
480.532	528.31
480.751	523.31
480.969	529.31
481.188	600.31
481.406	641.31
481.624	532.31
481.843	532.31
482.061	521.31
482.28	521.31
482.498	497.31
482.717	491.31
482.935	513.31
483.153	470.31
483.372	499.31
483.59	486.31
483.808	497.31
484.027	492.31
484.245	492.31
484.463	516.31
484.681	499.31
484.9	498.31
485.118	502.31
485.336	491.31
485.554	505.31
485.772	515.31
485.99	483.31
486.209	530.31
486.427	502.31
486.645	523.31
486.863	548.31
487.081	539.31
487.299	527.31
487.517	509.31
487.735	513.31
487.953	523.31
488.171	561.31
488.389	532.31
488.607	539.31
488.825	543.31
489.043	526.31
489.261	549.31
489.479	554.31
489.696	547.31
489.914	540.31
490.132	559.31
490.35	556.31
490.568	563.31
490.786	568.31
491.003	582.31
491.221	586.31
491.439	579.31
491.657	590.31
491.874	621.31
492.092	606.31
492.31	597.31
492.527	640.31
492.745	601.31
492.963	635.31
493.18	611.31
493.398	623.31
493.615	639.31
493.833	631.31
494.05	617.31
494.268	649.31
494.485	629.31
494.703	637.31
494.92	633.31
495.138	645.31
495.355	643.31
495.573	615.31
495.79	633.31
496.008	643.31
496.225	616.31
496.442	658.31
496.66	639.31
496.877	621.31
497.094	647.31
497.312	621.31
497.529	635.31
497.746	648.31
497.963	649.31
498.181	664.31
498.398	663.31
498.615	665.31
498.832	694.31
499.049	702.31
499.267	704.31
499.484	700.31
499.701	744.31
499.918	769.31
500.135	799.31
500.352	809.31
500.569	771.31
500.786	827.31
501.003	815.31
501.22	793.31
501.437	781.31
501.654	781.31
501.871	765.31
