Data from 1965.PennyLincolnUp.Lamp.En5.5.200Scan.071719.P1._HRD10591_14-08-33-911.txt Node
Date: Thu Jul 18 14:08:33 EDT 2019
User: cochatt
Spectrometer: HR+D1059
Trigger mode: 1
Integration Time (sec): 1.000000E-1
Scans to average: 1
Electric dark correction enabled: true
Nonlinearity correction enabled: false
Boxcar width: 0
XAxis mode: Wavelengths
Number of Pixels in Spectrum: 2048
>>>>>Begin Spectral Data<<<<<
223.165	-14.88
223.4	-14.88
223.635	-14.88
223.869	-18.88
224.104	-27.88
224.338	-12.88
224.573	-19.88
224.808	-20.88
225.042	-5.88
225.277	3.12
225.511	-10.88
225.746	0.12
225.98	10.12
226.215	0.12
226.449	22.12
226.683	32.12
226.918	29.12
227.152	35.12
227.387	32.12
227.621	44.12
227.856	48.12
228.09	44.12
228.324	47.12
228.559	47.12
228.793	58.12
229.027	85.12
229.262	93.12
229.496	97.12
229.73	102.12
229.964	145.12
230.199	115.12
230.433	113.12
230.667	101.12
230.901	101.12
231.136	110.12
231.37	119.12
231.604	99.12
231.838	111.12
232.072	102.12
232.306	110.12
232.541	100.12
232.775	122.12
233.009	125.12
233.243	109.12
233.477	109.12
233.711	111.12
233.945	116.12
234.179	111.12
234.413	117.12
234.647	107.12
234.881	117.12
235.115	123.12
235.349	113.12
235.583	117.12
235.817	113.12
236.051	123.12
236.285	112.12
236.519	121.12
236.753	117.12
236.987	137.12
237.221	169.12
237.455	212.12
237.689	163.12
237.922	149.12
238.156	122.12
238.39	109.12
238.624	126.12
238.858	108.12
239.091	119.12
239.325	124.12
239.559	112.12
239.793	118.12
240.027	107.12
240.26	128.12
240.494	140.12
240.728	135.12
240.961	135.12
241.195	140.12
241.429	135.12
241.662	107.12
241.896	127.12
242.13	126.12
242.363	116.12
242.597	135.12
242.83	135.12
243.064	133.12
243.298	119.12
243.531	119.12
243.765	124.12
243.998	133.12
244.232	124.12
244.465	120.12
244.699	133.12
244.932	122.12
245.166	131.12
245.399	146.12
245.633	131.12
245.866	123.12
246.099	125.12
246.333	139.12
246.566	126.12
246.8	153.12
247.033	144.12
247.266	140.12
247.5	150.12
247.733	151.12
247.966	167.12
248.2	163.12
248.433	150.12
248.666	154.12
248.899	152.12
249.133	163.12
249.366	187.12
249.599	185.12
249.832	156.12
250.066	161.12
250.299	175.12
250.532	192.12
250.765	183.12
250.998	199.12
251.231	191.12
251.465	183.12
251.698	190.12
251.931	181.12
252.164	182.12
252.397	165.12
252.63	178.12
252.863	187.12
253.096	191.12
253.329	192.12
253.562	202.12
253.795	191.12
254.028	187.12
254.261	187.12
254.494	185.12
254.727	230.12
254.96	260.12
255.193	235.12
255.426	209.12
255.659	182.12
255.892	213.12
256.124	198.12
256.357	208.12
256.59	206.12
256.823	190.12
257.056	194.12
257.289	191.12
257.521	198.12
257.754	175.12
257.987	167.12
258.22	185.12
258.452	185.12
258.685	177.12
258.918	186.12
259.151	166.12
259.383	173.12
259.616	185.12
259.849	199.12
260.081	208.12
260.314	226.12
260.547	222.12
260.779	188.12
261.012	204.12
261.244	197.12
261.477	212.12
261.71	200.12
261.942	197.12
262.175	212.12
262.407	215.12
262.64	207.12
262.872	187.12
263.105	204.12
263.337	193.12
263.57	196.12
263.802	187.12
264.035	200.12
264.267	197.12
264.499	185.12
264.732	209.12
264.964	184.12
265.197	187.12
265.429	188.12
265.661	182.12
265.894	201.12
266.126	189.12
266.358	191.12
266.591	176.12
266.823	189.12
267.055	188.12
267.287	197.12
267.52	204.12
267.752	201.12
267.984	210.12
268.216	200.12
268.448	215.12
268.681	203.12
268.913	207.12
269.145	229.12
269.377	240.12
269.609	227.12
269.841	224.12
270.073	239.12
270.306	251.12
270.538	261.12
270.77	266.12
271.002	243.12
271.234	249.12
271.466	244.12
271.698	284.12
271.93	261.12
272.162	261.12
272.394	271.12
272.626	250.12
272.858	247.12
273.09	240.12
273.322	246.12
273.553	249.12
273.785	247.12
274.017	250.12
274.249	234.12
274.481	235.12
274.713	232.12
274.945	239.12
275.176	230.12
275.408	227.12
275.64	232.12
275.872	239.12
276.104	216.12
276.335	227.12
276.567	228.12
276.799	249.12
277.031	281.12
277.262	277.12
277.494	262.12
277.726	271.12
277.957	237.12
278.189	229.12
278.421	223.12
278.652	245.12
278.884	241.12
279.115	215.12
279.347	220.12
279.579	230.12
279.81	228.12
280.042	235.12
280.273	223.12
280.505	234.12
280.736	230.12
280.968	228.12
281.199	233.12
281.431	227.12
281.662	235.12
281.894	225.12
282.125	238.12
282.356	242.12
282.588	251.12
282.819	269.12
283.051	243.12
283.282	234.12
283.513	218.12
283.745	228.12
283.976	234.12
284.207	236.12
284.439	244.12
284.67	248.12
284.901	241.12
285.132	234.12
285.364	224.12
285.595	237.12
285.826	219.12
286.057	228.12
286.288	249.12
286.52	247.12
286.751	247.12
286.982	244.12
287.213	238.12
287.444	245.12
287.675	259.12
287.906	250.12
288.138	265.12
288.369	261.12
288.6	273.12
288.831	240.12
289.062	244.12
289.293	249.12
289.524	246.12
289.755	247.12
289.986	243.12
290.217	238.12
290.448	242.12
290.679	237.12
290.91	231.12
291.141	253.12
291.371	250.12
291.602	247.12
291.833	241.12
292.064	243.12
292.295	247.12
292.526	245.12
292.757	248.12
292.987	219.12
293.218	240.12
293.449	249.12
293.68	267.12
293.91	242.12
294.141	270.12
294.372	260.12
294.603	248.12
294.833	257.12
295.064	253.12
295.295	264.12
295.525	236.12
295.756	254.12
295.987	281.12
296.217	275.12
296.448	272.12
296.679	273.12
296.909	244.12
297.14	248.12
297.37	248.12
297.601	263.12
297.831	252.12
298.062	255.12
298.292	277.12
298.523	256.12
298.753	254.12
298.984	243.12
299.214	256.12
299.445	261.12
299.675	267.12
299.905	252.12
300.136	262.12
300.366	266.12
300.597	273.12
300.827	275.12
301.057	281.12
301.288	290.12
301.518	267.12
301.748	279.12
301.979	279.12
302.209	283.12
302.439	273.12
302.669	280.12
302.9	279.12
303.13	279.12
303.36	285.12
303.59	293.12
303.82	271.12
304.051	271.12
304.281	261.12
304.511	277.12
304.741	292.12
304.971	271.12
305.201	281.12
305.431	284.12
305.661	274.12
305.891	274.12
306.121	292.12
306.352	285.12
306.582	285.12
306.812	272.12
307.042	280.12
307.272	289.12
307.502	287.12
307.731	294.12
307.961	288.12
308.191	292.12
308.421	295.12
308.651	285.12
308.881	286.12
309.111	285.12
309.341	297.12
309.571	292.12
309.8	303.12
310.03	307.12
310.26	345.12
310.49	319.12
310.72	326.12
310.949	341.12
311.179	363.12
311.409	317.12
311.639	303.12
311.868	329.12
312.098	351.12
312.328	333.12
312.557	331.12
312.787	379.12
313.017	369.12
313.246	341.12
313.476	328.12
313.706	344.12
313.935	331.12
314.165	335.12
314.394	365.12
314.624	348.12
314.853	366.12
315.083	337.12
315.312	305.12
315.542	325.12
315.771	328.12
316.001	324.12
316.23	335.12
316.46	322.12
316.689	321.12
316.919	331.12
317.148	329.12
317.377	332.12
317.607	348.12
317.836	328.12
318.065	313.12
318.295	327.12
318.524	328.12
318.753	326.12
318.983	329.12
319.212	320.12
319.441	356.12
319.67	336.12
319.9	309.12
320.129	331.12
320.358	325.12
320.587	330.12
320.816	356.12
321.046	352.12
321.275	329.12
321.504	357.12
321.733	349.12
321.962	364.12
322.191	367.12
322.42	377.12
322.649	394.12
322.878	416.12
323.108	402.12
323.337	435.12
323.566	435.12
323.795	479.12
324.024	522.12
324.253	623.12
324.482	905.12
324.71	1374.12
324.939	1913.12
325.168	1581.12
325.397	857.12
325.626	595.12
325.855	496.12
326.084	459.12
326.313	437.12
326.542	456.12
326.77	494.12
326.999	604.12
327.228	844.12
327.457	1239.12
327.686	1452.12
327.914	963.12
328.143	635.12
328.372	560.12
328.6	519.12
328.829	499.12
329.058	500.12
329.287	501.12
329.515	468.12
329.744	470.12
329.972	451.12
330.201	460.12
330.43	496.12
330.658	530.12
330.887	569.12
331.115	553.12
331.344	461.12
331.572	436.12
331.801	436.12
332.03	432.12
332.258	425.12
332.486	387.12
332.715	384.12
332.943	405.12
333.172	376.12
333.4	374.12
333.629	400.12
333.857	402.12
334.085	401.12
334.314	437.12
334.542	462.12
334.771	475.12
334.999	430.12
335.227	396.12
335.455	388.12
335.684	388.12
335.912	380.12
336.14	381.12
336.369	392.12
336.597	402.12
336.825	409.12
337.053	381.12
337.281	392.12
337.51	379.12
337.738	371.12
337.966	383.12
338.194	379.12
338.422	384.12
338.65	371.12
338.878	379.12
339.106	365.12
339.334	377.12
339.562	364.12
339.79	349.12
340.018	385.12
340.246	367.12
340.474	363.12
340.702	358.12
340.93	367.12
341.158	356.12
341.386	383.12
341.614	391.12
341.842	363.12
342.07	365.12
342.298	358.12
342.526	351.12
342.754	342.12
342.981	348.12
343.209	349.12
343.437	362.12
343.665	365.12
343.893	380.12
344.12	369.12
344.348	373.12
344.576	381.12
344.804	393.12
345.031	375.12
345.259	390.12
345.487	384.12
345.714	393.12
345.942	381.12
346.17	366.12
346.397	367.12
346.625	373.12
346.853	350.12
347.08	343.12
347.308	357.12
347.535	333.12
347.763	371.12
347.99	391.12
348.218	350.12
348.445	375.12
348.673	385.12
348.9	363.12
349.128	339.12
349.355	343.12
349.583	340.12
349.81	337.12
350.037	351.12
350.265	351.12
350.492	334.12
350.72	360.12
350.947	357.12
351.174	358.12
351.402	360.12
351.629	367.12
351.856	359.12
352.083	364.12
352.311	380.12
352.538	383.12
352.765	383.12
352.992	359.12
353.22	360.12
353.447	364.12
353.674	346.12
353.901	354.12
354.128	333.12
354.355	312.12
354.583	349.12
354.81	338.12
355.037	323.12
355.264	314.12
355.491	334.12
355.718	347.12
355.945	340.12
356.172	345.12
356.399	322.12
356.626	346.12
356.853	330.12
357.08	347.12
357.307	355.12
357.534	334.12
357.761	335.12
357.988	321.12
358.215	344.12
358.441	349.12
358.668	328.12
358.895	318.12
359.122	342.12
359.349	351.12
359.576	365.12
359.802	387.12
360.029	424.12
360.256	407.12
360.483	396.12
360.709	341.12
360.936	374.12
361.163	371.12
361.39	368.12
361.616	368.12
361.843	351.12
362.07	361.12
362.296	367.12
362.523	368.12
362.749	363.12
362.976	337.12
363.203	344.12
363.429	339.12
363.656	348.12
363.882	318.12
364.109	337.12
364.335	335.12
364.562	342.12
364.788	331.12
365.015	339.12
365.241	365.12
365.468	348.12
365.694	351.12
365.92	351.12
366.147	329.12
366.373	337.12
366.599	334.12
366.826	342.12
367.052	358.12
367.278	325.12
367.505	333.12
367.731	351.12
367.957	336.12
368.184	333.12
368.41	341.12
368.636	374.12
368.862	358.12
369.089	357.12
369.315	345.12
369.541	338.12
369.767	326.12
369.993	348.12
370.219	346.12
370.445	333.12
370.672	351.12
370.898	337.12
371.124	337.12
371.35	332.12
371.576	330.12
371.802	343.12
372.028	348.12
372.254	333.12
372.48	329.12
372.706	349.12
372.932	334.12
373.158	332.12
373.384	341.12
373.61	335.12
373.835	332.12
374.061	336.12
374.287	334.12
374.513	343.12
374.739	348.12
374.965	353.12
375.191	343.12
375.416	362.12
375.642	343.12
375.868	347.12
376.094	335.12
376.319	348.12
376.545	344.12
376.771	335.12
376.997	333.12
377.222	356.12
377.448	331.12
377.674	335.12
377.899	344.12
378.125	316.12
378.35	332.12
378.576	319.12
378.802	323.12
379.027	341.12
379.253	320.12
379.478	322.12
379.704	342.12
379.929	346.12
380.155	342.12
380.38	332.12
380.606	334.12
380.831	329.12
381.057	338.12
381.282	348.12
381.507	339.12
381.733	339.12
381.958	341.12
382.184	349.12
382.409	333.12
382.634	340.12
382.86	339.12
383.085	340.12
383.31	331.12
383.535	342.12
383.761	339.12
383.986	344.12
384.211	357.12
384.436	362.12
384.662	334.12
384.887	347.12
385.112	353.12
385.337	356.12
385.562	363.12
385.787	352.12
386.013	376.12
386.238	348.12
386.463	364.12
386.688	360.12
386.913	357.12
387.138	348.12
387.363	359.12
387.588	361.12
387.813	372.12
388.038	374.12
388.263	368.12
388.488	365.12
388.713	364.12
388.938	367.12
389.163	360.12
389.387	340.12
389.612	374.12
389.837	350.12
390.062	355.12
390.287	364.12
390.512	355.12
390.736	359.12
390.961	365.12
391.186	361.12
391.411	371.12
391.636	372.12
391.86	352.12
392.085	378.12
392.31	361.12
392.534	371.12
392.759	357.12
392.984	356.12
393.208	365.12
393.433	351.12
393.658	365.12
393.882	356.12
394.107	350.12
394.331	366.12
394.556	364.12
394.78	350.12
395.005	371.12
395.229	371.12
395.454	383.12
395.678	352.12
395.903	371.12
396.127	393.12
396.352	399.12
396.576	380.12
396.801	378.12
397.025	380.12
397.249	391.12
397.474	401.12
397.698	382.12
397.922	401.12
398.147	411.12
398.371	409.12
398.595	407.12
398.82	407.12
399.044	421.12
399.268	446.12
399.492	447.12
399.717	451.12
399.941	455.12
400.165	484.12
400.389	481.12
400.613	453.12
400.837	422.12
401.062	415.12
401.286	421.12
401.51	426.12
401.734	407.12
401.958	407.12
402.182	444.12
402.406	437.12
402.63	425.12
402.854	425.12
403.078	419.12
403.302	444.12
403.526	410.12
403.75	423.12
403.974	425.12
404.198	425.12
404.422	419.12
404.645	399.12
404.869	429.12
405.093	477.12
405.317	492.12
405.541	517.12
405.765	461.12
405.988	441.12
406.212	465.12
406.436	484.12
406.66	495.12
406.883	481.12
407.107	491.12
407.331	487.12
407.555	549.12
407.778	573.12
408.002	496.12
408.226	479.12
408.449	493.12
408.673	463.12
408.896	495.12
409.12	519.12
409.344	479.12
409.567	460.12
409.791	443.12
410.014	416.12
410.238	436.12
410.461	459.12
410.685	446.12
410.908	440.12
411.132	462.12
411.355	502.12
411.578	502.12
411.802	446.12
412.025	436.12
412.249	444.12
412.472	461.12
412.695	464.12
412.919	460.12
413.142	447.12
413.365	430.12
413.589	419.12
413.812	414.12
414.035	405.12
414.258	414.12
414.482	397.12
414.705	391.12
414.928	397.12
415.151	389.12
415.374	404.12
415.597	401.12
415.821	405.12
416.044	403.12
416.267	415.12
416.49	406.12
416.713	400.12
416.936	415.12
417.159	404.12
417.382	424.12
417.605	418.12
417.828	413.12
418.051	432.12
418.274	425.12
418.497	400.12
418.72	409.12
418.943	408.12
419.166	398.12
419.389	427.12
419.611	436.12
419.834	419.12
420.057	425.12
420.28	411.12
420.503	414.12
420.726	413.12
420.948	437.12
421.171	442.12
421.394	492.12
421.617	430.12
421.839	433.12
422.062	445.12
422.285	451.12
422.507	484.12
422.73	528.12
422.953	499.12
423.175	449.12
423.398	444.12
423.621	435.12
423.843	459.12
424.066	466.12
424.288	447.12
424.511	468.12
424.733	519.12
424.956	571.12
425.178	549.12
425.401	544.12
425.623	568.12
425.846	484.12
426.068	475.12
426.291	459.12
426.513	449.12
426.735	474.12
426.958	491.12
427.18	560.12
427.402	659.12
427.625	714.12
427.847	646.12
428.069	543.12
428.292	530.12
428.514	464.12
428.736	437.12
428.958	422.12
429.181	421.12
429.403	430.12
429.625	424.12
429.847	456.12
430.069	519.12
430.292	485.12
430.514	457.12
430.736	427.12
430.958	385.12
431.18	405.12
431.402	399.12
431.624	401.12
431.846	412.12
432.068	415.12
432.29	390.12
432.512	405.12
432.734	399.12
432.956	411.12
433.178	420.12
433.4	411.12
433.622	405.12
433.844	382.12
434.066	392.12
434.287	387.12
434.509	406.12
434.731	409.12
434.953	412.12
435.175	437.12
435.397	439.12
435.618	472.12
435.84	493.12
436.062	575.12
436.284	614.12
436.505	527.12
436.727	469.12
436.949	463.12
437.17	439.12
437.392	417.12
437.614	466.12
437.835	469.12
438.057	551.12
438.278	643.12
438.5	633.12
438.721	658.12
438.943	647.12
439.165	521.12
439.386	481.12
439.608	477.12
439.829	468.12
440.05	482.12
440.272	502.12
440.493	508.12
440.715	463.12
440.936	435.12
441.158	435.12
441.379	431.12
441.6	467.12
441.822	462.12
442.043	508.12
442.264	549.12
442.486	585.12
442.707	502.12
442.928	457.12
443.149	471.12
443.371	488.12
443.592	553.12
443.813	638.12
444.034	649.12
444.255	531.12
444.476	468.12
444.698	472.12
444.919	460.12
445.14	571.12
445.361	522.12
445.582	476.12
445.803	546.12
446.024	643.12
446.245	644.12
446.466	576.12
446.687	497.12
446.908	447.12
447.129	446.12
447.35	445.12
447.571	443.12
447.792	452.12
448.013	435.12
448.234	457.12
448.455	517.12
448.675	609.12
448.896	640.12
449.117	566.12
449.338	543.12
449.559	611.12
449.779	684.12
450	553.12
450.221	492.12
450.442	457.12
450.662	437.12
450.883	438.12
451.104	437.12
451.324	444.12
451.545	421.12
451.766	405.12
451.986	388.12
452.207	397.12
452.428	387.12
452.648	371.12
452.869	362.12
453.089	387.12
453.31	407.12
453.53	401.12
453.751	408.12
453.971	404.12
454.192	409.12
454.412	414.12
454.633	379.12
454.853	387.12
455.073	395.12
455.294	409.12
455.514	453.12
455.734	475.12
455.955	391.12
456.175	381.12
456.395	380.12
456.616	371.12
456.836	357.12
457.056	363.12
457.276	367.12
457.497	356.12
457.717	367.12
457.937	361.12
458.157	373.12
458.377	381.12
458.598	414.12
458.818	465.12
459.038	537.12
459.258	529.12
459.478	452.12
459.698	416.12
459.918	410.12
460.138	408.12
460.358	395.12
460.578	391.12
460.798	413.12
461.018	413.12
461.238	396.12
461.458	406.12
461.678	410.12
461.898	414.12
462.118	419.12
462.338	426.12
462.558	416.12
462.777	438.12
462.997	438.12
463.217	424.12
463.437	420.12
463.657	434.12
463.876	423.12
464.096	443.12
464.316	429.12
464.536	417.12
464.755	433.12
464.975	417.12
465.195	474.12
465.414	565.12
465.634	470.12
465.854	432.12
466.073	427.12
466.293	404.12
466.512	415.12
466.732	410.12
466.951	395.12
467.171	391.12
467.391	395.12
467.61	417.12
467.829	422.12
468.049	413.12
468.268	404.12
468.488	377.12
468.707	379.12
468.927	377.12
469.146	363.12
469.365	395.12
469.585	378.12
469.804	392.12
470.023	402.12
470.243	398.12
470.462	399.12
470.681	420.12
470.901	424.12
471.12	397.12
471.339	417.12
471.558	424.12
471.777	414.12
471.997	410.12
472.216	408.12
472.435	451.12
472.654	409.12
472.873	406.12
473.092	396.12
473.311	400.12
473.53	435.12
473.749	417.12
473.968	460.12
474.187	539.12
474.406	545.12
474.625	436.12
474.844	421.12
475.063	409.12
475.282	409.12
475.501	397.12
475.72	416.12
475.939	415.12
476.158	438.12
476.377	408.12
476.596	434.12
476.814	416.12
477.033	438.12
477.252	427.12
477.471	431.12
477.69	428.12
477.908	420.12
478.127	445.12
478.346	439.12
478.564	454.12
478.783	458.12
479.002	455.12
479.22	457.12
479.439	444.12
479.658	464.12
479.876	463.12
480.095	495.12
480.313	500.12
480.532	478.12
480.751	479.12
480.969	504.12
481.188	573.12
481.406	618.12
481.624	535.12
481.843	496.12
482.061	494.12
482.28	480.12
482.498	452.12
482.717	471.12
482.935	477.12
483.153	491.12
483.372	461.12
483.59	494.12
483.808	469.12
484.027	486.12
484.245	472.12
484.463	502.12
484.681	499.12
484.9	496.12
485.118	493.12
485.336	487.12
485.554	477.12
485.772	486.12
485.99	465.12
486.209	511.12
486.427	505.12
486.645	505.12
486.863	522.12
487.081	539.12
487.299	495.12
487.517	523.12
487.735	486.12
487.953	507.12
488.171	515.12
488.389	510.12
488.607	527.12
488.825	524.12
489.043	518.12
489.261	478.12
489.479	515.12
489.696	519.12
489.914	514.12
490.132	529.12
490.35	510.12
490.568	527.12
490.786	544.12
491.003	542.12
491.221	556.12
491.439	583.12
491.657	555.12
491.874	567.12
492.092	566.12
492.31	567.12
492.527	561.12
492.745	571.12
492.963	581.12
493.18	591.12
493.398	593.12
493.615	582.12
493.833	603.12
494.05	598.12
494.268	573.12
494.485	598.12
494.703	573.12
494.92	591.12
495.138	584.12
495.355	594.12
495.573	603.12
495.79	590.12
496.008	574.12
496.225	568.12
496.442	597.12
496.66	612.12
496.877	599.12
497.094	589.12
497.312	601.12
497.529	616.12
497.746	613.12
497.963	629.12
498.181	648.12
498.398	628.12
498.615	648.12
498.832	675.12
499.049	657.12
499.267	674.12
499.484	699.12
499.701	703.12
499.918	733.12
500.135	750.12
500.352	762.12
500.569	750.12
500.786	742.12
501.003	760.12
501.22	747.12
501.437	725.12
501.654	696.12
501.871	743.12
