Data from 1965.PennyLincolnUp.Lamp.En5.5.200Scan.071719.P1._HRD10591_14-07-42-910.txt Node
Date: Thu Jul 18 14:07:42 EDT 2019
User: cochatt
Spectrometer: HR+D1059
Trigger mode: 1
Integration Time (sec): 1.000000E-1
Scans to average: 1
Electric dark correction enabled: true
Nonlinearity correction enabled: false
Boxcar width: 0
XAxis mode: Wavelengths
Number of Pixels in Spectrum: 2048
>>>>>Begin Spectral Data<<<<<
223.165	-15.06
223.4	-15.06
223.635	-15.06
223.869	-27.06
224.104	-23.06
224.338	-18.06
224.573	-17.06
224.808	-6.06
225.042	-23.06
225.277	-16.06
225.511	-10.06
225.746	11.94
225.98	20.94
226.215	26.94
226.449	20.94
226.683	24.94
226.918	22.94
227.152	26.94
227.387	40.94
227.621	30.94
227.856	37.94
228.09	38.94
228.324	56.94
228.559	42.94
228.793	47.94
229.027	91.94
229.262	96.94
229.496	100.94
229.73	134.94
229.964	151.94
230.199	117.94
230.433	103.94
230.667	110.94
230.901	126.94
231.136	99.94
231.37	95.94
231.604	99.94
231.838	99.94
232.072	103.94
232.306	102.94
232.541	90.94
232.775	112.94
233.009	104.94
233.243	105.94
233.477	101.94
233.711	98.94
233.945	102.94
234.179	105.94
234.413	127.94
234.647	112.94
234.881	117.94
235.115	107.94
235.349	110.94
235.583	115.94
235.817	115.94
236.051	128.94
236.285	126.94
236.519	111.94
236.753	122.94
236.987	152.94
237.221	185.94
237.455	235.94
237.689	185.94
237.922	114.94
238.156	120.94
238.39	133.94
238.624	126.94
238.858	114.94
239.091	119.94
239.325	120.94
239.559	111.94
239.793	103.94
240.027	142.94
240.26	140.94
240.494	154.94
240.728	138.94
240.961	143.94
241.195	128.94
241.429	130.94
241.662	119.94
241.896	138.94
242.13	120.94
242.363	127.94
242.597	100.94
242.83	114.94
243.064	126.94
243.298	130.94
243.531	121.94
243.765	130.94
243.998	124.94
244.232	107.94
244.465	123.94
244.699	130.94
244.932	122.94
245.166	115.94
245.399	120.94
245.633	110.94
245.866	116.94
246.099	136.94
246.333	132.94
246.566	136.94
246.8	135.94
247.033	137.94
247.266	132.94
247.5	134.94
247.733	149.94
247.966	151.94
248.2	150.94
248.433	147.94
248.666	146.94
248.899	177.94
249.133	190.94
249.366	171.94
249.599	179.94
249.832	162.94
250.066	155.94
250.299	168.94
250.532	166.94
250.765	184.94
250.998	200.94
251.231	207.94
251.465	184.94
251.698	190.94
251.931	181.94
252.164	171.94
252.397	182.94
252.63	174.94
252.863	177.94
253.096	201.94
253.329	203.94
253.562	197.94
253.795	191.94
254.028	175.94
254.261	192.94
254.494	193.94
254.727	219.94
254.96	226.94
255.193	248.94
255.426	184.94
255.659	196.94
255.892	192.94
256.124	194.94
256.357	192.94
256.59	181.94
256.823	178.94
257.056	182.94
257.289	178.94
257.521	194.94
257.754	191.94
257.987	163.94
258.22	164.94
258.452	184.94
258.685	180.94
258.918	175.94
259.151	168.94
259.383	187.94
259.616	198.94
259.849	209.94
260.081	192.94
260.314	218.94
260.547	228.94
260.779	214.94
261.012	195.94
261.244	231.94
261.477	204.94
261.71	195.94
261.942	215.94
262.175	204.94
262.407	214.94
262.64	196.94
262.872	179.94
263.105	203.94
263.337	202.94
263.57	197.94
263.802	195.94
264.035	197.94
264.267	186.94
264.499	192.94
264.732	194.94
264.964	184.94
265.197	163.94
265.429	191.94
265.661	184.94
265.894	193.94
266.126	195.94
266.358	191.94
266.591	195.94
266.823	211.94
267.055	191.94
267.287	203.94
267.52	187.94
267.752	215.94
267.984	181.94
268.216	199.94
268.448	212.94
268.681	219.94
268.913	203.94
269.145	219.94
269.377	250.94
269.609	230.94
269.841	228.94
270.073	243.94
270.306	256.94
270.538	291.94
270.77	280.94
271.002	257.94
271.234	254.94
271.466	254.94
271.698	276.94
271.93	262.94
272.162	294.94
272.394	288.94
272.626	274.94
272.858	256.94
273.09	246.94
273.322	235.94
273.553	232.94
273.785	243.94
274.017	222.94
274.249	212.94
274.481	238.94
274.713	236.94
274.945	243.94
275.176	233.94
275.408	246.94
275.64	244.94
275.872	230.94
276.104	243.94
276.335	247.94
276.567	250.94
276.799	277.94
277.031	279.94
277.262	281.94
277.494	294.94
277.726	266.94
277.957	267.94
278.189	232.94
278.421	239.94
278.652	257.94
278.884	238.94
279.115	258.94
279.347	235.94
279.579	267.94
279.81	288.94
280.042	272.94
280.273	264.94
280.505	269.94
280.736	244.94
280.968	245.94
281.199	242.94
281.431	250.94
281.662	243.94
281.894	234.94
282.125	242.94
282.356	245.94
282.588	284.94
282.819	306.94
283.051	250.94
283.282	235.94
283.513	231.94
283.745	231.94
283.976	244.94
284.207	252.94
284.439	254.94
284.67	247.94
284.901	252.94
285.132	255.94
285.364	246.94
285.595	259.94
285.826	257.94
286.057	231.94
286.288	248.94
286.52	231.94
286.751	233.94
286.982	238.94
287.213	244.94
287.444	258.94
287.675	264.94
287.906	256.94
288.138	271.94
288.369	267.94
288.6	290.94
288.831	256.94
289.062	260.94
289.293	244.94
289.524	259.94
289.755	251.94
289.986	241.94
290.217	243.94
290.448	250.94
290.679	258.94
290.91	259.94
291.141	262.94
291.371	259.94
291.602	244.94
291.833	228.94
292.064	234.94
292.295	247.94
292.526	235.94
292.757	264.94
292.987	253.94
293.218	239.94
293.449	266.94
293.68	250.94
293.91	242.94
294.141	254.94
294.372	243.94
294.603	236.94
294.833	227.94
295.064	248.94
295.295	254.94
295.525	253.94
295.756	265.94
295.987	268.94
296.217	296.94
296.448	331.94
296.679	268.94
296.909	267.94
297.14	253.94
297.37	262.94
297.601	277.94
297.831	261.94
298.062	255.94
298.292	268.94
298.523	269.94
298.753	265.94
298.984	274.94
299.214	260.94
299.445	262.94
299.675	274.94
299.905	289.94
300.136	268.94
300.366	264.94
300.597	275.94
300.827	264.94
301.057	297.94
301.288	304.94
301.518	272.94
301.748	288.94
301.979	290.94
302.209	295.94
302.439	305.94
302.669	283.94
302.9	307.94
303.13	294.94
303.36	302.94
303.59	290.94
303.82	309.94
304.051	291.94
304.281	308.94
304.511	302.94
304.741	267.94
304.971	298.94
305.201	282.94
305.431	288.94
305.661	292.94
305.891	283.94
306.121	290.94
306.352	284.94
306.582	308.94
306.812	287.94
307.042	318.94
307.272	288.94
307.502	296.94
307.731	299.94
307.961	297.94
308.191	295.94
308.421	303.94
308.651	300.94
308.881	324.94
309.111	318.94
309.341	302.94
309.571	342.94
309.8	327.94
310.03	348.94
310.26	358.94
310.49	355.94
310.72	367.94
310.949	364.94
311.179	400.94
311.409	354.94
311.639	343.94
311.868	360.94
312.098	345.94
312.328	354.94
312.557	372.94
312.787	404.94
313.017	388.94
313.246	364.94
313.476	360.94
313.706	333.94
313.935	333.94
314.165	360.94
314.394	378.94
314.624	378.94
314.853	371.94
315.083	361.94
315.312	351.94
315.542	324.94
315.771	336.94
316.001	352.94
316.23	344.94
316.46	320.94
316.689	338.94
316.919	347.94
317.148	353.94
317.377	370.94
317.607	360.94
317.836	353.94
318.065	369.94
318.295	326.94
318.524	329.94
318.753	337.94
318.983	344.94
319.212	343.94
319.441	350.94
319.67	354.94
319.9	340.94
320.129	337.94
320.358	342.94
320.587	335.94
320.816	382.94
321.046	378.94
321.275	375.94
321.504	378.94
321.733	359.94
321.962	382.94
322.191	404.94
322.42	417.94
322.649	460.94
322.878	437.94
323.108	474.94
323.337	492.94
323.566	528.94
323.795	577.94
324.024	624.94
324.253	836.94
324.482	1284.94
324.71	1911.94
324.939	2630.94
325.168	2176.94
325.397	1134.94
325.626	779.94
325.855	588.94
326.084	541.94
326.313	516.94
326.542	523.94
326.77	614.94
326.999	744.94
327.228	1121.94
327.457	1686.94
327.686	1973.94
327.914	1302.94
328.143	829.94
328.372	704.94
328.6	644.94
328.829	609.94
329.058	623.94
329.287	626.94
329.515	558.94
329.744	519.94
329.972	509.94
330.201	537.94
330.43	570.94
330.658	619.94
330.887	670.94
331.115	617.94
331.344	522.94
331.572	492.94
331.801	480.94
332.03	494.94
332.258	442.94
332.486	448.94
332.715	420.94
332.943	417.94
333.172	393.94
333.4	403.94
333.629	417.94
333.857	434.94
334.085	462.94
334.314	465.94
334.542	499.94
334.771	496.94
334.999	453.94
335.227	423.94
335.455	415.94
335.684	399.94
335.912	396.94
336.14	382.94
336.369	384.94
336.597	417.94
336.825	408.94
337.053	394.94
337.281	395.94
337.51	391.94
337.738	402.94
337.966	385.94
338.194	423.94
338.422	428.94
338.65	411.94
338.878	374.94
339.106	404.94
339.334	388.94
339.562	396.94
339.79	375.94
340.018	374.94
340.246	379.94
340.474	408.94
340.702	401.94
340.93	415.94
341.158	366.94
341.386	388.94
341.614	389.94
341.842	394.94
342.07	369.94
342.298	391.94
342.526	383.94
342.754	354.94
342.981	366.94
343.209	358.94
343.437	376.94
343.665	362.94
343.893	370.94
344.12	380.94
344.348	371.94
344.576	381.94
344.804	397.94
345.031	410.94
345.259	421.94
345.487	391.94
345.714	391.94
345.942	375.94
346.17	374.94
346.397	388.94
346.625	358.94
346.853	401.94
347.08	372.94
347.308	377.94
347.535	395.94
347.763	408.94
347.99	385.94
348.218	406.94
348.445	413.94
348.673	397.94
348.9	383.94
349.128	371.94
349.355	343.94
349.583	376.94
349.81	370.94
350.037	369.94
350.265	357.94
350.492	358.94
350.72	369.94
350.947	394.94
351.174	384.94
351.402	410.94
351.629	397.94
351.856	389.94
352.083	402.94
352.311	426.94
352.538	420.94
352.765	438.94
352.992	396.94
353.22	396.94
353.447	400.94
353.674	379.94
353.901	360.94
354.128	346.94
354.355	368.94
354.583	340.94
354.81	363.94
355.037	337.94
355.264	345.94
355.491	323.94
355.718	319.94
355.945	347.94
356.172	318.94
356.399	360.94
356.626	330.94
356.853	352.94
357.08	342.94
357.307	353.94
357.534	359.94
357.761	336.94
357.988	353.94
358.215	337.94
358.441	341.94
358.668	364.94
358.895	360.94
359.122	359.94
359.349	370.94
359.576	379.94
359.802	431.94
360.029	486.94
360.256	471.94
360.483	434.94
360.709	400.94
360.936	375.94
361.163	395.94
361.39	402.94
361.616	391.94
361.843	384.94
362.07	392.94
362.296	363.94
362.523	394.94
362.749	399.94
362.976	369.94
363.203	371.94
363.429	374.94
363.656	361.94
363.882	381.94
364.109	354.94
364.335	360.94
364.562	363.94
364.788	356.94
365.015	370.94
365.241	356.94
365.468	350.94
365.694	356.94
365.92	369.94
366.147	357.94
366.373	355.94
366.599	359.94
366.826	360.94
367.052	346.94
367.278	342.94
367.505	339.94
367.731	359.94
367.957	359.94
368.184	354.94
368.41	364.94
368.636	391.94
368.862	367.94
369.089	362.94
369.315	354.94
369.541	346.94
369.767	368.94
369.993	350.94
370.219	363.94
370.445	346.94
370.672	337.94
370.898	339.94
371.124	324.94
371.35	344.94
371.576	344.94
371.802	342.94
372.028	353.94
372.254	348.94
372.48	337.94
372.706	343.94
372.932	334.94
373.158	356.94
373.384	340.94
373.61	358.94
373.835	347.94
374.061	354.94
374.287	359.94
374.513	359.94
374.739	358.94
374.965	340.94
375.191	329.94
375.416	316.94
375.642	346.94
375.868	337.94
376.094	334.94
376.319	331.94
376.545	348.94
376.771	333.94
376.997	338.94
377.222	353.94
377.448	352.94
377.674	336.94
377.899	330.94
378.125	334.94
378.35	333.94
378.576	339.94
378.802	333.94
379.027	343.94
379.253	339.94
379.478	328.94
379.704	324.94
379.929	338.94
380.155	343.94
380.38	355.94
380.606	331.94
380.831	357.94
381.057	362.94
381.282	323.94
381.507	359.94
381.733	345.94
381.958	350.94
382.184	345.94
382.409	346.94
382.634	343.94
382.86	359.94
383.085	341.94
383.31	367.94
383.535	354.94
383.761	354.94
383.986	362.94
384.211	362.94
384.436	331.94
384.662	350.94
384.887	369.94
385.112	342.94
385.337	375.94
385.562	370.94
385.787	358.94
386.013	390.94
386.238	359.94
386.463	380.94
386.688	369.94
386.913	371.94
387.138	354.94
387.363	353.94
387.588	373.94
387.813	376.94
388.038	350.94
388.263	360.94
388.488	371.94
388.713	374.94
388.938	362.94
389.163	358.94
389.387	377.94
389.612	368.94
389.837	360.94
390.062	396.94
390.287	380.94
390.512	372.94
390.736	362.94
390.961	380.94
391.186	340.94
391.411	364.94
391.636	385.94
391.86	382.94
392.085	378.94
392.31	377.94
392.534	371.94
392.759	374.94
392.984	391.94
393.208	434.94
393.433	512.94
393.658	518.94
393.882	416.94
394.107	386.94
394.331	373.94
394.556	389.94
394.78	370.94
395.005	383.94
395.229	380.94
395.454	376.94
395.678	360.94
395.903	373.94
396.127	420.94
396.352	423.94
396.576	414.94
396.801	443.94
397.025	478.94
397.249	432.94
397.474	396.94
397.698	393.94
397.922	382.94
398.147	436.94
398.371	424.94
398.595	410.94
398.82	424.94
399.044	413.94
399.268	406.94
399.492	433.94
399.717	482.94
399.941	464.94
400.165	494.94
400.389	510.94
400.613	468.94
400.837	459.94
401.062	425.94
401.286	438.94
401.51	438.94
401.734	403.94
401.958	424.94
402.182	415.94
402.406	447.94
402.63	461.94
402.854	423.94
403.078	417.94
403.302	440.94
403.526	444.94
403.75	420.94
403.974	434.94
404.198	426.94
404.422	418.94
404.645	435.94
404.869	441.94
405.093	438.94
405.317	486.94
405.541	531.94
405.765	499.94
405.988	459.94
406.212	463.94
406.436	481.94
406.66	519.94
406.883	476.94
407.107	511.94
407.331	532.94
407.555	599.94
407.778	577.94
408.002	488.94
408.226	520.94
408.449	487.94
408.673	481.94
408.896	492.94
409.12	535.94
409.344	505.94
409.567	468.94
409.791	451.94
410.014	425.94
410.238	415.94
410.461	477.94
410.685	434.94
410.908	446.94
411.132	466.94
411.355	502.94
411.578	475.94
411.802	442.94
412.025	457.94
412.249	422.94
412.472	456.94
412.695	482.94
412.919	450.94
413.142	427.94
413.365	410.94
413.589	423.94
413.812	404.94
414.035	408.94
414.258	414.94
414.482	412.94
414.705	408.94
414.928	420.94
415.151	404.94
415.374	399.94
415.597	393.94
415.821	407.94
416.044	410.94
416.267	424.94
416.49	421.94
416.713	386.94
416.936	400.94
417.159	400.94
417.382	423.94
417.605	421.94
417.828	417.94
418.051	437.94
418.274	458.94
418.497	412.94
418.72	432.94
418.943	395.94
419.166	410.94
419.389	436.94
419.611	435.94
419.834	424.94
420.057	427.94
420.28	436.94
420.503	431.94
420.726	424.94
420.948	443.94
421.171	483.94
421.394	521.94
421.617	448.94
421.839	438.94
422.062	438.94
422.285	452.94
422.507	524.94
422.73	586.94
422.953	568.94
423.175	481.94
423.398	454.94
423.621	457.94
423.843	460.94
424.066	484.94
424.288	472.94
424.511	471.94
424.733	544.94
424.956	588.94
425.178	580.94
425.401	589.94
425.623	606.94
425.846	506.94
426.068	485.94
426.291	496.94
426.513	478.94
426.735	472.94
426.958	523.94
427.18	591.94
427.402	719.94
427.625	794.94
427.847	740.94
428.069	630.94
428.292	551.94
428.514	476.94
428.736	462.94
428.958	462.94
429.181	464.94
429.403	446.94
429.625	466.94
429.847	497.94
430.069	529.94
430.292	538.94
430.514	457.94
430.736	442.94
430.958	439.94
431.18	430.94
431.402	424.94
431.624	398.94
431.846	396.94
432.068	395.94
432.29	409.94
432.512	407.94
432.734	414.94
432.956	419.94
433.178	460.94
433.4	447.94
433.622	438.94
433.844	410.94
434.066	433.94
434.287	427.94
434.509	408.94
434.731	432.94
434.953	429.94
435.175	441.94
435.397	476.94
435.618	490.94
435.84	524.94
436.062	586.94
436.284	669.94
436.505	535.94
436.727	513.94
436.949	453.94
437.17	459.94
437.392	445.94
437.614	467.94
437.835	520.94
438.057	576.94
438.278	690.94
438.5	675.94
438.721	722.94
438.943	685.94
439.165	559.94
439.386	495.94
439.608	496.94
439.829	522.94
440.05	533.94
440.272	552.94
440.493	536.94
440.715	481.94
440.936	478.94
441.158	464.94
441.379	457.94
441.6	452.94
441.822	503.94
442.043	531.94
442.264	587.94
442.486	614.94
442.707	534.94
442.928	489.94
443.149	518.94
443.371	538.94
443.592	554.94
443.813	633.94
444.034	686.94
444.255	562.94
444.476	471.94
444.698	457.94
444.919	474.94
445.14	563.94
445.361	553.94
445.582	548.94
445.803	635.94
446.024	705.94
446.245	691.94
446.466	627.94
446.687	536.94
446.908	494.94
447.129	476.94
447.35	462.94
447.571	446.94
447.792	452.94
448.013	447.94
448.234	456.94
448.455	521.94
448.675	619.94
448.896	727.94
449.117	606.94
449.338	576.94
449.559	687.94
449.779	727.94
450	601.94
450.221	500.94
450.442	495.94
450.662	477.94
450.883	468.94
451.104	506.94
451.324	456.94
451.545	457.94
451.766	419.94
451.986	401.94
452.207	402.94
452.428	409.94
452.648	406.94
452.869	422.94
453.089	435.94
453.31	436.94
453.53	433.94
453.751	427.94
453.971	442.94
454.192	465.94
454.412	441.94
454.633	422.94
454.853	423.94
455.073	415.94
455.294	425.94
455.514	525.94
455.734	501.94
455.955	406.94
456.175	384.94
456.395	392.94
456.616	397.94
456.836	382.94
457.056	370.94
457.276	370.94
457.497	379.94
457.717	388.94
457.937	382.94
458.157	391.94
458.377	406.94
458.598	449.94
458.818	516.94
459.038	594.94
459.258	586.94
459.478	485.94
459.698	437.94
459.918	434.94
460.138	426.94
460.358	415.94
460.578	413.94
460.798	413.94
461.018	423.94
461.238	406.94
461.458	418.94
461.678	402.94
461.898	428.94
462.118	400.94
462.338	409.94
462.558	411.94
462.777	418.94
462.997	410.94
463.217	439.94
463.437	446.94
463.657	443.94
463.876	443.94
464.096	438.94
464.316	454.94
464.536	454.94
464.755	450.94
464.975	463.94
465.195	550.94
465.414	683.94
465.634	582.94
465.854	487.94
466.073	457.94
466.293	423.94
466.512	423.94
466.732	412.94
466.951	401.94
467.171	417.94
467.391	411.94
467.61	445.94
467.829	455.94
468.049	436.94
468.268	432.94
468.488	427.94
468.707	407.94
468.927	398.94
469.146	410.94
469.365	422.94
469.585	400.94
469.804	418.94
470.023	435.94
470.243	420.94
470.462	465.94
470.681	458.94
470.901	452.94
471.12	414.94
471.339	430.94
471.558	432.94
471.777	422.94
471.997	439.94
472.216	426.94
472.435	487.94
472.654	462.94
472.873	430.94
473.092	427.94
473.311	432.94
473.53	431.94
473.749	430.94
473.968	486.94
474.187	576.94
474.406	574.94
474.625	465.94
474.844	417.94
475.063	437.94
475.282	445.94
475.501	439.94
475.72	434.94
475.939	407.94
476.158	422.94
476.377	436.94
476.596	442.94
476.814	451.94
477.033	457.94
477.252	482.94
477.471	440.94
477.69	443.94
477.908	469.94
478.127	482.94
478.346	494.94
478.564	464.94
478.783	477.94
479.002	451.94
479.22	489.94
479.439	488.94
479.658	515.94
479.876	523.94
480.095	517.94
480.313	561.94
480.532	543.94
480.751	506.94
480.969	544.94
481.188	602.94
481.406	652.94
481.624	550.94
481.843	532.94
482.061	505.94
482.28	504.94
482.498	527.94
482.717	516.94
482.935	510.94
483.153	512.94
483.372	512.94
483.59	480.94
483.808	484.94
484.027	511.94
484.245	520.94
484.463	519.94
484.681	516.94
484.9	536.94
485.118	532.94
485.336	519.94
485.554	538.94
485.772	532.94
485.99	523.94
486.209	522.94
486.427	530.94
486.645	532.94
486.863	553.94
487.081	577.94
487.299	560.94
487.517	539.94
487.735	534.94
487.953	534.94
488.171	525.94
488.389	543.94
488.607	552.94
488.825	571.94
489.043	542.94
489.261	536.94
489.479	543.94
489.696	546.94
489.914	534.94
490.132	546.94
490.35	558.94
490.568	569.94
490.786	564.94
491.003	572.94
491.221	601.94
491.439	603.94
491.657	587.94
491.874	573.94
492.092	620.94
492.31	597.94
492.527	613.94
492.745	623.94
492.963	615.94
493.18	611.94
493.398	628.94
493.615	625.94
493.833	643.94
494.05	629.94
494.268	631.94
494.485	613.94
494.703	644.94
494.92	638.94
495.138	608.94
495.355	607.94
495.573	643.94
495.79	619.94
496.008	640.94
496.225	617.94
496.442	625.94
496.66	617.94
496.877	622.94
497.094	656.94
497.312	639.94
497.529	622.94
497.746	653.94
497.963	635.94
498.181	693.94
498.398	684.94
498.615	686.94
498.832	675.94
499.049	674.94
499.267	694.94
499.484	703.94
499.701	720.94
499.918	700.94
500.135	738.94
500.352	752.94
500.569	754.94
500.786	755.94
501.003	797.94
501.22	755.94
501.437	769.94
501.654	754.94
501.871	765.94
