Data from 1965.PennyLincolnUp.Lamp.En5.5.200Scan.071719.P1._HRD10591_14-08-58-910.txt Node
Date: Thu Jul 18 14:08:58 EDT 2019
User: cochatt
Spectrometer: HR+D1059
Trigger mode: 1
Integration Time (sec): 1.000000E-1
Scans to average: 1
Electric dark correction enabled: true
Nonlinearity correction enabled: false
Boxcar width: 0
XAxis mode: Wavelengths
Number of Pixels in Spectrum: 2048
>>>>>Begin Spectral Data<<<<<
223.165	-15.19
223.4	-15.19
223.635	-15.19
223.869	-16.19
224.104	-17.19
224.338	-21.19
224.573	-20.19
224.808	-3.19
225.042	-7.19
225.277	-1.19
225.511	5.81
225.746	5.81
225.98	5.81
226.215	6.81
226.449	11.81
226.683	16.81
226.918	29.81
227.152	18.81
227.387	22.81
227.621	28.81
227.856	34.81
228.09	47.81
228.324	48.81
228.559	53.81
228.793	60.81
229.027	79.81
229.262	86.81
229.496	88.81
229.73	122.81
229.964	123.81
230.199	116.81
230.433	93.81
230.667	99.81
230.901	112.81
231.136	105.81
231.37	108.81
231.604	95.81
231.838	113.81
232.072	99.81
232.306	111.81
232.541	101.81
232.775	119.81
233.009	106.81
233.243	90.81
233.477	102.81
233.711	109.81
233.945	123.81
234.179	99.81
234.413	94.81
234.647	99.81
234.881	125.81
235.115	109.81
235.349	112.81
235.583	96.81
235.817	113.81
236.051	122.81
236.285	115.81
236.519	111.81
236.753	130.81
236.987	130.81
237.221	182.81
237.455	211.81
237.689	164.81
237.922	121.81
238.156	114.81
238.39	115.81
238.624	109.81
238.858	113.81
239.091	111.81
239.325	119.81
239.559	112.81
239.793	103.81
240.027	113.81
240.26	111.81
240.494	147.81
240.728	127.81
240.961	137.81
241.195	126.81
241.429	129.81
241.662	112.81
241.896	119.81
242.13	108.81
242.363	127.81
242.597	123.81
242.83	134.81
243.064	127.81
243.298	135.81
243.531	120.81
243.765	113.81
243.998	126.81
244.232	123.81
244.465	129.81
244.699	114.81
244.932	129.81
245.166	125.81
245.399	114.81
245.633	121.81
245.866	112.81
246.099	127.81
246.333	139.81
246.566	120.81
246.8	145.81
247.033	135.81
247.266	140.81
247.5	145.81
247.733	142.81
247.966	154.81
248.2	153.81
248.433	154.81
248.666	156.81
248.899	163.81
249.133	171.81
249.366	170.81
249.599	166.81
249.832	153.81
250.066	149.81
250.299	150.81
250.532	171.81
250.765	181.81
250.998	196.81
251.231	191.81
251.465	191.81
251.698	176.81
251.931	150.81
252.164	176.81
252.397	164.81
252.63	168.81
252.863	177.81
253.096	170.81
253.329	204.81
253.562	193.81
253.795	167.81
254.028	182.81
254.261	184.81
254.494	190.81
254.727	198.81
254.96	257.81
255.193	241.81
255.426	225.81
255.659	197.81
255.892	210.81
256.124	195.81
256.357	190.81
256.59	188.81
256.823	185.81
257.056	188.81
257.289	183.81
257.521	172.81
257.754	184.81
257.987	189.81
258.22	184.81
258.452	185.81
258.685	165.81
258.918	192.81
259.151	180.81
259.383	175.81
259.616	200.81
259.849	183.81
260.081	211.81
260.314	202.81
260.547	209.81
260.779	200.81
261.012	215.81
261.244	188.81
261.477	192.81
261.71	188.81
261.942	201.81
262.175	202.81
262.407	197.81
262.64	187.81
262.872	204.81
263.105	188.81
263.337	189.81
263.57	199.81
263.802	190.81
264.035	196.81
264.267	184.81
264.499	179.81
264.732	205.81
264.964	170.81
265.197	174.81
265.429	189.81
265.661	163.81
265.894	181.81
266.126	197.81
266.358	164.81
266.591	196.81
266.823	195.81
267.055	192.81
267.287	191.81
267.52	192.81
267.752	200.81
267.984	187.81
268.216	187.81
268.448	187.81
268.681	201.81
268.913	209.81
269.145	227.81
269.377	218.81
269.609	230.81
269.841	220.81
270.073	215.81
270.306	244.81
270.538	262.81
270.77	273.81
271.002	265.81
271.234	263.81
271.466	263.81
271.698	269.81
271.93	271.81
272.162	275.81
272.394	267.81
272.626	255.81
272.858	253.81
273.09	239.81
273.322	237.81
273.553	237.81
273.785	230.81
274.017	232.81
274.249	229.81
274.481	234.81
274.713	233.81
274.945	227.81
275.176	231.81
275.408	235.81
275.64	206.81
275.872	204.81
276.104	224.81
276.335	244.81
276.567	220.81
276.799	243.81
277.031	241.81
277.262	261.81
277.494	270.81
277.726	261.81
277.957	244.81
278.189	236.81
278.421	216.81
278.652	244.81
278.884	223.81
279.115	219.81
279.347	233.81
279.579	216.81
279.81	209.81
280.042	217.81
280.273	230.81
280.505	217.81
280.736	232.81
280.968	224.81
281.199	230.81
281.431	237.81
281.662	228.81
281.894	234.81
282.125	230.81
282.356	266.81
282.588	257.81
282.819	251.81
283.051	243.81
283.282	223.81
283.513	247.81
283.745	235.81
283.976	229.81
284.207	237.81
284.439	236.81
284.67	264.81
284.901	221.81
285.132	225.81
285.364	241.81
285.595	244.81
285.826	224.81
286.057	243.81
286.288	225.81
286.52	245.81
286.751	220.81
286.982	232.81
287.213	241.81
287.444	231.81
287.675	245.81
287.906	263.81
288.138	269.81
288.369	247.81
288.6	244.81
288.831	268.81
289.062	273.81
289.293	255.81
289.524	257.81
289.755	250.81
289.986	237.81
290.217	245.81
290.448	246.81
290.679	227.81
290.91	229.81
291.141	233.81
291.371	236.81
291.602	225.81
291.833	232.81
292.064	232.81
292.295	236.81
292.526	252.81
292.757	242.81
292.987	230.81
293.218	237.81
293.449	236.81
293.68	260.81
293.91	243.81
294.141	247.81
294.372	224.81
294.603	255.81
294.833	259.81
295.064	233.81
295.295	265.81
295.525	249.81
295.756	260.81
295.987	272.81
296.217	263.81
296.448	283.81
296.679	269.81
296.909	247.81
297.14	260.81
297.37	251.81
297.601	257.81
297.831	260.81
298.062	269.81
298.292	253.81
298.523	269.81
298.753	256.81
298.984	259.81
299.214	256.81
299.445	251.81
299.675	261.81
299.905	259.81
300.136	259.81
300.366	280.81
300.597	259.81
300.827	269.81
301.057	265.81
301.288	298.81
301.518	276.81
301.748	291.81
301.979	295.81
302.209	263.81
302.439	276.81
302.669	279.81
302.9	274.81
303.13	275.81
303.36	266.81
303.59	257.81
303.82	279.81
304.051	283.81
304.281	266.81
304.511	290.81
304.741	266.81
304.971	271.81
305.201	285.81
305.431	286.81
305.661	276.81
305.891	295.81
306.121	281.81
306.352	279.81
306.582	290.81
306.812	294.81
307.042	287.81
307.272	262.81
307.502	275.81
307.731	262.81
307.961	301.81
308.191	299.81
308.421	281.81
308.651	306.81
308.881	290.81
309.111	290.81
309.341	290.81
309.571	309.81
309.8	303.81
310.03	310.81
310.26	321.81
310.49	317.81
310.72	337.81
310.949	352.81
311.179	358.81
311.409	330.81
311.639	314.81
311.868	324.81
312.098	342.81
312.328	323.81
312.557	344.81
312.787	375.81
313.017	343.81
313.246	360.81
313.476	315.81
313.706	326.81
313.935	344.81
314.165	333.81
314.394	349.81
314.624	346.81
314.853	350.81
315.083	344.81
315.312	312.81
315.542	316.81
315.771	322.81
316.001	313.81
316.23	319.81
316.46	321.81
316.689	327.81
316.919	332.81
317.148	333.81
317.377	337.81
317.607	323.81
317.836	328.81
318.065	308.81
318.295	313.81
318.524	308.81
318.753	315.81
318.983	317.81
319.212	309.81
319.441	333.81
319.67	348.81
319.9	337.81
320.129	333.81
320.358	329.81
320.587	342.81
320.816	345.81
321.046	337.81
321.275	350.81
321.504	347.81
321.733	342.81
321.962	365.81
322.191	349.81
322.42	374.81
322.649	381.81
322.878	384.81
323.108	408.81
323.337	433.81
323.566	440.81
323.795	492.81
324.024	512.81
324.253	663.81
324.482	923.81
324.71	1404.81
324.939	1935.81
325.168	1666.81
325.397	871.81
325.626	578.81
325.855	477.81
326.084	445.81
326.313	436.81
326.542	442.81
326.77	466.81
326.999	592.81
327.228	816.81
327.457	1222.81
327.686	1433.81
327.914	986.81
328.143	643.81
328.372	569.81
328.6	531.81
328.829	489.81
329.058	519.81
329.287	521.81
329.515	493.81
329.744	435.81
329.972	436.81
330.201	483.81
330.43	522.81
330.658	536.81
330.887	556.81
331.115	550.81
331.344	467.81
331.572	451.81
331.801	421.81
332.03	415.81
332.258	403.81
332.486	397.81
332.715	395.81
332.943	403.81
333.172	407.81
333.4	395.81
333.629	390.81
333.857	385.81
334.085	416.81
334.314	441.81
334.542	451.81
334.771	505.81
334.999	414.81
335.227	395.81
335.455	398.81
335.684	407.81
335.912	377.81
336.14	378.81
336.369	359.81
336.597	387.81
336.825	367.81
337.053	379.81
337.281	364.81
337.51	371.81
337.738	385.81
337.966	383.81
338.194	383.81
338.422	378.81
338.65	375.81
338.878	373.81
339.106	360.81
339.334	371.81
339.562	360.81
339.79	369.81
340.018	363.81
340.246	369.81
340.474	383.81
340.702	372.81
340.93	371.81
341.158	364.81
341.386	381.81
341.614	366.81
341.842	351.81
342.07	348.81
342.298	369.81
342.526	356.81
342.754	362.81
342.981	328.81
343.209	351.81
343.437	363.81
343.665	348.81
343.893	360.81
344.12	372.81
344.348	369.81
344.576	342.81
344.804	383.81
345.031	374.81
345.259	376.81
345.487	368.81
345.714	367.81
345.942	361.81
346.17	353.81
346.397	371.81
346.625	371.81
346.853	359.81
347.08	361.81
347.308	371.81
347.535	362.81
347.763	383.81
347.99	385.81
348.218	384.81
348.445	368.81
348.673	370.81
348.9	364.81
349.128	339.81
349.355	371.81
349.583	348.81
349.81	347.81
350.037	335.81
350.265	337.81
350.492	344.81
350.72	354.81
350.947	364.81
351.174	370.81
351.402	377.81
351.629	348.81
351.856	375.81
352.083	391.81
352.311	405.81
352.538	385.81
352.765	360.81
352.992	358.81
353.22	375.81
353.447	363.81
353.674	358.81
353.901	333.81
354.128	342.81
354.355	328.81
354.583	328.81
354.81	345.81
355.037	330.81
355.264	335.81
355.491	334.81
355.718	322.81
355.945	330.81
356.172	317.81
356.399	317.81
356.626	316.81
356.853	329.81
357.08	328.81
357.307	327.81
357.534	337.81
357.761	347.81
357.988	313.81
358.215	347.81
358.441	308.81
358.668	334.81
358.895	344.81
359.122	342.81
359.349	348.81
359.576	369.81
359.802	356.81
360.029	399.81
360.256	425.81
360.483	418.81
360.709	360.81
360.936	359.81
361.163	346.81
361.39	367.81
361.616	371.81
361.843	348.81
362.07	352.81
362.296	368.81
362.523	356.81
362.749	361.81
362.976	339.81
363.203	337.81
363.429	344.81
363.656	331.81
363.882	359.81
364.109	331.81
364.335	345.81
364.562	335.81
364.788	340.81
365.015	354.81
365.241	360.81
365.468	353.81
365.694	354.81
365.92	351.81
366.147	335.81
366.373	329.81
366.599	335.81
366.826	333.81
367.052	348.81
367.278	342.81
367.505	342.81
367.731	329.81
367.957	329.81
368.184	349.81
368.41	354.81
368.636	343.81
368.862	342.81
369.089	355.81
369.315	335.81
369.541	336.81
369.767	333.81
369.993	346.81
370.219	344.81
370.445	348.81
370.672	330.81
370.898	341.81
371.124	336.81
371.35	341.81
371.576	316.81
371.802	318.81
372.028	321.81
372.254	340.81
372.48	336.81
372.706	342.81
372.932	336.81
373.158	321.81
373.384	332.81
373.61	331.81
373.835	344.81
374.061	341.81
374.287	328.81
374.513	350.81
374.739	334.81
374.965	356.81
375.191	337.81
375.416	338.81
375.642	329.81
375.868	345.81
376.094	322.81
376.319	330.81
376.545	332.81
376.771	325.81
376.997	325.81
377.222	319.81
377.448	328.81
377.674	340.81
377.899	333.81
378.125	333.81
378.35	324.81
378.576	322.81
378.802	298.81
379.027	318.81
379.253	340.81
379.478	333.81
379.704	337.81
379.929	323.81
380.155	336.81
380.38	336.81
380.606	343.81
380.831	331.81
381.057	351.81
381.282	351.81
381.507	341.81
381.733	332.81
381.958	322.81
382.184	351.81
382.409	326.81
382.634	344.81
382.86	337.81
383.085	331.81
383.31	331.81
383.535	352.81
383.761	345.81
383.986	355.81
384.211	339.81
384.436	346.81
384.662	338.81
384.887	343.81
385.112	362.81
385.337	340.81
385.562	343.81
385.787	345.81
386.013	359.81
386.238	378.81
386.463	369.81
386.688	363.81
386.913	367.81
387.138	351.81
387.363	369.81
387.588	363.81
387.813	372.81
388.038	359.81
388.263	370.81
388.488	353.81
388.713	385.81
388.938	368.81
389.163	370.81
389.387	376.81
389.612	356.81
389.837	353.81
390.062	351.81
390.287	341.81
390.512	356.81
390.736	346.81
390.961	365.81
391.186	375.81
391.411	355.81
391.636	367.81
391.86	382.81
392.085	357.81
392.31	355.81
392.534	373.81
392.759	365.81
392.984	362.81
393.208	377.81
393.433	375.81
393.658	377.81
393.882	368.81
394.107	361.81
394.331	348.81
394.556	362.81
394.78	365.81
395.005	347.81
395.229	365.81
395.454	381.81
395.678	365.81
395.903	388.81
396.127	403.81
396.352	381.81
396.576	390.81
396.801	371.81
397.025	374.81
397.249	381.81
397.474	385.81
397.698	373.81
397.922	379.81
398.147	390.81
398.371	411.81
398.595	399.81
398.82	396.81
399.044	395.81
399.268	425.81
399.492	420.81
399.717	452.81
399.941	455.81
400.165	501.81
400.389	506.81
400.613	453.81
400.837	421.81
401.062	414.81
401.286	421.81
401.51	439.81
401.734	409.81
401.958	434.81
402.182	399.81
402.406	425.81
402.63	438.81
402.854	421.81
403.078	438.81
403.302	415.81
403.526	419.81
403.75	428.81
403.974	419.81
404.198	420.81
404.422	428.81
404.645	423.81
404.869	433.81
405.093	439.81
405.317	492.81
405.541	522.81
405.765	467.81
405.988	456.81
406.212	472.81
406.436	468.81
406.66	476.81
406.883	464.81
407.107	465.81
407.331	514.81
407.555	575.81
407.778	515.81
408.002	495.81
408.226	475.81
408.449	469.81
408.673	461.81
408.896	480.81
409.12	515.81
409.344	489.81
409.567	435.81
409.791	424.81
410.014	434.81
410.238	427.81
410.461	424.81
410.685	422.81
410.908	436.81
411.132	483.81
411.355	496.81
411.578	465.81
411.802	441.81
412.025	431.81
412.249	444.81
412.472	439.81
412.695	483.81
412.919	465.81
413.142	437.81
413.365	427.81
413.589	391.81
413.812	398.81
414.035	398.81
414.258	381.81
414.482	394.81
414.705	404.81
414.928	379.81
415.151	403.81
415.374	396.81
415.597	398.81
415.821	387.81
416.044	391.81
416.267	402.81
416.49	401.81
416.713	380.81
416.936	398.81
417.159	392.81
417.382	409.81
417.605	399.81
417.828	405.81
418.051	421.81
418.274	420.81
418.497	397.81
418.72	378.81
418.943	397.81
419.166	405.81
419.389	444.81
419.611	425.81
419.834	421.81
420.057	429.81
420.28	433.81
420.503	407.81
420.726	417.81
420.948	435.81
421.171	482.81
421.394	471.81
421.617	430.81
421.839	402.81
422.062	431.81
422.285	435.81
422.507	477.81
422.73	544.81
422.953	521.81
423.175	453.81
423.398	427.81
423.621	435.81
423.843	447.81
424.066	435.81
424.288	453.81
424.511	473.81
424.733	524.81
424.956	577.81
425.178	575.81
425.401	556.81
425.623	543.81
425.846	477.81
426.068	457.81
426.291	451.81
426.513	465.81
426.735	458.81
426.958	491.81
427.18	548.81
427.402	639.81
427.625	740.81
427.847	668.81
428.069	563.81
428.292	494.81
428.514	467.81
428.736	446.81
428.958	431.81
429.181	421.81
429.403	443.81
429.625	424.81
429.847	471.81
430.069	511.81
430.292	506.81
430.514	462.81
430.736	435.81
430.958	431.81
431.18	392.81
431.402	404.81
431.624	408.81
431.846	405.81
432.068	394.81
432.29	390.81
432.512	414.81
432.734	433.81
432.956	407.81
433.178	433.81
433.4	421.81
433.622	413.81
433.844	388.81
434.066	394.81
434.287	403.81
434.509	392.81
434.731	417.81
434.953	404.81
435.175	428.81
435.397	442.81
435.618	449.81
435.84	506.81
436.062	587.81
436.284	637.81
436.505	538.81
436.727	470.81
436.949	451.81
437.17	413.81
437.392	435.81
437.614	433.81
437.835	504.81
438.057	556.81
438.278	638.81
438.5	622.81
438.721	641.81
438.943	639.81
439.165	517.81
439.386	465.81
439.608	477.81
439.829	487.81
440.05	496.81
440.272	531.81
440.493	498.81
440.715	436.81
440.936	434.81
441.158	440.81
441.379	443.81
441.6	453.81
441.822	459.81
442.043	490.81
442.264	546.81
442.486	594.81
442.707	514.81
442.928	469.81
443.149	464.81
443.371	516.81
443.592	535.81
443.813	612.81
444.034	653.81
444.255	535.81
444.476	439.81
444.698	449.81
444.919	442.81
445.14	568.81
445.361	528.81
445.582	516.81
445.803	563.81
446.024	626.81
446.245	646.81
446.466	605.81
446.687	501.81
446.908	465.81
447.129	437.81
447.35	420.81
447.571	421.81
447.792	427.81
448.013	437.81
448.234	447.81
448.455	494.81
448.675	569.81
448.896	658.81
449.117	591.81
449.338	545.81
449.559	643.81
449.779	720.81
450	573.81
450.221	475.81
450.442	436.81
450.662	432.81
450.883	443.81
451.104	463.81
451.324	429.81
451.545	432.81
451.766	396.81
451.986	398.81
452.207	398.81
452.428	410.81
452.648	409.81
452.869	394.81
453.089	396.81
453.31	400.81
453.53	401.81
453.751	379.81
453.971	384.81
454.192	407.81
454.412	389.81
454.633	393.81
454.853	384.81
455.073	379.81
455.294	394.81
455.514	465.81
455.734	457.81
455.955	395.81
456.175	364.81
456.395	362.81
456.616	364.81
456.836	369.81
457.056	367.81
457.276	344.81
457.497	371.81
457.717	369.81
457.937	371.81
458.157	360.81
458.377	383.81
458.598	415.81
458.818	454.81
459.038	517.81
459.258	537.81
459.478	442.81
459.698	431.81
459.918	396.81
460.138	395.81
460.358	394.81
460.578	393.81
460.798	397.81
461.018	402.81
461.238	398.81
461.458	418.81
461.678	402.81
461.898	402.81
462.118	407.81
462.338	419.81
462.558	391.81
462.777	403.81
462.997	441.81
463.217	435.81
463.437	421.81
463.657	428.81
463.876	409.81
464.096	435.81
464.316	426.81
464.536	428.81
464.755	423.81
464.975	442.81
465.195	464.81
465.414	575.81
465.634	481.81
465.854	458.81
466.073	420.81
466.293	407.81
466.512	395.81
466.732	388.81
466.951	384.81
467.171	381.81
467.391	399.81
467.61	392.81
467.829	420.81
468.049	415.81
468.268	407.81
468.488	410.81
468.707	376.81
468.927	375.81
469.146	385.81
469.365	385.81
469.585	377.81
469.804	389.81
470.023	408.81
470.243	385.81
470.462	424.81
470.681	408.81
470.901	405.81
471.12	397.81
471.339	404.81
471.558	388.81
471.777	413.81
471.997	415.81
472.216	397.81
472.435	453.81
472.654	423.81
472.873	400.81
473.092	417.81
473.311	403.81
473.53	420.81
473.749	403.81
473.968	443.81
474.187	545.81
474.406	554.81
474.625	457.81
474.844	415.81
475.063	419.81
475.282	404.81
475.501	411.81
475.72	416.81
475.939	409.81
476.158	422.81
476.377	431.81
476.596	410.81
476.814	427.81
477.033	421.81
477.252	437.81
477.471	413.81
477.69	416.81
477.908	415.81
478.127	426.81
478.346	439.81
478.564	439.81
478.783	433.81
479.002	453.81
479.22	447.81
479.439	469.81
479.658	477.81
479.876	509.81
480.095	467.81
480.313	513.81
480.532	476.81
480.751	473.81
480.969	481.81
481.188	570.81
481.406	611.81
481.624	531.81
481.843	498.81
482.061	479.81
482.28	468.81
482.498	476.81
482.717	466.81
482.935	477.81
483.153	454.81
483.372	456.81
483.59	453.81
483.808	477.81
484.027	475.81
484.245	452.81
484.463	476.81
484.681	485.81
484.9	468.81
485.118	470.81
485.336	492.81
485.554	497.81
485.772	490.81
485.99	479.81
486.209	466.81
486.427	491.81
486.645	512.81
486.863	519.81
487.081	524.81
487.299	511.81
487.517	513.81
487.735	495.81
487.953	495.81
488.171	496.81
488.389	520.81
488.607	492.81
488.825	488.81
489.043	518.81
489.261	514.81
489.479	509.81
489.696	529.81
489.914	517.81
490.132	512.81
490.35	524.81
490.568	537.81
490.786	545.81
491.003	543.81
491.221	539.81
491.439	562.81
491.657	561.81
491.874	563.81
492.092	568.81
492.31	592.81
492.527	568.81
492.745	545.81
492.963	566.81
493.18	581.81
493.398	586.81
493.615	603.81
493.833	596.81
494.05	590.81
494.268	593.81
494.485	593.81
494.703	587.81
494.92	596.81
495.138	589.81
495.355	586.81
495.573	586.81
495.79	604.81
496.008	618.81
496.225	585.81
496.442	582.81
496.66	588.81
496.877	590.81
497.094	587.81
497.312	603.81
497.529	608.81
497.746	604.81
497.963	632.81
498.181	646.81
498.398	642.81
498.615	643.81
498.832	663.81
499.049	687.81
499.267	669.81
499.484	663.81
499.701	689.81
499.918	700.81
500.135	745.81
500.352	736.81
500.569	764.81
500.786	780.81
501.003	767.81
501.22	759.81
501.437	735.81
501.654	727.81
501.871	743.81
502.088	712.81
