Data from 1965.PennyLincolnUp.Lamp.En5.5.200Scan.071719.P1._HRD10591_14-10-34-911.txt Node
Date: Thu Jul 18 14:10:34 EDT 2019
User: cochatt
Spectrometer: HR+D1059
Trigger mode: 1
Integration Time (sec): 1.000000E-1
Scans to average: 1
Electric dark correction enabled: true
Nonlinearity correction enabled: false
Boxcar width: 0
XAxis mode: Wavelengths
Number of Pixels in Spectrum: 2048
>>>>>Begin Spectral Data<<<<<
223.165	-19.88
223.4	-19.88
223.635	-19.88
223.869	-11.88
224.104	-22.88
224.338	-9.88
224.573	-15.88
224.808	-7.88
225.042	-3.88
225.277	-15.88
225.511	0.12
225.746	14.12
225.98	9.12
226.215	10.12
226.449	9.12
226.683	19.12
226.918	9.12
227.152	37.12
227.387	31.12
227.621	34.12
227.856	35.12
228.09	52.12
228.324	52.12
228.559	61.12
228.793	66.12
229.027	92.12
229.262	109.12
229.496	121.12
229.73	137.12
229.964	139.12
230.199	121.12
230.433	110.12
230.667	97.12
230.901	109.12
231.136	106.12
231.37	104.12
231.604	103.12
231.838	96.12
232.072	109.12
232.306	109.12
232.541	127.12
232.775	110.12
233.009	105.12
233.243	105.12
233.477	106.12
233.711	98.12
233.945	123.12
234.179	88.12
234.413	119.12
234.647	105.12
234.881	104.12
235.115	130.12
235.349	118.12
235.583	116.12
235.817	115.12
236.051	137.12
236.285	123.12
236.519	131.12
236.753	122.12
236.987	130.12
237.221	190.12
237.455	230.12
237.689	178.12
237.922	158.12
238.156	126.12
238.39	114.12
238.624	121.12
238.858	108.12
239.091	120.12
239.325	126.12
239.559	113.12
239.793	133.12
240.027	120.12
240.26	131.12
240.494	152.12
240.728	137.12
240.961	148.12
241.195	134.12
241.429	122.12
241.662	130.12
241.896	143.12
242.13	134.12
242.363	132.12
242.597	138.12
242.83	127.12
243.064	125.12
243.298	130.12
243.531	126.12
243.765	140.12
243.998	131.12
244.232	131.12
244.465	130.12
244.699	140.12
244.932	127.12
245.166	130.12
245.399	124.12
245.633	142.12
245.866	134.12
246.099	136.12
246.333	142.12
246.566	130.12
246.8	145.12
247.033	142.12
247.266	136.12
247.5	138.12
247.733	137.12
247.966	155.12
248.2	159.12
248.433	153.12
248.666	153.12
248.899	182.12
249.133	202.12
249.366	196.12
249.599	170.12
249.832	165.12
250.066	179.12
250.299	173.12
250.532	169.12
250.765	180.12
250.998	218.12
251.231	212.12
251.465	202.12
251.698	213.12
251.931	191.12
252.164	181.12
252.397	180.12
252.63	178.12
252.863	184.12
253.096	202.12
253.329	214.12
253.562	216.12
253.795	209.12
254.028	206.12
254.261	212.12
254.494	196.12
254.727	237.12
254.96	265.12
255.193	236.12
255.426	221.12
255.659	236.12
255.892	235.12
256.124	223.12
256.357	220.12
256.59	193.12
256.823	206.12
257.056	208.12
257.289	198.12
257.521	191.12
257.754	202.12
257.987	188.12
258.22	189.12
258.452	187.12
258.685	201.12
258.918	202.12
259.151	186.12
259.383	208.12
259.616	203.12
259.849	207.12
260.081	207.12
260.314	245.12
260.547	247.12
260.779	217.12
261.012	211.12
261.244	205.12
261.477	208.12
261.71	208.12
261.942	211.12
262.175	221.12
262.407	204.12
262.64	205.12
262.872	193.12
263.105	199.12
263.337	197.12
263.57	204.12
263.802	200.12
264.035	201.12
264.267	183.12
264.499	194.12
264.732	198.12
264.964	203.12
265.197	190.12
265.429	197.12
265.661	175.12
265.894	194.12
266.126	201.12
266.358	211.12
266.591	192.12
266.823	195.12
267.055	220.12
267.287	205.12
267.52	218.12
267.752	204.12
267.984	200.12
268.216	214.12
268.448	207.12
268.681	201.12
268.913	215.12
269.145	228.12
269.377	260.12
269.609	254.12
269.841	250.12
270.073	258.12
270.306	259.12
270.538	290.12
270.77	284.12
271.002	269.12
271.234	262.12
271.466	283.12
271.698	284.12
271.93	297.12
272.162	299.12
272.394	307.12
272.626	270.12
272.858	260.12
273.09	264.12
273.322	238.12
273.553	251.12
273.785	246.12
274.017	245.12
274.249	237.12
274.481	226.12
274.713	231.12
274.945	249.12
275.176	228.12
275.408	236.12
275.64	253.12
275.872	240.12
276.104	246.12
276.335	245.12
276.567	266.12
276.799	282.12
277.031	299.12
277.262	311.12
277.494	303.12
277.726	296.12
277.957	276.12
278.189	234.12
278.421	250.12
278.652	270.12
278.884	234.12
279.115	228.12
279.347	242.12
279.579	239.12
279.81	231.12
280.042	265.12
280.273	242.12
280.505	233.12
280.736	237.12
280.968	242.12
281.199	250.12
281.431	264.12
281.662	239.12
281.894	250.12
282.125	242.12
282.356	244.12
282.588	286.12
282.819	284.12
283.051	260.12
283.282	238.12
283.513	260.12
283.745	256.12
283.976	261.12
284.207	258.12
284.439	241.12
284.67	256.12
284.901	236.12
285.132	259.12
285.364	256.12
285.595	249.12
285.826	236.12
286.057	248.12
286.288	265.12
286.52	258.12
286.751	248.12
286.982	241.12
287.213	258.12
287.444	251.12
287.675	267.12
287.906	254.12
288.138	269.12
288.369	275.12
288.6	288.12
288.831	282.12
289.062	277.12
289.293	278.12
289.524	281.12
289.755	250.12
289.986	258.12
290.217	254.12
290.448	259.12
290.679	265.12
290.91	271.12
291.141	255.12
291.371	257.12
291.602	258.12
291.833	261.12
292.064	265.12
292.295	254.12
292.526	247.12
292.757	240.12
292.987	266.12
293.218	261.12
293.449	248.12
293.68	250.12
293.91	260.12
294.141	257.12
294.372	257.12
294.603	248.12
294.833	247.12
295.064	255.12
295.295	274.12
295.525	266.12
295.756	285.12
295.987	267.12
296.217	281.12
296.448	299.12
296.679	284.12
296.909	277.12
297.14	266.12
297.37	262.12
297.601	259.12
297.831	250.12
298.062	258.12
298.292	272.12
298.523	283.12
298.753	273.12
298.984	275.12
299.214	283.12
299.445	284.12
299.675	278.12
299.905	294.12
300.136	276.12
300.366	272.12
300.597	281.12
300.827	290.12
301.057	259.12
301.288	289.12
301.518	291.12
301.748	283.12
301.979	285.12
302.209	299.12
302.439	298.12
302.669	308.12
302.9	292.12
303.13	297.12
303.36	295.12
303.59	292.12
303.82	298.12
304.051	310.12
304.281	287.12
304.511	286.12
304.741	292.12
304.971	294.12
305.201	295.12
305.431	287.12
305.661	283.12
305.891	287.12
306.121	307.12
306.352	296.12
306.582	330.12
306.812	282.12
307.042	291.12
307.272	299.12
307.502	291.12
307.731	303.12
307.961	303.12
308.191	300.12
308.421	291.12
308.651	303.12
308.881	314.12
309.111	316.12
309.341	302.12
309.571	311.12
309.8	328.12
310.03	338.12
310.26	338.12
310.49	343.12
310.72	342.12
310.949	353.12
311.179	370.12
311.409	347.12
311.639	356.12
311.868	350.12
312.098	349.12
312.328	366.12
312.557	356.12
312.787	373.12
313.017	366.12
313.246	366.12
313.476	347.12
313.706	356.12
313.935	361.12
314.165	368.12
314.394	371.12
314.624	390.12
314.853	365.12
315.083	369.12
315.312	360.12
315.542	350.12
315.771	346.12
316.001	340.12
316.23	337.12
316.46	349.12
316.689	328.12
316.919	332.12
317.148	359.12
317.377	369.12
317.607	328.12
317.836	342.12
318.065	344.12
318.295	342.12
318.524	339.12
318.753	319.12
318.983	343.12
319.212	341.12
319.441	362.12
319.67	344.12
319.9	342.12
320.129	338.12
320.358	363.12
320.587	353.12
320.816	368.12
321.046	379.12
321.275	358.12
321.504	375.12
321.733	378.12
321.962	396.12
322.191	396.12
322.42	435.12
322.649	413.12
322.878	420.12
323.108	429.12
323.337	470.12
323.566	488.12
323.795	523.12
324.024	575.12
324.253	714.12
324.482	1040.12
324.71	1578.12
324.939	2176.12
325.168	1814.12
325.397	936.12
325.626	648.12
325.855	522.12
326.084	505.12
326.313	486.12
326.542	494.12
326.77	552.12
326.999	661.12
327.228	917.12
327.457	1384.12
327.686	1612.12
327.914	1070.12
328.143	694.12
328.372	623.12
328.6	577.12
328.829	554.12
329.058	574.12
329.287	571.12
329.515	539.12
329.744	511.12
329.972	479.12
330.201	536.12
330.43	587.12
330.658	590.12
330.887	627.12
331.115	610.12
331.344	503.12
331.572	472.12
331.801	469.12
332.03	442.12
332.258	446.12
332.486	407.12
332.715	424.12
332.943	414.12
333.172	415.12
333.4	407.12
333.629	434.12
333.857	451.12
334.085	456.12
334.314	462.12
334.542	485.12
334.771	532.12
334.999	458.12
335.227	431.12
335.455	404.12
335.684	405.12
335.912	399.12
336.14	425.12
336.369	414.12
336.597	427.12
336.825	419.12
337.053	386.12
337.281	390.12
337.51	394.12
337.738	400.12
337.966	406.12
338.194	403.12
338.422	418.12
338.65	380.12
338.878	384.12
339.106	368.12
339.334	410.12
339.562	416.12
339.79	388.12
340.018	388.12
340.246	356.12
340.474	394.12
340.702	378.12
340.93	382.12
341.158	396.12
341.386	412.12
341.614	394.12
341.842	399.12
342.07	380.12
342.298	390.12
342.526	366.12
342.754	342.12
342.981	347.12
343.209	377.12
343.437	366.12
343.665	366.12
343.893	381.12
344.12	375.12
344.348	382.12
344.576	390.12
344.804	395.12
345.031	404.12
345.259	406.12
345.487	394.12
345.714	398.12
345.942	364.12
346.17	396.12
346.397	374.12
346.625	381.12
346.853	363.12
347.08	384.12
347.308	374.12
347.535	387.12
347.763	412.12
347.99	375.12
348.218	394.12
348.445	392.12
348.673	411.12
348.9	378.12
349.128	378.12
349.355	378.12
349.583	351.12
349.81	375.12
350.037	358.12
350.265	365.12
350.492	367.12
350.72	378.12
350.947	366.12
351.174	387.12
351.402	394.12
351.629	368.12
351.856	374.12
352.083	382.12
352.311	387.12
352.538	395.12
352.765	396.12
352.992	407.12
353.22	375.12
353.447	383.12
353.674	379.12
353.901	373.12
354.128	370.12
354.355	335.12
354.583	372.12
354.81	356.12
355.037	342.12
355.264	349.12
355.491	342.12
355.718	342.12
355.945	345.12
356.172	350.12
356.399	363.12
356.626	349.12
356.853	376.12
357.08	349.12
357.307	333.12
357.534	347.12
357.761	338.12
357.988	349.12
358.215	342.12
358.441	349.12
358.668	355.12
358.895	340.12
359.122	356.12
359.349	362.12
359.576	390.12
359.802	404.12
360.029	416.12
360.256	461.12
360.483	412.12
360.709	404.12
360.936	370.12
361.163	375.12
361.39	367.12
361.616	382.12
361.843	361.12
362.07	392.12
362.296	388.12
362.523	365.12
362.749	382.12
362.976	376.12
363.203	354.12
363.429	359.12
363.656	359.12
363.882	354.12
364.109	370.12
364.335	367.12
364.562	384.12
364.788	361.12
365.015	361.12
365.241	354.12
365.468	384.12
365.694	364.12
365.92	365.12
366.147	376.12
366.373	341.12
366.599	350.12
366.826	372.12
367.052	353.12
367.278	350.12
367.505	386.12
367.731	365.12
367.957	346.12
368.184	362.12
368.41	356.12
368.636	358.12
368.862	380.12
369.089	366.12
369.315	357.12
369.541	354.12
369.767	350.12
369.993	358.12
370.219	364.12
370.445	356.12
370.672	358.12
370.898	342.12
371.124	345.12
371.35	335.12
371.576	349.12
371.802	331.12
372.028	353.12
372.254	366.12
372.48	368.12
372.706	362.12
372.932	354.12
373.158	357.12
373.384	351.12
373.61	355.12
373.835	342.12
374.061	371.12
374.287	367.12
374.513	334.12
374.739	358.12
374.965	356.12
375.191	356.12
375.416	356.12
375.642	357.12
375.868	361.12
376.094	367.12
376.319	359.12
376.545	369.12
376.771	372.12
376.997	352.12
377.222	336.12
377.448	343.12
377.674	351.12
377.899	340.12
378.125	347.12
378.35	342.12
378.576	341.12
378.802	350.12
379.027	363.12
379.253	358.12
379.478	350.12
379.704	342.12
379.929	358.12
380.155	349.12
380.38	335.12
380.606	363.12
380.831	335.12
381.057	376.12
381.282	334.12
381.507	335.12
381.733	374.12
381.958	349.12
382.184	354.12
382.409	355.12
382.634	353.12
382.86	352.12
383.085	347.12
383.31	354.12
383.535	372.12
383.761	350.12
383.986	350.12
384.211	352.12
384.436	339.12
384.662	362.12
384.887	380.12
385.112	363.12
385.337	346.12
385.562	370.12
385.787	368.12
386.013	377.12
386.238	373.12
386.463	378.12
386.688	367.12
386.913	364.12
387.138	357.12
387.363	392.12
387.588	372.12
387.813	385.12
388.038	370.12
388.263	357.12
388.488	370.12
388.713	366.12
388.938	377.12
389.163	378.12
389.387	378.12
389.612	370.12
389.837	380.12
390.062	373.12
390.287	365.12
390.512	343.12
390.736	367.12
390.961	361.12
391.186	350.12
391.411	391.12
391.636	372.12
391.86	378.12
392.085	371.12
392.31	401.12
392.534	376.12
392.759	359.12
392.984	377.12
393.208	368.12
393.433	380.12
393.658	375.12
393.882	378.12
394.107	370.12
394.331	360.12
394.556	396.12
394.78	378.12
395.005	370.12
395.229	385.12
395.454	386.12
395.678	399.12
395.903	391.12
396.127	403.12
396.352	414.12
396.576	409.12
396.801	395.12
397.025	379.12
397.249	390.12
397.474	385.12
397.698	411.12
397.922	412.12
398.147	429.12
398.371	431.12
398.595	414.12
398.82	405.12
399.044	428.12
399.268	443.12
399.492	443.12
399.717	470.12
399.941	472.12
400.165	485.12
400.389	500.12
400.613	474.12
400.837	463.12
401.062	451.12
401.286	447.12
401.51	417.12
401.734	424.12
401.958	420.12
402.182	430.12
402.406	440.12
402.63	446.12
402.854	464.12
403.078	426.12
403.302	440.12
403.526	439.12
403.75	441.12
403.974	433.12
404.198	446.12
404.422	455.12
404.645	465.12
404.869	472.12
405.093	490.12
405.317	500.12
405.541	540.12
405.765	500.12
405.988	490.12
406.212	476.12
406.436	529.12
406.66	521.12
406.883	497.12
407.107	477.12
407.331	510.12
407.555	579.12
407.778	567.12
408.002	529.12
408.226	484.12
408.449	450.12
408.673	488.12
408.896	512.12
409.12	544.12
409.344	523.12
409.567	470.12
409.791	432.12
410.014	446.12
410.238	444.12
410.461	458.12
410.685	449.12
410.908	462.12
411.132	484.12
411.355	532.12
411.578	502.12
411.802	442.12
412.025	452.12
412.249	458.12
412.472	484.12
412.695	508.12
412.919	512.12
413.142	456.12
413.365	448.12
413.589	442.12
413.812	424.12
414.035	434.12
414.258	411.12
414.482	407.12
414.705	428.12
414.928	397.12
415.151	394.12
415.374	388.12
415.597	408.12
415.821	407.12
416.044	397.12
416.267	420.12
416.49	415.12
416.713	402.12
416.936	408.12
417.159	410.12
417.382	407.12
417.605	440.12
417.828	434.12
418.051	443.12
418.274	413.12
418.497	426.12
418.72	404.12
418.943	410.12
419.166	418.12
419.389	450.12
419.611	440.12
419.834	463.12
420.057	455.12
420.28	451.12
420.503	438.12
420.726	438.12
420.948	439.12
421.171	475.12
421.394	505.12
421.617	436.12
421.839	434.12
422.062	446.12
422.285	465.12
422.507	504.12
422.73	566.12
422.953	532.12
423.175	500.12
423.398	475.12
423.621	468.12
423.843	472.12
424.066	461.12
424.288	455.12
424.511	507.12
424.733	550.12
424.956	613.12
425.178	602.12
425.401	577.12
425.623	578.12
425.846	496.12
426.068	474.12
426.291	492.12
426.513	499.12
426.735	479.12
426.958	507.12
427.18	586.12
427.402	724.12
427.625	772.12
427.847	720.12
428.069	596.12
428.292	539.12
428.514	468.12
428.736	473.12
428.958	445.12
429.181	448.12
429.403	437.12
429.625	442.12
429.847	482.12
430.069	541.12
430.292	530.12
430.514	450.12
430.736	451.12
430.958	438.12
431.18	429.12
431.402	390.12
431.624	399.12
431.846	417.12
432.068	414.12
432.29	392.12
432.512	398.12
432.734	422.12
432.956	445.12
433.178	431.12
433.4	442.12
433.622	424.12
433.844	430.12
434.066	427.12
434.287	416.12
434.509	424.12
434.731	414.12
434.953	423.12
435.175	436.12
435.397	481.12
435.618	504.12
435.84	541.12
436.062	563.12
436.284	651.12
436.505	572.12
436.727	463.12
436.949	452.12
437.17	462.12
437.392	426.12
437.614	447.12
437.835	490.12
438.057	605.12
438.278	668.12
438.5	671.12
438.721	704.12
438.943	668.12
439.165	562.12
439.386	493.12
439.608	495.12
439.829	496.12
440.05	528.12
440.272	562.12
440.493	512.12
440.715	485.12
440.936	450.12
441.158	456.12
441.379	443.12
441.6	473.12
441.822	475.12
442.043	534.12
442.264	592.12
442.486	600.12
442.707	546.12
442.928	500.12
443.149	529.12
443.371	535.12
443.592	550.12
443.813	649.12
444.034	673.12
444.255	574.12
444.476	503.12
444.698	483.12
444.919	476.12
445.14	590.12
445.361	524.12
445.582	519.12
445.803	568.12
446.024	664.12
446.245	675.12
446.466	613.12
446.687	529.12
446.908	478.12
447.129	476.12
447.35	451.12
447.571	467.12
447.792	454.12
448.013	435.12
448.234	454.12
448.455	508.12
448.675	620.12
448.896	706.12
449.117	610.12
449.338	580.12
449.559	673.12
449.779	728.12
450	576.12
450.221	495.12
450.442	478.12
450.662	440.12
450.883	481.12
451.104	471.12
451.324	471.12
451.545	434.12
451.766	432.12
451.986	398.12
452.207	411.12
452.428	419.12
452.648	412.12
452.869	390.12
453.089	420.12
453.31	413.12
453.53	420.12
453.751	416.12
453.971	418.12
454.192	416.12
454.412	407.12
454.633	399.12
454.853	399.12
455.073	413.12
455.294	422.12
455.514	492.12
455.734	461.12
455.955	419.12
456.175	399.12
456.395	366.12
456.616	388.12
456.836	378.12
457.056	388.12
457.276	375.12
457.497	379.12
457.717	391.12
457.937	385.12
458.157	407.12
458.377	400.12
458.598	424.12
458.818	478.12
459.038	567.12
459.258	585.12
459.478	490.12
459.698	449.12
459.918	408.12
460.138	416.12
460.358	416.12
460.578	432.12
460.798	413.12
461.018	434.12
461.238	413.12
461.458	429.12
461.678	436.12
461.898	427.12
462.118	432.12
462.338	430.12
462.558	440.12
462.777	424.12
462.997	413.12
463.217	451.12
463.437	462.12
463.657	447.12
463.876	443.12
464.096	442.12
464.316	417.12
464.536	440.12
464.755	448.12
464.975	480.12
465.195	498.12
465.414	589.12
465.634	518.12
465.854	465.12
466.073	416.12
466.293	428.12
466.512	430.12
466.732	413.12
466.951	414.12
467.171	436.12
467.391	410.12
467.61	410.12
467.829	420.12
468.049	424.12
468.268	404.12
468.488	403.12
468.707	408.12
468.927	400.12
469.146	399.12
469.365	403.12
469.585	386.12
469.804	397.12
470.023	407.12
470.243	423.12
470.462	420.12
470.681	443.12
470.901	422.12
471.12	408.12
471.339	426.12
471.558	401.12
471.777	417.12
471.997	400.12
472.216	436.12
472.435	462.12
472.654	454.12
472.873	423.12
473.092	426.12
473.311	411.12
473.53	426.12
473.749	446.12
473.968	475.12
474.187	572.12
474.406	567.12
474.625	478.12
474.844	440.12
475.063	436.12
475.282	436.12
475.501	419.12
475.72	422.12
475.939	425.12
476.158	423.12
476.377	443.12
476.596	432.12
476.814	428.12
477.033	438.12
477.252	443.12
477.471	422.12
477.69	443.12
477.908	464.12
478.127	455.12
478.346	436.12
478.564	472.12
478.783	452.12
479.002	444.12
479.22	465.12
479.439	487.12
479.658	507.12
479.876	515.12
480.095	509.12
480.313	529.12
480.532	527.12
480.751	516.12
480.969	528.12
481.188	607.12
481.406	659.12
481.624	564.12
481.843	543.12
482.061	482.12
482.28	516.12
482.498	517.12
482.717	481.12
482.935	478.12
483.153	493.12
483.372	489.12
483.59	473.12
483.808	500.12
484.027	480.12
484.245	493.12
484.463	496.12
484.681	494.12
484.9	493.12
485.118	513.12
485.336	484.12
485.554	500.12
485.772	514.12
485.99	500.12
486.209	525.12
486.427	540.12
486.645	532.12
486.863	543.12
487.081	565.12
487.299	537.12
487.517	519.12
487.735	524.12
487.953	522.12
488.171	512.12
488.389	530.12
488.607	531.12
488.825	541.12
489.043	519.12
489.261	538.12
489.479	538.12
489.696	551.12
489.914	526.12
490.132	546.12
490.35	550.12
490.568	574.12
490.786	564.12
491.003	566.12
491.221	583.12
491.439	587.12
491.657	620.12
491.874	605.12
492.092	616.12
492.31	605.12
492.527	599.12
492.745	602.12
492.963	605.12
493.18	606.12
493.398	634.12
493.615	612.12
493.833	636.12
494.05	619.12
494.268	628.12
494.485	617.12
494.703	623.12
494.92	593.12
495.138	605.12
495.355	611.12
495.573	628.12
495.79	630.12
496.008	631.12
496.225	627.12
496.442	621.12
496.66	624.12
496.877	642.12
497.094	624.12
497.312	630.12
497.529	641.12
497.746	645.12
497.963	644.12
498.181	683.12
498.398	669.12
498.615	676.12
498.832	696.12
499.049	668.12
499.267	670.12
499.484	708.12
499.701	750.12
499.918	720.12
500.135	765.12
500.352	772.12
500.569	779.12
500.786	791.12
501.003	791.12
501.22	764.12
501.437	748.12
501.654	742.12
501.871	740.12
502.088	714.12
