Data from 1965.PennyLincolnUp.Lamp.En5.5.200Scan.071719.P1._HRD10591_14-08-20-910.txt Node
Date: Thu Jul 18 14:08:20 EDT 2019
User: cochatt
Spectrometer: HR+D1059
Trigger mode: 1
Integration Time (sec): 1.000000E-1
Scans to average: 1
Electric dark correction enabled: true
Nonlinearity correction enabled: false
Boxcar width: 0
XAxis mode: Wavelengths
Number of Pixels in Spectrum: 2048
>>>>>Begin Spectral Data<<<<<
223.165	-19.06
223.4	-19.06
223.635	-19.06
223.869	-21.06
224.104	-23.06
224.338	-10.06
224.573	-7.06
224.808	-24.06
225.042	-7.06
225.277	1.94
225.511	3.94
225.746	4.94
225.98	4.94
226.215	9.94
226.449	32.94
226.683	14.94
226.918	17.94
227.152	19.94
227.387	34.94
227.621	47.94
227.856	50.94
228.09	39.94
228.324	49.94
228.559	51.94
228.793	46.94
229.027	86.94
229.262	92.94
229.496	126.94
229.73	115.94
229.964	141.94
230.199	103.94
230.433	100.94
230.667	104.94
230.901	99.94
231.136	98.94
231.37	104.94
231.604	113.94
231.838	116.94
232.072	106.94
232.306	100.94
232.541	106.94
232.775	117.94
233.009	111.94
233.243	100.94
233.477	110.94
233.711	98.94
233.945	115.94
234.179	101.94
234.413	94.94
234.647	105.94
234.881	116.94
235.115	105.94
235.349	105.94
235.583	122.94
235.817	102.94
236.051	99.94
236.285	115.94
236.519	108.94
236.753	119.94
236.987	116.94
237.221	156.94
237.455	195.94
237.689	162.94
237.922	124.94
238.156	118.94
238.39	125.94
238.624	107.94
238.858	115.94
239.091	127.94
239.325	117.94
239.559	108.94
239.793	118.94
240.027	113.94
240.26	120.94
240.494	145.94
240.728	131.94
240.961	127.94
241.195	129.94
241.429	122.94
241.662	124.94
241.896	116.94
242.13	110.94
242.363	117.94
242.597	124.94
242.83	124.94
243.064	125.94
243.298	125.94
243.531	120.94
243.765	130.94
243.998	118.94
244.232	114.94
244.465	130.94
244.699	129.94
244.932	115.94
245.166	142.94
245.399	131.94
245.633	127.94
245.866	121.94
246.099	136.94
246.333	129.94
246.566	131.94
246.8	118.94
247.033	135.94
247.266	121.94
247.5	131.94
247.733	137.94
247.966	156.94
248.2	133.94
248.433	136.94
248.666	162.94
248.899	155.94
249.133	172.94
249.366	188.94
249.599	155.94
249.832	163.94
250.066	160.94
250.299	152.94
250.532	146.94
250.765	190.94
250.998	169.94
251.231	194.94
251.465	169.94
251.698	172.94
251.931	177.94
252.164	161.94
252.397	161.94
252.63	185.94
252.863	164.94
253.096	182.94
253.329	195.94
253.562	195.94
253.795	171.94
254.028	198.94
254.261	173.94
254.494	187.94
254.727	206.94
254.96	217.94
255.193	230.94
255.426	198.94
255.659	185.94
255.892	202.94
256.124	196.94
256.357	205.94
256.59	174.94
256.823	180.94
257.056	191.94
257.289	183.94
257.521	187.94
257.754	170.94
257.987	163.94
258.22	180.94
258.452	173.94
258.685	179.94
258.918	175.94
259.151	186.94
259.383	172.94
259.616	180.94
259.849	169.94
260.081	185.94
260.314	216.94
260.547	222.94
260.779	212.94
261.012	201.94
261.244	210.94
261.477	198.94
261.71	199.94
261.942	191.94
262.175	194.94
262.407	187.94
262.64	170.94
262.872	166.94
263.105	184.94
263.337	187.94
263.57	176.94
263.802	173.94
264.035	171.94
264.267	175.94
264.499	174.94
264.732	195.94
264.964	165.94
265.197	189.94
265.429	174.94
265.661	195.94
265.894	188.94
266.126	188.94
266.358	181.94
266.591	194.94
266.823	204.94
267.055	204.94
267.287	203.94
267.52	179.94
267.752	191.94
267.984	190.94
268.216	194.94
268.448	190.94
268.681	195.94
268.913	213.94
269.145	209.94
269.377	222.94
269.609	214.94
269.841	211.94
270.073	229.94
270.306	230.94
270.538	271.94
270.77	243.94
271.002	251.94
271.234	251.94
271.466	235.94
271.698	245.94
271.93	262.94
272.162	266.94
272.394	258.94
272.626	246.94
272.858	245.94
273.09	227.94
273.322	225.94
273.553	209.94
273.785	200.94
274.017	225.94
274.249	215.94
274.481	227.94
274.713	227.94
274.945	215.94
275.176	221.94
275.408	226.94
275.64	231.94
275.872	216.94
276.104	215.94
276.335	222.94
276.567	233.94
276.799	235.94
277.031	253.94
277.262	268.94
277.494	261.94
277.726	244.94
277.957	237.94
278.189	207.94
278.421	235.94
278.652	221.94
278.884	218.94
279.115	213.94
279.347	213.94
279.579	223.94
279.81	217.94
280.042	233.94
280.273	229.94
280.505	221.94
280.736	222.94
280.968	227.94
281.199	196.94
281.431	226.94
281.662	218.94
281.894	228.94
282.125	219.94
282.356	230.94
282.588	264.94
282.819	236.94
283.051	251.94
283.282	236.94
283.513	226.94
283.745	221.94
283.976	233.94
284.207	225.94
284.439	243.94
284.67	241.94
284.901	227.94
285.132	223.94
285.364	243.94
285.595	247.94
285.826	227.94
286.057	219.94
286.288	236.94
286.52	228.94
286.751	224.94
286.982	204.94
287.213	227.94
287.444	236.94
287.675	242.94
287.906	235.94
288.138	255.94
288.369	246.94
288.6	237.94
288.831	249.94
289.062	247.94
289.293	228.94
289.524	235.94
289.755	245.94
289.986	241.94
290.217	236.94
290.448	247.94
290.679	217.94
290.91	246.94
291.141	228.94
291.371	245.94
291.602	237.94
291.833	237.94
292.064	245.94
292.295	230.94
292.526	234.94
292.757	243.94
292.987	233.94
293.218	225.94
293.449	249.94
293.68	234.94
293.91	234.94
294.141	239.94
294.372	232.94
294.603	233.94
294.833	229.94
295.064	233.94
295.295	261.94
295.525	233.94
295.756	257.94
295.987	241.94
296.217	271.94
296.448	295.94
296.679	256.94
296.909	241.94
297.14	244.94
297.37	250.94
297.601	218.94
297.831	238.94
298.062	231.94
298.292	233.94
298.523	242.94
298.753	231.94
298.984	246.94
299.214	251.94
299.445	263.94
299.675	254.94
299.905	262.94
300.136	260.94
300.366	254.94
300.597	275.94
300.827	242.94
301.057	262.94
301.288	271.94
301.518	265.94
301.748	262.94
301.979	276.94
302.209	281.94
302.439	269.94
302.669	275.94
302.9	267.94
303.13	273.94
303.36	275.94
303.59	266.94
303.82	279.94
304.051	278.94
304.281	278.94
304.511	274.94
304.741	239.94
304.971	273.94
305.201	273.94
305.431	285.94
305.661	277.94
305.891	272.94
306.121	275.94
306.352	273.94
306.582	270.94
306.812	270.94
307.042	285.94
307.272	274.94
307.502	273.94
307.731	294.94
307.961	275.94
308.191	273.94
308.421	275.94
308.651	258.94
308.881	274.94
309.111	276.94
309.341	286.94
309.571	300.94
309.8	299.94
310.03	300.94
310.26	313.94
310.49	310.94
310.72	310.94
310.949	333.94
311.179	328.94
311.409	316.94
311.639	308.94
311.868	306.94
312.098	326.94
312.328	325.94
312.557	342.94
312.787	345.94
313.017	345.94
313.246	335.94
313.476	315.94
313.706	302.94
313.935	329.94
314.165	326.94
314.394	317.94
314.624	344.94
314.853	321.94
315.083	307.94
315.312	323.94
315.542	326.94
315.771	323.94
316.001	313.94
316.23	303.94
316.46	319.94
316.689	291.94
316.919	320.94
317.148	311.94
317.377	341.94
317.607	318.94
317.836	313.94
318.065	304.94
318.295	289.94
318.524	305.94
318.753	316.94
318.983	313.94
319.212	310.94
319.441	298.94
319.67	329.94
319.9	332.94
320.129	310.94
320.358	322.94
320.587	337.94
320.816	325.94
321.046	357.94
321.275	345.94
321.504	323.94
321.733	307.94
321.962	365.94
322.191	348.94
322.42	378.94
322.649	359.94
322.878	386.94
323.108	396.94
323.337	391.94
323.566	408.94
323.795	467.94
324.024	521.94
324.253	597.94
324.482	884.94
324.71	1291.94
324.939	1788.94
325.168	1521.94
325.397	813.94
325.626	557.94
325.855	478.94
326.084	439.94
326.313	425.94
326.542	423.94
326.77	479.94
326.999	553.94
327.228	775.94
327.457	1140.94
327.686	1328.94
327.914	870.94
328.143	589.94
328.372	523.94
328.6	495.94
328.829	456.94
329.058	446.94
329.287	476.94
329.515	448.94
329.744	423.94
329.972	433.94
330.201	443.94
330.43	471.94
330.658	499.94
330.887	513.94
331.115	501.94
331.344	430.94
331.572	398.94
331.801	394.94
332.03	403.94
332.258	385.94
332.486	377.94
332.715	357.94
332.943	357.94
333.172	371.94
333.4	364.94
333.629	377.94
333.857	409.94
334.085	394.94
334.314	423.94
334.542	440.94
334.771	445.94
334.999	397.94
335.227	372.94
335.455	358.94
335.684	366.94
335.912	379.94
336.14	358.94
336.369	355.94
336.597	362.94
336.825	370.94
337.053	368.94
337.281	362.94
337.51	357.94
337.738	379.94
337.966	360.94
338.194	363.94
338.422	353.94
338.65	340.94
338.878	353.94
339.106	357.94
339.334	341.94
339.562	342.94
339.79	361.94
340.018	353.94
340.246	329.94
340.474	359.94
340.702	348.94
340.93	351.94
341.158	354.94
341.386	356.94
341.614	341.94
341.842	347.94
342.07	330.94
342.298	337.94
342.526	354.94
342.754	332.94
342.981	342.94
343.209	347.94
343.437	343.94
343.665	364.94
343.893	349.94
344.12	342.94
344.348	333.94
344.576	363.94
344.804	359.94
345.031	378.94
345.259	377.94
345.487	360.94
345.714	361.94
345.942	379.94
346.17	333.94
346.397	340.94
346.625	353.94
346.853	335.94
347.08	354.94
347.308	352.94
347.535	359.94
347.763	355.94
347.99	362.94
348.218	353.94
348.445	361.94
348.673	356.94
348.9	357.94
349.128	341.94
349.355	338.94
349.583	332.94
349.81	333.94
350.037	337.94
350.265	346.94
350.492	317.94
350.72	339.94
350.947	341.94
351.174	355.94
351.402	347.94
351.629	350.94
351.856	349.94
352.083	354.94
352.311	347.94
352.538	358.94
352.765	373.94
352.992	341.94
353.22	354.94
353.447	345.94
353.674	330.94
353.901	336.94
354.128	302.94
354.355	331.94
354.583	329.94
354.81	308.94
355.037	311.94
355.264	313.94
355.491	326.94
355.718	308.94
355.945	315.94
356.172	322.94
356.399	323.94
356.626	302.94
356.853	338.94
357.08	309.94
357.307	327.94
357.534	321.94
357.761	313.94
357.988	338.94
358.215	313.94
358.441	325.94
358.668	318.94
358.895	310.94
359.122	347.94
359.349	329.94
359.576	360.94
359.802	368.94
360.029	377.94
360.256	373.94
360.483	377.94
360.709	359.94
360.936	349.94
361.163	358.94
361.39	329.94
361.616	350.94
361.843	339.94
362.07	339.94
362.296	341.94
362.523	332.94
362.749	365.94
362.976	343.94
363.203	335.94
363.429	341.94
363.656	328.94
363.882	326.94
364.109	318.94
364.335	327.94
364.562	325.94
364.788	329.94
365.015	327.94
365.241	314.94
365.468	332.94
365.694	341.94
365.92	317.94
366.147	319.94
366.373	322.94
366.599	313.94
366.826	317.94
367.052	298.94
367.278	321.94
367.505	320.94
367.731	332.94
367.957	339.94
368.184	321.94
368.41	333.94
368.636	342.94
368.862	343.94
369.089	328.94
369.315	326.94
369.541	336.94
369.767	332.94
369.993	321.94
370.219	321.94
370.445	331.94
370.672	326.94
370.898	314.94
371.124	308.94
371.35	315.94
371.576	315.94
371.802	335.94
372.028	336.94
372.254	327.94
372.48	323.94
372.706	308.94
372.932	332.94
373.158	343.94
373.384	337.94
373.61	338.94
373.835	335.94
374.061	318.94
374.287	336.94
374.513	327.94
374.739	334.94
374.965	343.94
375.191	336.94
375.416	324.94
375.642	340.94
375.868	339.94
376.094	316.94
376.319	340.94
376.545	321.94
376.771	309.94
376.997	324.94
377.222	316.94
377.448	320.94
377.674	323.94
377.899	317.94
378.125	325.94
378.35	320.94
378.576	340.94
378.802	311.94
379.027	315.94
379.253	301.94
379.478	331.94
379.704	327.94
379.929	334.94
380.155	310.94
380.38	322.94
380.606	313.94
380.831	330.94
381.057	331.94
381.282	310.94
381.507	317.94
381.733	320.94
381.958	301.94
382.184	315.94
382.409	316.94
382.634	335.94
382.86	330.94
383.085	342.94
383.31	336.94
383.535	313.94
383.761	338.94
383.986	310.94
384.211	333.94
384.436	324.94
384.662	333.94
384.887	356.94
385.112	337.94
385.337	333.94
385.562	338.94
385.787	349.94
386.013	358.94
386.238	364.94
386.463	347.94
386.688	358.94
386.913	352.94
387.138	317.94
387.363	340.94
387.588	345.94
387.813	343.94
388.038	346.94
388.263	331.94
388.488	356.94
388.713	355.94
388.938	353.94
389.163	334.94
389.387	341.94
389.612	349.94
389.837	342.94
390.062	343.94
390.287	340.94
390.512	359.94
390.736	347.94
390.961	333.94
391.186	357.94
391.411	360.94
391.636	352.94
391.86	371.94
392.085	357.94
392.31	345.94
392.534	355.94
392.759	355.94
392.984	369.94
393.208	359.94
393.433	337.94
393.658	356.94
393.882	348.94
394.107	353.94
394.331	366.94
394.556	349.94
394.78	358.94
395.005	361.94
395.229	343.94
395.454	360.94
395.678	362.94
395.903	350.94
396.127	377.94
396.352	399.94
396.576	374.94
396.801	379.94
397.025	379.94
397.249	363.94
397.474	363.94
397.698	371.94
397.922	394.94
398.147	407.94
398.371	393.94
398.595	375.94
398.82	395.94
399.044	391.94
399.268	409.94
399.492	413.94
399.717	428.94
399.941	480.94
400.165	480.94
400.389	479.94
400.613	445.94
400.837	422.94
401.062	410.94
401.286	405.94
401.51	405.94
401.734	396.94
401.958	398.94
402.182	407.94
402.406	409.94
402.63	410.94
402.854	410.94
403.078	404.94
403.302	399.94
403.526	418.94
403.75	410.94
403.974	390.94
404.198	393.94
404.422	407.94
404.645	401.94
404.869	423.94
405.093	457.94
405.317	457.94
405.541	476.94
405.765	436.94
405.988	422.94
406.212	458.94
406.436	458.94
406.66	472.94
406.883	458.94
407.107	455.94
407.331	486.94
407.555	524.94
407.778	520.94
408.002	461.94
408.226	440.94
408.449	453.94
408.673	448.94
408.896	476.94
409.12	490.94
409.344	473.94
409.567	401.94
409.791	417.94
410.014	416.94
410.238	423.94
410.461	418.94
410.685	397.94
410.908	409.94
411.132	469.94
411.355	482.94
411.578	451.94
411.802	419.94
412.025	403.94
412.249	411.94
412.472	428.94
412.695	439.94
412.919	470.94
413.142	395.94
413.365	392.94
413.589	414.94
413.812	391.94
414.035	388.94
414.258	369.94
414.482	391.94
414.705	388.94
414.928	374.94
415.151	377.94
415.374	383.94
415.597	385.94
415.821	384.94
416.044	377.94
416.267	384.94
416.49	371.94
416.713	383.94
416.936	397.94
417.159	393.94
417.382	387.94
417.605	390.94
417.828	402.94
418.051	405.94
418.274	390.94
418.497	373.94
418.72	409.94
418.943	378.94
419.166	393.94
419.389	396.94
419.611	424.94
419.834	414.94
420.057	409.94
420.28	388.94
420.503	394.94
420.726	397.94
420.948	406.94
421.171	442.94
421.394	435.94
421.617	413.94
421.839	421.94
422.062	378.94
422.285	410.94
422.507	462.94
422.73	511.94
422.953	489.94
423.175	437.94
423.398	435.94
423.621	421.94
423.843	441.94
424.066	454.94
424.288	430.94
424.511	440.94
424.733	499.94
424.956	546.94
425.178	521.94
425.401	504.94
425.623	532.94
425.846	453.94
426.068	427.94
426.291	425.94
426.513	448.94
426.735	441.94
426.958	469.94
427.18	531.94
427.402	633.94
427.625	689.94
427.847	617.94
428.069	515.94
428.292	476.94
428.514	449.94
428.736	438.94
428.958	437.94
429.181	426.94
429.403	385.94
429.625	410.94
429.847	457.94
430.069	483.94
430.292	472.94
430.514	418.94
430.736	397.94
430.958	411.94
431.18	421.94
431.402	382.94
431.624	391.94
431.846	396.94
432.068	379.94
432.29	393.94
432.512	381.94
432.734	382.94
432.956	392.94
433.178	417.94
433.4	414.94
433.622	407.94
433.844	400.94
434.066	403.94
434.287	392.94
434.509	383.94
434.731	400.94
434.953	422.94
435.175	415.94
435.397	430.94
435.618	437.94
435.84	475.94
436.062	541.94
436.284	599.94
436.505	506.94
436.727	449.94
436.949	426.94
437.17	418.94
437.392	420.94
437.614	423.94
437.835	460.94
438.057	525.94
438.278	601.94
438.5	594.94
438.721	618.94
438.943	601.94
439.165	482.94
439.386	426.94
439.608	426.94
439.829	456.94
440.05	498.94
440.272	499.94
440.493	463.94
440.715	418.94
440.936	421.94
441.158	405.94
441.379	429.94
441.6	450.94
441.822	431.94
442.043	478.94
442.264	534.94
442.486	545.94
442.707	490.94
442.928	474.94
443.149	455.94
443.371	453.94
443.592	504.94
443.813	575.94
444.034	636.94
444.255	494.94
444.476	469.94
444.698	445.94
444.919	434.94
445.14	534.94
445.361	466.94
445.582	489.94
445.803	521.94
446.024	607.94
446.245	617.94
446.466	545.94
446.687	476.94
446.908	435.94
447.129	428.94
447.35	427.94
447.571	414.94
447.792	419.94
448.013	413.94
448.234	427.94
448.455	463.94
448.675	562.94
448.896	615.94
449.117	554.94
449.338	537.94
449.559	585.94
449.779	646.94
450	553.94
450.221	427.94
450.442	420.94
450.662	402.94
450.883	436.94
451.104	405.94
451.324	430.94
451.545	393.94
451.766	379.94
451.986	362.94
452.207	371.94
452.428	369.94
452.648	363.94
452.869	370.94
453.089	376.94
453.31	396.94
453.53	396.94
453.751	383.94
453.971	385.94
454.192	392.94
454.412	385.94
454.633	354.94
454.853	356.94
455.073	379.94
455.294	389.94
455.514	431.94
455.734	426.94
455.955	353.94
456.175	371.94
456.395	355.94
456.616	342.94
456.836	336.94
457.056	344.94
457.276	345.94
457.497	348.94
457.717	354.94
457.937	348.94
458.157	355.94
458.377	346.94
458.598	365.94
458.818	449.94
459.038	507.94
459.258	502.94
459.478	422.94
459.698	398.94
459.918	369.94
460.138	381.94
460.358	404.94
460.578	387.94
460.798	362.94
461.018	400.94
461.238	397.94
461.458	382.94
461.678	389.94
461.898	400.94
462.118	389.94
462.338	401.94
462.558	402.94
462.777	403.94
462.997	384.94
463.217	399.94
463.437	418.94
463.657	406.94
463.876	407.94
464.096	418.94
464.316	396.94
464.536	417.94
464.755	406.94
464.975	432.94
465.195	475.94
465.414	535.94
465.634	471.94
465.854	428.94
466.073	411.94
466.293	386.94
466.512	387.94
466.732	386.94
466.951	374.94
467.171	364.94
467.391	379.94
467.61	419.94
467.829	383.94
468.049	379.94
468.268	366.94
468.488	379.94
468.707	372.94
468.927	370.94
469.146	364.94
469.365	369.94
469.585	361.94
469.804	345.94
470.023	394.94
470.243	387.94
470.462	370.94
470.681	383.94
470.901	392.94
471.12	390.94
471.339	379.94
471.558	403.94
471.777	361.94
471.997	358.94
472.216	402.94
472.435	410.94
472.654	396.94
472.873	386.94
473.092	383.94
473.311	381.94
473.53	393.94
473.749	395.94
473.968	426.94
474.187	476.94
474.406	491.94
474.625	440.94
474.844	402.94
475.063	391.94
475.282	402.94
475.501	385.94
475.72	411.94
475.939	403.94
476.158	382.94
476.377	393.94
476.596	407.94
476.814	410.94
477.033	393.94
477.252	418.94
477.471	403.94
477.69	422.94
477.908	405.94
478.127	409.94
478.346	411.94
478.564	424.94
478.783	441.94
479.002	419.94
479.22	435.94
479.439	435.94
479.658	466.94
479.876	454.94
480.095	457.94
480.313	492.94
480.532	486.94
480.751	490.94
480.969	481.94
481.188	532.94
481.406	554.94
481.624	500.94
481.843	453.94
482.061	476.94
482.28	452.94
482.498	451.94
482.717	451.94
482.935	475.94
483.153	451.94
483.372	471.94
483.59	444.94
483.808	450.94
484.027	452.94
484.245	438.94
484.463	455.94
484.681	455.94
484.9	470.94
485.118	453.94
485.336	465.94
485.554	485.94
485.772	494.94
485.99	464.94
486.209	470.94
486.427	471.94
486.645	481.94
486.863	463.94
487.081	498.94
487.299	499.94
487.517	491.94
487.735	485.94
487.953	477.94
488.171	512.94
488.389	479.94
488.607	497.94
488.825	483.94
489.043	478.94
489.261	515.94
489.479	498.94
489.696	502.94
489.914	474.94
490.132	494.94
490.35	501.94
490.568	495.94
490.786	507.94
491.003	529.94
491.221	531.94
491.439	547.94
491.657	548.94
491.874	565.94
492.092	544.94
492.31	559.94
492.527	558.94
492.745	550.94
492.963	563.94
493.18	566.94
493.398	567.94
493.615	571.94
493.833	562.94
494.05	565.94
494.268	586.94
494.485	571.94
494.703	578.94
494.92	568.94
495.138	541.94
495.355	552.94
495.573	553.94
495.79	583.94
496.008	571.94
496.225	554.94
496.442	574.94
496.66	581.94
496.877	591.94
497.094	558.94
497.312	571.94
497.529	555.94
497.746	586.94
497.963	584.94
498.181	602.94
498.398	623.94
498.615	615.94
498.832	619.94
499.049	638.94
499.267	651.94
499.484	687.94
499.701	654.94
499.918	692.94
500.135	701.94
500.352	740.94
500.569	734.94
500.786	771.94
501.003	738.94
501.22	716.94
501.437	710.94
501.654	698.94
501.871	699.94
502.088	681.94
