Data from 1965.PennyLincolnUp.Lamp.En5.5.200Scan.071719.P1._HRD10591_14-09-20-911.txt Node
Date: Thu Jul 18 14:09:20 EDT 2019
User: cochatt
Spectrometer: HR+D1059
Trigger mode: 1
Integration Time (sec): 1.000000E-1
Scans to average: 1
Electric dark correction enabled: true
Nonlinearity correction enabled: false
Boxcar width: 0
XAxis mode: Wavelengths
Number of Pixels in Spectrum: 2048
>>>>>Begin Spectral Data<<<<<
223.165	-25.25
223.4	-25.25
223.635	-25.25
223.869	-18.25
224.104	-10.25
224.338	-7.25
224.573	-9.25
224.808	-21.25
225.042	-13.25
225.277	8.75
225.511	-11.25
225.746	6.75
225.98	6.75
226.215	4.75
226.449	14.75
226.683	19.75
226.918	24.75
227.152	29.75
227.387	29.75
227.621	44.75
227.856	46.75
228.09	46.75
228.324	60.75
228.559	53.75
228.793	60.75
229.027	90.75
229.262	96.75
229.496	100.75
229.73	124.75
229.964	149.75
230.199	118.75
230.433	116.75
230.667	111.75
230.901	100.75
231.136	112.75
231.37	107.75
231.604	116.75
231.838	106.75
232.072	108.75
232.306	110.75
232.541	107.75
232.775	105.75
233.009	111.75
233.243	94.75
233.477	96.75
233.711	114.75
233.945	106.75
234.179	107.75
234.413	98.75
234.647	92.75
234.881	107.75
235.115	104.75
235.349	104.75
235.583	105.75
235.817	106.75
236.051	134.75
236.285	107.75
236.519	117.75
236.753	121.75
236.987	152.75
237.221	172.75
237.455	200.75
237.689	166.75
237.922	131.75
238.156	124.75
238.39	112.75
238.624	117.75
238.858	119.75
239.091	124.75
239.325	107.75
239.559	110.75
239.793	120.75
240.027	116.75
240.26	146.75
240.494	154.75
240.728	141.75
240.961	140.75
241.195	131.75
241.429	141.75
241.662	122.75
241.896	122.75
242.13	131.75
242.363	113.75
242.597	122.75
242.83	133.75
243.064	124.75
243.298	124.75
243.531	134.75
243.765	115.75
243.998	112.75
244.232	122.75
244.465	124.75
244.699	124.75
244.932	132.75
245.166	116.75
245.399	122.75
245.633	129.75
245.866	136.75
246.099	147.75
246.333	150.75
246.566	134.75
246.8	128.75
247.033	139.75
247.266	139.75
247.5	160.75
247.733	147.75
247.966	148.75
248.2	163.75
248.433	154.75
248.666	144.75
248.899	181.75
249.133	186.75
249.366	186.75
249.599	201.75
249.832	158.75
250.066	164.75
250.299	158.75
250.532	186.75
250.765	167.75
250.998	202.75
251.231	199.75
251.465	210.75
251.698	196.75
251.931	189.75
252.164	189.75
252.397	173.75
252.63	181.75
252.863	192.75
253.096	193.75
253.329	191.75
253.562	205.75
253.795	200.75
254.028	190.75
254.261	201.75
254.494	213.75
254.727	223.75
254.96	244.75
255.193	238.75
255.426	204.75
255.659	196.75
255.892	210.75
256.124	200.75
256.357	204.75
256.59	202.75
256.823	204.75
257.056	189.75
257.289	183.75
257.521	189.75
257.754	191.75
257.987	182.75
258.22	197.75
258.452	179.75
258.685	194.75
258.918	181.75
259.151	189.75
259.383	202.75
259.616	200.75
259.849	185.75
260.081	212.75
260.314	213.75
260.547	218.75
260.779	219.75
261.012	205.75
261.244	196.75
261.477	220.75
261.71	194.75
261.942	196.75
262.175	224.75
262.407	200.75
262.64	196.75
262.872	187.75
263.105	195.75
263.337	171.75
263.57	187.75
263.802	189.75
264.035	200.75
264.267	191.75
264.499	192.75
264.732	200.75
264.964	185.75
265.197	199.75
265.429	194.75
265.661	185.75
265.894	190.75
266.126	193.75
266.358	200.75
266.591	193.75
266.823	201.75
267.055	187.75
267.287	202.75
267.52	212.75
267.752	194.75
267.984	201.75
268.216	197.75
268.448	201.75
268.681	203.75
268.913	204.75
269.145	217.75
269.377	242.75
269.609	239.75
269.841	233.75
270.073	236.75
270.306	253.75
270.538	269.75
270.77	292.75
271.002	264.75
271.234	257.75
271.466	274.75
271.698	272.75
271.93	270.75
272.162	274.75
272.394	278.75
272.626	273.75
272.858	254.75
273.09	246.75
273.322	247.75
273.553	229.75
273.785	228.75
274.017	218.75
274.249	232.75
274.481	211.75
274.713	232.75
274.945	235.75
275.176	248.75
275.408	246.75
275.64	233.75
275.872	240.75
276.104	234.75
276.335	229.75
276.567	239.75
276.799	250.75
277.031	260.75
277.262	283.75
277.494	285.75
277.726	270.75
277.957	243.75
278.189	240.75
278.421	241.75
278.652	241.75
278.884	240.75
279.115	234.75
279.347	223.75
279.579	226.75
279.81	231.75
280.042	217.75
280.273	240.75
280.505	227.75
280.736	225.75
280.968	245.75
281.199	245.75
281.431	246.75
281.662	232.75
281.894	221.75
282.125	245.75
282.356	245.75
282.588	260.75
282.819	272.75
283.051	231.75
283.282	235.75
283.513	226.75
283.745	227.75
283.976	245.75
284.207	232.75
284.439	251.75
284.67	238.75
284.901	231.75
285.132	246.75
285.364	224.75
285.595	241.75
285.826	233.75
286.057	242.75
286.288	247.75
286.52	239.75
286.751	253.75
286.982	232.75
287.213	237.75
287.444	245.75
287.675	248.75
287.906	246.75
288.138	264.75
288.369	256.75
288.6	262.75
288.831	266.75
289.062	245.75
289.293	248.75
289.524	240.75
289.755	244.75
289.986	243.75
290.217	253.75
290.448	242.75
290.679	235.75
290.91	234.75
291.141	257.75
291.371	263.75
291.602	232.75
291.833	229.75
292.064	246.75
292.295	247.75
292.526	248.75
292.757	246.75
292.987	226.75
293.218	242.75
293.449	257.75
293.68	245.75
293.91	245.75
294.141	245.75
294.372	231.75
294.603	233.75
294.833	262.75
295.064	235.75
295.295	264.75
295.525	241.75
295.756	245.75
295.987	264.75
296.217	267.75
296.448	291.75
296.679	268.75
296.909	256.75
297.14	244.75
297.37	268.75
297.601	263.75
297.831	273.75
298.062	250.75
298.292	253.75
298.523	256.75
298.753	274.75
298.984	248.75
299.214	253.75
299.445	267.75
299.675	270.75
299.905	278.75
300.136	281.75
300.366	282.75
300.597	267.75
300.827	269.75
301.057	292.75
301.288	284.75
301.518	266.75
301.748	270.75
301.979	261.75
302.209	285.75
302.439	273.75
302.669	275.75
302.9	286.75
303.13	284.75
303.36	281.75
303.59	269.75
303.82	312.75
304.051	282.75
304.281	282.75
304.511	266.75
304.741	270.75
304.971	274.75
305.201	288.75
305.431	280.75
305.661	274.75
305.891	285.75
306.121	281.75
306.352	280.75
306.582	304.75
306.812	283.75
307.042	273.75
307.272	279.75
307.502	293.75
307.731	292.75
307.961	289.75
308.191	285.75
308.421	299.75
308.651	294.75
308.881	286.75
309.111	298.75
309.341	314.75
309.571	307.75
309.8	316.75
310.03	316.75
310.26	316.75
310.49	327.75
310.72	341.75
310.949	360.75
311.179	340.75
311.409	317.75
311.639	331.75
311.868	313.75
312.098	343.75
312.328	345.75
312.557	361.75
312.787	373.75
313.017	374.75
313.246	340.75
313.476	341.75
313.706	337.75
313.935	343.75
314.165	338.75
314.394	343.75
314.624	348.75
314.853	341.75
315.083	351.75
315.312	328.75
315.542	329.75
315.771	344.75
316.001	312.75
316.23	305.75
316.46	324.75
316.689	297.75
316.919	334.75
317.148	322.75
317.377	335.75
317.607	346.75
317.836	341.75
318.065	325.75
318.295	308.75
318.524	349.75
318.753	331.75
318.983	325.75
319.212	331.75
319.441	326.75
319.67	355.75
319.9	327.75
320.129	341.75
320.358	334.75
320.587	356.75
320.816	349.75
321.046	362.75
321.275	348.75
321.504	353.75
321.733	354.75
321.962	376.75
322.191	378.75
322.42	384.75
322.649	400.75
322.878	417.75
323.108	422.75
323.337	450.75
323.566	438.75
323.795	503.75
324.024	587.75
324.253	685.75
324.482	990.75
324.71	1497.75
324.939	2124.75
325.168	1720.75
325.397	904.75
325.626	629.75
325.855	522.75
326.084	473.75
326.313	459.75
326.542	486.75
326.77	530.75
326.999	615.75
327.228	876.75
327.457	1317.75
327.686	1506.75
327.914	993.75
328.143	682.75
328.372	579.75
328.6	564.75
328.829	535.75
329.058	542.75
329.287	544.75
329.515	498.75
329.744	467.75
329.972	472.75
330.201	513.75
330.43	523.75
330.658	572.75
330.887	581.75
331.115	523.75
331.344	466.75
331.572	444.75
331.801	424.75
332.03	443.75
332.258	440.75
332.486	374.75
332.715	393.75
332.943	398.75
333.172	404.75
333.4	390.75
333.629	404.75
333.857	411.75
334.085	412.75
334.314	458.75
334.542	486.75
334.771	498.75
334.999	447.75
335.227	405.75
335.455	384.75
335.684	376.75
335.912	389.75
336.14	384.75
336.369	382.75
336.597	387.75
336.825	404.75
337.053	391.75
337.281	380.75
337.51	388.75
337.738	382.75
337.966	387.75
338.194	406.75
338.422	384.75
338.65	380.75
338.878	378.75
339.106	375.75
339.334	370.75
339.562	373.75
339.79	358.75
340.018	370.75
340.246	384.75
340.474	373.75
340.702	359.75
340.93	378.75
341.158	380.75
341.386	359.75
341.614	375.75
341.842	398.75
342.07	384.75
342.298	362.75
342.526	348.75
342.754	374.75
342.981	339.75
343.209	350.75
343.437	365.75
343.665	373.75
343.893	365.75
344.12	370.75
344.348	371.75
344.576	349.75
344.804	375.75
345.031	372.75
345.259	395.75
345.487	399.75
345.714	382.75
345.942	374.75
346.17	375.75
346.397	360.75
346.625	352.75
346.853	365.75
347.08	377.75
347.308	376.75
347.535	372.75
347.763	369.75
347.99	388.75
348.218	376.75
348.445	380.75
348.673	370.75
348.9	360.75
349.128	346.75
349.355	341.75
349.583	357.75
349.81	347.75
350.037	332.75
350.265	357.75
350.492	333.75
350.72	341.75
350.947	332.75
351.174	373.75
351.402	350.75
351.629	374.75
351.856	378.75
352.083	379.75
352.311	378.75
352.538	390.75
352.765	377.75
352.992	380.75
353.22	373.75
353.447	343.75
353.674	333.75
353.901	364.75
354.128	339.75
354.355	339.75
354.583	355.75
354.81	323.75
355.037	325.75
355.264	327.75
355.491	329.75
355.718	341.75
355.945	345.75
356.172	352.75
356.399	352.75
356.626	341.75
356.853	341.75
357.08	362.75
357.307	320.75
357.534	350.75
357.761	312.75
357.988	329.75
358.215	339.75
358.441	338.75
358.668	345.75
358.895	328.75
359.122	341.75
359.349	332.75
359.576	360.75
359.802	384.75
360.029	417.75
360.256	436.75
360.483	397.75
360.709	360.75
360.936	360.75
361.163	363.75
361.39	381.75
361.616	360.75
361.843	361.75
362.07	366.75
362.296	381.75
362.523	363.75
362.749	334.75
362.976	380.75
363.203	334.75
363.429	337.75
363.656	347.75
363.882	350.75
364.109	342.75
364.335	347.75
364.562	347.75
364.788	341.75
365.015	363.75
365.241	354.75
365.468	354.75
365.694	334.75
365.92	357.75
366.147	348.75
366.373	341.75
366.599	345.75
366.826	325.75
367.052	330.75
367.278	352.75
367.505	331.75
367.731	335.75
367.957	332.75
368.184	341.75
368.41	355.75
368.636	346.75
368.862	365.75
369.089	330.75
369.315	356.75
369.541	342.75
369.767	340.75
369.993	361.75
370.219	357.75
370.445	338.75
370.672	334.75
370.898	346.75
371.124	326.75
371.35	317.75
371.576	331.75
371.802	336.75
372.028	307.75
372.254	316.75
372.48	339.75
372.706	334.75
372.932	346.75
373.158	349.75
373.384	339.75
373.61	337.75
373.835	338.75
374.061	332.75
374.287	318.75
374.513	343.75
374.739	349.75
374.965	338.75
375.191	347.75
375.416	350.75
375.642	339.75
375.868	341.75
376.094	346.75
376.319	327.75
376.545	337.75
376.771	334.75
376.997	318.75
377.222	323.75
377.448	331.75
377.674	327.75
377.899	318.75
378.125	325.75
378.35	317.75
378.576	325.75
378.802	338.75
379.027	338.75
379.253	349.75
379.478	323.75
379.704	339.75
379.929	325.75
380.155	325.75
380.38	332.75
380.606	338.75
380.831	349.75
381.057	342.75
381.282	342.75
381.507	339.75
381.733	338.75
381.958	320.75
382.184	340.75
382.409	348.75
382.634	350.75
382.86	351.75
383.085	344.75
383.31	348.75
383.535	334.75
383.761	337.75
383.986	347.75
384.211	335.75
384.436	347.75
384.662	333.75
384.887	358.75
385.112	361.75
385.337	363.75
385.562	358.75
385.787	358.75
386.013	371.75
386.238	366.75
386.463	378.75
386.688	352.75
386.913	348.75
387.138	360.75
387.363	341.75
387.588	357.75
387.813	339.75
388.038	368.75
388.263	369.75
388.488	351.75
388.713	362.75
388.938	375.75
389.163	360.75
389.387	362.75
389.612	358.75
389.837	367.75
390.062	368.75
390.287	353.75
390.512	369.75
390.736	357.75
390.961	356.75
391.186	346.75
391.411	355.75
391.636	386.75
391.86	361.75
392.085	363.75
392.31	379.75
392.534	372.75
392.759	353.75
392.984	374.75
393.208	365.75
393.433	374.75
393.658	362.75
393.882	374.75
394.107	363.75
394.331	365.75
394.556	352.75
394.78	365.75
395.005	369.75
395.229	370.75
395.454	371.75
395.678	364.75
395.903	372.75
396.127	386.75
396.352	371.75
396.576	361.75
396.801	368.75
397.025	371.75
397.249	373.75
397.474	381.75
397.698	362.75
397.922	384.75
398.147	394.75
398.371	403.75
398.595	418.75
398.82	406.75
399.044	409.75
399.268	414.75
399.492	420.75
399.717	437.75
399.941	469.75
400.165	491.75
400.389	489.75
400.613	459.75
400.837	443.75
401.062	433.75
401.286	426.75
401.51	408.75
401.734	403.75
401.958	398.75
402.182	408.75
402.406	418.75
402.63	422.75
402.854	408.75
403.078	430.75
403.302	435.75
403.526	446.75
403.75	441.75
403.974	406.75
404.198	397.75
404.422	426.75
404.645	419.75
404.869	453.75
405.093	444.75
405.317	472.75
405.541	521.75
405.765	485.75
405.988	446.75
406.212	458.75
406.436	486.75
406.66	486.75
406.883	472.75
407.107	487.75
407.331	510.75
407.555	550.75
407.778	535.75
408.002	513.75
408.226	489.75
408.449	446.75
408.673	473.75
408.896	470.75
409.12	513.75
409.344	494.75
409.567	414.75
409.791	437.75
410.014	436.75
410.238	401.75
410.461	449.75
410.685	433.75
410.908	423.75
411.132	475.75
411.355	480.75
411.578	483.75
411.802	416.75
412.025	431.75
412.249	442.75
412.472	456.75
412.695	490.75
412.919	461.75
413.142	430.75
413.365	406.75
413.589	416.75
413.812	416.75
414.035	432.75
414.258	407.75
414.482	390.75
414.705	400.75
414.928	392.75
415.151	394.75
415.374	392.75
415.597	401.75
415.821	398.75
416.044	408.75
416.267	414.75
416.49	389.75
416.713	392.75
416.936	411.75
417.159	416.75
417.382	401.75
417.605	395.75
417.828	425.75
418.051	430.75
418.274	409.75
418.497	402.75
418.72	397.75
418.943	401.75
419.166	394.75
419.389	415.75
419.611	416.75
419.834	427.75
420.057	437.75
420.28	410.75
420.503	406.75
420.726	426.75
420.948	436.75
421.171	456.75
421.394	471.75
421.617	444.75
421.839	415.75
422.062	412.75
422.285	421.75
422.507	459.75
422.73	535.75
422.953	514.75
423.175	425.75
423.398	436.75
423.621	449.75
423.843	438.75
424.066	439.75
424.288	457.75
424.511	465.75
424.733	496.75
424.956	566.75
425.178	558.75
425.401	551.75
425.623	558.75
425.846	515.75
426.068	461.75
426.291	454.75
426.513	453.75
426.735	473.75
426.958	508.75
427.18	573.75
427.402	681.75
427.625	740.75
427.847	660.75
428.069	576.75
428.292	499.75
428.514	463.75
428.736	436.75
428.958	429.75
429.181	434.75
429.403	438.75
429.625	440.75
429.847	473.75
430.069	521.75
430.292	527.75
430.514	445.75
430.736	430.75
430.958	385.75
431.18	413.75
431.402	400.75
431.624	396.75
431.846	373.75
432.068	388.75
432.29	417.75
432.512	406.75
432.734	401.75
432.956	408.75
433.178	416.75
433.4	433.75
433.622	426.75
433.844	416.75
434.066	420.75
434.287	394.75
434.509	399.75
434.731	394.75
434.953	410.75
435.175	426.75
435.397	458.75
435.618	464.75
435.84	512.75
436.062	570.75
436.284	643.75
436.505	525.75
436.727	485.75
436.949	446.75
437.17	439.75
437.392	420.75
437.614	438.75
437.835	458.75
438.057	558.75
438.278	629.75
438.5	640.75
438.721	679.75
438.943	654.75
439.165	533.75
439.386	487.75
439.608	479.75
439.829	482.75
440.05	517.75
440.272	532.75
440.493	495.75
440.715	441.75
440.936	441.75
441.158	427.75
441.379	449.75
441.6	444.75
441.822	470.75
442.043	511.75
442.264	564.75
442.486	586.75
442.707	503.75
442.928	483.75
443.149	486.75
443.371	523.75
443.592	535.75
443.813	601.75
444.034	643.75
444.255	568.75
444.476	472.75
444.698	458.75
444.919	460.75
445.14	561.75
445.361	526.75
445.582	520.75
445.803	580.75
446.024	651.75
446.245	650.75
446.466	599.75
446.687	512.75
446.908	470.75
447.129	430.75
447.35	452.75
447.571	440.75
447.792	449.75
448.013	463.75
448.234	449.75
448.455	500.75
448.675	612.75
448.896	670.75
449.117	584.75
449.338	596.75
449.559	645.75
449.779	701.75
450	566.75
450.221	469.75
450.442	445.75
450.662	429.75
450.883	471.75
451.104	451.75
451.324	427.75
451.545	425.75
451.766	409.75
451.986	415.75
452.207	394.75
452.428	393.75
452.648	395.75
452.869	397.75
453.089	412.75
453.31	424.75
453.53	401.75
453.751	389.75
453.971	416.75
454.192	426.75
454.412	399.75
454.633	396.75
454.853	411.75
455.073	391.75
455.294	442.75
455.514	471.75
455.734	456.75
455.955	388.75
456.175	379.75
456.395	388.75
456.616	361.75
456.836	364.75
457.056	369.75
457.276	367.75
457.497	375.75
457.717	365.75
457.937	371.75
458.157	369.75
458.377	389.75
458.598	420.75
458.818	437.75
459.038	550.75
459.258	543.75
459.478	448.75
459.698	425.75
459.918	406.75
460.138	395.75
460.358	408.75
460.578	406.75
460.798	416.75
461.018	379.75
461.238	406.75
461.458	409.75
461.678	400.75
461.898	416.75
462.118	396.75
462.338	409.75
462.558	407.75
462.777	419.75
462.997	413.75
463.217	416.75
463.437	432.75
463.657	436.75
463.876	422.75
464.096	419.75
464.316	420.75
464.536	446.75
464.755	443.75
464.975	443.75
465.195	479.75
465.414	535.75
465.634	489.75
465.854	440.75
466.073	433.75
466.293	418.75
466.512	409.75
466.732	412.75
466.951	390.75
467.171	384.75
467.391	396.75
467.61	392.75
467.829	409.75
468.049	408.75
468.268	400.75
468.488	401.75
468.707	395.75
468.927	393.75
469.146	381.75
469.365	397.75
469.585	385.75
469.804	393.75
470.023	411.75
470.243	403.75
470.462	414.75
470.681	440.75
470.901	419.75
471.12	397.75
471.339	402.75
471.558	417.75
471.777	398.75
471.997	409.75
472.216	406.75
472.435	419.75
472.654	450.75
472.873	418.75
473.092	403.75
473.311	405.75
473.53	394.75
473.749	418.75
473.968	457.75
474.187	538.75
474.406	572.75
474.625	467.75
474.844	437.75
475.063	398.75
475.282	403.75
475.501	416.75
475.72	420.75
475.939	397.75
476.158	404.75
476.377	416.75
476.596	409.75
476.814	432.75
477.033	402.75
477.252	418.75
477.471	422.75
477.69	458.75
477.908	435.75
478.127	423.75
478.346	432.75
478.564	440.75
478.783	437.75
479.002	436.75
479.22	442.75
479.439	471.75
479.658	466.75
479.876	499.75
480.095	497.75
480.313	516.75
480.532	481.75
480.751	481.75
480.969	488.75
481.188	571.75
481.406	609.75
481.624	522.75
481.843	505.75
482.061	498.75
482.28	478.75
482.498	485.75
482.717	469.75
482.935	472.75
483.153	465.75
483.372	491.75
483.59	474.75
483.808	480.75
484.027	481.75
484.245	453.75
484.463	468.75
484.681	472.75
484.9	487.75
485.118	489.75
485.336	488.75
485.554	475.75
485.772	466.75
485.99	482.75
486.209	475.75
486.427	508.75
486.645	512.75
486.863	536.75
487.081	509.75
487.299	498.75
487.517	500.75
487.735	508.75
487.953	468.75
488.171	518.75
488.389	506.75
488.607	509.75
488.825	514.75
489.043	490.75
489.261	517.75
489.479	516.75
489.696	521.75
489.914	512.75
490.132	522.75
490.35	533.75
490.568	551.75
490.786	550.75
491.003	549.75
491.221	572.75
491.439	562.75
491.657	568.75
491.874	554.75
492.092	580.75
492.31	587.75
492.527	580.75
492.745	602.75
492.963	581.75
493.18	603.75
493.398	599.75
493.615	581.75
493.833	601.75
494.05	598.75
494.268	602.75
494.485	589.75
494.703	601.75
494.92	596.75
495.138	603.75
495.355	609.75
495.573	579.75
495.79	604.75
496.008	590.75
496.225	589.75
496.442	626.75
496.66	588.75
496.877	595.75
497.094	613.75
497.312	601.75
497.529	596.75
497.746	606.75
497.963	633.75
498.181	660.75
498.398	664.75
498.615	632.75
498.832	664.75
499.049	690.75
499.267	690.75
499.484	685.75
499.701	699.75
499.918	716.75
500.135	737.75
500.352	755.75
500.569	756.75
500.786	792.75
501.003	744.75
501.22	745.75
501.437	740.75
501.654	724.75
501.871	737.75
502.088	708.75
