Data from 1965.PennyLincolnUp.Lamp.En5.5.200Scan.071719.P1._HRD10591_14-09-44-912.txt Node
Date: Thu Jul 18 14:09:44 EDT 2019
User: cochatt
Spectrometer: HR+D1059
Trigger mode: 1
Integration Time (sec): 1.000000E-1
Scans to average: 1
Electric dark correction enabled: true
Nonlinearity correction enabled: false
Boxcar width: 0
XAxis mode: Wavelengths
Number of Pixels in Spectrum: 2048
>>>>>Begin Spectral Data<<<<<
223.165	-24.56
223.4	-24.56
223.635	-24.56
223.869	-14.56
224.104	2.44
224.338	-18.56
224.573	-8.56
224.808	-17.56
225.042	-8.56
225.277	5.44
225.511	-9.56
225.746	3.44
225.98	13.44
226.215	5.44
226.449	14.44
226.683	6.44
226.918	21.44
227.152	29.44
227.387	34.44
227.621	36.44
227.856	50.44
228.09	54.44
228.324	41.44
228.559	57.44
228.793	59.44
229.027	79.44
229.262	101.44
229.496	101.44
229.73	140.44
229.964	150.44
230.199	130.44
230.433	103.44
230.667	101.44
230.901	108.44
231.136	113.44
231.37	104.44
231.604	100.44
231.838	107.44
232.072	120.44
232.306	116.44
232.541	104.44
232.775	99.44
233.009	103.44
233.243	103.44
233.477	115.44
233.711	121.44
233.945	125.44
234.179	115.44
234.413	109.44
234.647	110.44
234.881	106.44
235.115	96.44
235.349	103.44
235.583	126.44
235.817	114.44
236.051	127.44
236.285	120.44
236.519	115.44
236.753	128.44
236.987	123.44
237.221	161.44
237.455	217.44
237.689	176.44
237.922	121.44
238.156	128.44
238.39	119.44
238.624	119.44
238.858	118.44
239.091	116.44
239.325	113.44
239.559	116.44
239.793	119.44
240.027	120.44
240.26	125.44
240.494	157.44
240.728	134.44
240.961	133.44
241.195	127.44
241.429	130.44
241.662	124.44
241.896	118.44
242.13	130.44
242.363	137.44
242.597	129.44
242.83	129.44
243.064	126.44
243.298	128.44
243.531	126.44
243.765	111.44
243.998	117.44
244.232	131.44
244.465	139.44
244.699	139.44
244.932	130.44
245.166	123.44
245.399	137.44
245.633	130.44
245.866	129.44
246.099	137.44
246.333	134.44
246.566	145.44
246.8	146.44
247.033	154.44
247.266	137.44
247.5	139.44
247.733	155.44
247.966	161.44
248.2	157.44
248.433	141.44
248.666	154.44
248.899	169.44
249.133	187.44
249.366	180.44
249.599	179.44
249.832	172.44
250.066	160.44
250.299	161.44
250.532	174.44
250.765	181.44
250.998	195.44
251.231	201.44
251.465	182.44
251.698	192.44
251.931	198.44
252.164	171.44
252.397	189.44
252.63	184.44
252.863	190.44
253.096	206.44
253.329	195.44
253.562	191.44
253.795	212.44
254.028	202.44
254.261	195.44
254.494	215.44
254.727	225.44
254.96	253.44
255.193	228.44
255.426	235.44
255.659	209.44
255.892	217.44
256.124	205.44
256.357	220.44
256.59	203.44
256.823	200.44
257.056	194.44
257.289	177.44
257.521	184.44
257.754	210.44
257.987	191.44
258.22	173.44
258.452	193.44
258.685	182.44
258.918	179.44
259.151	201.44
259.383	196.44
259.616	199.44
259.849	181.44
260.081	218.44
260.314	236.44
260.547	234.44
260.779	228.44
261.012	213.44
261.244	210.44
261.477	210.44
261.71	202.44
261.942	227.44
262.175	223.44
262.407	192.44
262.64	207.44
262.872	196.44
263.105	174.44
263.337	208.44
263.57	186.44
263.802	204.44
264.035	195.44
264.267	198.44
264.499	183.44
264.732	169.44
264.964	174.44
265.197	187.44
265.429	194.44
265.661	195.44
265.894	171.44
266.126	198.44
266.358	182.44
266.591	194.44
266.823	195.44
267.055	193.44
267.287	194.44
267.52	189.44
267.752	202.44
267.984	193.44
268.216	211.44
268.448	217.44
268.681	208.44
268.913	218.44
269.145	219.44
269.377	248.44
269.609	247.44
269.841	233.44
270.073	255.44
270.306	279.44
270.538	270.44
270.77	287.44
271.002	276.44
271.234	288.44
271.466	281.44
271.698	289.44
271.93	276.44
272.162	275.44
272.394	277.44
272.626	261.44
272.858	271.44
273.09	251.44
273.322	225.44
273.553	231.44
273.785	242.44
274.017	240.44
274.249	241.44
274.481	251.44
274.713	232.44
274.945	232.44
275.176	233.44
275.408	238.44
275.64	227.44
275.872	230.44
276.104	228.44
276.335	246.44
276.567	257.44
276.799	264.44
277.031	290.44
277.262	298.44
277.494	293.44
277.726	278.44
277.957	266.44
278.189	256.44
278.421	234.44
278.652	242.44
278.884	266.44
279.115	243.44
279.347	234.44
279.579	231.44
279.81	221.44
280.042	251.44
280.273	239.44
280.505	229.44
280.736	242.44
280.968	254.44
281.199	234.44
281.431	251.44
281.662	237.44
281.894	226.44
282.125	266.44
282.356	269.44
282.588	297.44
282.819	286.44
283.051	257.44
283.282	229.44
283.513	247.44
283.745	224.44
283.976	257.44
284.207	269.44
284.439	238.44
284.67	257.44
284.901	239.44
285.132	235.44
285.364	244.44
285.595	246.44
285.826	253.44
286.057	257.44
286.288	238.44
286.52	253.44
286.751	256.44
286.982	252.44
287.213	264.44
287.444	258.44
287.675	257.44
287.906	267.44
288.138	255.44
288.369	262.44
288.6	269.44
288.831	269.44
289.062	247.44
289.293	258.44
289.524	254.44
289.755	262.44
289.986	258.44
290.217	252.44
290.448	247.44
290.679	254.44
290.91	250.44
291.141	258.44
291.371	246.44
291.602	234.44
291.833	241.44
292.064	259.44
292.295	272.44
292.526	244.44
292.757	233.44
292.987	261.44
293.218	245.44
293.449	266.44
293.68	255.44
293.91	263.44
294.141	257.44
294.372	237.44
294.603	258.44
294.833	260.44
295.064	253.44
295.295	269.44
295.525	260.44
295.756	260.44
295.987	273.44
296.217	301.44
296.448	294.44
296.679	267.44
296.909	268.44
297.14	277.44
297.37	277.44
297.601	260.44
297.831	258.44
298.062	266.44
298.292	271.44
298.523	261.44
298.753	281.44
298.984	257.44
299.214	260.44
299.445	274.44
299.675	287.44
299.905	278.44
300.136	282.44
300.366	280.44
300.597	292.44
300.827	291.44
301.057	269.44
301.288	287.44
301.518	294.44
301.748	274.44
301.979	302.44
302.209	292.44
302.439	269.44
302.669	280.44
302.9	301.44
303.13	278.44
303.36	305.44
303.59	285.44
303.82	307.44
304.051	293.44
304.281	305.44
304.511	290.44
304.741	303.44
304.971	280.44
305.201	295.44
305.431	290.44
305.661	285.44
305.891	290.44
306.121	300.44
306.352	295.44
306.582	302.44
306.812	289.44
307.042	293.44
307.272	301.44
307.502	285.44
307.731	288.44
307.961	324.44
308.191	298.44
308.421	305.44
308.651	316.44
308.881	285.44
309.111	308.44
309.341	311.44
309.571	323.44
309.8	338.44
310.03	349.44
310.26	323.44
310.49	348.44
310.72	352.44
310.949	353.44
311.179	353.44
311.409	342.44
311.639	343.44
311.868	350.44
312.098	334.44
312.328	340.44
312.557	362.44
312.787	384.44
313.017	364.44
313.246	378.44
313.476	345.44
313.706	341.44
313.935	347.44
314.165	348.44
314.394	350.44
314.624	370.44
314.853	357.44
315.083	353.44
315.312	345.44
315.542	342.44
315.771	329.44
316.001	330.44
316.23	332.44
316.46	339.44
316.689	332.44
316.919	334.44
317.148	357.44
317.377	355.44
317.607	341.44
317.836	354.44
318.065	355.44
318.295	342.44
318.524	330.44
318.753	341.44
318.983	339.44
319.212	350.44
319.441	343.44
319.67	345.44
319.9	333.44
320.129	339.44
320.358	345.44
320.587	330.44
320.816	351.44
321.046	360.44
321.275	388.44
321.504	369.44
321.733	378.44
321.962	353.44
322.191	393.44
322.42	398.44
322.649	399.44
322.878	420.44
323.108	451.44
323.337	472.44
323.566	478.44
323.795	519.44
324.024	545.44
324.253	692.44
324.482	1011.44
324.71	1545.44
324.939	2090.44
325.168	1802.44
325.397	925.44
325.626	629.44
325.855	521.44
326.084	497.44
326.313	468.44
326.542	462.44
326.77	519.44
326.999	628.44
327.228	898.44
327.457	1314.44
327.686	1566.44
327.914	1020.44
328.143	711.44
328.372	585.44
328.6	561.44
328.829	550.44
329.058	572.44
329.287	587.44
329.515	529.44
329.744	486.44
329.972	489.44
330.201	509.44
330.43	543.44
330.658	580.44
330.887	618.44
331.115	570.44
331.344	490.44
331.572	476.44
331.801	461.44
332.03	456.44
332.258	425.44
332.486	409.44
332.715	410.44
332.943	423.44
333.172	416.44
333.4	414.44
333.629	427.44
333.857	441.44
334.085	424.44
334.314	463.44
334.542	477.44
334.771	506.44
334.999	460.44
335.227	415.44
335.455	413.44
335.684	396.44
335.912	386.44
336.14	378.44
336.369	400.44
336.597	394.44
336.825	397.44
337.053	401.44
337.281	383.44
337.51	382.44
337.738	396.44
337.966	407.44
338.194	422.44
338.422	395.44
338.65	373.44
338.878	387.44
339.106	372.44
339.334	373.44
339.562	381.44
339.79	366.44
340.018	383.44
340.246	378.44
340.474	392.44
340.702	372.44
340.93	386.44
341.158	394.44
341.386	379.44
341.614	401.44
341.842	384.44
342.07	377.44
342.298	352.44
342.526	379.44
342.754	391.44
342.981	375.44
343.209	374.44
343.437	380.44
343.665	367.44
343.893	377.44
344.12	373.44
344.348	381.44
344.576	375.44
344.804	394.44
345.031	403.44
345.259	429.44
345.487	423.44
345.714	392.44
345.942	387.44
346.17	388.44
346.397	380.44
346.625	371.44
346.853	387.44
347.08	363.44
347.308	394.44
347.535	375.44
347.763	410.44
347.99	402.44
348.218	379.44
348.445	389.44
348.673	398.44
348.9	381.44
349.128	363.44
349.355	357.44
349.583	340.44
349.81	354.44
350.037	349.44
350.265	364.44
350.492	353.44
350.72	369.44
350.947	375.44
351.174	371.44
351.402	370.44
351.629	382.44
351.856	383.44
352.083	387.44
352.311	394.44
352.538	401.44
352.765	391.44
352.992	381.44
353.22	369.44
353.447	381.44
353.674	358.44
353.901	359.44
354.128	369.44
354.355	342.44
354.583	352.44
354.81	345.44
355.037	341.44
355.264	339.44
355.491	333.44
355.718	334.44
355.945	344.44
356.172	328.44
356.399	330.44
356.626	354.44
356.853	338.44
357.08	347.44
357.307	341.44
357.534	327.44
357.761	344.44
357.988	341.44
358.215	341.44
358.441	359.44
358.668	351.44
358.895	350.44
359.122	343.44
359.349	393.44
359.576	361.44
359.802	412.44
360.029	428.44
360.256	441.44
360.483	425.44
360.709	382.44
360.936	398.44
361.163	374.44
361.39	369.44
361.616	369.44
361.843	372.44
362.07	374.44
362.296	363.44
362.523	385.44
362.749	366.44
362.976	361.44
363.203	369.44
363.429	356.44
363.656	355.44
363.882	362.44
364.109	346.44
364.335	353.44
364.562	358.44
364.788	340.44
365.015	365.44
365.241	343.44
365.468	355.44
365.694	350.44
365.92	350.44
366.147	344.44
366.373	344.44
366.599	365.44
366.826	359.44
367.052	343.44
367.278	364.44
367.505	369.44
367.731	354.44
367.957	359.44
368.184	365.44
368.41	354.44
368.636	381.44
368.862	363.44
369.089	365.44
369.315	376.44
369.541	374.44
369.767	363.44
369.993	362.44
370.219	344.44
370.445	341.44
370.672	345.44
370.898	360.44
371.124	335.44
371.35	333.44
371.576	357.44
371.802	351.44
372.028	341.44
372.254	351.44
372.48	334.44
372.706	354.44
372.932	340.44
373.158	350.44
373.384	351.44
373.61	335.44
373.835	353.44
374.061	350.44
374.287	369.44
374.513	357.44
374.739	353.44
374.965	326.44
375.191	357.44
375.416	355.44
375.642	352.44
375.868	335.44
376.094	360.44
376.319	339.44
376.545	348.44
376.771	337.44
376.997	355.44
377.222	351.44
377.448	334.44
377.674	340.44
377.899	329.44
378.125	329.44
378.35	336.44
378.576	333.44
378.802	330.44
379.027	342.44
379.253	337.44
379.478	332.44
379.704	342.44
379.929	323.44
380.155	354.44
380.38	355.44
380.606	351.44
380.831	331.44
381.057	330.44
381.282	366.44
381.507	382.44
381.733	343.44
381.958	339.44
382.184	369.44
382.409	348.44
382.634	363.44
382.86	358.44
383.085	347.44
383.31	378.44
383.535	346.44
383.761	351.44
383.986	369.44
384.211	361.44
384.436	368.44
384.662	362.44
384.887	349.44
385.112	371.44
385.337	374.44
385.562	381.44
385.787	363.44
386.013	379.44
386.238	389.44
386.463	358.44
386.688	351.44
386.913	361.44
387.138	367.44
387.363	351.44
387.588	399.44
387.813	371.44
388.038	356.44
388.263	382.44
388.488	389.44
388.713	355.44
388.938	365.44
389.163	381.44
389.387	382.44
389.612	377.44
389.837	387.44
390.062	358.44
390.287	371.44
390.512	365.44
390.736	370.44
390.961	371.44
391.186	362.44
391.411	361.44
391.636	384.44
391.86	381.44
392.085	374.44
392.31	383.44
392.534	370.44
392.759	377.44
392.984	371.44
393.208	361.44
393.433	358.44
393.658	372.44
393.882	366.44
394.107	363.44
394.331	378.44
394.556	383.44
394.78	376.44
395.005	356.44
395.229	381.44
395.454	371.44
395.678	391.44
395.903	406.44
396.127	422.44
396.352	404.44
396.576	400.44
396.801	400.44
397.025	419.44
397.249	401.44
397.474	390.44
397.698	408.44
397.922	399.44
398.147	401.44
398.371	417.44
398.595	407.44
398.82	423.44
399.044	424.44
399.268	445.44
399.492	439.44
399.717	472.44
399.941	474.44
400.165	498.44
400.389	513.44
400.613	471.44
400.837	435.44
401.062	426.44
401.286	427.44
401.51	424.44
401.734	429.44
401.958	439.44
402.182	449.44
402.406	430.44
402.63	471.44
402.854	450.44
403.078	422.44
403.302	424.44
403.526	462.44
403.75	445.44
403.974	437.44
404.198	434.44
404.422	435.44
404.645	422.44
404.869	446.44
405.093	481.44
405.317	505.44
405.541	550.44
405.765	482.44
405.988	466.44
406.212	461.44
406.436	485.44
406.66	498.44
406.883	492.44
407.107	478.44
407.331	548.44
407.555	585.44
407.778	602.44
408.002	547.44
408.226	494.44
408.449	466.44
408.673	470.44
408.896	517.44
409.12	529.44
409.344	515.44
409.567	449.44
409.791	468.44
410.014	460.44
410.238	438.44
410.461	454.44
410.685	450.44
410.908	457.44
411.132	493.44
411.355	519.44
411.578	470.44
411.802	448.44
412.025	443.44
412.249	451.44
412.472	463.44
412.695	504.44
412.919	489.44
413.142	457.44
413.365	453.44
413.589	434.44
413.812	419.44
414.035	428.44
414.258	426.44
414.482	413.44
414.705	404.44
414.928	412.44
415.151	427.44
415.374	406.44
415.597	403.44
415.821	401.44
416.044	417.44
416.267	425.44
416.49	440.44
416.713	398.44
416.936	401.44
417.159	409.44
417.382	423.44
417.605	423.44
417.828	432.44
418.051	438.44
418.274	444.44
418.497	397.44
418.72	401.44
418.943	413.44
419.166	417.44
419.389	465.44
419.611	435.44
419.834	450.44
420.057	436.44
420.28	435.44
420.503	435.44
420.726	456.44
420.948	446.44
421.171	497.44
421.394	505.44
421.617	441.44
421.839	435.44
422.062	453.44
422.285	445.44
422.507	479.44
422.73	554.44
422.953	532.44
423.175	482.44
423.398	461.44
423.621	439.44
423.843	481.44
424.066	484.44
424.288	468.44
424.511	484.44
424.733	521.44
424.956	569.44
425.178	573.44
425.401	559.44
425.623	584.44
425.846	491.44
426.068	485.44
426.291	461.44
426.513	469.44
426.735	486.44
426.958	533.44
427.18	591.44
427.402	697.44
427.625	757.44
427.847	707.44
428.069	597.44
428.292	515.44
428.514	483.44
428.736	470.44
428.958	457.44
429.181	435.44
429.403	447.44
429.625	454.44
429.847	490.44
430.069	542.44
430.292	525.44
430.514	466.44
430.736	419.44
430.958	445.44
431.18	433.44
431.402	408.44
431.624	399.44
431.846	419.44
432.068	401.44
432.29	427.44
432.512	422.44
432.734	417.44
432.956	405.44
433.178	436.44
433.4	441.44
433.622	409.44
433.844	415.44
434.066	418.44
434.287	418.44
434.509	414.44
434.731	438.44
434.953	448.44
435.175	441.44
435.397	454.44
435.618	468.44
435.84	517.44
436.062	619.44
436.284	634.44
436.505	551.44
436.727	499.44
436.949	477.44
437.17	437.44
437.392	452.44
437.614	461.44
437.835	492.44
438.057	581.44
438.278	656.44
438.5	657.44
438.721	708.44
438.943	659.44
439.165	565.44
439.386	497.44
439.608	499.44
439.829	514.44
440.05	505.44
440.272	548.44
440.493	525.44
440.715	466.44
440.936	456.44
441.158	449.44
441.379	453.44
441.6	454.44
441.822	485.44
442.043	504.44
442.264	600.44
442.486	612.44
442.707	536.44
442.928	479.44
443.149	504.44
443.371	533.44
443.592	567.44
443.813	645.44
444.034	669.44
444.255	578.44
444.476	479.44
444.698	470.44
444.919	476.44
445.14	597.44
445.361	525.44
445.582	533.44
445.803	582.44
446.024	670.44
446.245	654.44
446.466	608.44
446.687	521.44
446.908	485.44
447.129	477.44
447.35	439.44
447.571	455.44
447.792	439.44
448.013	445.44
448.234	470.44
448.455	491.44
448.675	600.44
448.896	702.44
449.117	606.44
449.338	596.44
449.559	672.44
449.779	728.44
450	594.44
450.221	504.44
450.442	453.44
450.662	415.44
450.883	461.44
451.104	459.44
451.324	456.44
451.545	438.44
451.766	426.44
451.986	403.44
452.207	399.44
452.428	400.44
452.648	400.44
452.869	397.44
453.089	409.44
453.31	415.44
453.53	410.44
453.751	419.44
453.971	403.44
454.192	415.44
454.412	414.44
454.633	422.44
454.853	389.44
455.073	390.44
455.294	431.44
455.514	492.44
455.734	473.44
455.955	394.44
456.175	395.44
456.395	375.44
456.616	363.44
456.836	374.44
457.056	365.44
457.276	373.44
457.497	373.44
457.717	363.44
457.937	381.44
458.157	379.44
458.377	386.44
458.598	413.44
458.818	500.44
459.038	558.44
459.258	545.44
459.478	465.44
459.698	421.44
459.918	433.44
460.138	423.44
460.358	420.44
460.578	435.44
460.798	414.44
461.018	422.44
461.238	415.44
461.458	416.44
461.678	405.44
461.898	429.44
462.118	406.44
462.338	415.44
462.558	426.44
462.777	433.44
462.997	445.44
463.217	460.44
463.437	411.44
463.657	427.44
463.876	415.44
464.096	453.44
464.316	419.44
464.536	434.44
464.755	455.44
464.975	469.44
465.195	522.44
465.414	585.44
465.634	510.44
465.854	476.44
466.073	437.44
466.293	425.44
466.512	411.44
466.732	407.44
466.951	408.44
467.171	403.44
467.391	414.44
467.61	426.44
467.829	439.44
468.049	406.44
468.268	413.44
468.488	406.44
468.707	409.44
468.927	397.44
469.146	397.44
469.365	417.44
469.585	404.44
469.804	421.44
470.023	409.44
470.243	389.44
470.462	423.44
470.681	443.44
470.901	420.44
471.12	415.44
471.339	408.44
471.558	420.44
471.777	407.44
471.997	413.44
472.216	428.44
472.435	466.44
472.654	441.44
472.873	432.44
473.092	398.44
473.311	423.44
473.53	418.44
473.749	433.44
473.968	466.44
474.187	580.44
474.406	560.44
474.625	481.44
474.844	445.44
475.063	429.44
475.282	415.44
475.501	429.44
475.72	422.44
475.939	414.44
476.158	461.44
476.377	423.44
476.596	414.44
476.814	446.44
477.033	452.44
477.252	441.44
477.471	428.44
477.69	451.44
477.908	441.44
478.127	455.44
478.346	449.44
478.564	448.44
478.783	448.44
479.002	452.44
479.22	467.44
479.439	477.44
479.658	515.44
479.876	502.44
480.095	521.44
480.313	545.44
480.532	504.44
480.751	493.44
480.969	534.44
481.188	590.44
481.406	626.44
481.624	533.44
481.843	543.44
482.061	495.44
482.28	515.44
482.498	500.44
482.717	505.44
482.935	475.44
483.153	500.44
483.372	480.44
483.59	489.44
483.808	490.44
484.027	478.44
484.245	473.44
484.463	493.44
484.681	493.44
484.9	494.44
485.118	498.44
485.336	493.44
485.554	511.44
485.772	501.44
485.99	546.44
486.209	496.44
486.427	509.44
486.645	513.44
486.863	543.44
487.081	530.44
487.299	522.44
487.517	531.44
487.735	526.44
487.953	513.44
488.171	508.44
488.389	522.44
488.607	516.44
488.825	550.44
489.043	535.44
489.261	538.44
489.479	533.44
489.696	519.44
489.914	544.44
490.132	545.44
490.35	570.44
490.568	579.44
490.786	573.44
491.003	581.44
491.221	608.44
491.439	590.44
491.657	594.44
491.874	597.44
492.092	601.44
492.31	590.44
492.527	619.44
492.745	618.44
492.963	636.44
493.18	625.44
493.398	608.44
493.615	604.44
493.833	607.44
494.05	597.44
494.268	611.44
494.485	619.44
494.703	596.44
494.92	629.44
495.138	601.44
495.355	608.44
495.573	617.44
495.79	616.44
496.008	620.44
496.225	610.44
496.442	617.44
496.66	634.44
496.877	613.44
497.094	623.44
497.312	620.44
497.529	632.44
497.746	647.44
497.963	663.44
498.181	657.44
498.398	674.44
498.615	651.44
498.832	688.44
499.049	691.44
499.267	702.44
499.484	699.44
499.701	707.44
499.918	753.44
500.135	758.44
500.352	773.44
500.569	778.44
500.786	819.44
501.003	779.44
501.22	762.44
501.437	770.44
501.654	754.44
501.871	750.44
502.088	716.44
