Data from 1965.PennyLincolnUp.Lamp.En5.5.200Scan.071719.P1._HRD10591_14-10-47-912.txt Node
Date: Thu Jul 18 14:10:47 EDT 2019
User: cochatt
Spectrometer: HR+D1059
Trigger mode: 1
Integration Time (sec): 1.000000E-1
Scans to average: 1
Electric dark correction enabled: true
Nonlinearity correction enabled: false
Boxcar width: 0
XAxis mode: Wavelengths
Number of Pixels in Spectrum: 2048
>>>>>Begin Spectral Data<<<<<
223.165	-20.44
223.4	-20.44
223.635	-20.44
223.869	-16.44
224.104	-24.44
224.338	-3.44
224.573	-17.44
224.808	-20.44
225.042	5.56
225.277	-11.44
225.511	4.56
225.746	-6.44
225.98	6.56
226.215	6.56
226.449	11.56
226.683	21.56
226.918	34.56
227.152	29.56
227.387	36.56
227.621	42.56
227.856	33.56
228.09	52.56
228.324	54.56
228.559	57.56
228.793	69.56
229.027	100.56
229.262	97.56
229.496	115.56
229.73	123.56
229.964	160.56
230.199	142.56
230.433	96.56
230.667	100.56
230.901	103.56
231.136	110.56
231.37	104.56
231.604	113.56
231.838	108.56
232.072	100.56
232.306	94.56
232.541	106.56
232.775	127.56
233.009	107.56
233.243	112.56
233.477	114.56
233.711	105.56
233.945	121.56
234.179	108.56
234.413	120.56
234.647	101.56
234.881	109.56
235.115	120.56
235.349	101.56
235.583	121.56
235.817	113.56
236.051	110.56
236.285	125.56
236.519	115.56
236.753	117.56
236.987	148.56
237.221	165.56
237.455	203.56
237.689	163.56
237.922	145.56
238.156	125.56
238.39	94.56
238.624	105.56
238.858	108.56
239.091	127.56
239.325	117.56
239.559	124.56
239.793	123.56
240.027	125.56
240.26	151.56
240.494	142.56
240.728	143.56
240.961	144.56
241.195	140.56
241.429	135.56
241.662	134.56
241.896	131.56
242.13	121.56
242.363	132.56
242.597	119.56
242.83	125.56
243.064	118.56
243.298	125.56
243.531	128.56
243.765	127.56
243.998	129.56
244.232	126.56
244.465	131.56
244.699	132.56
244.932	133.56
245.166	156.56
245.399	131.56
245.633	143.56
245.866	152.56
246.099	133.56
246.333	145.56
246.566	124.56
246.8	145.56
247.033	137.56
247.266	136.56
247.5	146.56
247.733	152.56
247.966	155.56
248.2	143.56
248.433	155.56
248.666	159.56
248.899	181.56
249.133	185.56
249.366	199.56
249.599	172.56
249.832	174.56
250.066	171.56
250.299	175.56
250.532	174.56
250.765	187.56
250.998	209.56
251.231	199.56
251.465	202.56
251.698	176.56
251.931	177.56
252.164	181.56
252.397	189.56
252.63	188.56
252.863	181.56
253.096	208.56
253.329	207.56
253.562	214.56
253.795	191.56
254.028	175.56
254.261	213.56
254.494	223.56
254.727	225.56
254.96	254.56
255.193	240.56
255.426	230.56
255.659	215.56
255.892	214.56
256.124	206.56
256.357	224.56
256.59	208.56
256.823	186.56
257.056	187.56
257.289	179.56
257.521	201.56
257.754	187.56
257.987	199.56
258.22	191.56
258.452	187.56
258.685	175.56
258.918	183.56
259.151	178.56
259.383	190.56
259.616	194.56
259.849	197.56
260.081	228.56
260.314	235.56
260.547	227.56
260.779	216.56
261.012	208.56
261.244	203.56
261.477	208.56
261.71	210.56
261.942	216.56
262.175	204.56
262.407	213.56
262.64	206.56
262.872	204.56
263.105	214.56
263.337	197.56
263.57	188.56
263.802	190.56
264.035	193.56
264.267	162.56
264.499	194.56
264.732	204.56
264.964	199.56
265.197	187.56
265.429	205.56
265.661	191.56
265.894	170.56
266.126	207.56
266.358	204.56
266.591	185.56
266.823	207.56
267.055	195.56
267.287	192.56
267.52	204.56
267.752	212.56
267.984	204.56
268.216	204.56
268.448	200.56
268.681	219.56
268.913	211.56
269.145	236.56
269.377	252.56
269.609	256.56
269.841	230.56
270.073	232.56
270.306	263.56
270.538	308.56
270.77	291.56
271.002	277.56
271.234	264.56
271.466	281.56
271.698	284.56
271.93	286.56
272.162	277.56
272.394	297.56
272.626	270.56
272.858	258.56
273.09	248.56
273.322	245.56
273.553	245.56
273.785	231.56
274.017	247.56
274.249	240.56
274.481	225.56
274.713	236.56
274.945	232.56
275.176	241.56
275.408	243.56
275.64	248.56
275.872	249.56
276.104	240.56
276.335	247.56
276.567	260.56
276.799	259.56
277.031	279.56
277.262	292.56
277.494	286.56
277.726	273.56
277.957	286.56
278.189	282.56
278.421	249.56
278.652	255.56
278.884	245.56
279.115	250.56
279.347	249.56
279.579	213.56
279.81	240.56
280.042	231.56
280.273	219.56
280.505	236.56
280.736	229.56
280.968	246.56
281.199	226.56
281.431	212.56
281.662	233.56
281.894	220.56
282.125	227.56
282.356	260.56
282.588	268.56
282.819	279.56
283.051	251.56
283.282	232.56
283.513	259.56
283.745	247.56
283.976	241.56
284.207	257.56
284.439	249.56
284.67	232.56
284.901	236.56
285.132	238.56
285.364	233.56
285.595	251.56
285.826	249.56
286.057	253.56
286.288	253.56
286.52	236.56
286.751	265.56
286.982	252.56
287.213	254.56
287.444	236.56
287.675	251.56
287.906	261.56
288.138	284.56
288.369	268.56
288.6	265.56
288.831	265.56
289.062	260.56
289.293	246.56
289.524	248.56
289.755	263.56
289.986	255.56
290.217	249.56
290.448	263.56
290.679	266.56
290.91	249.56
291.141	236.56
291.371	247.56
291.602	243.56
291.833	243.56
292.064	257.56
292.295	239.56
292.526	232.56
292.757	247.56
292.987	257.56
293.218	257.56
293.449	265.56
293.68	252.56
293.91	254.56
294.141	255.56
294.372	270.56
294.603	260.56
294.833	263.56
295.064	253.56
295.295	257.56
295.525	272.56
295.756	250.56
295.987	265.56
296.217	279.56
296.448	286.56
296.679	258.56
296.909	251.56
297.14	259.56
297.37	265.56
297.601	261.56
297.831	254.56
298.062	255.56
298.292	252.56
298.523	264.56
298.753	260.56
298.984	270.56
299.214	259.56
299.445	270.56
299.675	276.56
299.905	259.56
300.136	276.56
300.366	269.56
300.597	265.56
300.827	268.56
301.057	268.56
301.288	288.56
301.518	287.56
301.748	268.56
301.979	293.56
302.209	276.56
302.439	276.56
302.669	287.56
302.9	254.56
303.13	283.56
303.36	289.56
303.59	289.56
303.82	299.56
304.051	299.56
304.281	287.56
304.511	286.56
304.741	299.56
304.971	283.56
305.201	278.56
305.431	295.56
305.661	291.56
305.891	276.56
306.121	284.56
306.352	307.56
306.582	299.56
306.812	302.56
307.042	287.56
307.272	280.56
307.502	288.56
307.731	294.56
307.961	317.56
308.191	285.56
308.421	298.56
308.651	295.56
308.881	290.56
309.111	316.56
309.341	317.56
309.571	331.56
309.8	338.56
310.03	331.56
310.26	337.56
310.49	338.56
310.72	363.56
310.949	369.56
311.179	398.56
311.409	349.56
311.639	325.56
311.868	343.56
312.098	337.56
312.328	351.56
312.557	350.56
312.787	380.56
313.017	356.56
313.246	351.56
313.476	329.56
313.706	321.56
313.935	352.56
314.165	364.56
314.394	390.56
314.624	340.56
314.853	353.56
315.083	350.56
315.312	350.56
315.542	337.56
315.771	343.56
316.001	328.56
316.23	343.56
316.46	333.56
316.689	336.56
316.919	341.56
317.148	345.56
317.377	337.56
317.607	333.56
317.836	339.56
318.065	338.56
318.295	339.56
318.524	322.56
318.753	333.56
318.983	329.56
319.212	358.56
319.441	364.56
319.67	346.56
319.9	352.56
320.129	339.56
320.358	352.56
320.587	345.56
320.816	374.56
321.046	376.56
321.275	373.56
321.504	362.56
321.733	373.56
321.962	359.56
322.191	373.56
322.42	397.56
322.649	416.56
322.878	414.56
323.108	444.56
323.337	472.56
323.566	486.56
323.795	514.56
324.024	577.56
324.253	695.56
324.482	1061.56
324.71	1675.56
324.939	2229.56
325.168	1838.56
325.397	989.56
325.626	666.56
325.855	519.56
326.084	519.56
326.313	489.56
326.542	477.56
326.77	543.56
326.999	668.56
327.228	927.56
327.457	1382.56
327.686	1644.56
327.914	1069.56
328.143	728.56
328.372	651.56
328.6	585.56
328.829	555.56
329.058	554.56
329.287	584.56
329.515	524.56
329.744	493.56
329.972	475.56
330.201	513.56
330.43	573.56
330.658	581.56
330.887	617.56
331.115	582.56
331.344	519.56
331.572	472.56
331.801	457.56
332.03	429.56
332.258	418.56
332.486	413.56
332.715	398.56
332.943	412.56
333.172	404.56
333.4	410.56
333.629	406.56
333.857	432.56
334.085	445.56
334.314	461.56
334.542	488.56
334.771	517.56
334.999	460.56
335.227	414.56
335.455	419.56
335.684	409.56
335.912	392.56
336.14	381.56
336.369	392.56
336.597	401.56
336.825	393.56
337.053	393.56
337.281	373.56
337.51	389.56
337.738	383.56
337.966	402.56
338.194	389.56
338.422	391.56
338.65	377.56
338.878	360.56
339.106	378.56
339.334	377.56
339.562	387.56
339.79	363.56
340.018	370.56
340.246	386.56
340.474	398.56
340.702	388.56
340.93	363.56
341.158	373.56
341.386	381.56
341.614	394.56
341.842	391.56
342.07	379.56
342.298	366.56
342.526	377.56
342.754	355.56
342.981	356.56
343.209	358.56
343.437	378.56
343.665	357.56
343.893	373.56
344.12	387.56
344.348	376.56
344.576	361.56
344.804	379.56
345.031	398.56
345.259	395.56
345.487	384.56
345.714	365.56
345.942	356.56
346.17	383.56
346.397	387.56
346.625	373.56
346.853	361.56
347.08	327.56
347.308	364.56
347.535	377.56
347.763	363.56
347.99	406.56
348.218	371.56
348.445	391.56
348.673	395.56
348.9	383.56
349.128	379.56
349.355	357.56
349.583	334.56
349.81	343.56
350.037	345.56
350.265	364.56
350.492	351.56
350.72	348.56
350.947	375.56
351.174	361.56
351.402	383.56
351.629	367.56
351.856	383.56
352.083	383.56
352.311	396.56
352.538	395.56
352.765	390.56
352.992	380.56
353.22	384.56
353.447	357.56
353.674	371.56
353.901	352.56
354.128	342.56
354.355	349.56
354.583	338.56
354.81	351.56
355.037	327.56
355.264	310.56
355.491	327.56
355.718	318.56
355.945	338.56
356.172	346.56
356.399	342.56
356.626	343.56
356.853	311.56
357.08	317.56
357.307	343.56
357.534	332.56
357.761	347.56
357.988	341.56
358.215	337.56
358.441	335.56
358.668	347.56
358.895	359.56
359.122	351.56
359.349	364.56
359.576	384.56
359.802	373.56
360.029	413.56
360.256	440.56
360.483	407.56
360.709	366.56
360.936	377.56
361.163	372.56
361.39	387.56
361.616	386.56
361.843	379.56
362.07	362.56
362.296	367.56
362.523	367.56
362.749	361.56
362.976	341.56
363.203	369.56
363.429	343.56
363.656	358.56
363.882	346.56
364.109	362.56
364.335	362.56
364.562	340.56
364.788	346.56
365.015	355.56
365.241	347.56
365.468	358.56
365.694	373.56
365.92	355.56
366.147	345.56
366.373	339.56
366.599	363.56
366.826	360.56
367.052	351.56
367.278	340.56
367.505	349.56
367.731	325.56
367.957	351.56
368.184	343.56
368.41	344.56
368.636	362.56
368.862	351.56
369.089	352.56
369.315	343.56
369.541	347.56
369.767	350.56
369.993	347.56
370.219	341.56
370.445	342.56
370.672	344.56
370.898	341.56
371.124	334.56
371.35	336.56
371.576	354.56
371.802	351.56
372.028	329.56
372.254	354.56
372.48	327.56
372.706	329.56
372.932	334.56
373.158	333.56
373.384	344.56
373.61	340.56
373.835	352.56
374.061	343.56
374.287	335.56
374.513	341.56
374.739	343.56
374.965	343.56
375.191	336.56
375.416	348.56
375.642	366.56
375.868	359.56
376.094	347.56
376.319	348.56
376.545	334.56
376.771	328.56
376.997	348.56
377.222	347.56
377.448	342.56
377.674	346.56
377.899	330.56
378.125	334.56
378.35	329.56
378.576	341.56
378.802	339.56
379.027	337.56
379.253	332.56
379.478	319.56
379.704	346.56
379.929	317.56
380.155	336.56
380.38	324.56
380.606	329.56
380.831	351.56
381.057	347.56
381.282	337.56
381.507	353.56
381.733	353.56
381.958	337.56
382.184	341.56
382.409	353.56
382.634	345.56
382.86	321.56
383.085	352.56
383.31	344.56
383.535	335.56
383.761	353.56
383.986	351.56
384.211	352.56
384.436	351.56
384.662	357.56
384.887	359.56
385.112	373.56
385.337	345.56
385.562	336.56
385.787	363.56
386.013	370.56
386.238	381.56
386.463	383.56
386.688	385.56
386.913	374.56
387.138	335.56
387.363	371.56
387.588	361.56
387.813	375.56
388.038	355.56
388.263	356.56
388.488	340.56
388.713	376.56
388.938	374.56
389.163	342.56
389.387	366.56
389.612	350.56
389.837	356.56
390.062	345.56
390.287	363.56
390.512	358.56
390.736	349.56
390.961	357.56
391.186	365.56
391.411	364.56
391.636	381.56
391.86	352.56
392.085	365.56
392.31	372.56
392.534	363.56
392.759	378.56
392.984	349.56
393.208	368.56
393.433	380.56
393.658	351.56
393.882	347.56
394.107	367.56
394.331	376.56
394.556	365.56
394.78	366.56
395.005	359.56
395.229	372.56
395.454	376.56
395.678	366.56
395.903	387.56
396.127	394.56
396.352	407.56
396.576	376.56
396.801	387.56
397.025	375.56
397.249	379.56
397.474	399.56
397.698	385.56
397.922	400.56
398.147	426.56
398.371	416.56
398.595	411.56
398.82	397.56
399.044	411.56
399.268	423.56
399.492	421.56
399.717	447.56
399.941	452.56
400.165	500.56
400.389	486.56
400.613	432.56
400.837	425.56
401.062	419.56
401.286	406.56
401.51	415.56
401.734	403.56
401.958	426.56
402.182	407.56
402.406	406.56
402.63	417.56
402.854	418.56
403.078	420.56
403.302	404.56
403.526	428.56
403.75	423.56
403.974	411.56
404.198	407.56
404.422	432.56
404.645	440.56
404.869	445.56
405.093	472.56
405.317	490.56
405.541	528.56
405.765	478.56
405.988	448.56
406.212	455.56
406.436	480.56
406.66	493.56
406.883	481.56
407.107	494.56
407.331	502.56
407.555	564.56
407.778	538.56
408.002	517.56
408.226	479.56
408.449	459.56
408.673	463.56
408.896	512.56
409.12	515.56
409.344	525.56
409.567	476.56
409.791	435.56
410.014	424.56
410.238	405.56
410.461	430.56
410.685	423.56
410.908	429.56
411.132	487.56
411.355	481.56
411.578	470.56
411.802	423.56
412.025	416.56
412.249	440.56
412.472	431.56
412.695	459.56
412.919	464.56
413.142	439.56
413.365	425.56
413.589	418.56
413.812	421.56
414.035	409.56
414.258	416.56
414.482	407.56
414.705	399.56
414.928	393.56
415.151	396.56
415.374	383.56
415.597	391.56
415.821	412.56
416.044	423.56
416.267	413.56
416.49	399.56
416.713	401.56
416.936	428.56
417.159	399.56
417.382	409.56
417.605	410.56
417.828	417.56
418.051	437.56
418.274	419.56
418.497	407.56
418.72	419.56
418.943	394.56
419.166	415.56
419.389	438.56
419.611	429.56
419.834	425.56
420.057	428.56
420.28	411.56
420.503	439.56
420.726	442.56
420.948	452.56
421.171	464.56
421.394	490.56
421.617	436.56
421.839	412.56
422.062	429.56
422.285	438.56
422.507	509.56
422.73	548.56
422.953	535.56
423.175	478.56
423.398	456.56
423.621	465.56
423.843	461.56
424.066	447.56
424.288	446.56
424.511	470.56
424.733	510.56
424.956	596.56
425.178	569.56
425.401	567.56
425.623	566.56
425.846	500.56
426.068	478.56
426.291	449.56
426.513	441.56
426.735	482.56
426.958	515.56
427.18	597.56
427.402	698.56
427.625	776.56
427.847	676.56
428.069	582.56
428.292	533.56
428.514	499.56
428.736	480.56
428.958	457.56
429.181	435.56
429.403	463.56
429.625	453.56
429.847	471.56
430.069	508.56
430.292	507.56
430.514	448.56
430.736	426.56
430.958	419.56
431.18	431.56
431.402	410.56
431.624	405.56
431.846	386.56
432.068	416.56
432.29	416.56
432.512	406.56
432.734	421.56
432.956	402.56
433.178	429.56
433.4	419.56
433.622	411.56
433.844	406.56
434.066	399.56
434.287	397.56
434.509	415.56
434.731	414.56
434.953	427.56
435.175	435.56
435.397	469.56
435.618	469.56
435.84	500.56
436.062	612.56
436.284	628.56
436.505	523.56
436.727	474.56
436.949	465.56
437.17	428.56
437.392	431.56
437.614	446.56
437.835	469.56
438.057	599.56
438.278	638.56
438.5	659.56
438.721	680.56
438.943	672.56
439.165	544.56
439.386	497.56
439.608	494.56
439.829	497.56
440.05	523.56
440.272	564.56
440.493	521.56
440.715	462.56
440.936	451.56
441.158	443.56
441.379	443.56
441.6	454.56
441.822	452.56
442.043	519.56
442.264	551.56
442.486	626.56
442.707	539.56
442.928	471.56
443.149	493.56
443.371	522.56
443.592	542.56
443.813	635.56
444.034	656.56
444.255	555.56
444.476	480.56
444.698	463.56
444.919	477.56
445.14	552.56
445.361	518.56
445.582	517.56
445.803	575.56
446.024	677.56
446.245	684.56
446.466	605.56
446.687	499.56
446.908	493.56
447.129	459.56
447.35	453.56
447.571	443.56
447.792	427.56
448.013	451.56
448.234	454.56
448.455	531.56
448.675	594.56
448.896	682.56
449.117	592.56
449.338	563.56
449.559	636.56
449.779	723.56
450	583.56
450.221	497.56
450.442	461.56
450.662	446.56
450.883	451.56
451.104	455.56
451.324	456.56
451.545	423.56
451.766	417.56
451.986	398.56
452.207	400.56
452.428	398.56
452.648	393.56
452.869	377.56
453.089	437.56
453.31	415.56
453.53	423.56
453.751	405.56
453.971	411.56
454.192	421.56
454.412	422.56
454.633	393.56
454.853	407.56
455.073	388.56
455.294	418.56
455.514	501.56
455.734	446.56
455.955	411.56
456.175	389.56
456.395	371.56
456.616	361.56
456.836	371.56
457.056	363.56
457.276	366.56
457.497	357.56
457.717	366.56
457.937	378.56
458.157	387.56
458.377	411.56
458.598	425.56
458.818	468.56
459.038	561.56
459.258	546.56
459.478	459.56
459.698	432.56
459.918	400.56
460.138	395.56
460.358	397.56
460.578	400.56
460.798	409.56
461.018	411.56
461.238	411.56
461.458	411.56
461.678	400.56
461.898	397.56
462.118	388.56
462.338	397.56
462.558	401.56
462.777	415.56
462.997	409.56
463.217	443.56
463.437	431.56
463.657	425.56
463.876	414.56
464.096	405.56
464.316	432.56
464.536	415.56
464.755	445.56
464.975	444.56
465.195	500.56
465.414	589.56
465.634	501.56
465.854	446.56
466.073	445.56
466.293	420.56
466.512	411.56
466.732	430.56
466.951	420.56
467.171	385.56
467.391	402.56
467.61	420.56
467.829	422.56
468.049	417.56
468.268	417.56
468.488	411.56
468.707	399.56
468.927	392.56
469.146	385.56
469.365	391.56
469.585	377.56
469.804	391.56
470.023	387.56
470.243	402.56
470.462	420.56
470.681	416.56
470.901	424.56
471.12	384.56
471.339	397.56
471.558	425.56
471.777	397.56
471.997	419.56
472.216	399.56
472.435	469.56
472.654	450.56
472.873	424.56
473.092	421.56
473.311	398.56
473.53	412.56
473.749	401.56
473.968	472.56
474.187	559.56
474.406	565.56
474.625	471.56
474.844	415.56
475.063	400.56
475.282	405.56
475.501	401.56
475.72	432.56
475.939	403.56
476.158	423.56
476.377	409.56
476.596	406.56
476.814	413.56
477.033	430.56
477.252	432.56
477.471	440.56
477.69	420.56
477.908	449.56
478.127	435.56
478.346	436.56
478.564	418.56
478.783	447.56
479.002	462.56
479.22	476.56
479.439	484.56
479.658	480.56
479.876	474.56
480.095	484.56
480.313	519.56
480.532	492.56
480.751	505.56
480.969	508.56
481.188	577.56
481.406	645.56
481.624	560.56
481.843	523.56
482.061	486.56
482.28	482.56
482.498	477.56
482.717	485.56
482.935	468.56
483.153	462.56
483.372	495.56
483.59	475.56
483.808	487.56
484.027	469.56
484.245	478.56
484.463	475.56
484.681	499.56
484.9	487.56
485.118	481.56
485.336	500.56
485.554	501.56
485.772	489.56
485.99	481.56
486.209	499.56
486.427	479.56
486.645	501.56
486.863	517.56
487.081	527.56
487.299	506.56
487.517	496.56
487.735	530.56
487.953	524.56
488.171	520.56
488.389	531.56
488.607	535.56
488.825	533.56
489.043	519.56
489.261	507.56
489.479	515.56
489.696	525.56
489.914	507.56
490.132	533.56
490.35	555.56
490.568	541.56
490.786	572.56
491.003	559.56
491.221	597.56
491.439	583.56
491.657	581.56
491.874	599.56
492.092	604.56
492.31	591.56
492.527	601.56
492.745	609.56
492.963	595.56
493.18	592.56
493.398	614.56
493.615	608.56
493.833	620.56
494.05	624.56
494.268	615.56
494.485	574.56
494.703	603.56
494.92	623.56
495.138	615.56
495.355	606.56
495.573	614.56
495.79	579.56
496.008	609.56
496.225	621.56
496.442	624.56
496.66	616.56
496.877	612.56
497.094	609.56
497.312	605.56
497.529	604.56
497.746	617.56
497.963	616.56
498.181	669.56
498.398	655.56
498.615	661.56
498.832	667.56
499.049	673.56
499.267	672.56
499.484	683.56
499.701	709.56
499.918	726.56
500.135	734.56
500.352	748.56
500.569	772.56
500.786	769.56
501.003	775.56
501.22	767.56
501.437	727.56
501.654	719.56
501.871	773.56
