Data from 1965.PennyLincolnUp.Lamp.En5.5.200Scan.071719.P1._HRD10591_14-09-05-911.txt Node
Date: Thu Jul 18 14:09:05 EDT 2019
User: cochatt
Spectrometer: HR+D1059
Trigger mode: 1
Integration Time (sec): 1.000000E-1
Scans to average: 1
Electric dark correction enabled: true
Nonlinearity correction enabled: false
Boxcar width: 0
XAxis mode: Wavelengths
Number of Pixels in Spectrum: 2048
>>>>>Begin Spectral Data<<<<<
223.165	-14.12
223.4	-14.12
223.635	-14.12
223.869	-29.12
224.104	-16.12
224.338	-17.12
224.573	-10.12
224.808	0.88
225.042	-3.12
225.277	-14.12
225.511	-1.12
225.746	5.88
225.98	1.88
226.215	12.88
226.449	18.88
226.683	19.88
226.918	23.88
227.152	20.88
227.387	35.88
227.621	38.88
227.856	47.88
228.09	36.88
228.324	55.88
228.559	69.88
228.793	64.88
229.027	103.88
229.262	101.88
229.496	105.88
229.73	120.88
229.964	137.88
230.199	120.88
230.433	120.88
230.667	102.88
230.901	113.88
231.136	113.88
231.37	98.88
231.604	110.88
231.838	82.88
232.072	99.88
232.306	110.88
232.541	100.88
232.775	91.88
233.009	100.88
233.243	100.88
233.477	118.88
233.711	113.88
233.945	108.88
234.179	114.88
234.413	113.88
234.647	101.88
234.881	112.88
235.115	125.88
235.349	103.88
235.583	117.88
235.817	107.88
236.051	122.88
236.285	111.88
236.519	124.88
236.753	126.88
236.987	146.88
237.221	189.88
237.455	205.88
237.689	176.88
237.922	121.88
238.156	128.88
238.39	111.88
238.624	121.88
238.858	145.88
239.091	107.88
239.325	120.88
239.559	121.88
239.793	121.88
240.027	119.88
240.26	120.88
240.494	133.88
240.728	140.88
240.961	140.88
241.195	130.88
241.429	126.88
241.662	129.88
241.896	119.88
242.13	119.88
242.363	115.88
242.597	137.88
242.83	126.88
243.064	121.88
243.298	125.88
243.531	126.88
243.765	110.88
243.998	112.88
244.232	149.88
244.465	132.88
244.699	133.88
244.932	135.88
245.166	141.88
245.399	124.88
245.633	139.88
245.866	134.88
246.099	126.88
246.333	137.88
246.566	135.88
246.8	136.88
247.033	135.88
247.266	159.88
247.5	143.88
247.733	164.88
247.966	154.88
248.2	169.88
248.433	151.88
248.666	178.88
248.899	175.88
249.133	175.88
249.366	182.88
249.599	176.88
249.832	167.88
250.066	158.88
250.299	158.88
250.532	174.88
250.765	181.88
250.998	209.88
251.231	204.88
251.465	197.88
251.698	172.88
251.931	167.88
252.164	176.88
252.397	169.88
252.63	185.88
252.863	188.88
253.096	185.88
253.329	198.88
253.562	202.88
253.795	196.88
254.028	199.88
254.261	206.88
254.494	193.88
254.727	210.88
254.96	248.88
255.193	235.88
255.426	227.88
255.659	208.88
255.892	205.88
256.124	203.88
256.357	195.88
256.59	211.88
256.823	212.88
257.056	195.88
257.289	200.88
257.521	175.88
257.754	185.88
257.987	179.88
258.22	178.88
258.452	187.88
258.685	172.88
258.918	205.88
259.151	207.88
259.383	195.88
259.616	202.88
259.849	203.88
260.081	203.88
260.314	227.88
260.547	228.88
260.779	206.88
261.012	214.88
261.244	209.88
261.477	206.88
261.71	205.88
261.942	205.88
262.175	222.88
262.407	223.88
262.64	202.88
262.872	191.88
263.105	181.88
263.337	197.88
263.57	190.88
263.802	191.88
264.035	193.88
264.267	184.88
264.499	173.88
264.732	182.88
264.964	202.88
265.197	193.88
265.429	205.88
265.661	186.88
265.894	195.88
266.126	185.88
266.358	208.88
266.591	208.88
266.823	197.88
267.055	213.88
267.287	199.88
267.52	214.88
267.752	210.88
267.984	209.88
268.216	192.88
268.448	201.88
268.681	208.88
268.913	221.88
269.145	217.88
269.377	229.88
269.609	245.88
269.841	244.88
270.073	237.88
270.306	264.88
270.538	279.88
270.77	279.88
271.002	261.88
271.234	274.88
271.466	253.88
271.698	283.88
271.93	283.88
272.162	279.88
272.394	280.88
272.626	268.88
272.858	254.88
273.09	264.88
273.322	251.88
273.553	237.88
273.785	241.88
274.017	227.88
274.249	228.88
274.481	235.88
274.713	232.88
274.945	248.88
275.176	241.88
275.408	236.88
275.64	223.88
275.872	224.88
276.104	230.88
276.335	238.88
276.567	249.88
276.799	239.88
277.031	290.88
277.262	287.88
277.494	291.88
277.726	239.88
277.957	242.88
278.189	252.88
278.421	241.88
278.652	231.88
278.884	226.88
279.115	238.88
279.347	231.88
279.579	242.88
279.81	228.88
280.042	227.88
280.273	242.88
280.505	248.88
280.736	218.88
280.968	224.88
281.199	239.88
281.431	229.88
281.662	217.88
281.894	241.88
282.125	232.88
282.356	249.88
282.588	270.88
282.819	260.88
283.051	243.88
283.282	235.88
283.513	232.88
283.745	251.88
283.976	237.88
284.207	241.88
284.439	225.88
284.67	238.88
284.901	236.88
285.132	225.88
285.364	235.88
285.595	248.88
285.826	233.88
286.057	243.88
286.288	238.88
286.52	225.88
286.751	234.88
286.982	257.88
287.213	238.88
287.444	232.88
287.675	242.88
287.906	279.88
288.138	281.88
288.369	261.88
288.6	267.88
288.831	242.88
289.062	259.88
289.293	245.88
289.524	247.88
289.755	248.88
289.986	242.88
290.217	257.88
290.448	262.88
290.679	246.88
290.91	251.88
291.141	244.88
291.371	249.88
291.602	238.88
291.833	240.88
292.064	243.88
292.295	245.88
292.526	241.88
292.757	237.88
292.987	241.88
293.218	241.88
293.449	266.88
293.68	265.88
293.91	257.88
294.141	247.88
294.372	241.88
294.603	270.88
294.833	256.88
295.064	252.88
295.295	270.88
295.525	265.88
295.756	253.88
295.987	258.88
296.217	277.88
296.448	301.88
296.679	284.88
296.909	233.88
297.14	263.88
297.37	257.88
297.601	267.88
297.831	269.88
298.062	251.88
298.292	257.88
298.523	240.88
298.753	249.88
298.984	279.88
299.214	265.88
299.445	281.88
299.675	271.88
299.905	256.88
300.136	267.88
300.366	265.88
300.597	270.88
300.827	277.88
301.057	287.88
301.288	284.88
301.518	282.88
301.748	275.88
301.979	269.88
302.209	298.88
302.439	293.88
302.669	272.88
302.9	283.88
303.13	297.88
303.36	279.88
303.59	284.88
303.82	303.88
304.051	309.88
304.281	287.88
304.511	291.88
304.741	291.88
304.971	285.88
305.201	290.88
305.431	279.88
305.661	300.88
305.891	303.88
306.121	297.88
306.352	293.88
306.582	295.88
306.812	287.88
307.042	284.88
307.272	270.88
307.502	298.88
307.731	302.88
307.961	292.88
308.191	285.88
308.421	288.88
308.651	305.88
308.881	293.88
309.111	285.88
309.341	310.88
309.571	315.88
309.8	321.88
310.03	334.88
310.26	337.88
310.49	329.88
310.72	323.88
310.949	351.88
311.179	351.88
311.409	342.88
311.639	343.88
311.868	337.88
312.098	326.88
312.328	339.88
312.557	366.88
312.787	354.88
313.017	371.88
313.246	342.88
313.476	309.88
313.706	329.88
313.935	346.88
314.165	338.88
314.394	374.88
314.624	352.88
314.853	337.88
315.083	303.88
315.312	356.88
315.542	314.88
315.771	315.88
316.001	297.88
316.23	330.88
316.46	341.88
316.689	344.88
316.919	330.88
317.148	334.88
317.377	335.88
317.607	343.88
317.836	340.88
318.065	343.88
318.295	336.88
318.524	316.88
318.753	330.88
318.983	311.88
319.212	340.88
319.441	333.88
319.67	345.88
319.9	333.88
320.129	345.88
320.358	313.88
320.587	326.88
320.816	352.88
321.046	343.88
321.275	350.88
321.504	355.88
321.733	357.88
321.962	358.88
322.191	377.88
322.42	391.88
322.649	393.88
322.878	419.88
323.108	421.88
323.337	425.88
323.566	459.88
323.795	514.88
324.024	557.88
324.253	666.88
324.482	981.88
324.71	1440.88
324.939	1969.88
325.168	1663.88
325.397	894.88
325.626	593.88
325.855	526.88
326.084	478.88
326.313	439.88
326.542	469.88
326.77	506.88
326.999	631.88
327.228	857.88
327.457	1293.88
327.686	1471.88
327.914	973.88
328.143	678.88
328.372	590.88
328.6	543.88
328.829	497.88
329.058	528.88
329.287	539.88
329.515	500.88
329.744	469.88
329.972	464.88
330.201	473.88
330.43	530.88
330.658	569.88
330.887	579.88
331.115	555.88
331.344	475.88
331.572	442.88
331.801	423.88
332.03	441.88
332.258	420.88
332.486	385.88
332.715	387.88
332.943	389.88
333.172	383.88
333.4	409.88
333.629	402.88
333.857	398.88
334.085	457.88
334.314	430.88
334.542	465.88
334.771	475.88
334.999	447.88
335.227	411.88
335.455	391.88
335.684	395.88
335.912	389.88
336.14	381.88
336.369	384.88
336.597	387.88
336.825	391.88
337.053	401.88
337.281	382.88
337.51	373.88
337.738	375.88
337.966	372.88
338.194	392.88
338.422	387.88
338.65	373.88
338.878	375.88
339.106	378.88
339.334	366.88
339.562	360.88
339.79	370.88
340.018	367.88
340.246	369.88
340.474	384.88
340.702	379.88
340.93	365.88
341.158	379.88
341.386	356.88
341.614	377.88
341.842	359.88
342.07	381.88
342.298	371.88
342.526	366.88
342.754	350.88
342.981	351.88
343.209	343.88
343.437	364.88
343.665	360.88
343.893	376.88
344.12	382.88
344.348	357.88
344.576	401.88
344.804	383.88
345.031	398.88
345.259	385.88
345.487	359.88
345.714	363.88
345.942	381.88
346.17	370.88
346.397	362.88
346.625	375.88
346.853	364.88
347.08	371.88
347.308	350.88
347.535	381.88
347.763	383.88
347.99	391.88
348.218	365.88
348.445	397.88
348.673	379.88
348.9	375.88
349.128	368.88
349.355	337.88
349.583	367.88
349.81	349.88
350.037	351.88
350.265	337.88
350.492	338.88
350.72	358.88
350.947	352.88
351.174	357.88
351.402	384.88
351.629	381.88
351.856	381.88
352.083	370.88
352.311	385.88
352.538	383.88
352.765	384.88
352.992	370.88
353.22	353.88
353.447	385.88
353.674	334.88
353.901	343.88
354.128	342.88
354.355	337.88
354.583	348.88
354.81	345.88
355.037	354.88
355.264	353.88
355.491	325.88
355.718	307.88
355.945	333.88
356.172	322.88
356.399	316.88
356.626	318.88
356.853	332.88
357.08	347.88
357.307	325.88
357.534	315.88
357.761	339.88
357.988	347.88
358.215	332.88
358.441	340.88
358.668	333.88
358.895	343.88
359.122	341.88
359.349	364.88
359.576	370.88
359.802	393.88
360.029	405.88
360.256	417.88
360.483	392.88
360.709	366.88
360.936	369.88
361.163	352.88
361.39	364.88
361.616	374.88
361.843	357.88
362.07	364.88
362.296	375.88
362.523	359.88
362.749	367.88
362.976	358.88
363.203	353.88
363.429	349.88
363.656	355.88
363.882	341.88
364.109	345.88
364.335	354.88
364.562	331.88
364.788	356.88
365.015	344.88
365.241	344.88
365.468	346.88
365.694	349.88
365.92	345.88
366.147	373.88
366.373	345.88
366.599	345.88
366.826	334.88
367.052	338.88
367.278	336.88
367.505	338.88
367.731	356.88
367.957	319.88
368.184	341.88
368.41	345.88
368.636	352.88
368.862	384.88
369.089	351.88
369.315	335.88
369.541	340.88
369.767	330.88
369.993	334.88
370.219	354.88
370.445	329.88
370.672	336.88
370.898	335.88
371.124	342.88
371.35	339.88
371.576	329.88
371.802	335.88
372.028	329.88
372.254	339.88
372.48	327.88
372.706	325.88
372.932	323.88
373.158	342.88
373.384	358.88
373.61	345.88
373.835	346.88
374.061	338.88
374.287	335.88
374.513	341.88
374.739	345.88
374.965	348.88
375.191	355.88
375.416	335.88
375.642	343.88
375.868	347.88
376.094	347.88
376.319	324.88
376.545	341.88
376.771	327.88
376.997	345.88
377.222	353.88
377.448	329.88
377.674	326.88
377.899	345.88
378.125	343.88
378.35	325.88
378.576	352.88
378.802	343.88
379.027	341.88
379.253	331.88
379.478	345.88
379.704	332.88
379.929	360.88
380.155	334.88
380.38	326.88
380.606	337.88
380.831	333.88
381.057	334.88
381.282	338.88
381.507	345.88
381.733	351.88
381.958	342.88
382.184	336.88
382.409	339.88
382.634	330.88
382.86	335.88
383.085	335.88
383.31	345.88
383.535	352.88
383.761	347.88
383.986	350.88
384.211	360.88
384.436	350.88
384.662	342.88
384.887	354.88
385.112	372.88
385.337	363.88
385.562	346.88
385.787	341.88
386.013	369.88
386.238	366.88
386.463	378.88
386.688	352.88
386.913	339.88
387.138	354.88
387.363	349.88
387.588	378.88
387.813	359.88
388.038	352.88
388.263	360.88
388.488	357.88
388.713	345.88
388.938	354.88
389.163	351.88
389.387	351.88
389.612	349.88
389.837	356.88
390.062	366.88
390.287	362.88
390.512	368.88
390.736	341.88
390.961	368.88
391.186	353.88
391.411	346.88
391.636	351.88
391.86	360.88
392.085	367.88
392.31	364.88
392.534	368.88
392.759	380.88
392.984	371.88
393.208	377.88
393.433	370.88
393.658	362.88
393.882	362.88
394.107	366.88
394.331	351.88
394.556	357.88
394.78	377.88
395.005	368.88
395.229	378.88
395.454	369.88
395.678	375.88
395.903	391.88
396.127	396.88
396.352	393.88
396.576	359.88
396.801	361.88
397.025	365.88
397.249	375.88
397.474	371.88
397.698	371.88
397.922	383.88
398.147	406.88
398.371	387.88
398.595	398.88
398.82	402.88
399.044	409.88
399.268	439.88
399.492	432.88
399.717	450.88
399.941	458.88
400.165	497.88
400.389	469.88
400.613	445.88
400.837	432.88
401.062	425.88
401.286	400.88
401.51	411.88
401.734	394.88
401.958	413.88
402.182	401.88
402.406	421.88
402.63	423.88
402.854	425.88
403.078	437.88
403.302	433.88
403.526	442.88
403.75	435.88
403.974	425.88
404.198	402.88
404.422	426.88
404.645	445.88
404.869	410.88
405.093	441.88
405.317	462.88
405.541	521.88
405.765	477.88
405.988	450.88
406.212	457.88
406.436	485.88
406.66	487.88
406.883	485.88
407.107	472.88
407.331	507.88
407.555	546.88
407.778	557.88
408.002	499.88
408.226	476.88
408.449	464.88
408.673	474.88
408.896	498.88
409.12	518.88
409.344	511.88
409.567	450.88
409.791	432.88
410.014	443.88
410.238	416.88
410.461	447.88
410.685	424.88
410.908	437.88
411.132	471.88
411.355	496.88
411.578	456.88
411.802	445.88
412.025	440.88
412.249	444.88
412.472	441.88
412.695	480.88
412.919	475.88
413.142	410.88
413.365	402.88
413.589	432.88
413.812	416.88
414.035	409.88
414.258	400.88
414.482	410.88
414.705	405.88
414.928	407.88
415.151	403.88
415.374	399.88
415.597	400.88
415.821	409.88
416.044	418.88
416.267	407.88
416.49	400.88
416.713	409.88
416.936	396.88
417.159	405.88
417.382	406.88
417.605	414.88
417.828	400.88
418.051	423.88
418.274	418.88
418.497	408.88
418.72	391.88
418.943	418.88
419.166	408.88
419.389	433.88
419.611	430.88
419.834	420.88
420.057	460.88
420.28	427.88
420.503	409.88
420.726	425.88
420.948	431.88
421.171	481.88
421.394	481.88
421.617	434.88
421.839	403.88
422.062	424.88
422.285	431.88
422.507	484.88
422.73	554.88
422.953	525.88
423.175	461.88
423.398	453.88
423.621	450.88
423.843	442.88
424.066	450.88
424.288	458.88
424.511	461.88
424.733	515.88
424.956	579.88
425.178	576.88
425.401	553.88
425.623	549.88
425.846	505.88
426.068	462.88
426.291	465.88
426.513	461.88
426.735	458.88
426.958	512.88
427.18	578.88
427.402	660.88
427.625	731.88
427.847	692.88
428.069	575.88
428.292	502.88
428.514	458.88
428.736	443.88
428.958	448.88
429.181	419.88
429.403	451.88
429.625	445.88
429.847	452.88
430.069	511.88
430.292	531.88
430.514	434.88
430.736	420.88
430.958	427.88
431.18	408.88
431.402	385.88
431.624	413.88
431.846	383.88
432.068	400.88
432.29	389.88
432.512	412.88
432.734	405.88
432.956	406.88
433.178	413.88
433.4	430.88
433.622	401.88
433.844	410.88
434.066	401.88
434.287	407.88
434.509	389.88
434.731	407.88
434.953	425.88
435.175	426.88
435.397	422.88
435.618	471.88
435.84	519.88
436.062	559.88
436.284	614.88
436.505	521.88
436.727	455.88
436.949	411.88
437.17	439.88
437.392	415.88
437.614	443.88
437.835	482.88
438.057	572.88
438.278	647.88
438.5	626.88
438.721	711.88
438.943	659.88
439.165	525.88
439.386	492.88
439.608	455.88
439.829	471.88
440.05	499.88
440.272	523.88
440.493	494.88
440.715	478.88
440.936	452.88
441.158	419.88
441.379	412.88
441.6	442.88
441.822	477.88
442.043	501.88
442.264	567.88
442.486	594.88
442.707	516.88
442.928	464.88
443.149	483.88
443.371	484.88
443.592	522.88
443.813	613.88
444.034	649.88
444.255	572.88
444.476	467.88
444.698	446.88
444.919	435.88
445.14	544.88
445.361	532.88
445.582	496.88
445.803	557.88
446.024	649.88
446.245	655.88
446.466	583.88
446.687	501.88
446.908	499.88
447.129	452.88
447.35	415.88
447.571	441.88
447.792	407.88
448.013	447.88
448.234	473.88
448.455	506.88
448.675	591.88
448.896	670.88
449.117	569.88
449.338	569.88
449.559	620.88
449.779	702.88
450	553.88
450.221	466.88
450.442	464.88
450.662	425.88
450.883	441.88
451.104	461.88
451.324	446.88
451.545	426.88
451.766	413.88
451.986	398.88
452.207	409.88
452.428	389.88
452.648	396.88
452.869	382.88
453.089	415.88
453.31	419.88
453.53	413.88
453.751	417.88
453.971	396.88
454.192	415.88
454.412	419.88
454.633	387.88
454.853	387.88
455.073	386.88
455.294	411.88
455.514	458.88
455.734	449.88
455.955	396.88
456.175	377.88
456.395	363.88
456.616	358.88
456.836	373.88
457.056	365.88
457.276	365.88
457.497	380.88
457.717	353.88
457.937	375.88
458.157	389.88
458.377	374.88
458.598	403.88
458.818	465.88
459.038	542.88
459.258	527.88
459.478	451.88
459.698	413.88
459.918	397.88
460.138	399.88
460.358	393.88
460.578	407.88
460.798	393.88
461.018	418.88
461.238	384.88
461.458	380.88
461.678	398.88
461.898	410.88
462.118	409.88
462.338	395.88
462.558	408.88
462.777	419.88
462.997	410.88
463.217	411.88
463.437	433.88
463.657	415.88
463.876	409.88
464.096	419.88
464.316	413.88
464.536	439.88
464.755	427.88
464.975	444.88
465.195	513.88
465.414	568.88
465.634	495.88
465.854	447.88
466.073	436.88
466.293	409.88
466.512	408.88
466.732	393.88
466.951	407.88
467.171	382.88
467.391	409.88
467.61	393.88
467.829	414.88
468.049	420.88
468.268	411.88
468.488	398.88
468.707	399.88
468.927	391.88
469.146	383.88
469.365	394.88
469.585	391.88
469.804	386.88
470.023	417.88
470.243	429.88
470.462	406.88
470.681	425.88
470.901	429.88
471.12	407.88
471.339	416.88
471.558	405.88
471.777	401.88
471.997	397.88
472.216	409.88
472.435	451.88
472.654	423.88
472.873	417.88
473.092	416.88
473.311	399.88
473.53	405.88
473.749	415.88
473.968	447.88
474.187	555.88
474.406	541.88
474.625	455.88
474.844	408.88
475.063	409.88
475.282	391.88
475.501	408.88
475.72	423.88
475.939	418.88
476.158	421.88
476.377	433.88
476.596	407.88
476.814	430.88
477.033	429.88
477.252	431.88
477.471	419.88
477.69	418.88
477.908	422.88
478.127	422.88
478.346	455.88
478.564	447.88
478.783	455.88
479.002	457.88
479.22	461.88
479.439	488.88
479.658	472.88
479.876	480.88
480.095	495.88
480.313	508.88
480.532	506.88
480.751	510.88
480.969	496.88
481.188	571.88
481.406	603.88
481.624	533.88
481.843	495.88
482.061	501.88
482.28	481.88
482.498	478.88
482.717	442.88
482.935	461.88
483.153	485.88
483.372	486.88
483.59	468.88
483.808	462.88
484.027	477.88
484.245	477.88
484.463	471.88
484.681	480.88
484.9	478.88
485.118	490.88
485.336	501.88
485.554	503.88
485.772	501.88
485.99	512.88
486.209	479.88
486.427	486.88
486.645	482.88
486.863	509.88
487.081	501.88
487.299	505.88
487.517	484.88
487.735	519.88
487.953	520.88
488.171	531.88
488.389	501.88
488.607	504.88
488.825	492.88
489.043	510.88
489.261	521.88
489.479	477.88
489.696	491.88
489.914	507.88
490.132	517.88
490.35	518.88
490.568	535.88
490.786	536.88
491.003	533.88
491.221	552.88
491.439	547.88
491.657	552.88
491.874	573.88
492.092	581.88
492.31	562.88
492.527	596.88
492.745	585.88
492.963	594.88
493.18	605.88
493.398	601.88
493.615	590.88
493.833	603.88
494.05	605.88
494.268	590.88
494.485	583.88
494.703	593.88
494.92	594.88
495.138	579.88
495.355	602.88
495.573	615.88
495.79	597.88
496.008	598.88
496.225	613.88
496.442	588.88
496.66	602.88
496.877	578.88
497.094	617.88
497.312	607.88
497.529	606.88
497.746	608.88
497.963	631.88
498.181	638.88
498.398	629.88
498.615	633.88
498.832	641.88
499.049	663.88
499.267	673.88
499.484	673.88
499.701	707.88
499.918	706.88
500.135	729.88
500.352	739.88
500.569	746.88
500.786	754.88
501.003	746.88
501.22	767.88
501.437	735.88
501.654	698.88
501.871	721.88
502.088	719.88
