Data from 1965.PennyLincolnUp.Lamp.En5.5.200Scan.071719.P1._HRD10591_14-10-27-912.txt Node
Date: Thu Jul 18 14:10:27 EDT 2019
User: cochatt
Spectrometer: HR+D1059
Trigger mode: 1
Integration Time (sec): 1.000000E-1
Scans to average: 1
Electric dark correction enabled: true
Nonlinearity correction enabled: false
Boxcar width: 0
XAxis mode: Wavelengths
Number of Pixels in Spectrum: 2048
>>>>>Begin Spectral Data<<<<<
223.165	-24.12
223.4	-24.12
223.635	-24.12
223.869	-24.12
224.104	-18.12
224.338	-24.12
224.573	-8.12
224.808	-1.12
225.042	-6.12
225.277	-9.12
225.511	0.88
225.746	0.88
225.98	16.88
226.215	5.88
226.449	27.88
226.683	13.88
226.918	28.88
227.152	19.88
227.387	36.88
227.621	24.88
227.856	41.88
228.09	32.88
228.324	43.88
228.559	41.88
228.793	68.88
229.027	75.88
229.262	105.88
229.496	95.88
229.73	117.88
229.964	148.88
230.199	124.88
230.433	102.88
230.667	103.88
230.901	100.88
231.136	110.88
231.37	97.88
231.604	99.88
231.838	110.88
232.072	103.88
232.306	90.88
232.541	105.88
232.775	112.88
233.009	103.88
233.243	110.88
233.477	99.88
233.711	102.88
233.945	130.88
234.179	101.88
234.413	98.88
234.647	99.88
234.881	96.88
235.115	113.88
235.349	109.88
235.583	122.88
235.817	102.88
236.051	113.88
236.285	138.88
236.519	123.88
236.753	116.88
236.987	141.88
237.221	184.88
237.455	216.88
237.689	179.88
237.922	140.88
238.156	131.88
238.39	120.88
238.624	112.88
238.858	107.88
239.091	122.88
239.325	123.88
239.559	114.88
239.793	120.88
240.027	118.88
240.26	130.88
240.494	147.88
240.728	147.88
240.961	140.88
241.195	158.88
241.429	131.88
241.662	116.88
241.896	120.88
242.13	122.88
242.363	115.88
242.597	147.88
242.83	128.88
243.064	122.88
243.298	110.88
243.531	119.88
243.765	130.88
243.998	116.88
244.232	113.88
244.465	129.88
244.699	138.88
244.932	140.88
245.166	133.88
245.399	134.88
245.633	122.88
245.866	148.88
246.099	131.88
246.333	146.88
246.566	143.88
246.8	128.88
247.033	145.88
247.266	136.88
247.5	145.88
247.733	148.88
247.966	157.88
248.2	148.88
248.433	130.88
248.666	153.88
248.899	180.88
249.133	187.88
249.366	195.88
249.599	190.88
249.832	166.88
250.066	174.88
250.299	157.88
250.532	166.88
250.765	180.88
250.998	195.88
251.231	195.88
251.465	185.88
251.698	179.88
251.931	191.88
252.164	185.88
252.397	180.88
252.63	184.88
252.863	188.88
253.096	181.88
253.329	210.88
253.562	204.88
253.795	176.88
254.028	214.88
254.261	212.88
254.494	218.88
254.727	238.88
254.96	245.88
255.193	221.88
255.426	217.88
255.659	211.88
255.892	205.88
256.124	186.88
256.357	194.88
256.59	200.88
256.823	193.88
257.056	201.88
257.289	188.88
257.521	179.88
257.754	199.88
257.987	178.88
258.22	187.88
258.452	198.88
258.685	184.88
258.918	178.88
259.151	188.88
259.383	200.88
259.616	186.88
259.849	201.88
260.081	189.88
260.314	212.88
260.547	220.88
260.779	197.88
261.012	196.88
261.244	201.88
261.477	214.88
261.71	208.88
261.942	201.88
262.175	207.88
262.407	185.88
262.64	182.88
262.872	191.88
263.105	173.88
263.337	185.88
263.57	189.88
263.802	190.88
264.035	199.88
264.267	172.88
264.499	185.88
264.732	183.88
264.964	184.88
265.197	186.88
265.429	182.88
265.661	180.88
265.894	183.88
266.126	211.88
266.358	192.88
266.591	194.88
266.823	201.88
267.055	191.88
267.287	198.88
267.52	202.88
267.752	200.88
267.984	191.88
268.216	189.88
268.448	189.88
268.681	199.88
268.913	209.88
269.145	228.88
269.377	231.88
269.609	248.88
269.841	238.88
270.073	230.88
270.306	258.88
270.538	268.88
270.77	295.88
271.002	272.88
271.234	257.88
271.466	263.88
271.698	295.88
271.93	290.88
272.162	269.88
272.394	283.88
272.626	274.88
272.858	266.88
273.09	263.88
273.322	248.88
273.553	229.88
273.785	226.88
274.017	243.88
274.249	238.88
274.481	223.88
274.713	222.88
274.945	229.88
275.176	235.88
275.408	250.88
275.64	232.88
275.872	248.88
276.104	241.88
276.335	233.88
276.567	247.88
276.799	268.88
277.031	282.88
277.262	291.88
277.494	274.88
277.726	262.88
277.957	250.88
278.189	248.88
278.421	238.88
278.652	258.88
278.884	243.88
279.115	240.88
279.347	255.88
279.579	230.88
279.81	223.88
280.042	231.88
280.273	237.88
280.505	240.88
280.736	247.88
280.968	222.88
281.199	220.88
281.431	234.88
281.662	219.88
281.894	239.88
282.125	247.88
282.356	258.88
282.588	283.88
282.819	285.88
283.051	259.88
283.282	252.88
283.513	242.88
283.745	227.88
283.976	247.88
284.207	244.88
284.439	251.88
284.67	252.88
284.901	255.88
285.132	247.88
285.364	251.88
285.595	233.88
285.826	213.88
286.057	256.88
286.288	234.88
286.52	241.88
286.751	235.88
286.982	246.88
287.213	252.88
287.444	240.88
287.675	240.88
287.906	267.88
288.138	268.88
288.369	259.88
288.6	255.88
288.831	261.88
289.062	251.88
289.293	252.88
289.524	243.88
289.755	280.88
289.986	249.88
290.217	240.88
290.448	249.88
290.679	262.88
290.91	259.88
291.141	255.88
291.371	268.88
291.602	244.88
291.833	244.88
292.064	258.88
292.295	235.88
292.526	248.88
292.757	247.88
292.987	266.88
293.218	258.88
293.449	260.88
293.68	232.88
293.91	261.88
294.141	250.88
294.372	258.88
294.603	252.88
294.833	239.88
295.064	266.88
295.295	267.88
295.525	254.88
295.756	258.88
295.987	267.88
296.217	283.88
296.448	302.88
296.679	264.88
296.909	248.88
297.14	274.88
297.37	267.88
297.601	261.88
297.831	274.88
298.062	271.88
298.292	255.88
298.523	283.88
298.753	280.88
298.984	268.88
299.214	283.88
299.445	266.88
299.675	279.88
299.905	272.88
300.136	262.88
300.366	265.88
300.597	280.88
300.827	289.88
301.057	302.88
301.288	288.88
301.518	264.88
301.748	262.88
301.979	294.88
302.209	289.88
302.439	288.88
302.669	284.88
302.9	281.88
303.13	280.88
303.36	280.88
303.59	298.88
303.82	285.88
304.051	294.88
304.281	289.88
304.511	281.88
304.741	291.88
304.971	292.88
305.201	291.88
305.431	288.88
305.661	294.88
305.891	275.88
306.121	269.88
306.352	300.88
306.582	306.88
306.812	294.88
307.042	287.88
307.272	297.88
307.502	297.88
307.731	286.88
307.961	293.88
308.191	283.88
308.421	281.88
308.651	283.88
308.881	292.88
309.111	293.88
309.341	296.88
309.571	307.88
309.8	310.88
310.03	319.88
310.26	314.88
310.49	343.88
310.72	332.88
310.949	376.88
311.179	352.88
311.409	335.88
311.639	332.88
311.868	326.88
312.098	334.88
312.328	342.88
312.557	362.88
312.787	366.88
313.017	350.88
313.246	342.88
313.476	336.88
313.706	341.88
313.935	336.88
314.165	351.88
314.394	360.88
314.624	373.88
314.853	360.88
315.083	363.88
315.312	342.88
315.542	311.88
315.771	326.88
316.001	319.88
316.23	331.88
316.46	326.88
316.689	339.88
316.919	358.88
317.148	352.88
317.377	327.88
317.607	344.88
317.836	336.88
318.065	332.88
318.295	349.88
318.524	324.88
318.753	325.88
318.983	342.88
319.212	342.88
319.441	337.88
319.67	326.88
319.9	357.88
320.129	338.88
320.358	353.88
320.587	347.88
320.816	356.88
321.046	360.88
321.275	367.88
321.504	338.88
321.733	366.88
321.962	380.88
322.191	390.88
322.42	390.88
322.649	390.88
322.878	430.88
323.108	418.88
323.337	457.88
323.566	465.88
323.795	487.88
324.024	565.88
324.253	690.88
324.482	998.88
324.71	1558.88
324.939	2072.88
325.168	1751.88
325.397	918.88
325.626	642.88
325.855	537.88
326.084	482.88
326.313	448.88
326.542	468.88
326.77	530.88
326.999	648.88
327.228	895.88
327.457	1310.88
327.686	1499.88
327.914	1022.88
328.143	696.88
328.372	610.88
328.6	570.88
328.829	531.88
329.058	574.88
329.287	553.88
329.515	505.88
329.744	485.88
329.972	463.88
330.201	507.88
330.43	542.88
330.658	550.88
330.887	598.88
331.115	552.88
331.344	479.88
331.572	432.88
331.801	443.88
332.03	447.88
332.258	435.88
332.486	400.88
332.715	397.88
332.943	397.88
333.172	413.88
333.4	404.88
333.629	404.88
333.857	441.88
334.085	450.88
334.314	450.88
334.542	482.88
334.771	508.88
334.999	453.88
335.227	434.88
335.455	424.88
335.684	376.88
335.912	387.88
336.14	359.88
336.369	377.88
336.597	390.88
336.825	384.88
337.053	382.88
337.281	395.88
337.51	400.88
337.738	400.88
337.966	376.88
338.194	401.88
338.422	390.88
338.65	388.88
338.878	358.88
339.106	378.88
339.334	398.88
339.562	341.88
339.79	377.88
340.018	376.88
340.246	366.88
340.474	395.88
340.702	375.88
340.93	379.88
341.158	375.88
341.386	374.88
341.614	391.88
341.842	369.88
342.07	365.88
342.298	354.88
342.526	356.88
342.754	351.88
342.981	355.88
343.209	355.88
343.437	348.88
343.665	371.88
343.893	367.88
344.12	386.88
344.348	363.88
344.576	382.88
344.804	376.88
345.031	389.88
345.259	385.88
345.487	376.88
345.714	395.88
345.942	381.88
346.17	366.88
346.397	368.88
346.625	392.88
346.853	378.88
347.08	353.88
347.308	372.88
347.535	376.88
347.763	391.88
347.99	384.88
348.218	400.88
348.445	377.88
348.673	406.88
348.9	361.88
349.128	368.88
349.355	357.88
349.583	346.88
349.81	345.88
350.037	339.88
350.265	336.88
350.492	367.88
350.72	353.88
350.947	370.88
351.174	369.88
351.402	363.88
351.629	375.88
351.856	374.88
352.083	368.88
352.311	376.88
352.538	394.88
352.765	384.88
352.992	372.88
353.22	361.88
353.447	356.88
353.674	352.88
353.901	376.88
354.128	347.88
354.355	363.88
354.583	355.88
354.81	338.88
355.037	342.88
355.264	339.88
355.491	342.88
355.718	342.88
355.945	333.88
356.172	347.88
356.399	330.88
356.626	344.88
356.853	334.88
357.08	341.88
357.307	344.88
357.534	346.88
357.761	334.88
357.988	325.88
358.215	332.88
358.441	329.88
358.668	313.88
358.895	357.88
359.122	369.88
359.349	371.88
359.576	371.88
359.802	401.88
360.029	406.88
360.256	425.88
360.483	403.88
360.709	377.88
360.936	359.88
361.163	379.88
361.39	379.88
361.616	371.88
361.843	377.88
362.07	388.88
362.296	372.88
362.523	358.88
362.749	368.88
362.976	361.88
363.203	342.88
363.429	361.88
363.656	350.88
363.882	335.88
364.109	344.88
364.335	345.88
364.562	345.88
364.788	343.88
365.015	350.88
365.241	347.88
365.468	350.88
365.694	354.88
365.92	357.88
366.147	353.88
366.373	344.88
366.599	361.88
366.826	336.88
367.052	373.88
367.278	330.88
367.505	346.88
367.731	336.88
367.957	360.88
368.184	356.88
368.41	363.88
368.636	361.88
368.862	377.88
369.089	363.88
369.315	366.88
369.541	328.88
369.767	344.88
369.993	341.88
370.219	337.88
370.445	357.88
370.672	340.88
370.898	341.88
371.124	340.88
371.35	343.88
371.576	338.88
371.802	324.88
372.028	337.88
372.254	337.88
372.48	367.88
372.706	326.88
372.932	350.88
373.158	353.88
373.384	343.88
373.61	340.88
373.835	340.88
374.061	350.88
374.287	343.88
374.513	348.88
374.739	339.88
374.965	321.88
375.191	352.88
375.416	341.88
375.642	339.88
375.868	337.88
376.094	329.88
376.319	344.88
376.545	330.88
376.771	338.88
376.997	341.88
377.222	346.88
377.448	351.88
377.674	338.88
377.899	330.88
378.125	326.88
378.35	333.88
378.576	317.88
378.802	331.88
379.027	335.88
379.253	340.88
379.478	335.88
379.704	350.88
379.929	333.88
380.155	339.88
380.38	348.88
380.606	354.88
380.831	355.88
381.057	351.88
381.282	332.88
381.507	347.88
381.733	350.88
381.958	342.88
382.184	359.88
382.409	336.88
382.634	336.88
382.86	344.88
383.085	374.88
383.31	352.88
383.535	362.88
383.761	338.88
383.986	357.88
384.211	339.88
384.436	370.88
384.662	360.88
384.887	350.88
385.112	343.88
385.337	366.88
385.562	367.88
385.787	372.88
386.013	382.88
386.238	356.88
386.463	372.88
386.688	364.88
386.913	352.88
387.138	343.88
387.363	362.88
387.588	367.88
387.813	360.88
388.038	350.88
388.263	368.88
388.488	366.88
388.713	371.88
388.938	338.88
389.163	366.88
389.387	356.88
389.612	352.88
389.837	359.88
390.062	349.88
390.287	375.88
390.512	372.88
390.736	362.88
390.961	359.88
391.186	349.88
391.411	361.88
391.636	369.88
391.86	372.88
392.085	371.88
392.31	364.88
392.534	363.88
392.759	372.88
392.984	356.88
393.208	373.88
393.433	372.88
393.658	340.88
393.882	374.88
394.107	370.88
394.331	351.88
394.556	363.88
394.78	368.88
395.005	376.88
395.229	376.88
395.454	353.88
395.678	378.88
395.903	378.88
396.127	416.88
396.352	383.88
396.576	371.88
396.801	369.88
397.025	370.88
397.249	383.88
397.474	398.88
397.698	383.88
397.922	394.88
398.147	397.88
398.371	412.88
398.595	407.88
398.82	409.88
399.044	407.88
399.268	410.88
399.492	455.88
399.717	467.88
399.941	456.88
400.165	512.88
400.389	481.88
400.613	448.88
400.837	437.88
401.062	432.88
401.286	433.88
401.51	401.88
401.734	412.88
401.958	420.88
402.182	418.88
402.406	420.88
402.63	405.88
402.854	420.88
403.078	432.88
403.302	406.88
403.526	434.88
403.75	419.88
403.974	421.88
404.198	421.88
404.422	432.88
404.645	426.88
404.869	421.88
405.093	445.88
405.317	489.88
405.541	521.88
405.765	453.88
405.988	450.88
406.212	471.88
406.436	485.88
406.66	512.88
406.883	471.88
407.107	464.88
407.331	515.88
407.555	553.88
407.778	551.88
408.002	523.88
408.226	477.88
408.449	449.88
408.673	473.88
408.896	515.88
409.12	515.88
409.344	491.88
409.567	432.88
409.791	429.88
410.014	424.88
410.238	428.88
410.461	445.88
410.685	430.88
410.908	434.88
411.132	494.88
411.355	498.88
411.578	481.88
411.802	460.88
412.025	434.88
412.249	444.88
412.472	459.88
412.695	480.88
412.919	467.88
413.142	443.88
413.365	442.88
413.589	423.88
413.812	424.88
414.035	401.88
414.258	409.88
414.482	416.88
414.705	415.88
414.928	382.88
415.151	396.88
415.374	381.88
415.597	401.88
415.821	406.88
416.044	409.88
416.267	417.88
416.49	431.88
416.713	413.88
416.936	402.88
417.159	391.88
417.382	426.88
417.605	407.88
417.828	419.88
418.051	428.88
418.274	431.88
418.497	408.88
418.72	410.88
418.943	402.88
419.166	419.88
419.389	456.88
419.611	425.88
419.834	424.88
420.057	432.88
420.28	435.88
420.503	414.88
420.726	407.88
420.948	445.88
421.171	484.88
421.394	493.88
421.617	455.88
421.839	434.88
422.062	433.88
422.285	436.88
422.507	476.88
422.73	544.88
422.953	545.88
423.175	475.88
423.398	435.88
423.621	460.88
423.843	457.88
424.066	439.88
424.288	451.88
424.511	480.88
424.733	535.88
424.956	574.88
425.178	543.88
425.401	564.88
425.623	567.88
425.846	519.88
426.068	478.88
426.291	478.88
426.513	468.88
426.735	484.88
426.958	512.88
427.18	599.88
427.402	668.88
427.625	770.88
427.847	686.88
428.069	608.88
428.292	522.88
428.514	473.88
428.736	442.88
428.958	448.88
429.181	435.88
429.403	438.88
429.625	448.88
429.847	460.88
430.069	520.88
430.292	527.88
430.514	458.88
430.736	421.88
430.958	431.88
431.18	420.88
431.402	410.88
431.624	417.88
431.846	391.88
432.068	397.88
432.29	411.88
432.512	409.88
432.734	422.88
432.956	408.88
433.178	421.88
433.4	420.88
433.622	404.88
433.844	393.88
434.066	402.88
434.287	399.88
434.509	408.88
434.731	430.88
434.953	416.88
435.175	425.88
435.397	463.88
435.618	477.88
435.84	504.88
436.062	583.88
436.284	624.88
436.505	551.88
436.727	487.88
436.949	467.88
437.17	443.88
437.392	461.88
437.614	434.88
437.835	474.88
438.057	552.88
438.278	658.88
438.5	619.88
438.721	716.88
438.943	666.88
439.165	531.88
439.386	497.88
439.608	485.88
439.829	487.88
440.05	518.88
440.272	554.88
440.493	499.88
440.715	487.88
440.936	437.88
441.158	446.88
441.379	421.88
441.6	448.88
441.822	482.88
442.043	498.88
442.264	554.88
442.486	581.88
442.707	520.88
442.928	495.88
443.149	482.88
443.371	516.88
443.592	552.88
443.813	617.88
444.034	647.88
444.255	535.88
444.476	494.88
444.698	467.88
444.919	453.88
445.14	582.88
445.361	541.88
445.582	508.88
445.803	565.88
446.024	665.88
446.245	664.88
446.466	582.88
446.687	509.88
446.908	483.88
447.129	441.88
447.35	435.88
447.571	421.88
447.792	431.88
448.013	450.88
448.234	478.88
448.455	516.88
448.675	616.88
448.896	680.88
449.117	564.88
449.338	564.88
449.559	640.88
449.779	724.88
450	567.88
450.221	499.88
450.442	460.88
450.662	420.88
450.883	433.88
451.104	444.88
451.324	439.88
451.545	424.88
451.766	423.88
451.986	391.88
452.207	382.88
452.428	380.88
452.648	400.88
452.869	402.88
453.089	400.88
453.31	423.88
453.53	403.88
453.751	400.88
453.971	404.88
454.192	414.88
454.412	419.88
454.633	403.88
454.853	398.88
455.073	398.88
455.294	415.88
455.514	469.88
455.734	471.88
455.955	389.88
456.175	386.88
456.395	391.88
456.616	353.88
456.836	366.88
457.056	376.88
457.276	375.88
457.497	379.88
457.717	367.88
457.937	369.88
458.157	372.88
458.377	392.88
458.598	400.88
458.818	459.88
459.038	533.88
459.258	549.88
459.478	479.88
459.698	434.88
459.918	406.88
460.138	400.88
460.358	396.88
460.578	418.88
460.798	431.88
461.018	422.88
461.238	386.88
461.458	420.88
461.678	405.88
461.898	394.88
462.118	406.88
462.338	402.88
462.558	432.88
462.777	430.88
462.997	425.88
463.217	442.88
463.437	430.88
463.657	432.88
463.876	447.88
464.096	420.88
464.316	414.88
464.536	438.88
464.755	441.88
464.975	464.88
465.195	485.88
465.414	549.88
465.634	511.88
465.854	452.88
466.073	438.88
466.293	414.88
466.512	378.88
466.732	416.88
466.951	391.88
467.171	393.88
467.391	419.88
467.61	411.88
467.829	424.88
468.049	422.88
468.268	436.88
468.488	404.88
468.707	397.88
468.927	400.88
469.146	398.88
469.365	380.88
469.585	395.88
469.804	418.88
470.023	416.88
470.243	425.88
470.462	395.88
470.681	431.88
470.901	435.88
471.12	405.88
471.339	414.88
471.558	414.88
471.777	409.88
471.997	392.88
472.216	416.88
472.435	447.88
472.654	435.88
472.873	401.88
473.092	397.88
473.311	411.88
473.53	393.88
473.749	416.88
473.968	440.88
474.187	552.88
474.406	554.88
474.625	451.88
474.844	424.88
475.063	419.88
475.282	395.88
475.501	418.88
475.72	436.88
475.939	420.88
476.158	415.88
476.377	450.88
476.596	422.88
476.814	446.88
477.033	427.88
477.252	431.88
477.471	425.88
477.69	428.88
477.908	448.88
478.127	420.88
478.346	419.88
478.564	464.88
478.783	452.88
479.002	467.88
479.22	479.88
479.439	463.88
479.658	492.88
479.876	492.88
480.095	508.88
480.313	525.88
480.532	513.88
480.751	494.88
480.969	537.88
481.188	595.88
481.406	618.88
481.624	561.88
481.843	524.88
482.061	490.88
482.28	499.88
482.498	503.88
482.717	496.88
482.935	490.88
483.153	491.88
483.372	494.88
483.59	484.88
483.808	475.88
484.027	492.88
484.245	482.88
484.463	496.88
484.681	492.88
484.9	489.88
485.118	496.88
485.336	500.88
485.554	509.88
485.772	484.88
485.99	486.88
486.209	503.88
486.427	506.88
486.645	523.88
486.863	530.88
487.081	524.88
487.299	539.88
487.517	503.88
487.735	497.88
487.953	520.88
488.171	500.88
488.389	517.88
488.607	538.88
488.825	533.88
489.043	535.88
489.261	532.88
489.479	517.88
489.696	510.88
489.914	534.88
490.132	542.88
490.35	518.88
490.568	543.88
490.786	558.88
491.003	563.88
491.221	558.88
491.439	578.88
491.657	581.88
491.874	600.88
492.092	578.88
492.31	608.88
492.527	594.88
492.745	609.88
492.963	615.88
493.18	583.88
493.398	596.88
493.615	599.88
493.833	602.88
494.05	601.88
494.268	600.88
494.485	617.88
494.703	587.88
494.92	633.88
495.138	620.88
495.355	604.88
495.573	601.88
495.79	622.88
496.008	620.88
496.225	600.88
496.442	625.88
496.66	616.88
496.877	609.88
497.094	600.88
497.312	646.88
497.529	593.88
497.746	628.88
497.963	625.88
498.181	644.88
498.398	659.88
498.615	663.88
498.832	689.88
499.049	684.88
499.267	692.88
499.484	693.88
499.701	741.88
499.918	743.88
500.135	734.88
500.352	766.88
500.569	754.88
500.786	764.88
501.003	770.88
501.22	760.88
501.437	747.88
501.654	743.88
501.871	724.88
502.088	727.88
