Data from 1965.PennyLincolnUp.Lamp.En5.5.200Scan.071719.P1._HRD10591_14-09-45-912.txt Node
Date: Thu Jul 18 14:09:45 EDT 2019
User: cochatt
Spectrometer: HR+D1059
Trigger mode: 1
Integration Time (sec): 1.000000E-1
Scans to average: 1
Electric dark correction enabled: true
Nonlinearity correction enabled: false
Boxcar width: 0
XAxis mode: Wavelengths
Number of Pixels in Spectrum: 2048
>>>>>Begin Spectral Data<<<<<
223.165	-10.88
223.4	-10.88
223.635	-10.88
223.869	-28.88
224.104	-20.88
224.338	-27.88
224.573	-17.88
224.808	-1.88
225.042	-5.88
225.277	-13.88
225.511	-7.88
225.746	14.12
225.98	-5.88
226.215	18.12
226.449	14.12
226.683	30.12
226.918	25.12
227.152	40.12
227.387	34.12
227.621	35.12
227.856	60.12
228.09	58.12
228.324	58.12
228.559	48.12
228.793	63.12
229.027	79.12
229.262	100.12
229.496	105.12
229.73	144.12
229.964	158.12
230.199	111.12
230.433	106.12
230.667	112.12
230.901	98.12
231.136	113.12
231.37	122.12
231.604	99.12
231.838	115.12
232.072	113.12
232.306	111.12
232.541	122.12
232.775	98.12
233.009	104.12
233.243	119.12
233.477	123.12
233.711	112.12
233.945	113.12
234.179	106.12
234.413	123.12
234.647	118.12
234.881	120.12
235.115	105.12
235.349	115.12
235.583	112.12
235.817	125.12
236.051	126.12
236.285	124.12
236.519	123.12
236.753	123.12
236.987	145.12
237.221	171.12
237.455	216.12
237.689	171.12
237.922	141.12
238.156	139.12
238.39	134.12
238.624	122.12
238.858	112.12
239.091	113.12
239.325	112.12
239.559	123.12
239.793	132.12
240.027	132.12
240.26	143.12
240.494	137.12
240.728	123.12
240.961	138.12
241.195	134.12
241.429	130.12
241.662	108.12
241.896	125.12
242.13	126.12
242.363	137.12
242.597	125.12
242.83	130.12
243.064	128.12
243.298	124.12
243.531	127.12
243.765	135.12
243.998	130.12
244.232	118.12
244.465	135.12
244.699	126.12
244.932	138.12
245.166	127.12
245.399	134.12
245.633	132.12
245.866	142.12
246.099	133.12
246.333	137.12
246.566	126.12
246.8	152.12
247.033	144.12
247.266	128.12
247.5	161.12
247.733	140.12
247.966	142.12
248.2	162.12
248.433	148.12
248.666	156.12
248.899	182.12
249.133	172.12
249.366	189.12
249.599	190.12
249.832	182.12
250.066	168.12
250.299	180.12
250.532	171.12
250.765	190.12
250.998	220.12
251.231	210.12
251.465	207.12
251.698	202.12
251.931	193.12
252.164	177.12
252.397	175.12
252.63	178.12
252.863	195.12
253.096	209.12
253.329	233.12
253.562	204.12
253.795	212.12
254.028	202.12
254.261	188.12
254.494	203.12
254.727	228.12
254.96	259.12
255.193	253.12
255.426	224.12
255.659	189.12
255.892	209.12
256.124	213.12
256.357	208.12
256.59	215.12
256.823	208.12
257.056	208.12
257.289	177.12
257.521	200.12
257.754	209.12
257.987	208.12
258.22	196.12
258.452	204.12
258.685	183.12
258.918	199.12
259.151	184.12
259.383	200.12
259.616	196.12
259.849	224.12
260.081	218.12
260.314	227.12
260.547	238.12
260.779	210.12
261.012	209.12
261.244	199.12
261.477	210.12
261.71	200.12
261.942	212.12
262.175	209.12
262.407	214.12
262.64	198.12
262.872	173.12
263.105	188.12
263.337	199.12
263.57	202.12
263.802	198.12
264.035	198.12
264.267	194.12
264.499	201.12
264.732	203.12
264.964	189.12
265.197	201.12
265.429	210.12
265.661	188.12
265.894	192.12
266.126	211.12
266.358	188.12
266.591	205.12
266.823	211.12
267.055	210.12
267.287	194.12
267.52	194.12
267.752	199.12
267.984	215.12
268.216	220.12
268.448	222.12
268.681	224.12
268.913	211.12
269.145	230.12
269.377	254.12
269.609	247.12
269.841	260.12
270.073	246.12
270.306	266.12
270.538	275.12
270.77	275.12
271.002	281.12
271.234	249.12
271.466	299.12
271.698	292.12
271.93	296.12
272.162	290.12
272.394	267.12
272.626	266.12
272.858	274.12
273.09	265.12
273.322	258.12
273.553	256.12
273.785	243.12
274.017	224.12
274.249	271.12
274.481	255.12
274.713	232.12
274.945	235.12
275.176	223.12
275.408	225.12
275.64	234.12
275.872	230.12
276.104	237.12
276.335	243.12
276.567	255.12
276.799	270.12
277.031	268.12
277.262	293.12
277.494	286.12
277.726	250.12
277.957	254.12
278.189	244.12
278.421	240.12
278.652	236.12
278.884	251.12
279.115	240.12
279.347	258.12
279.579	235.12
279.81	231.12
280.042	237.12
280.273	219.12
280.505	210.12
280.736	230.12
280.968	263.12
281.199	228.12
281.431	243.12
281.662	235.12
281.894	253.12
282.125	231.12
282.356	267.12
282.588	275.12
282.819	294.12
283.051	257.12
283.282	239.12
283.513	241.12
283.745	236.12
283.976	248.12
284.207	250.12
284.439	265.12
284.67	255.12
284.901	235.12
285.132	247.12
285.364	249.12
285.595	260.12
285.826	251.12
286.057	258.12
286.288	243.12
286.52	250.12
286.751	233.12
286.982	232.12
287.213	252.12
287.444	235.12
287.675	249.12
287.906	257.12
288.138	278.12
288.369	270.12
288.6	292.12
288.831	255.12
289.062	271.12
289.293	267.12
289.524	244.12
289.755	267.12
289.986	258.12
290.217	256.12
290.448	261.12
290.679	247.12
290.91	265.12
291.141	252.12
291.371	252.12
291.602	236.12
291.833	244.12
292.064	243.12
292.295	243.12
292.526	264.12
292.757	286.12
292.987	250.12
293.218	246.12
293.449	270.12
293.68	252.12
293.91	272.12
294.141	275.12
294.372	273.12
294.603	253.12
294.833	260.12
295.064	279.12
295.295	261.12
295.525	252.12
295.756	260.12
295.987	280.12
296.217	290.12
296.448	302.12
296.679	271.12
296.909	247.12
297.14	266.12
297.37	264.12
297.601	259.12
297.831	275.12
298.062	249.12
298.292	264.12
298.523	249.12
298.753	251.12
298.984	274.12
299.214	263.12
299.445	268.12
299.675	272.12
299.905	276.12
300.136	285.12
300.366	262.12
300.597	266.12
300.827	268.12
301.057	279.12
301.288	288.12
301.518	276.12
301.748	272.12
301.979	271.12
302.209	282.12
302.439	310.12
302.669	292.12
302.9	289.12
303.13	287.12
303.36	284.12
303.59	303.12
303.82	286.12
304.051	287.12
304.281	272.12
304.511	279.12
304.741	284.12
304.971	293.12
305.201	294.12
305.431	276.12
305.661	275.12
305.891	281.12
306.121	278.12
306.352	296.12
306.582	288.12
306.812	283.12
307.042	302.12
307.272	294.12
307.502	275.12
307.731	276.12
307.961	305.12
308.191	306.12
308.421	296.12
308.651	311.12
308.881	316.12
309.111	310.12
309.341	307.12
309.571	316.12
309.8	314.12
310.03	314.12
310.26	327.12
310.49	337.12
310.72	333.12
310.949	374.12
311.179	374.12
311.409	368.12
311.639	347.12
311.868	341.12
312.098	344.12
312.328	369.12
312.557	343.12
312.787	349.12
313.017	356.12
313.246	352.12
313.476	332.12
313.706	344.12
313.935	347.12
314.165	355.12
314.394	372.12
314.624	359.12
314.853	350.12
315.083	332.12
315.312	328.12
315.542	331.12
315.771	326.12
316.001	312.12
316.23	345.12
316.46	326.12
316.689	323.12
316.919	332.12
317.148	352.12
317.377	353.12
317.607	354.12
317.836	363.12
318.065	334.12
318.295	354.12
318.524	336.12
318.753	341.12
318.983	339.12
319.212	331.12
319.441	348.12
319.67	356.12
319.9	372.12
320.129	349.12
320.358	354.12
320.587	350.12
320.816	366.12
321.046	389.12
321.275	374.12
321.504	360.12
321.733	350.12
321.962	388.12
322.191	410.12
322.42	409.12
322.649	407.12
322.878	398.12
323.108	436.12
323.337	457.12
323.566	473.12
323.795	494.12
324.024	531.12
324.253	675.12
324.482	984.12
324.71	1474.12
324.939	2069.12
325.168	1742.12
325.397	922.12
325.626	642.12
325.855	529.12
326.084	483.12
326.313	467.12
326.542	487.12
326.77	521.12
326.999	658.12
327.228	892.12
327.457	1288.12
327.686	1531.12
327.914	1042.12
328.143	688.12
328.372	602.12
328.6	537.12
328.829	522.12
329.058	538.12
329.287	568.12
329.515	522.12
329.744	474.12
329.972	465.12
330.201	502.12
330.43	537.12
330.658	562.12
330.887	586.12
331.115	546.12
331.344	482.12
331.572	466.12
331.801	458.12
332.03	442.12
332.258	440.12
332.486	428.12
332.715	414.12
332.943	410.12
333.172	384.12
333.4	398.12
333.629	410.12
333.857	438.12
334.085	446.12
334.314	466.12
334.542	479.12
334.771	493.12
334.999	471.12
335.227	422.12
335.455	402.12
335.684	369.12
335.912	390.12
336.14	394.12
336.369	404.12
336.597	398.12
336.825	392.12
337.053	414.12
337.281	417.12
337.51	409.12
337.738	386.12
337.966	381.12
338.194	389.12
338.422	399.12
338.65	398.12
338.878	393.12
339.106	384.12
339.334	356.12
339.562	367.12
339.79	397.12
340.018	379.12
340.246	368.12
340.474	375.12
340.702	380.12
340.93	382.12
341.158	367.12
341.386	368.12
341.614	372.12
341.842	378.12
342.07	388.12
342.298	388.12
342.526	376.12
342.754	374.12
342.981	382.12
343.209	366.12
343.437	367.12
343.665	352.12
343.893	376.12
344.12	386.12
344.348	383.12
344.576	366.12
344.804	385.12
345.031	402.12
345.259	398.12
345.487	384.12
345.714	383.12
345.942	393.12
346.17	391.12
346.397	377.12
346.625	376.12
346.853	377.12
347.08	379.12
347.308	379.12
347.535	385.12
347.763	386.12
347.99	356.12
348.218	388.12
348.445	390.12
348.673	411.12
348.9	370.12
349.128	370.12
349.355	360.12
349.583	380.12
349.81	377.12
350.037	360.12
350.265	361.12
350.492	353.12
350.72	362.12
350.947	368.12
351.174	370.12
351.402	392.12
351.629	378.12
351.856	383.12
352.083	406.12
352.311	392.12
352.538	391.12
352.765	379.12
352.992	374.12
353.22	356.12
353.447	373.12
353.674	378.12
353.901	370.12
354.128	351.12
354.355	334.12
354.583	350.12
354.81	345.12
355.037	355.12
355.264	340.12
355.491	351.12
355.718	340.12
355.945	330.12
356.172	336.12
356.399	337.12
356.626	339.12
356.853	345.12
357.08	343.12
357.307	348.12
357.534	339.12
357.761	338.12
357.988	330.12
358.215	339.12
358.441	359.12
358.668	340.12
358.895	346.12
359.122	360.12
359.349	350.12
359.576	374.12
359.802	393.12
360.029	418.12
360.256	411.12
360.483	405.12
360.709	384.12
360.936	369.12
361.163	368.12
361.39	391.12
361.616	356.12
361.843	370.12
362.07	359.12
362.296	376.12
362.523	380.12
362.749	378.12
362.976	354.12
363.203	344.12
363.429	360.12
363.656	348.12
363.882	352.12
364.109	361.12
364.335	332.12
364.562	340.12
364.788	359.12
365.015	341.12
365.241	364.12
365.468	356.12
365.694	362.12
365.92	366.12
366.147	351.12
366.373	345.12
366.599	347.12
366.826	353.12
367.052	339.12
367.278	355.12
367.505	326.12
367.731	360.12
367.957	360.12
368.184	359.12
368.41	359.12
368.636	366.12
368.862	382.12
369.089	375.12
369.315	352.12
369.541	350.12
369.767	346.12
369.993	359.12
370.219	352.12
370.445	345.12
370.672	329.12
370.898	331.12
371.124	335.12
371.35	351.12
371.576	336.12
371.802	325.12
372.028	346.12
372.254	346.12
372.48	335.12
372.706	338.12
372.932	337.12
373.158	333.12
373.384	339.12
373.61	345.12
373.835	353.12
374.061	354.12
374.287	346.12
374.513	341.12
374.739	352.12
374.965	358.12
375.191	348.12
375.416	359.12
375.642	345.12
375.868	363.12
376.094	352.12
376.319	345.12
376.545	340.12
376.771	343.12
376.997	349.12
377.222	352.12
377.448	368.12
377.674	337.12
377.899	355.12
378.125	355.12
378.35	345.12
378.576	336.12
378.802	329.12
379.027	347.12
379.253	349.12
379.478	340.12
379.704	355.12
379.929	359.12
380.155	333.12
380.38	340.12
380.606	340.12
380.831	354.12
381.057	361.12
381.282	346.12
381.507	343.12
381.733	335.12
381.958	349.12
382.184	342.12
382.409	351.12
382.634	330.12
382.86	345.12
383.085	350.12
383.31	361.12
383.535	334.12
383.761	352.12
383.986	347.12
384.211	344.12
384.436	356.12
384.662	365.12
384.887	351.12
385.112	362.12
385.337	366.12
385.562	366.12
385.787	375.12
386.013	386.12
386.238	368.12
386.463	364.12
386.688	358.12
386.913	362.12
387.138	366.12
387.363	355.12
387.588	366.12
387.813	376.12
388.038	370.12
388.263	366.12
388.488	365.12
388.713	354.12
388.938	380.12
389.163	370.12
389.387	380.12
389.612	369.12
389.837	376.12
390.062	349.12
390.287	378.12
390.512	368.12
390.736	358.12
390.961	372.12
391.186	395.12
391.411	376.12
391.636	383.12
391.86	392.12
392.085	372.12
392.31	390.12
392.534	370.12
392.759	368.12
392.984	379.12
393.208	363.12
393.433	349.12
393.658	363.12
393.882	351.12
394.107	374.12
394.331	378.12
394.556	395.12
394.78	388.12
395.005	374.12
395.229	368.12
395.454	394.12
395.678	372.12
395.903	374.12
396.127	410.12
396.352	408.12
396.576	385.12
396.801	393.12
397.025	374.12
397.249	402.12
397.474	382.12
397.698	352.12
397.922	403.12
398.147	409.12
398.371	410.12
398.595	402.12
398.82	411.12
399.044	386.12
399.268	434.12
399.492	452.12
399.717	448.12
399.941	494.12
400.165	487.12
400.389	500.12
400.613	463.12
400.837	443.12
401.062	457.12
401.286	403.12
401.51	415.12
401.734	404.12
401.958	421.12
402.182	417.12
402.406	444.12
402.63	430.12
402.854	425.12
403.078	392.12
403.302	439.12
403.526	446.12
403.75	449.12
403.974	442.12
404.198	420.12
404.422	440.12
404.645	443.12
404.869	451.12
405.093	464.12
405.317	504.12
405.541	530.12
405.765	499.12
405.988	468.12
406.212	450.12
406.436	478.12
406.66	491.12
406.883	493.12
407.107	489.12
407.331	519.12
407.555	574.12
407.778	545.12
408.002	514.12
408.226	473.12
408.449	465.12
408.673	467.12
408.896	519.12
409.12	550.12
409.344	498.12
409.567	474.12
409.791	447.12
410.014	450.12
410.238	432.12
410.461	422.12
410.685	446.12
410.908	458.12
411.132	476.12
411.355	499.12
411.578	493.12
411.802	451.12
412.025	462.12
412.249	448.12
412.472	466.12
412.695	475.12
412.919	485.12
413.142	440.12
413.365	430.12
413.589	411.12
413.812	426.12
414.035	405.12
414.258	397.12
414.482	405.12
414.705	412.12
414.928	414.12
415.151	401.12
415.374	404.12
415.597	400.12
415.821	427.12
416.044	408.12
416.267	410.12
416.49	396.12
416.713	408.12
416.936	374.12
417.159	394.12
417.382	404.12
417.605	412.12
417.828	421.12
418.051	430.12
418.274	411.12
418.497	396.12
418.72	412.12
418.943	411.12
419.166	433.12
419.389	443.12
419.611	429.12
419.834	438.12
420.057	436.12
420.28	431.12
420.503	425.12
420.726	430.12
420.948	447.12
421.171	475.12
421.394	480.12
421.617	439.12
421.839	455.12
422.062	431.12
422.285	446.12
422.507	499.12
422.73	547.12
422.953	539.12
423.175	466.12
423.398	459.12
423.621	455.12
423.843	456.12
424.066	482.12
424.288	452.12
424.511	499.12
424.733	541.12
424.956	582.12
425.178	582.12
425.401	571.12
425.623	564.12
425.846	484.12
426.068	470.12
426.291	493.12
426.513	466.12
426.735	496.12
426.958	506.12
427.18	577.12
427.402	678.12
427.625	728.12
427.847	686.12
428.069	556.12
428.292	499.12
428.514	479.12
428.736	472.12
428.958	449.12
429.181	447.12
429.403	423.12
429.625	428.12
429.847	469.12
430.069	526.12
430.292	502.12
430.514	445.12
430.736	443.12
430.958	422.12
431.18	420.12
431.402	440.12
431.624	417.12
431.846	425.12
432.068	405.12
432.29	403.12
432.512	407.12
432.734	409.12
432.956	413.12
433.178	409.12
433.4	393.12
433.622	405.12
433.844	424.12
434.066	409.12
434.287	400.12
434.509	410.12
434.731	419.12
434.953	425.12
435.175	449.12
435.397	445.12
435.618	456.12
435.84	530.12
436.062	591.12
436.284	629.12
436.505	548.12
436.727	481.12
436.949	442.12
437.17	435.12
437.392	424.12
437.614	459.12
437.835	498.12
438.057	595.12
438.278	646.12
438.5	655.12
438.721	687.12
438.943	646.12
439.165	553.12
439.386	457.12
439.608	487.12
439.829	474.12
440.05	514.12
440.272	547.12
440.493	525.12
440.715	486.12
440.936	462.12
441.158	469.12
441.379	458.12
441.6	472.12
441.822	475.12
442.043	496.12
442.264	568.12
442.486	615.12
442.707	515.12
442.928	476.12
443.149	491.12
443.371	525.12
443.592	540.12
443.813	614.12
444.034	650.12
444.255	526.12
444.476	482.12
444.698	464.12
444.919	492.12
445.14	574.12
445.361	532.12
445.582	515.12
445.803	566.12
446.024	649.12
446.245	648.12
446.466	611.12
446.687	512.12
446.908	484.12
447.129	452.12
447.35	452.12
447.571	433.12
447.792	425.12
448.013	441.12
448.234	460.12
448.455	510.12
448.675	612.12
448.896	716.12
449.117	584.12
449.338	574.12
449.559	637.12
449.779	722.12
450	577.12
450.221	484.12
450.442	455.12
450.662	434.12
450.883	458.12
451.104	465.12
451.324	455.12
451.545	419.12
451.766	402.12
451.986	410.12
452.207	389.12
452.428	409.12
452.648	417.12
452.869	403.12
453.089	428.12
453.31	416.12
453.53	427.12
453.751	399.12
453.971	401.12
454.192	418.12
454.412	425.12
454.633	383.12
454.853	398.12
455.073	399.12
455.294	436.12
455.514	483.12
455.734	470.12
455.955	384.12
456.175	396.12
456.395	376.12
456.616	378.12
456.836	377.12
457.056	370.12
457.276	382.12
457.497	395.12
457.717	363.12
457.937	372.12
458.157	384.12
458.377	387.12
458.598	420.12
458.818	482.12
459.038	574.12
459.258	520.12
459.478	463.12
459.698	433.12
459.918	426.12
460.138	395.12
460.358	398.12
460.578	409.12
460.798	407.12
461.018	419.12
461.238	410.12
461.458	388.12
461.678	422.12
461.898	398.12
462.118	405.12
462.338	412.12
462.558	413.12
462.777	418.12
462.997	408.12
463.217	431.12
463.437	423.12
463.657	408.12
463.876	418.12
464.096	433.12
464.316	416.12
464.536	448.12
464.755	449.12
464.975	452.12
465.195	490.12
465.414	561.12
465.634	494.12
465.854	454.12
466.073	451.12
466.293	425.12
466.512	422.12
466.732	408.12
466.951	388.12
467.171	399.12
467.391	404.12
467.61	418.12
467.829	422.12
468.049	390.12
468.268	414.12
468.488	424.12
468.707	388.12
468.927	383.12
469.146	400.12
469.365	402.12
469.585	402.12
469.804	406.12
470.023	416.12
470.243	394.12
470.462	418.12
470.681	448.12
470.901	416.12
471.12	435.12
471.339	420.12
471.558	399.12
471.777	418.12
471.997	410.12
472.216	435.12
472.435	464.12
472.654	453.12
472.873	414.12
473.092	408.12
473.311	431.12
473.53	419.12
473.749	424.12
473.968	457.12
474.187	542.12
474.406	558.12
474.625	462.12
474.844	426.12
475.063	433.12
475.282	401.12
475.501	425.12
475.72	416.12
475.939	427.12
476.158	428.12
476.377	411.12
476.596	410.12
476.814	426.12
477.033	422.12
477.252	435.12
477.471	433.12
477.69	426.12
477.908	435.12
478.127	454.12
478.346	436.12
478.564	450.12
478.783	450.12
479.002	460.12
479.22	467.12
479.439	456.12
479.658	492.12
479.876	485.12
480.095	496.12
480.313	524.12
480.532	519.12
480.751	474.12
480.969	499.12
481.188	566.12
481.406	624.12
481.624	541.12
481.843	498.12
482.061	505.12
482.28	477.12
482.498	496.12
482.717	484.12
482.935	467.12
483.153	481.12
483.372	471.12
483.59	460.12
483.808	484.12
484.027	481.12
484.245	482.12
484.463	478.12
484.681	486.12
484.9	498.12
485.118	499.12
485.336	483.12
485.554	490.12
485.772	492.12
485.99	502.12
486.209	520.12
486.427	490.12
486.645	492.12
486.863	518.12
487.081	536.12
487.299	513.12
487.517	518.12
487.735	490.12
487.953	520.12
488.171	534.12
488.389	496.12
488.607	530.12
488.825	515.12
489.043	521.12
489.261	533.12
489.479	546.12
489.696	506.12
489.914	512.12
490.132	521.12
490.35	542.12
490.568	522.12
490.786	551.12
491.003	542.12
491.221	562.12
491.439	588.12
491.657	558.12
491.874	598.12
492.092	597.12
492.31	594.12
492.527	588.12
492.745	600.12
492.963	591.12
493.18	620.12
493.398	639.12
493.615	614.12
493.833	617.12
494.05	604.12
494.268	610.12
494.485	591.12
494.703	603.12
494.92	610.12
495.138	614.12
495.355	586.12
495.573	612.12
495.79	593.12
496.008	643.12
496.225	606.12
496.442	610.12
496.66	609.12
496.877	604.12
497.094	619.12
497.312	602.12
497.529	637.12
497.746	644.12
497.963	610.12
498.181	652.12
498.398	674.12
498.615	646.12
498.832	642.12
499.049	659.12
499.267	652.12
499.484	694.12
499.701	699.12
499.918	734.12
500.135	736.12
500.352	747.12
500.569	760.12
500.786	777.12
501.003	780.12
501.22	772.12
501.437	728.12
501.654	736.12
501.871	738.12
