Data from 1965.PennyLincolnUp.Lamp.En5.5.200Scan.071719.P1._HRD10591_14-08-15-911.txt Node
Date: Thu Jul 18 14:08:15 EDT 2019
User: cochatt
Spectrometer: HR+D1059
Trigger mode: 1
Integration Time (sec): 1.000000E-1
Scans to average: 1
Electric dark correction enabled: true
Nonlinearity correction enabled: false
Boxcar width: 0
XAxis mode: Wavelengths
Number of Pixels in Spectrum: 2048
>>>>>Begin Spectral Data<<<<<
223.165	-16.06
223.4	-16.06
223.635	-16.06
223.869	-23.06
224.104	-10.06
224.338	-22.06
224.573	-24.06
224.808	2.94
225.042	-1.06
225.277	-8.06
225.511	-6.06
225.746	17.94
225.98	8.94
226.215	-3.06
226.449	12.94
226.683	10.94
226.918	16.94
227.152	42.94
227.387	47.94
227.621	36.94
227.856	49.94
228.09	37.94
228.324	47.94
228.559	70.94
228.793	64.94
229.027	100.94
229.262	101.94
229.496	105.94
229.73	110.94
229.964	132.94
230.199	118.94
230.433	111.94
230.667	96.94
230.901	91.94
231.136	113.94
231.37	105.94
231.604	119.94
231.838	102.94
232.072	110.94
232.306	103.94
232.541	94.94
232.775	107.94
233.009	120.94
233.243	106.94
233.477	103.94
233.711	101.94
233.945	107.94
234.179	109.94
234.413	117.94
234.647	100.94
234.881	109.94
235.115	103.94
235.349	111.94
235.583	121.94
235.817	123.94
236.051	116.94
236.285	114.94
236.519	110.94
236.753	127.94
236.987	125.94
237.221	158.94
237.455	184.94
237.689	166.94
237.922	129.94
238.156	118.94
238.39	115.94
238.624	104.94
238.858	110.94
239.091	119.94
239.325	112.94
239.559	115.94
239.793	124.94
240.027	127.94
240.26	116.94
240.494	157.94
240.728	132.94
240.961	127.94
241.195	120.94
241.429	134.94
241.662	119.94
241.896	108.94
242.13	126.94
242.363	124.94
242.597	121.94
242.83	128.94
243.064	120.94
243.298	125.94
243.531	117.94
243.765	119.94
243.998	136.94
244.232	109.94
244.465	132.94
244.699	126.94
244.932	138.94
245.166	135.94
245.399	129.94
245.633	121.94
245.866	136.94
246.099	125.94
246.333	129.94
246.566	131.94
246.8	131.94
247.033	130.94
247.266	128.94
247.5	148.94
247.733	146.94
247.966	149.94
248.2	152.94
248.433	132.94
248.666	161.94
248.899	155.94
249.133	176.94
249.366	186.94
249.599	183.94
249.832	154.94
250.066	169.94
250.299	164.94
250.532	166.94
250.765	162.94
250.998	174.94
251.231	189.94
251.465	174.94
251.698	182.94
251.931	179.94
252.164	157.94
252.397	168.94
252.63	172.94
252.863	180.94
253.096	189.94
253.329	190.94
253.562	202.94
253.795	181.94
254.028	177.94
254.261	181.94
254.494	200.94
254.727	205.94
254.96	212.94
255.193	196.94
255.426	190.94
255.659	204.94
255.892	194.94
256.124	176.94
256.357	210.94
256.59	198.94
256.823	184.94
257.056	193.94
257.289	182.94
257.521	188.94
257.754	172.94
257.987	174.94
258.22	177.94
258.452	189.94
258.685	180.94
258.918	168.94
259.151	179.94
259.383	177.94
259.616	175.94
259.849	174.94
260.081	192.94
260.314	199.94
260.547	198.94
260.779	195.94
261.012	222.94
261.244	192.94
261.477	194.94
261.71	194.94
261.942	195.94
262.175	205.94
262.407	202.94
262.64	186.94
262.872	185.94
263.105	176.94
263.337	177.94
263.57	198.94
263.802	200.94
264.035	196.94
264.267	175.94
264.499	192.94
264.732	189.94
264.964	167.94
265.197	164.94
265.429	184.94
265.661	185.94
265.894	183.94
266.126	173.94
266.358	188.94
266.591	182.94
266.823	185.94
267.055	188.94
267.287	191.94
267.52	184.94
267.752	196.94
267.984	180.94
268.216	192.94
268.448	198.94
268.681	204.94
268.913	202.94
269.145	220.94
269.377	236.94
269.609	210.94
269.841	213.94
270.073	208.94
270.306	229.94
270.538	253.94
270.77	234.94
271.002	252.94
271.234	235.94
271.466	230.94
271.698	243.94
271.93	250.94
272.162	255.94
272.394	242.94
272.626	262.94
272.858	241.94
273.09	242.94
273.322	235.94
273.553	238.94
273.785	233.94
274.017	224.94
274.249	222.94
274.481	216.94
274.713	214.94
274.945	212.94
275.176	220.94
275.408	209.94
275.64	223.94
275.872	217.94
276.104	202.94
276.335	238.94
276.567	231.94
276.799	238.94
277.031	255.94
277.262	256.94
277.494	250.94
277.726	248.94
277.957	250.94
278.189	223.94
278.421	233.94
278.652	226.94
278.884	194.94
279.115	204.94
279.347	217.94
279.579	212.94
279.81	236.94
280.042	234.94
280.273	224.94
280.505	222.94
280.736	207.94
280.968	236.94
281.199	224.94
281.431	218.94
281.662	230.94
281.894	225.94
282.125	220.94
282.356	226.94
282.588	241.94
282.819	263.94
283.051	233.94
283.282	227.94
283.513	217.94
283.745	226.94
283.976	236.94
284.207	220.94
284.439	219.94
284.67	225.94
284.901	223.94
285.132	221.94
285.364	215.94
285.595	238.94
285.826	234.94
286.057	236.94
286.288	222.94
286.52	241.94
286.751	232.94
286.982	223.94
287.213	229.94
287.444	226.94
287.675	226.94
287.906	235.94
288.138	234.94
288.369	260.94
288.6	268.94
288.831	241.94
289.062	233.94
289.293	223.94
289.524	223.94
289.755	228.94
289.986	262.94
290.217	222.94
290.448	229.94
290.679	232.94
290.91	245.94
291.141	232.94
291.371	222.94
291.602	242.94
291.833	218.94
292.064	242.94
292.295	242.94
292.526	247.94
292.757	244.94
292.987	236.94
293.218	229.94
293.449	238.94
293.68	247.94
293.91	227.94
294.141	233.94
294.372	233.94
294.603	244.94
294.833	248.94
295.064	259.94
295.295	241.94
295.525	252.94
295.756	237.94
295.987	255.94
296.217	262.94
296.448	271.94
296.679	228.94
296.909	228.94
297.14	237.94
297.37	253.94
297.601	251.94
297.831	244.94
298.062	224.94
298.292	265.94
298.523	258.94
298.753	256.94
298.984	237.94
299.214	252.94
299.445	251.94
299.675	261.94
299.905	247.94
300.136	249.94
300.366	266.94
300.597	258.94
300.827	262.94
301.057	250.94
301.288	280.94
301.518	257.94
301.748	259.94
301.979	258.94
302.209	272.94
302.439	273.94
302.669	269.94
302.9	258.94
303.13	270.94
303.36	268.94
303.59	275.94
303.82	268.94
304.051	269.94
304.281	270.94
304.511	263.94
304.741	257.94
304.971	248.94
305.201	272.94
305.431	262.94
305.661	269.94
305.891	249.94
306.121	283.94
306.352	252.94
306.582	271.94
306.812	261.94
307.042	270.94
307.272	253.94
307.502	250.94
307.731	284.94
307.961	274.94
308.191	268.94
308.421	281.94
308.651	286.94
308.881	290.94
309.111	287.94
309.341	297.94
309.571	275.94
309.8	294.94
310.03	301.94
310.26	306.94
310.49	324.94
310.72	316.94
310.949	328.94
311.179	325.94
311.409	326.94
311.639	298.94
311.868	324.94
312.098	301.94
312.328	324.94
312.557	321.94
312.787	349.94
313.017	331.94
313.246	312.94
313.476	316.94
313.706	312.94
313.935	313.94
314.165	335.94
314.394	340.94
314.624	315.94
314.853	314.94
315.083	333.94
315.312	323.94
315.542	305.94
315.771	301.94
316.001	311.94
316.23	284.94
316.46	302.94
316.689	323.94
316.919	309.94
317.148	310.94
317.377	327.94
317.607	324.94
317.836	310.94
318.065	318.94
318.295	313.94
318.524	303.94
318.753	299.94
318.983	303.94
319.212	296.94
319.441	324.94
319.67	339.94
319.9	304.94
320.129	303.94
320.358	309.94
320.587	321.94
320.816	327.94
321.046	324.94
321.275	324.94
321.504	320.94
321.733	335.94
321.962	336.94
322.191	335.94
322.42	344.94
322.649	364.94
322.878	365.94
323.108	366.94
323.337	405.94
323.566	428.94
323.795	433.94
324.024	476.94
324.253	594.94
324.482	825.94
324.71	1258.94
324.939	1688.94
325.168	1451.94
325.397	778.94
325.626	511.94
325.855	467.94
326.084	412.94
326.313	410.94
326.542	416.94
326.77	460.94
326.999	545.94
327.228	731.94
327.457	1089.94
327.686	1271.94
327.914	872.94
328.143	612.94
328.372	510.94
328.6	488.94
328.829	460.94
329.058	463.94
329.287	477.94
329.515	464.94
329.744	432.94
329.972	412.94
330.201	439.94
330.43	448.94
330.658	469.94
330.887	496.94
331.115	483.94
331.344	417.94
331.572	396.94
331.801	416.94
332.03	386.94
332.258	380.94
332.486	394.94
332.715	372.94
332.943	361.94
333.172	375.94
333.4	363.94
333.629	380.94
333.857	400.94
334.085	381.94
334.314	405.94
334.542	416.94
334.771	415.94
334.999	393.94
335.227	368.94
335.455	349.94
335.684	364.94
335.912	369.94
336.14	369.94
336.369	345.94
336.597	368.94
336.825	364.94
337.053	374.94
337.281	350.94
337.51	362.94
337.738	348.94
337.966	343.94
338.194	366.94
338.422	352.94
338.65	352.94
338.878	344.94
339.106	350.94
339.334	344.94
339.562	333.94
339.79	328.94
340.018	338.94
340.246	335.94
340.474	354.94
340.702	346.94
340.93	343.94
341.158	362.94
341.386	356.94
341.614	336.94
341.842	336.94
342.07	330.94
342.298	328.94
342.526	336.94
342.754	338.94
342.981	336.94
343.209	320.94
343.437	341.94
343.665	327.94
343.893	344.94
344.12	345.94
344.348	362.94
344.576	372.94
344.804	363.94
345.031	379.94
345.259	379.94
345.487	359.94
345.714	350.94
345.942	356.94
346.17	334.94
346.397	333.94
346.625	349.94
346.853	347.94
347.08	334.94
347.308	336.94
347.535	349.94
347.763	364.94
347.99	346.94
348.218	346.94
348.445	363.94
348.673	337.94
348.9	352.94
349.128	340.94
349.355	319.94
349.583	337.94
349.81	334.94
350.037	332.94
350.265	336.94
350.492	341.94
350.72	330.94
350.947	330.94
351.174	347.94
351.402	335.94
351.629	344.94
351.856	339.94
352.083	367.94
352.311	362.94
352.538	346.94
352.765	363.94
352.992	351.94
353.22	354.94
353.447	348.94
353.674	350.94
353.901	315.94
354.128	332.94
354.355	328.94
354.583	338.94
354.81	326.94
355.037	318.94
355.264	308.94
355.491	319.94
355.718	325.94
355.945	324.94
356.172	310.94
356.399	321.94
356.626	308.94
356.853	310.94
357.08	330.94
357.307	311.94
357.534	327.94
357.761	317.94
357.988	313.94
358.215	320.94
358.441	309.94
358.668	315.94
358.895	328.94
359.122	324.94
359.349	343.94
359.576	326.94
359.802	363.94
360.029	392.94
360.256	402.94
360.483	365.94
360.709	330.94
360.936	353.94
361.163	349.94
361.39	347.94
361.616	349.94
361.843	338.94
362.07	351.94
362.296	339.94
362.523	338.94
362.749	338.94
362.976	339.94
363.203	327.94
363.429	326.94
363.656	334.94
363.882	334.94
364.109	326.94
364.335	323.94
364.562	335.94
364.788	315.94
365.015	329.94
365.241	313.94
365.468	336.94
365.694	339.94
365.92	330.94
366.147	320.94
366.373	336.94
366.599	327.94
366.826	331.94
367.052	320.94
367.278	335.94
367.505	317.94
367.731	335.94
367.957	334.94
368.184	332.94
368.41	331.94
368.636	325.94
368.862	335.94
369.089	348.94
369.315	324.94
369.541	339.94
369.767	329.94
369.993	333.94
370.219	315.94
370.445	329.94
370.672	320.94
370.898	318.94
371.124	320.94
371.35	314.94
371.576	325.94
371.802	321.94
372.028	319.94
372.254	313.94
372.48	330.94
372.706	327.94
372.932	329.94
373.158	336.94
373.384	344.94
373.61	341.94
373.835	320.94
374.061	337.94
374.287	316.94
374.513	328.94
374.739	328.94
374.965	337.94
375.191	332.94
375.416	328.94
375.642	336.94
375.868	333.94
376.094	319.94
376.319	317.94
376.545	332.94
376.771	325.94
376.997	320.94
377.222	337.94
377.448	312.94
377.674	319.94
377.899	317.94
378.125	326.94
378.35	311.94
378.576	305.94
378.802	303.94
379.027	332.94
379.253	335.94
379.478	337.94
379.704	321.94
379.929	324.94
380.155	308.94
380.38	306.94
380.606	320.94
380.831	322.94
381.057	336.94
381.282	326.94
381.507	333.94
381.733	336.94
381.958	333.94
382.184	326.94
382.409	342.94
382.634	329.94
382.86	322.94
383.085	344.94
383.31	320.94
383.535	322.94
383.761	314.94
383.986	335.94
384.211	334.94
384.436	338.94
384.662	325.94
384.887	355.94
385.112	338.94
385.337	350.94
385.562	350.94
385.787	345.94
386.013	363.94
386.238	353.94
386.463	361.94
386.688	364.94
386.913	346.94
387.138	352.94
387.363	360.94
387.588	365.94
387.813	332.94
388.038	333.94
388.263	345.94
388.488	354.94
388.713	336.94
388.938	353.94
389.163	357.94
389.387	374.94
389.612	337.94
389.837	342.94
390.062	340.94
390.287	363.94
390.512	349.94
390.736	338.94
390.961	367.94
391.186	351.94
391.411	321.94
391.636	357.94
391.86	348.94
392.085	361.94
392.31	378.94
392.534	349.94
392.759	343.94
392.984	355.94
393.208	361.94
393.433	346.94
393.658	367.94
393.882	353.94
394.107	333.94
394.331	369.94
394.556	329.94
394.78	342.94
395.005	364.94
395.229	360.94
395.454	352.94
395.678	357.94
395.903	346.94
396.127	373.94
396.352	384.94
396.576	363.94
396.801	365.94
397.025	381.94
397.249	364.94
397.474	376.94
397.698	375.94
397.922	381.94
398.147	370.94
398.371	400.94
398.595	381.94
398.82	400.94
399.044	394.94
399.268	401.94
399.492	415.94
399.717	446.94
399.941	456.94
400.165	466.94
400.389	483.94
400.613	427.94
400.837	409.94
401.062	387.94
401.286	420.94
401.51	394.94
401.734	386.94
401.958	398.94
402.182	400.94
402.406	386.94
402.63	394.94
402.854	414.94
403.078	385.94
403.302	397.94
403.526	400.94
403.75	403.94
403.974	394.94
404.198	386.94
404.422	428.94
404.645	422.94
404.869	424.94
405.093	432.94
405.317	476.94
405.541	489.94
405.765	464.94
405.988	417.94
406.212	407.94
406.436	439.94
406.66	462.94
406.883	427.94
407.107	448.94
407.331	485.94
407.555	527.94
407.778	528.94
408.002	484.94
408.226	437.94
408.449	449.94
408.673	450.94
408.896	458.94
409.12	522.94
409.344	469.94
409.567	422.94
409.791	428.94
410.014	420.94
410.238	407.94
410.461	409.94
410.685	423.94
410.908	406.94
411.132	450.94
411.355	484.94
411.578	440.94
411.802	418.94
412.025	399.94
412.249	431.94
412.472	419.94
412.695	448.94
412.919	457.94
413.142	430.94
413.365	395.94
413.589	391.94
413.812	384.94
414.035	391.94
414.258	381.94
414.482	376.94
414.705	371.94
414.928	381.94
415.151	374.94
415.374	391.94
415.597	373.94
415.821	375.94
416.044	368.94
416.267	386.94
416.49	385.94
416.713	376.94
416.936	365.94
417.159	392.94
417.382	384.94
417.605	400.94
417.828	402.94
418.051	414.94
418.274	391.94
418.497	365.94
418.72	372.94
418.943	390.94
419.166	409.94
419.389	403.94
419.611	409.94
419.834	381.94
420.057	388.94
420.28	405.94
420.503	384.94
420.726	398.94
420.948	410.94
421.171	457.94
421.394	461.94
421.617	424.94
421.839	394.94
422.062	396.94
422.285	402.94
422.507	464.94
422.73	516.94
422.953	467.94
423.175	426.94
423.398	416.94
423.621	416.94
423.843	415.94
424.066	428.94
424.288	427.94
424.511	444.94
424.733	474.94
424.956	524.94
425.178	520.94
425.401	522.94
425.623	528.94
425.846	459.94
426.068	452.94
426.291	432.94
426.513	446.94
426.735	437.94
426.958	466.94
427.18	527.94
427.402	634.94
427.625	679.94
427.847	599.94
428.069	511.94
428.292	470.94
428.514	433.94
428.736	412.94
428.958	421.94
429.181	406.94
429.403	406.94
429.625	404.94
429.847	427.94
430.069	476.94
430.292	466.94
430.514	429.94
430.736	420.94
430.958	413.94
431.18	390.94
431.402	377.94
431.624	398.94
431.846	391.94
432.068	396.94
432.29	388.94
432.512	383.94
432.734	366.94
432.956	396.94
433.178	372.94
433.4	391.94
433.622	392.94
433.844	374.94
434.066	392.94
434.287	368.94
434.509	366.94
434.731	392.94
434.953	387.94
435.175	408.94
435.397	426.94
435.618	417.94
435.84	501.94
436.062	524.94
436.284	548.94
436.505	487.94
436.727	441.94
436.949	410.94
437.17	415.94
437.392	420.94
437.614	417.94
437.835	454.94
438.057	528.94
438.278	589.94
438.5	591.94
438.721	621.94
438.943	605.94
439.165	482.94
439.386	432.94
439.608	450.94
439.829	452.94
440.05	452.94
440.272	480.94
440.493	461.94
440.715	438.94
440.936	421.94
441.158	420.94
441.379	414.94
441.6	439.94
441.822	432.94
442.043	462.94
442.264	500.94
442.486	568.94
442.707	492.94
442.928	474.94
443.149	444.94
443.371	446.94
443.592	472.94
443.813	549.94
444.034	587.94
444.255	505.94
444.476	454.94
444.698	424.94
444.919	438.94
445.14	502.94
445.361	477.94
445.582	465.94
445.803	526.94
446.024	578.94
446.245	601.94
446.466	531.94
446.687	486.94
446.908	452.94
447.129	408.94
447.35	425.94
447.571	406.94
447.792	402.94
448.013	406.94
448.234	419.94
448.455	460.94
448.675	544.94
448.896	626.94
449.117	539.94
449.338	500.94
449.559	590.94
449.779	644.94
450	528.94
450.221	469.94
450.442	412.94
450.662	396.94
450.883	406.94
451.104	421.94
451.324	422.94
451.545	393.94
451.766	380.94
451.986	373.94
452.207	360.94
452.428	365.94
452.648	384.94
452.869	374.94
453.089	383.94
453.31	389.94
453.53	379.94
453.751	362.94
453.971	388.94
454.192	403.94
454.412	375.94
454.633	363.94
454.853	360.94
455.073	376.94
455.294	399.94
455.514	452.94
455.734	450.94
455.955	371.94
456.175	368.94
456.395	349.94
456.616	350.94
456.836	342.94
457.056	344.94
457.276	332.94
457.497	341.94
457.717	359.94
457.937	350.94
458.157	362.94
458.377	368.94
458.598	383.94
458.818	438.94
459.038	487.94
459.258	482.94
459.478	426.94
459.698	399.94
459.918	384.94
460.138	374.94
460.358	370.94
460.578	384.94
460.798	388.94
461.018	388.94
461.238	398.94
461.458	381.94
461.678	376.94
461.898	390.94
462.118	398.94
462.338	374.94
462.558	378.94
462.777	398.94
462.997	417.94
463.217	419.94
463.437	408.94
463.657	417.94
463.876	406.94
464.096	411.94
464.316	393.94
464.536	430.94
464.755	409.94
464.975	414.94
465.195	458.94
465.414	552.94
465.634	481.94
465.854	432.94
466.073	384.94
466.293	384.94
466.512	387.94
466.732	383.94
466.951	364.94
467.171	370.94
467.391	378.94
467.61	392.94
467.829	410.94
468.049	410.94
468.268	382.94
468.488	376.94
468.707	364.94
468.927	378.94
469.146	358.94
469.365	380.94
469.585	384.94
469.804	376.94
470.023	383.94
470.243	400.94
470.462	415.94
470.681	406.94
470.901	413.94
471.12	376.94
471.339	375.94
471.558	383.94
471.777	377.94
471.997	380.94
472.216	392.94
472.435	411.94
472.654	403.94
472.873	393.94
473.092	385.94
473.311	384.94
473.53	384.94
473.749	389.94
473.968	417.94
474.187	518.94
474.406	515.94
474.625	425.94
474.844	392.94
475.063	414.94
475.282	385.94
475.501	382.94
475.72	401.94
475.939	402.94
476.158	390.94
476.377	391.94
476.596	399.94
476.814	416.94
477.033	408.94
477.252	429.94
477.471	434.94
477.69	402.94
477.908	399.94
478.127	413.94
478.346	414.94
478.564	427.94
478.783	417.94
479.002	446.94
479.22	413.94
479.439	424.94
479.658	475.94
479.876	465.94
480.095	453.94
480.313	481.94
480.532	482.94
480.751	450.94
480.969	465.94
481.188	530.94
481.406	570.94
481.624	497.94
481.843	488.94
482.061	460.94
482.28	458.94
482.498	440.94
482.717	445.94
482.935	443.94
483.153	462.94
483.372	433.94
483.59	446.94
483.808	460.94
484.027	455.94
484.245	439.94
484.463	478.94
484.681	453.94
484.9	456.94
485.118	465.94
485.336	472.94
485.554	466.94
485.772	466.94
485.99	466.94
486.209	467.94
486.427	469.94
486.645	473.94
486.863	484.94
487.081	467.94
487.299	489.94
487.517	478.94
487.735	487.94
487.953	469.94
488.171	500.94
488.389	486.94
488.607	500.94
488.825	513.94
489.043	484.94
489.261	497.94
489.479	470.94
489.696	480.94
489.914	497.94
490.132	482.94
490.35	478.94
490.568	508.94
490.786	525.94
491.003	506.94
491.221	543.94
491.439	553.94
491.657	553.94
491.874	554.94
492.092	542.94
492.31	560.94
492.527	535.94
492.745	550.94
492.963	530.94
493.18	545.94
493.398	572.94
493.615	545.94
493.833	565.94
494.05	543.94
494.268	546.94
494.485	572.94
494.703	562.94
494.92	559.94
495.138	558.94
495.355	556.94
495.573	548.94
495.79	561.94
496.008	583.94
496.225	572.94
496.442	548.94
496.66	597.94
496.877	573.94
497.094	573.94
497.312	605.94
497.529	568.94
497.746	572.94
497.963	597.94
498.181	606.94
498.398	601.94
498.615	617.94
498.832	617.94
499.049	610.94
499.267	657.94
499.484	650.94
499.701	677.94
499.918	691.94
500.135	720.94
500.352	709.94
500.569	738.94
500.786	711.94
501.003	727.94
501.22	704.94
501.437	704.94
501.654	684.94
501.871	711.94
