Data from 1965.PennyLincolnUp.Lamp.En5.5.200Scan.071719.P1._HRD10591_14-07-49-910.txt Node
Date: Thu Jul 18 14:07:49 EDT 2019
User: cochatt
Spectrometer: HR+D1059
Trigger mode: 1
Integration Time (sec): 1.000000E-1
Scans to average: 1
Electric dark correction enabled: true
Nonlinearity correction enabled: false
Boxcar width: 0
XAxis mode: Wavelengths
Number of Pixels in Spectrum: 2048
>>>>>Begin Spectral Data<<<<<
223.165	-13.31
223.4	-13.31
223.635	-13.31
223.869	-17.31
224.104	-15.31
224.338	-24.31
224.573	0.69
224.808	-12.31
225.042	-7.31
225.277	-8.31
225.511	-6.31
225.746	9.69
225.98	-6.31
226.215	16.69
226.449	19.69
226.683	11.69
226.918	23.69
227.152	28.69
227.387	26.69
227.621	33.69
227.856	34.69
228.09	37.69
228.324	39.69
228.559	60.69
228.793	63.69
229.027	68.69
229.262	89.69
229.496	105.69
229.73	124.69
229.964	130.69
230.199	123.69
230.433	93.69
230.667	92.69
230.901	91.69
231.136	89.69
231.37	100.69
231.604	92.69
231.838	100.69
232.072	107.69
232.306	103.69
232.541	95.69
232.775	87.69
233.009	92.69
233.243	102.69
233.477	93.69
233.711	107.69
233.945	95.69
234.179	94.69
234.413	104.69
234.647	95.69
234.881	102.69
235.115	103.69
235.349	94.69
235.583	105.69
235.817	117.69
236.051	113.69
236.285	111.69
236.519	105.69
236.753	111.69
236.987	114.69
237.221	142.69
237.455	175.69
237.689	142.69
237.922	116.69
238.156	102.69
238.39	110.69
238.624	107.69
238.858	102.69
239.091	97.69
239.325	98.69
239.559	104.69
239.793	104.69
240.027	99.69
240.26	91.69
240.494	127.69
240.728	128.69
240.961	105.69
241.195	122.69
241.429	93.69
241.662	113.69
241.896	111.69
242.13	116.69
242.363	127.69
242.597	109.69
242.83	125.69
243.064	118.69
243.298	136.69
243.531	123.69
243.765	122.69
243.998	115.69
244.232	118.69
244.465	108.69
244.699	99.69
244.932	120.69
245.166	119.69
245.399	120.69
245.633	110.69
245.866	124.69
246.099	116.69
246.333	119.69
246.566	114.69
246.8	115.69
247.033	119.69
247.266	133.69
247.5	133.69
247.733	141.69
247.966	140.69
248.2	128.69
248.433	148.69
248.666	143.69
248.899	153.69
249.133	164.69
249.366	157.69
249.599	149.69
249.832	143.69
250.066	151.69
250.299	147.69
250.532	141.69
250.765	156.69
250.998	173.69
251.231	180.69
251.465	170.69
251.698	154.69
251.931	139.69
252.164	153.69
252.397	152.69
252.63	146.69
252.863	166.69
253.096	182.69
253.329	171.69
253.562	171.69
253.795	169.69
254.028	168.69
254.261	165.69
254.494	170.69
254.727	197.69
254.96	205.69
255.193	209.69
255.426	177.69
255.659	182.69
255.892	172.69
256.124	175.69
256.357	167.69
256.59	149.69
256.823	169.69
257.056	176.69
257.289	169.69
257.521	165.69
257.754	170.69
257.987	163.69
258.22	165.69
258.452	148.69
258.685	157.69
258.918	155.69
259.151	155.69
259.383	162.69
259.616	156.69
259.849	167.69
260.081	191.69
260.314	195.69
260.547	173.69
260.779	190.69
261.012	200.69
261.244	173.69
261.477	171.69
261.71	158.69
261.942	179.69
262.175	186.69
262.407	194.69
262.64	169.69
262.872	166.69
263.105	171.69
263.337	173.69
263.57	170.69
263.802	172.69
264.035	170.69
264.267	165.69
264.499	155.69
264.732	167.69
264.964	153.69
265.197	161.69
265.429	151.69
265.661	154.69
265.894	165.69
266.126	167.69
266.358	168.69
266.591	173.69
266.823	175.69
267.055	177.69
267.287	181.69
267.52	159.69
267.752	175.69
267.984	158.69
268.216	168.69
268.448	179.69
268.681	197.69
268.913	185.69
269.145	180.69
269.377	208.69
269.609	191.69
269.841	203.69
270.073	202.69
270.306	202.69
270.538	216.69
270.77	238.69
271.002	219.69
271.234	208.69
271.466	222.69
271.698	229.69
271.93	217.69
272.162	238.69
272.394	225.69
272.626	211.69
272.858	213.69
273.09	203.69
273.322	197.69
273.553	205.69
273.785	212.69
274.017	193.69
274.249	205.69
274.481	190.69
274.713	186.69
274.945	200.69
275.176	213.69
275.408	202.69
275.64	203.69
275.872	200.69
276.104	210.69
276.335	207.69
276.567	201.69
276.799	197.69
277.031	233.69
277.262	236.69
277.494	224.69
277.726	217.69
277.957	213.69
278.189	195.69
278.421	211.69
278.652	219.69
278.884	202.69
279.115	204.69
279.347	205.69
279.579	203.69
279.81	216.69
280.042	204.69
280.273	197.69
280.505	190.69
280.736	195.69
280.968	187.69
281.199	180.69
281.431	177.69
281.662	204.69
281.894	191.69
282.125	213.69
282.356	226.69
282.588	226.69
282.819	238.69
283.051	213.69
283.282	201.69
283.513	204.69
283.745	212.69
283.976	206.69
284.207	203.69
284.439	214.69
284.67	219.69
284.901	207.69
285.132	218.69
285.364	214.69
285.595	213.69
285.826	191.69
286.057	225.69
286.288	192.69
286.52	219.69
286.751	220.69
286.982	201.69
287.213	218.69
287.444	218.69
287.675	224.69
287.906	210.69
288.138	232.69
288.369	233.69
288.6	211.69
288.831	217.69
289.062	222.69
289.293	220.69
289.524	218.69
289.755	241.69
289.986	211.69
290.217	213.69
290.448	198.69
290.679	220.69
290.91	225.69
291.141	216.69
291.371	194.69
291.602	199.69
291.833	193.69
292.064	210.69
292.295	213.69
292.526	223.69
292.757	200.69
292.987	231.69
293.218	221.69
293.449	229.69
293.68	213.69
293.91	225.69
294.141	217.69
294.372	215.69
294.603	224.69
294.833	236.69
295.064	210.69
295.295	227.69
295.525	226.69
295.756	226.69
295.987	227.69
296.217	253.69
296.448	253.69
296.679	237.69
296.909	230.69
297.14	229.69
297.37	231.69
297.601	234.69
297.831	225.69
298.062	233.69
298.292	225.69
298.523	233.69
298.753	234.69
298.984	214.69
299.214	228.69
299.445	221.69
299.675	236.69
299.905	225.69
300.136	225.69
300.366	235.69
300.597	232.69
300.827	253.69
301.057	229.69
301.288	249.69
301.518	245.69
301.748	237.69
301.979	236.69
302.209	231.69
302.439	247.69
302.669	232.69
302.9	237.69
303.13	226.69
303.36	253.69
303.59	243.69
303.82	225.69
304.051	243.69
304.281	245.69
304.511	245.69
304.741	263.69
304.971	252.69
305.201	244.69
305.431	238.69
305.661	249.69
305.891	257.69
306.121	250.69
306.352	255.69
306.582	252.69
306.812	229.69
307.042	252.69
307.272	251.69
307.502	247.69
307.731	245.69
307.961	254.69
308.191	232.69
308.421	251.69
308.651	265.69
308.881	244.69
309.111	259.69
309.341	259.69
309.571	263.69
309.8	278.69
310.03	271.69
310.26	285.69
310.49	269.69
310.72	283.69
310.949	281.69
311.179	284.69
311.409	279.69
311.639	274.69
311.868	281.69
312.098	283.69
312.328	278.69
312.557	295.69
312.787	286.69
313.017	287.69
313.246	271.69
313.476	270.69
313.706	285.69
313.935	277.69
314.165	293.69
314.394	296.69
314.624	292.69
314.853	290.69
315.083	282.69
315.312	274.69
315.542	280.69
315.771	273.69
316.001	276.69
316.23	266.69
316.46	273.69
316.689	279.69
316.919	281.69
317.148	284.69
317.377	282.69
317.607	286.69
317.836	289.69
318.065	277.69
318.295	278.69
318.524	287.69
318.753	301.69
318.983	281.69
319.212	265.69
319.441	274.69
319.67	269.69
319.9	266.69
320.129	276.69
320.358	285.69
320.587	300.69
320.816	292.69
321.046	302.69
321.275	297.69
321.504	313.69
321.733	310.69
321.962	295.69
322.191	318.69
322.42	296.69
322.649	321.69
322.878	341.69
323.108	336.69
323.337	347.69
323.566	364.69
323.795	379.69
324.024	423.69
324.253	524.69
324.482	708.69
324.71	1070.69
324.939	1464.69
325.168	1233.69
325.397	633.69
325.626	444.69
325.855	397.69
326.084	367.69
326.313	354.69
326.542	363.69
326.77	380.69
326.999	465.69
327.228	659.69
327.457	939.69
327.686	1088.69
327.914	722.69
328.143	491.69
328.372	456.69
328.6	415.69
328.829	397.69
329.058	405.69
329.287	409.69
329.515	383.69
329.744	358.69
329.972	377.69
330.201	382.69
330.43	395.69
330.658	407.69
330.887	442.69
331.115	423.69
331.344	378.69
331.572	339.69
331.801	365.69
332.03	348.69
332.258	349.69
332.486	321.69
332.715	316.69
332.943	332.69
333.172	317.69
333.4	326.69
333.629	334.69
333.857	335.69
334.085	354.69
334.314	365.69
334.542	369.69
334.771	399.69
334.999	364.69
335.227	365.69
335.455	325.69
335.684	344.69
335.912	335.69
336.14	304.69
336.369	337.69
336.597	333.69
336.825	332.69
337.053	334.69
337.281	324.69
337.51	324.69
337.738	336.69
337.966	313.69
338.194	338.69
338.422	312.69
338.65	309.69
338.878	308.69
339.106	307.69
339.334	332.69
339.562	317.69
339.79	323.69
340.018	315.69
340.246	322.69
340.474	325.69
340.702	315.69
340.93	318.69
341.158	327.69
341.386	317.69
341.614	309.69
341.842	308.69
342.07	302.69
342.298	309.69
342.526	324.69
342.754	325.69
342.981	314.69
343.209	317.69
343.437	310.69
343.665	322.69
343.893	301.69
344.12	313.69
344.348	326.69
344.576	330.69
344.804	332.69
345.031	333.69
345.259	343.69
345.487	326.69
345.714	314.69
345.942	305.69
346.17	325.69
346.397	316.69
346.625	309.69
346.853	321.69
347.08	311.69
347.308	322.69
347.535	330.69
347.763	318.69
347.99	318.69
348.218	301.69
348.445	320.69
348.673	328.69
348.9	313.69
349.128	311.69
349.355	319.69
349.583	302.69
349.81	316.69
350.037	296.69
350.265	297.69
350.492	278.69
350.72	316.69
350.947	305.69
351.174	316.69
351.402	315.69
351.629	313.69
351.856	312.69
352.083	314.69
352.311	321.69
352.538	328.69
352.765	325.69
352.992	319.69
353.22	310.69
353.447	306.69
353.674	298.69
353.901	310.69
354.128	297.69
354.355	295.69
354.583	307.69
354.81	303.69
355.037	289.69
355.264	293.69
355.491	281.69
355.718	299.69
355.945	298.69
356.172	275.69
356.399	274.69
356.626	295.69
356.853	295.69
357.08	293.69
357.307	307.69
357.534	301.69
357.761	290.69
357.988	289.69
358.215	311.69
358.441	287.69
358.668	308.69
358.895	304.69
359.122	306.69
359.349	291.69
359.576	310.69
359.802	318.69
360.029	362.69
360.256	360.69
360.483	340.69
360.709	332.69
360.936	312.69
361.163	300.69
361.39	317.69
361.616	318.69
361.843	311.69
362.07	319.69
362.296	297.69
362.523	318.69
362.749	302.69
362.976	303.69
363.203	311.69
363.429	292.69
363.656	300.69
363.882	288.69
364.109	317.69
364.335	290.69
364.562	315.69
364.788	306.69
365.015	310.69
365.241	280.69
365.468	307.69
365.694	317.69
365.92	299.69
366.147	305.69
366.373	305.69
366.599	300.69
366.826	301.69
367.052	307.69
367.278	297.69
367.505	301.69
367.731	296.69
367.957	300.69
368.184	308.69
368.41	300.69
368.636	312.69
368.862	316.69
369.089	303.69
369.315	322.69
369.541	308.69
369.767	298.69
369.993	300.69
370.219	281.69
370.445	295.69
370.672	307.69
370.898	307.69
371.124	294.69
371.35	305.69
371.576	296.69
371.802	297.69
372.028	305.69
372.254	316.69
372.48	296.69
372.706	319.69
372.932	301.69
373.158	317.69
373.384	302.69
373.61	320.69
373.835	309.69
374.061	303.69
374.287	307.69
374.513	314.69
374.739	299.69
374.965	310.69
375.191	313.69
375.416	309.69
375.642	306.69
375.868	307.69
376.094	306.69
376.319	306.69
376.545	309.69
376.771	308.69
376.997	292.69
377.222	298.69
377.448	311.69
377.674	301.69
377.899	278.69
378.125	307.69
378.35	306.69
378.576	300.69
378.802	289.69
379.027	301.69
379.253	293.69
379.478	294.69
379.704	289.69
379.929	305.69
380.155	291.69
380.38	305.69
380.606	305.69
380.831	297.69
381.057	297.69
381.282	307.69
381.507	310.69
381.733	314.69
381.958	315.69
382.184	308.69
382.409	313.69
382.634	305.69
382.86	295.69
383.085	293.69
383.31	322.69
383.535	319.69
383.761	316.69
383.986	314.69
384.211	325.69
384.436	323.69
384.662	336.69
384.887	328.69
385.112	313.69
385.337	309.69
385.562	309.69
385.787	323.69
386.013	333.69
386.238	315.69
386.463	329.69
386.688	332.69
386.913	316.69
387.138	300.69
387.363	338.69
387.588	305.69
387.813	317.69
388.038	324.69
388.263	315.69
388.488	327.69
388.713	344.69
388.938	331.69
389.163	327.69
389.387	330.69
389.612	330.69
389.837	332.69
390.062	325.69
390.287	325.69
390.512	313.69
390.736	331.69
390.961	334.69
391.186	328.69
391.411	315.69
391.636	334.69
391.86	323.69
392.085	338.69
392.31	317.69
392.534	321.69
392.759	338.69
392.984	327.69
393.208	335.69
393.433	336.69
393.658	334.69
393.882	336.69
394.107	328.69
394.331	331.69
394.556	320.69
394.78	330.69
395.005	337.69
395.229	331.69
395.454	324.69
395.678	341.69
395.903	352.69
396.127	348.69
396.352	353.69
396.576	343.69
396.801	341.69
397.025	354.69
397.249	356.69
397.474	341.69
397.698	358.69
397.922	349.69
398.147	352.69
398.371	377.69
398.595	338.69
398.82	358.69
399.044	368.69
399.268	385.69
399.492	374.69
399.717	424.69
399.941	448.69
400.165	439.69
400.389	469.69
400.613	418.69
400.837	395.69
401.062	377.69
401.286	383.69
401.51	356.69
401.734	358.69
401.958	364.69
402.182	362.69
402.406	377.69
402.63	375.69
402.854	366.69
403.078	362.69
403.302	363.69
403.526	394.69
403.75	385.69
403.974	360.69
404.198	361.69
404.422	365.69
404.645	400.69
404.869	379.69
405.093	399.69
405.317	416.69
405.541	426.69
405.765	405.69
405.988	407.69
406.212	400.69
406.436	415.69
406.66	424.69
406.883	424.69
407.107	430.69
407.331	446.69
407.555	483.69
407.778	486.69
408.002	438.69
408.226	433.69
408.449	408.69
408.673	409.69
408.896	426.69
409.12	428.69
409.344	450.69
409.567	403.69
409.791	389.69
410.014	381.69
410.238	385.69
410.461	392.69
410.685	369.69
410.908	397.69
411.132	404.69
411.355	424.69
411.578	411.69
411.802	393.69
412.025	378.69
412.249	392.69
412.472	397.69
412.695	417.69
412.919	423.69
413.142	388.69
413.365	375.69
413.589	361.69
413.812	360.69
414.035	357.69
414.258	375.69
414.482	370.69
414.705	382.69
414.928	362.69
415.151	363.69
415.374	369.69
415.597	365.69
415.821	363.69
416.044	363.69
416.267	375.69
416.49	345.69
416.713	365.69
416.936	361.69
417.159	349.69
417.382	372.69
417.605	366.69
417.828	361.69
418.051	365.69
418.274	374.69
418.497	363.69
418.72	353.69
418.943	378.69
419.166	371.69
419.389	388.69
419.611	390.69
419.834	385.69
420.057	360.69
420.28	377.69
420.503	349.69
420.726	356.69
420.948	373.69
421.171	396.69
421.394	415.69
421.617	378.69
421.839	377.69
422.062	380.69
422.285	392.69
422.507	438.69
422.73	465.69
422.953	444.69
423.175	387.69
423.398	377.69
423.621	397.69
423.843	397.69
424.066	413.69
424.288	405.69
424.511	408.69
424.733	441.69
424.956	487.69
425.178	485.69
425.401	468.69
425.623	495.69
425.846	415.69
426.068	410.69
426.291	397.69
426.513	397.69
426.735	413.69
426.958	436.69
427.18	502.69
427.402	569.69
427.625	621.69
427.847	536.69
428.069	482.69
428.292	446.69
428.514	401.69
428.736	378.69
428.958	380.69
429.181	378.69
429.403	377.69
429.625	374.69
429.847	394.69
430.069	449.69
430.292	417.69
430.514	385.69
430.736	364.69
430.958	358.69
431.18	350.69
431.402	350.69
431.624	355.69
431.846	354.69
432.068	363.69
432.29	356.69
432.512	357.69
432.734	354.69
432.956	353.69
433.178	366.69
433.4	384.69
433.622	367.69
433.844	359.69
434.066	370.69
434.287	355.69
434.509	379.69
434.731	378.69
434.953	358.69
435.175	379.69
435.397	397.69
435.618	390.69
435.84	420.69
436.062	465.69
436.284	523.69
436.505	457.69
436.727	405.69
436.949	377.69
437.17	370.69
437.392	381.69
437.614	378.69
437.835	412.69
438.057	477.69
438.278	527.69
438.5	565.69
438.721	585.69
438.943	551.69
439.165	453.69
439.386	413.69
439.608	418.69
439.829	399.69
440.05	437.69
440.272	444.69
440.493	428.69
440.715	402.69
440.936	384.69
441.158	382.69
441.379	378.69
441.6	422.69
441.822	422.69
442.043	419.69
442.264	493.69
442.486	533.69
442.707	433.69
442.928	411.69
443.149	414.69
443.371	425.69
443.592	470.69
443.813	499.69
444.034	543.69
444.255	463.69
444.476	404.69
444.698	413.69
444.919	395.69
445.14	475.69
445.361	441.69
445.582	455.69
445.803	471.69
446.024	538.69
446.245	541.69
446.466	481.69
446.687	427.69
446.908	397.69
447.129	396.69
447.35	379.69
447.571	375.69
447.792	353.69
448.013	387.69
448.234	399.69
448.455	414.69
448.675	487.69
448.896	577.69
449.117	471.69
449.338	473.69
449.559	540.69
449.779	571.69
450	479.69
450.221	410.69
450.442	369.69
450.662	371.69
450.883	370.69
451.104	383.69
451.324	382.69
451.545	364.69
451.766	341.69
451.986	358.69
452.207	346.69
452.428	339.69
452.648	326.69
452.869	344.69
453.089	349.69
453.31	345.69
453.53	343.69
453.751	347.69
453.971	323.69
454.192	367.69
454.412	344.69
454.633	327.69
454.853	345.69
455.073	339.69
455.294	368.69
455.514	409.69
455.734	407.69
455.955	338.69
456.175	318.69
456.395	321.69
456.616	331.69
456.836	318.69
457.056	334.69
457.276	309.69
457.497	317.69
457.717	297.69
457.937	329.69
458.157	334.69
458.377	331.69
458.598	359.69
458.818	396.69
459.038	455.69
459.258	465.69
459.478	402.69
459.698	369.69
459.918	357.69
460.138	358.69
460.358	341.69
460.578	362.69
460.798	376.69
461.018	373.69
461.238	364.69
461.458	352.69
461.678	366.69
461.898	375.69
462.118	341.69
462.338	372.69
462.558	379.69
462.777	383.69
462.997	393.69
463.217	392.69
463.437	385.69
463.657	405.69
463.876	375.69
464.096	381.69
464.316	376.69
464.536	380.69
464.755	380.69
464.975	395.69
465.195	398.69
465.414	469.69
465.634	411.69
465.854	385.69
466.073	366.69
466.293	369.69
466.512	343.69
466.732	354.69
466.951	355.69
467.171	363.69
467.391	365.69
467.61	380.69
467.829	360.69
468.049	367.69
468.268	369.69
468.488	361.69
468.707	330.69
468.927	340.69
469.146	303.69
469.365	340.69
469.585	338.69
469.804	344.69
470.023	366.69
470.243	345.69
470.462	360.69
470.681	355.69
470.901	360.69
471.12	376.69
471.339	373.69
471.558	363.69
471.777	365.69
471.997	350.69
472.216	349.69
472.435	380.69
472.654	363.69
472.873	344.69
473.092	364.69
473.311	354.69
473.53	347.69
473.749	365.69
473.968	395.69
474.187	451.69
474.406	468.69
474.625	382.69
474.844	391.69
475.063	357.69
475.282	355.69
475.501	356.69
475.72	367.69
475.939	369.69
476.158	364.69
476.377	356.69
476.596	362.69
476.814	373.69
477.033	395.69
477.252	390.69
477.471	394.69
477.69	379.69
477.908	394.69
478.127	386.69
478.346	397.69
478.564	399.69
478.783	398.69
479.002	403.69
479.22	393.69
479.439	430.69
479.658	427.69
479.876	430.69
480.095	433.69
480.313	453.69
480.532	425.69
480.751	429.69
480.969	430.69
481.188	482.69
481.406	507.69
481.624	456.69
481.843	429.69
482.061	433.69
482.28	414.69
482.498	421.69
482.717	408.69
482.935	422.69
483.153	433.69
483.372	419.69
483.59	421.69
483.808	426.69
484.027	428.69
484.245	444.69
484.463	419.69
484.681	430.69
484.9	443.69
485.118	425.69
485.336	456.69
485.554	422.69
485.772	436.69
485.99	431.69
486.209	426.69
486.427	419.69
486.645	427.69
486.863	444.69
487.081	439.69
487.299	432.69
487.517	436.69
487.735	453.69
487.953	448.69
488.171	461.69
488.389	444.69
488.607	455.69
488.825	423.69
489.043	468.69
489.261	441.69
489.479	475.69
489.696	446.69
489.914	448.69
490.132	489.69
490.35	462.69
490.568	450.69
490.786	472.69
491.003	471.69
491.221	517.69
491.439	501.69
491.657	499.69
491.874	490.69
492.092	487.69
492.31	474.69
492.527	505.69
492.745	493.69
492.963	516.69
493.18	511.69
493.398	527.69
493.615	488.69
493.833	492.69
494.05	511.69
494.268	527.69
494.485	519.69
494.703	525.69
494.92	515.69
495.138	499.69
495.355	503.69
495.573	514.69
495.79	502.69
496.008	516.69
496.225	523.69
496.442	494.69
496.66	531.69
496.877	517.69
497.094	541.69
497.312	522.69
497.529	535.69
497.746	541.69
497.963	531.69
498.181	538.69
498.398	557.69
498.615	586.69
498.832	572.69
499.049	577.69
499.267	588.69
499.484	597.69
499.701	642.69
499.918	651.69
500.135	653.69
500.352	666.69
500.569	667.69
500.786	697.69
501.003	667.69
501.22	668.69
501.437	649.69
501.654	644.69
501.871	636.69
502.088	616.69
502.305	607.69
