Data from 1965.PennyLincolnUp.Lamp.En5.5.200Scan.071719.P1._HRD10591_14-08-11-910.txt Node
Date: Thu Jul 18 14:08:11 EDT 2019
User: cochatt
Spectrometer: HR+D1059
Trigger mode: 1
Integration Time (sec): 1.000000E-1
Scans to average: 1
Electric dark correction enabled: true
Nonlinearity correction enabled: false
Boxcar width: 0
XAxis mode: Wavelengths
Number of Pixels in Spectrum: 2048
>>>>>Begin Spectral Data<<<<<
223.165	-10.25
223.4	-10.25
223.635	-10.25
223.869	-23.25
224.104	-22.25
224.338	-5.25
224.573	-9.25
224.808	-0.25
225.042	-6.25
225.277	-5.25
225.511	-5.25
225.746	0.75
225.98	9.75
226.215	5.75
226.449	5.75
226.683	1.75
226.918	19.75
227.152	43.75
227.387	26.75
227.621	30.75
227.856	52.75
228.09	43.75
228.324	55.75
228.559	53.75
228.793	55.75
229.027	98.75
229.262	86.75
229.496	105.75
229.73	113.75
229.964	133.75
230.199	105.75
230.433	99.75
230.667	95.75
230.901	108.75
231.136	96.75
231.37	103.75
231.604	93.75
231.838	106.75
232.072	94.75
232.306	94.75
232.541	112.75
232.775	111.75
233.009	99.75
233.243	100.75
233.477	96.75
233.711	109.75
233.945	112.75
234.179	117.75
234.413	106.75
234.647	112.75
234.881	99.75
235.115	93.75
235.349	95.75
235.583	107.75
235.817	118.75
236.051	115.75
236.285	119.75
236.519	111.75
236.753	126.75
236.987	128.75
237.221	150.75
237.455	198.75
237.689	169.75
237.922	136.75
238.156	120.75
238.39	129.75
238.624	116.75
238.858	115.75
239.091	99.75
239.325	117.75
239.559	127.75
239.793	127.75
240.027	123.75
240.26	113.75
240.494	135.75
240.728	138.75
240.961	137.75
241.195	128.75
241.429	125.75
241.662	127.75
241.896	122.75
242.13	132.75
242.363	96.75
242.597	118.75
242.83	125.75
243.064	106.75
243.298	119.75
243.531	127.75
243.765	124.75
243.998	126.75
244.232	128.75
244.465	136.75
244.699	122.75
244.932	121.75
245.166	140.75
245.399	127.75
245.633	128.75
245.866	127.75
246.099	127.75
246.333	134.75
246.566	132.75
246.8	123.75
247.033	128.75
247.266	129.75
247.5	143.75
247.733	144.75
247.966	156.75
248.2	151.75
248.433	147.75
248.666	137.75
248.899	161.75
249.133	156.75
249.366	187.75
249.599	171.75
249.832	163.75
250.066	171.75
250.299	157.75
250.532	172.75
250.765	183.75
250.998	179.75
251.231	194.75
251.465	185.75
251.698	183.75
251.931	167.75
252.164	175.75
252.397	171.75
252.63	168.75
252.863	185.75
253.096	176.75
253.329	185.75
253.562	163.75
253.795	176.75
254.028	176.75
254.261	193.75
254.494	189.75
254.727	214.75
254.96	217.75
255.193	219.75
255.426	208.75
255.659	185.75
255.892	177.75
256.124	191.75
256.357	181.75
256.59	196.75
256.823	182.75
257.056	167.75
257.289	165.75
257.521	184.75
257.754	180.75
257.987	182.75
258.22	187.75
258.452	167.75
258.685	181.75
258.918	172.75
259.151	168.75
259.383	177.75
259.616	201.75
259.849	181.75
260.081	203.75
260.314	199.75
260.547	214.75
260.779	205.75
261.012	187.75
261.244	189.75
261.477	202.75
261.71	207.75
261.942	187.75
262.175	199.75
262.407	198.75
262.64	198.75
262.872	174.75
263.105	162.75
263.337	191.75
263.57	193.75
263.802	186.75
264.035	189.75
264.267	192.75
264.499	181.75
264.732	185.75
264.964	186.75
265.197	177.75
265.429	184.75
265.661	176.75
265.894	181.75
266.126	185.75
266.358	190.75
266.591	197.75
266.823	181.75
267.055	180.75
267.287	180.75
267.52	177.75
267.752	165.75
267.984	167.75
268.216	197.75
268.448	190.75
268.681	200.75
268.913	206.75
269.145	213.75
269.377	224.75
269.609	197.75
269.841	215.75
270.073	222.75
270.306	245.75
270.538	248.75
270.77	253.75
271.002	277.75
271.234	229.75
271.466	239.75
271.698	266.75
271.93	269.75
272.162	256.75
272.394	271.75
272.626	263.75
272.858	230.75
273.09	240.75
273.322	213.75
273.553	219.75
273.785	216.75
274.017	217.75
274.249	221.75
274.481	199.75
274.713	204.75
274.945	245.75
275.176	213.75
275.408	209.75
275.64	220.75
275.872	200.75
276.104	230.75
276.335	212.75
276.567	226.75
276.799	231.75
277.031	237.75
277.262	254.75
277.494	249.75
277.726	235.75
277.957	237.75
278.189	233.75
278.421	212.75
278.652	227.75
278.884	222.75
279.115	209.75
279.347	213.75
279.579	207.75
279.81	226.75
280.042	229.75
280.273	213.75
280.505	228.75
280.736	216.75
280.968	217.75
281.199	221.75
281.431	227.75
281.662	208.75
281.894	221.75
282.125	225.75
282.356	233.75
282.588	243.75
282.819	247.75
283.051	231.75
283.282	215.75
283.513	209.75
283.745	203.75
283.976	239.75
284.207	234.75
284.439	230.75
284.67	235.75
284.901	221.75
285.132	214.75
285.364	225.75
285.595	228.75
285.826	230.75
286.057	225.75
286.288	211.75
286.52	234.75
286.751	239.75
286.982	234.75
287.213	219.75
287.444	247.75
287.675	233.75
287.906	238.75
288.138	245.75
288.369	241.75
288.6	238.75
288.831	245.75
289.062	252.75
289.293	253.75
289.524	219.75
289.755	216.75
289.986	229.75
290.217	223.75
290.448	231.75
290.679	232.75
290.91	211.75
291.141	234.75
291.371	233.75
291.602	237.75
291.833	230.75
292.064	244.75
292.295	233.75
292.526	237.75
292.757	240.75
292.987	223.75
293.218	233.75
293.449	235.75
293.68	235.75
293.91	241.75
294.141	231.75
294.372	224.75
294.603	232.75
294.833	228.75
295.064	244.75
295.295	230.75
295.525	233.75
295.756	245.75
295.987	257.75
296.217	276.75
296.448	267.75
296.679	259.75
296.909	232.75
297.14	239.75
297.37	244.75
297.601	238.75
297.831	253.75
298.062	247.75
298.292	254.75
298.523	264.75
298.753	261.75
298.984	236.75
299.214	249.75
299.445	239.75
299.675	249.75
299.905	265.75
300.136	238.75
300.366	253.75
300.597	268.75
300.827	249.75
301.057	250.75
301.288	254.75
301.518	270.75
301.748	255.75
301.979	244.75
302.209	243.75
302.439	264.75
302.669	267.75
302.9	269.75
303.13	263.75
303.36	271.75
303.59	281.75
303.82	290.75
304.051	295.75
304.281	288.75
304.511	282.75
304.741	259.75
304.971	272.75
305.201	273.75
305.431	261.75
305.661	253.75
305.891	268.75
306.121	273.75
306.352	262.75
306.582	265.75
306.812	271.75
307.042	259.75
307.272	277.75
307.502	258.75
307.731	260.75
307.961	271.75
308.191	277.75
308.421	259.75
308.651	286.75
308.881	264.75
309.111	275.75
309.341	281.75
309.571	281.75
309.8	292.75
310.03	305.75
310.26	297.75
310.49	310.75
310.72	291.75
310.949	344.75
311.179	331.75
311.409	300.75
311.639	308.75
311.868	305.75
312.098	312.75
312.328	327.75
312.557	328.75
312.787	328.75
313.017	334.75
313.246	334.75
313.476	300.75
313.706	303.75
313.935	307.75
314.165	318.75
314.394	345.75
314.624	311.75
314.853	311.75
315.083	310.75
315.312	297.75
315.542	302.75
315.771	310.75
316.001	299.75
316.23	315.75
316.46	313.75
316.689	304.75
316.919	313.75
317.148	319.75
317.377	329.75
317.607	300.75
317.836	319.75
318.065	295.75
318.295	293.75
318.524	310.75
318.753	305.75
318.983	310.75
319.212	289.75
319.441	303.75
319.67	320.75
319.9	326.75
320.129	317.75
320.358	304.75
320.587	325.75
320.816	320.75
321.046	316.75
321.275	320.75
321.504	324.75
321.733	327.75
321.962	345.75
322.191	329.75
322.42	362.75
322.649	375.75
322.878	367.75
323.108	383.75
323.337	395.75
323.566	409.75
323.795	446.75
324.024	471.75
324.253	580.75
324.482	842.75
324.71	1297.75
324.939	1791.75
325.168	1467.75
325.397	768.75
325.626	535.75
325.855	449.75
326.084	449.75
326.313	411.75
326.542	422.75
326.77	466.75
326.999	565.75
327.228	743.75
327.457	1133.75
327.686	1327.75
327.914	898.75
328.143	618.75
328.372	524.75
328.6	485.75
328.829	469.75
329.058	455.75
329.287	491.75
329.515	447.75
329.744	418.75
329.972	413.75
330.201	439.75
330.43	461.75
330.658	478.75
330.887	492.75
331.115	500.75
331.344	413.75
331.572	422.75
331.801	381.75
332.03	397.75
332.258	378.75
332.486	392.75
332.715	365.75
332.943	380.75
333.172	379.75
333.4	379.75
333.629	382.75
333.857	386.75
334.085	384.75
334.314	403.75
334.542	447.75
334.771	431.75
334.999	401.75
335.227	380.75
335.455	387.75
335.684	367.75
335.912	350.75
336.14	344.75
336.369	358.75
336.597	368.75
336.825	365.75
337.053	361.75
337.281	364.75
337.51	346.75
337.738	344.75
337.966	350.75
338.194	365.75
338.422	379.75
338.65	359.75
338.878	381.75
339.106	364.75
339.334	382.75
339.562	330.75
339.79	337.75
340.018	345.75
340.246	347.75
340.474	345.75
340.702	356.75
340.93	352.75
341.158	339.75
341.386	365.75
341.614	360.75
341.842	359.75
342.07	346.75
342.298	348.75
342.526	332.75
342.754	331.75
342.981	320.75
343.209	339.75
343.437	364.75
343.665	350.75
343.893	349.75
344.12	358.75
344.348	342.75
344.576	351.75
344.804	335.75
345.031	359.75
345.259	368.75
345.487	357.75
345.714	352.75
345.942	341.75
346.17	338.75
346.397	330.75
346.625	342.75
346.853	333.75
347.08	328.75
347.308	349.75
347.535	337.75
347.763	365.75
347.99	380.75
348.218	381.75
348.445	372.75
348.673	367.75
348.9	341.75
349.128	332.75
349.355	324.75
349.583	334.75
349.81	319.75
350.037	337.75
350.265	354.75
350.492	340.75
350.72	324.75
350.947	333.75
351.174	348.75
351.402	332.75
351.629	336.75
351.856	347.75
352.083	355.75
352.311	359.75
352.538	354.75
352.765	350.75
352.992	347.75
353.22	342.75
353.447	339.75
353.674	343.75
353.901	337.75
354.128	327.75
354.355	318.75
354.583	333.75
354.81	321.75
355.037	311.75
355.264	329.75
355.491	318.75
355.718	305.75
355.945	309.75
356.172	315.75
356.399	328.75
356.626	318.75
356.853	313.75
357.08	324.75
357.307	313.75
357.534	305.75
357.761	304.75
357.988	304.75
358.215	324.75
358.441	313.75
358.668	321.75
358.895	325.75
359.122	325.75
359.349	352.75
359.576	342.75
359.802	371.75
360.029	364.75
360.256	401.75
360.483	362.75
360.709	361.75
360.936	337.75
361.163	358.75
361.39	343.75
361.616	337.75
361.843	346.75
362.07	352.75
362.296	361.75
362.523	343.75
362.749	342.75
362.976	334.75
363.203	341.75
363.429	325.75
363.656	324.75
363.882	322.75
364.109	331.75
364.335	327.75
364.562	308.75
364.788	323.75
365.015	327.75
365.241	337.75
365.468	346.75
365.694	341.75
365.92	327.75
366.147	340.75
366.373	334.75
366.599	320.75
366.826	323.75
367.052	330.75
367.278	334.75
367.505	322.75
367.731	319.75
367.957	313.75
368.184	321.75
368.41	340.75
368.636	353.75
368.862	350.75
369.089	344.75
369.315	345.75
369.541	311.75
369.767	316.75
369.993	321.75
370.219	313.75
370.445	330.75
370.672	331.75
370.898	325.75
371.124	325.75
371.35	310.75
371.576	332.75
371.802	322.75
372.028	319.75
372.254	319.75
372.48	343.75
372.706	315.75
372.932	326.75
373.158	334.75
373.384	324.75
373.61	319.75
373.835	314.75
374.061	325.75
374.287	319.75
374.513	336.75
374.739	323.75
374.965	321.75
375.191	329.75
375.416	334.75
375.642	334.75
375.868	331.75
376.094	335.75
376.319	323.75
376.545	329.75
376.771	328.75
376.997	318.75
377.222	312.75
377.448	330.75
377.674	335.75
377.899	337.75
378.125	308.75
378.35	313.75
378.576	327.75
378.802	328.75
379.027	333.75
379.253	317.75
379.478	347.75
379.704	309.75
379.929	307.75
380.155	324.75
380.38	318.75
380.606	315.75
380.831	318.75
381.057	329.75
381.282	321.75
381.507	320.75
381.733	324.75
381.958	332.75
382.184	327.75
382.409	333.75
382.634	345.75
382.86	330.75
383.085	322.75
383.31	320.75
383.535	333.75
383.761	324.75
383.986	345.75
384.211	342.75
384.436	321.75
384.662	323.75
384.887	356.75
385.112	325.75
385.337	349.75
385.562	347.75
385.787	352.75
386.013	328.75
386.238	356.75
386.463	363.75
386.688	347.75
386.913	346.75
387.138	335.75
387.363	348.75
387.588	337.75
387.813	330.75
388.038	332.75
388.263	351.75
388.488	339.75
388.713	344.75
388.938	353.75
389.163	353.75
389.387	341.75
389.612	347.75
389.837	352.75
390.062	340.75
390.287	348.75
390.512	333.75
390.736	345.75
390.961	350.75
391.186	369.75
391.411	354.75
391.636	344.75
391.86	360.75
392.085	368.75
392.31	360.75
392.534	349.75
392.759	356.75
392.984	352.75
393.208	358.75
393.433	348.75
393.658	347.75
393.882	344.75
394.107	358.75
394.331	370.75
394.556	362.75
394.78	333.75
395.005	350.75
395.229	340.75
395.454	351.75
395.678	365.75
395.903	363.75
396.127	368.75
396.352	377.75
396.576	345.75
396.801	344.75
397.025	354.75
397.249	380.75
397.474	366.75
397.698	375.75
397.922	391.75
398.147	390.75
398.371	386.75
398.595	395.75
398.82	379.75
399.044	394.75
399.268	384.75
399.492	415.75
399.717	430.75
399.941	440.75
400.165	451.75
400.389	449.75
400.613	425.75
400.837	420.75
401.062	405.75
401.286	400.75
401.51	384.75
401.734	379.75
401.958	393.75
402.182	406.75
402.406	399.75
402.63	397.75
402.854	392.75
403.078	395.75
403.302	390.75
403.526	415.75
403.75	405.75
403.974	409.75
404.198	387.75
404.422	417.75
404.645	416.75
404.869	409.75
405.093	430.75
405.317	468.75
405.541	489.75
405.765	435.75
405.988	422.75
406.212	437.75
406.436	455.75
406.66	464.75
406.883	435.75
407.107	445.75
407.331	487.75
407.555	537.75
407.778	512.75
408.002	483.75
408.226	465.75
408.449	443.75
408.673	430.75
408.896	482.75
409.12	484.75
409.344	463.75
409.567	441.75
409.791	437.75
410.014	412.75
410.238	406.75
410.461	395.75
410.685	410.75
410.908	424.75
411.132	441.75
411.355	461.75
411.578	437.75
411.802	396.75
412.025	421.75
412.249	405.75
412.472	435.75
412.695	454.75
412.919	437.75
413.142	418.75
413.365	430.75
413.589	397.75
413.812	399.75
414.035	390.75
414.258	373.75
414.482	388.75
414.705	392.75
414.928	386.75
415.151	388.75
415.374	367.75
415.597	365.75
415.821	399.75
416.044	381.75
416.267	385.75
416.49	396.75
416.713	375.75
416.936	383.75
417.159	385.75
417.382	379.75
417.605	383.75
417.828	423.75
418.051	416.75
418.274	401.75
418.497	402.75
418.72	400.75
418.943	387.75
419.166	397.75
419.389	405.75
419.611	398.75
419.834	407.75
420.057	423.75
420.28	391.75
420.503	380.75
420.726	394.75
420.948	396.75
421.171	448.75
421.394	473.75
421.617	425.75
421.839	409.75
422.062	415.75
422.285	414.75
422.507	457.75
422.73	484.75
422.953	465.75
423.175	427.75
423.398	413.75
423.621	412.75
423.843	447.75
424.066	429.75
424.288	426.75
424.511	456.75
424.733	517.75
424.956	527.75
425.178	498.75
425.401	525.75
425.623	533.75
425.846	469.75
426.068	433.75
426.291	433.75
426.513	431.75
426.735	439.75
426.958	465.75
427.18	544.75
427.402	603.75
427.625	686.75
427.847	607.75
428.069	526.75
428.292	469.75
428.514	441.75
428.736	425.75
428.958	424.75
429.181	400.75
429.403	398.75
429.625	400.75
429.847	450.75
430.069	469.75
430.292	476.75
430.514	411.75
430.736	415.75
430.958	412.75
431.18	365.75
431.402	381.75
431.624	391.75
431.846	372.75
432.068	379.75
432.29	368.75
432.512	373.75
432.734	379.75
432.956	379.75
433.178	388.75
433.4	367.75
433.622	390.75
433.844	391.75
434.066	393.75
434.287	384.75
434.509	367.75
434.731	399.75
434.953	400.75
435.175	412.75
435.397	438.75
435.618	435.75
435.84	475.75
436.062	551.75
436.284	569.75
436.505	477.75
436.727	447.75
436.949	416.75
437.17	402.75
437.392	411.75
437.614	410.75
437.835	434.75
438.057	509.75
438.278	583.75
438.5	585.75
438.721	639.75
438.943	607.75
439.165	502.75
439.386	447.75
439.608	450.75
439.829	455.75
440.05	472.75
440.272	499.75
440.493	493.75
440.715	440.75
440.936	414.75
441.158	402.75
441.379	393.75
441.6	431.75
441.822	442.75
442.043	479.75
442.264	513.75
442.486	529.75
442.707	462.75
442.928	455.75
443.149	458.75
443.371	469.75
443.592	500.75
443.813	557.75
444.034	607.75
444.255	505.75
444.476	446.75
444.698	445.75
444.919	423.75
445.14	519.75
445.361	464.75
445.582	467.75
445.803	527.75
446.024	605.75
446.245	601.75
446.466	557.75
446.687	463.75
446.908	428.75
447.129	416.75
447.35	410.75
447.571	397.75
447.792	398.75
448.013	402.75
448.234	415.75
448.455	458.75
448.675	533.75
448.896	636.75
449.117	525.75
449.338	511.75
449.559	602.75
449.779	647.75
450	533.75
450.221	449.75
450.442	423.75
450.662	409.75
450.883	405.75
451.104	438.75
451.324	403.75
451.545	391.75
451.766	394.75
451.986	365.75
452.207	361.75
452.428	362.75
452.648	369.75
452.869	385.75
453.089	381.75
453.31	377.75
453.53	389.75
453.751	368.75
453.971	401.75
454.192	380.75
454.412	376.75
454.633	392.75
454.853	372.75
455.073	365.75
455.294	380.75
455.514	429.75
455.734	407.75
455.955	363.75
456.175	341.75
456.395	346.75
456.616	354.75
456.836	333.75
457.056	337.75
457.276	329.75
457.497	335.75
457.717	352.75
457.937	356.75
458.157	370.75
458.377	366.75
458.598	397.75
458.818	419.75
459.038	495.75
459.258	512.75
459.478	428.75
459.698	396.75
459.918	387.75
460.138	381.75
460.358	401.75
460.578	379.75
460.798	383.75
461.018	376.75
461.238	412.75
461.458	391.75
461.678	381.75
461.898	388.75
462.118	400.75
462.338	400.75
462.558	389.75
462.777	387.75
462.997	400.75
463.217	424.75
463.437	414.75
463.657	413.75
463.876	405.75
464.096	421.75
464.316	402.75
464.536	431.75
464.755	433.75
464.975	421.75
465.195	476.75
465.414	544.75
465.634	462.75
465.854	419.75
466.073	412.75
466.293	391.75
466.512	378.75
466.732	376.75
466.951	373.75
467.171	379.75
467.391	381.75
467.61	388.75
467.829	394.75
468.049	383.75
468.268	385.75
468.488	376.75
468.707	384.75
468.927	363.75
469.146	351.75
469.365	372.75
469.585	357.75
469.804	386.75
470.023	380.75
470.243	384.75
470.462	390.75
470.681	423.75
470.901	404.75
471.12	397.75
471.339	386.75
471.558	380.75
471.777	379.75
471.997	364.75
472.216	389.75
472.435	416.75
472.654	430.75
472.873	388.75
473.092	389.75
473.311	375.75
473.53	378.75
473.749	393.75
473.968	431.75
474.187	509.75
474.406	515.75
474.625	431.75
474.844	400.75
475.063	387.75
475.282	403.75
475.501	382.75
475.72	396.75
475.939	370.75
476.158	383.75
476.377	395.75
476.596	387.75
476.814	383.75
477.033	418.75
477.252	419.75
477.471	402.75
477.69	406.75
477.908	388.75
478.127	393.75
478.346	396.75
478.564	439.75
478.783	414.75
479.002	420.75
479.22	427.75
479.439	448.75
479.658	439.75
479.876	461.75
480.095	478.75
480.313	492.75
480.532	471.75
480.751	462.75
480.969	476.75
481.188	522.75
481.406	574.75
481.624	470.75
481.843	457.75
482.061	458.75
482.28	447.75
482.498	435.75
482.717	442.75
482.935	435.75
483.153	444.75
483.372	457.75
483.59	454.75
483.808	440.75
484.027	446.75
484.245	454.75
484.463	451.75
484.681	450.75
484.9	463.75
485.118	475.75
485.336	472.75
485.554	475.75
485.772	463.75
485.99	476.75
486.209	462.75
486.427	455.75
486.645	481.75
486.863	485.75
487.081	520.75
487.299	515.75
487.517	514.75
487.735	480.75
487.953	472.75
488.171	489.75
488.389	480.75
488.607	474.75
488.825	466.75
489.043	502.75
489.261	475.75
489.479	470.75
489.696	479.75
489.914	508.75
490.132	493.75
490.35	478.75
490.568	510.75
490.786	515.75
491.003	526.75
491.221	519.75
491.439	533.75
491.657	506.75
491.874	537.75
492.092	537.75
492.31	536.75
492.527	543.75
492.745	543.75
492.963	545.75
493.18	548.75
493.398	529.75
493.615	554.75
493.833	542.75
494.05	553.75
494.268	571.75
494.485	565.75
494.703	547.75
494.92	540.75
495.138	566.75
495.355	569.75
495.573	555.75
495.79	569.75
496.008	583.75
496.225	548.75
496.442	573.75
496.66	564.75
496.877	564.75
497.094	552.75
497.312	575.75
497.529	579.75
497.746	582.75
497.963	573.75
498.181	594.75
498.398	600.75
498.615	638.75
498.832	611.75
499.049	620.75
499.267	636.75
499.484	631.75
499.701	667.75
499.918	697.75
500.135	702.75
500.352	725.75
500.569	723.75
500.786	730.75
501.003	697.75
501.22	715.75
501.437	685.75
501.654	711.75
501.871	669.75
502.088	688.75
502.305	656.75
