Data from 1965.PennyLincolnUp.Lamp.En5.5.200Scan.071719.P1._HRD10591_14-08-18-910.txt Node
Date: Thu Jul 18 14:08:18 EDT 2019
User: cochatt
Spectrometer: HR+D1059
Trigger mode: 1
Integration Time (sec): 1.000000E-1
Scans to average: 1
Electric dark correction enabled: true
Nonlinearity correction enabled: false
Boxcar width: 0
XAxis mode: Wavelengths
Number of Pixels in Spectrum: 2048
>>>>>Begin Spectral Data<<<<<
223.165	-9.38
223.4	-9.38
223.635	-9.38
223.869	-15.38
224.104	-27.38
224.338	-5.38
224.573	-10.38
224.808	-11.38
225.042	6.62
225.277	6.62
225.511	4.62
225.746	-1.38
225.98	3.62
226.215	2.62
226.449	0.62
226.683	19.62
226.918	10.62
227.152	25.62
227.387	29.62
227.621	48.62
227.856	34.62
228.09	38.62
228.324	61.62
228.559	55.62
228.793	71.62
229.027	99.62
229.262	96.62
229.496	118.62
229.73	109.62
229.964	125.62
230.199	96.62
230.433	101.62
230.667	107.62
230.901	84.62
231.136	100.62
231.37	82.62
231.604	101.62
231.838	106.62
232.072	107.62
232.306	95.62
232.541	109.62
232.775	105.62
233.009	98.62
233.243	104.62
233.477	95.62
233.711	107.62
233.945	108.62
234.179	114.62
234.413	111.62
234.647	114.62
234.881	116.62
235.115	102.62
235.349	107.62
235.583	107.62
235.817	111.62
236.051	109.62
236.285	105.62
236.519	108.62
236.753	107.62
236.987	138.62
237.221	147.62
237.455	182.62
237.689	169.62
237.922	127.62
238.156	132.62
238.39	99.62
238.624	111.62
238.858	118.62
239.091	130.62
239.325	113.62
239.559	115.62
239.793	115.62
240.027	125.62
240.26	130.62
240.494	143.62
240.728	121.62
240.961	125.62
241.195	127.62
241.429	135.62
241.662	112.62
241.896	132.62
242.13	118.62
242.363	109.62
242.597	122.62
242.83	127.62
243.064	120.62
243.298	132.62
243.531	127.62
243.765	136.62
243.998	130.62
244.232	134.62
244.465	121.62
244.699	126.62
244.932	130.62
245.166	124.62
245.399	118.62
245.633	131.62
245.866	137.62
246.099	119.62
246.333	144.62
246.566	126.62
246.8	131.62
247.033	126.62
247.266	132.62
247.5	142.62
247.733	149.62
247.966	134.62
248.2	154.62
248.433	148.62
248.666	155.62
248.899	175.62
249.133	168.62
249.366	166.62
249.599	155.62
249.832	157.62
250.066	159.62
250.299	157.62
250.532	176.62
250.765	170.62
250.998	190.62
251.231	185.62
251.465	183.62
251.698	182.62
251.931	181.62
252.164	160.62
252.397	168.62
252.63	158.62
252.863	176.62
253.096	192.62
253.329	189.62
253.562	186.62
253.795	199.62
254.028	177.62
254.261	173.62
254.494	193.62
254.727	205.62
254.96	224.62
255.193	227.62
255.426	208.62
255.659	197.62
255.892	198.62
256.124	200.62
256.357	197.62
256.59	185.62
256.823	186.62
257.056	171.62
257.289	195.62
257.521	190.62
257.754	180.62
257.987	184.62
258.22	178.62
258.452	184.62
258.685	182.62
258.918	184.62
259.151	173.62
259.383	168.62
259.616	192.62
259.849	179.62
260.081	192.62
260.314	212.62
260.547	225.62
260.779	180.62
261.012	176.62
261.244	189.62
261.477	182.62
261.71	181.62
261.942	189.62
262.175	214.62
262.407	192.62
262.64	171.62
262.872	187.62
263.105	177.62
263.337	184.62
263.57	196.62
263.802	190.62
264.035	186.62
264.267	193.62
264.499	170.62
264.732	185.62
264.964	175.62
265.197	186.62
265.429	197.62
265.661	192.62
265.894	181.62
266.126	180.62
266.358	188.62
266.591	199.62
266.823	199.62
267.055	186.62
267.287	208.62
267.52	197.62
267.752	183.62
267.984	200.62
268.216	206.62
268.448	191.62
268.681	207.62
268.913	199.62
269.145	220.62
269.377	229.62
269.609	221.62
269.841	237.62
270.073	234.62
270.306	239.62
270.538	261.62
270.77	267.62
271.002	261.62
271.234	254.62
271.466	261.62
271.698	253.62
271.93	267.62
272.162	265.62
272.394	237.62
272.626	244.62
272.858	233.62
273.09	232.62
273.322	239.62
273.553	231.62
273.785	229.62
274.017	220.62
274.249	214.62
274.481	220.62
274.713	205.62
274.945	223.62
275.176	207.62
275.408	238.62
275.64	227.62
275.872	217.62
276.104	223.62
276.335	223.62
276.567	229.62
276.799	218.62
277.031	242.62
277.262	270.62
277.494	265.62
277.726	237.62
277.957	229.62
278.189	222.62
278.421	239.62
278.652	216.62
278.884	218.62
279.115	207.62
279.347	229.62
279.579	234.62
279.81	229.62
280.042	219.62
280.273	220.62
280.505	211.62
280.736	214.62
280.968	209.62
281.199	222.62
281.431	207.62
281.662	218.62
281.894	217.62
282.125	222.62
282.356	232.62
282.588	235.62
282.819	261.62
283.051	229.62
283.282	235.62
283.513	222.62
283.745	223.62
283.976	229.62
284.207	229.62
284.439	230.62
284.67	231.62
284.901	228.62
285.132	222.62
285.364	222.62
285.595	214.62
285.826	223.62
286.057	236.62
286.288	227.62
286.52	237.62
286.751	228.62
286.982	237.62
287.213	243.62
287.444	249.62
287.675	234.62
287.906	242.62
288.138	241.62
288.369	248.62
288.6	242.62
288.831	240.62
289.062	246.62
289.293	246.62
289.524	239.62
289.755	246.62
289.986	227.62
290.217	245.62
290.448	238.62
290.679	248.62
290.91	233.62
291.141	233.62
291.371	227.62
291.602	238.62
291.833	246.62
292.064	222.62
292.295	229.62
292.526	242.62
292.757	224.62
292.987	256.62
293.218	242.62
293.449	234.62
293.68	246.62
293.91	225.62
294.141	232.62
294.372	230.62
294.603	246.62
294.833	234.62
295.064	227.62
295.295	267.62
295.525	248.62
295.756	237.62
295.987	242.62
296.217	258.62
296.448	260.62
296.679	266.62
296.909	240.62
297.14	226.62
297.37	252.62
297.601	238.62
297.831	243.62
298.062	250.62
298.292	234.62
298.523	234.62
298.753	253.62
298.984	252.62
299.214	261.62
299.445	242.62
299.675	253.62
299.905	261.62
300.136	253.62
300.366	254.62
300.597	254.62
300.827	276.62
301.057	275.62
301.288	284.62
301.518	279.62
301.748	270.62
301.979	258.62
302.209	261.62
302.439	266.62
302.669	265.62
302.9	262.62
303.13	264.62
303.36	264.62
303.59	270.62
303.82	276.62
304.051	284.62
304.281	288.62
304.511	291.62
304.741	271.62
304.971	260.62
305.201	265.62
305.431	263.62
305.661	279.62
305.891	279.62
306.121	256.62
306.352	284.62
306.582	289.62
306.812	253.62
307.042	278.62
307.272	270.62
307.502	278.62
307.731	279.62
307.961	255.62
308.191	282.62
308.421	262.62
308.651	278.62
308.881	292.62
309.111	283.62
309.341	290.62
309.571	297.62
309.8	301.62
310.03	295.62
310.26	316.62
310.49	319.62
310.72	322.62
310.949	348.62
311.179	325.62
311.409	312.62
311.639	315.62
311.868	304.62
312.098	303.62
312.328	310.62
312.557	336.62
312.787	354.62
313.017	326.62
313.246	320.62
313.476	299.62
313.706	304.62
313.935	299.62
314.165	334.62
314.394	333.62
314.624	323.62
314.853	319.62
315.083	339.62
315.312	319.62
315.542	301.62
315.771	287.62
316.001	300.62
316.23	293.62
316.46	285.62
316.689	311.62
316.919	311.62
317.148	322.62
317.377	335.62
317.607	326.62
317.836	306.62
318.065	320.62
318.295	311.62
318.524	310.62
318.753	314.62
318.983	312.62
319.212	306.62
319.441	322.62
319.67	337.62
319.9	324.62
320.129	313.62
320.358	321.62
320.587	326.62
320.816	333.62
321.046	327.62
321.275	342.62
321.504	334.62
321.733	339.62
321.962	347.62
322.191	343.62
322.42	376.62
322.649	365.62
322.878	375.62
323.108	396.62
323.337	404.62
323.566	447.62
323.795	461.62
324.024	503.62
324.253	598.62
324.482	875.62
324.71	1314.62
324.939	1808.62
325.168	1538.62
325.397	818.62
325.626	552.62
325.855	465.62
326.084	414.62
326.313	438.62
326.542	438.62
326.77	468.62
326.999	543.62
327.228	774.62
327.457	1157.62
327.686	1339.62
327.914	894.62
328.143	622.62
328.372	537.62
328.6	502.62
328.829	476.62
329.058	482.62
329.287	493.62
329.515	457.62
329.744	437.62
329.972	431.62
330.201	465.62
330.43	479.62
330.658	490.62
330.887	512.62
331.115	495.62
331.344	451.62
331.572	418.62
331.801	399.62
332.03	422.62
332.258	378.62
332.486	366.62
332.715	374.62
332.943	380.62
333.172	395.62
333.4	378.62
333.629	384.62
333.857	383.62
334.085	397.62
334.314	431.62
334.542	434.62
334.771	453.62
334.999	430.62
335.227	392.62
335.455	376.62
335.684	370.62
335.912	368.62
336.14	348.62
336.369	348.62
336.597	365.62
336.825	396.62
337.053	356.62
337.281	365.62
337.51	348.62
337.738	372.62
337.966	363.62
338.194	374.62
338.422	374.62
338.65	361.62
338.878	374.62
339.106	344.62
339.334	355.62
339.562	378.62
339.79	344.62
340.018	367.62
340.246	359.62
340.474	347.62
340.702	356.62
340.93	354.62
341.158	338.62
341.386	339.62
341.614	360.62
341.842	339.62
342.07	361.62
342.298	365.62
342.526	358.62
342.754	312.62
342.981	320.62
343.209	344.62
343.437	354.62
343.665	327.62
343.893	358.62
344.12	350.62
344.348	349.62
344.576	344.62
344.804	349.62
345.031	362.62
345.259	371.62
345.487	361.62
345.714	363.62
345.942	348.62
346.17	340.62
346.397	352.62
346.625	350.62
346.853	353.62
347.08	348.62
347.308	342.62
347.535	345.62
347.763	364.62
347.99	367.62
348.218	356.62
348.445	345.62
348.673	360.62
348.9	355.62
349.128	322.62
349.355	322.62
349.583	328.62
349.81	326.62
350.037	347.62
350.265	330.62
350.492	312.62
350.72	339.62
350.947	312.62
351.174	344.62
351.402	355.62
351.629	344.62
351.856	350.62
352.083	357.62
352.311	359.62
352.538	356.62
352.765	384.62
352.992	355.62
353.22	334.62
353.447	338.62
353.674	317.62
353.901	335.62
354.128	333.62
354.355	332.62
354.583	327.62
354.81	312.62
355.037	308.62
355.264	327.62
355.491	309.62
355.718	324.62
355.945	319.62
356.172	329.62
356.399	327.62
356.626	301.62
356.853	312.62
357.08	324.62
357.307	323.62
357.534	323.62
357.761	322.62
357.988	320.62
358.215	328.62
358.441	328.62
358.668	326.62
358.895	341.62
359.122	318.62
359.349	332.62
359.576	356.62
359.802	378.62
360.029	379.62
360.256	397.62
360.483	392.62
360.709	352.62
360.936	340.62
361.163	351.62
361.39	348.62
361.616	364.62
361.843	354.62
362.07	338.62
362.296	331.62
362.523	353.62
362.749	342.62
362.976	349.62
363.203	345.62
363.429	335.62
363.656	336.62
363.882	320.62
364.109	331.62
364.335	325.62
364.562	337.62
364.788	330.62
365.015	340.62
365.241	328.62
365.468	316.62
365.694	331.62
365.92	352.62
366.147	331.62
366.373	337.62
366.599	338.62
366.826	348.62
367.052	336.62
367.278	338.62
367.505	322.62
367.731	329.62
367.957	327.62
368.184	349.62
368.41	339.62
368.636	331.62
368.862	354.62
369.089	322.62
369.315	317.62
369.541	334.62
369.767	308.62
369.993	333.62
370.219	325.62
370.445	335.62
370.672	312.62
370.898	322.62
371.124	327.62
371.35	323.62
371.576	307.62
371.802	333.62
372.028	341.62
372.254	325.62
372.48	322.62
372.706	331.62
372.932	318.62
373.158	336.62
373.384	316.62
373.61	340.62
373.835	318.62
374.061	316.62
374.287	357.62
374.513	320.62
374.739	334.62
374.965	334.62
375.191	329.62
375.416	323.62
375.642	328.62
375.868	347.62
376.094	324.62
376.319	316.62
376.545	333.62
376.771	295.62
376.997	331.62
377.222	336.62
377.448	340.62
377.674	310.62
377.899	319.62
378.125	308.62
378.35	329.62
378.576	338.62
378.802	321.62
379.027	311.62
379.253	326.62
379.478	313.62
379.704	315.62
379.929	328.62
380.155	327.62
380.38	335.62
380.606	332.62
380.831	340.62
381.057	318.62
381.282	324.62
381.507	332.62
381.733	317.62
381.958	326.62
382.184	322.62
382.409	326.62
382.634	327.62
382.86	329.62
383.085	332.62
383.31	316.62
383.535	318.62
383.761	325.62
383.986	339.62
384.211	326.62
384.436	346.62
384.662	337.62
384.887	349.62
385.112	350.62
385.337	360.62
385.562	346.62
385.787	361.62
386.013	357.62
386.238	345.62
386.463	357.62
386.688	355.62
386.913	335.62
387.138	343.62
387.363	328.62
387.588	350.62
387.813	343.62
388.038	350.62
388.263	362.62
388.488	334.62
388.713	341.62
388.938	339.62
389.163	345.62
389.387	354.62
389.612	362.62
389.837	345.62
390.062	352.62
390.287	333.62
390.512	356.62
390.736	345.62
390.961	354.62
391.186	323.62
391.411	345.62
391.636	352.62
391.86	342.62
392.085	351.62
392.31	351.62
392.534	361.62
392.759	354.62
392.984	342.62
393.208	371.62
393.433	358.62
393.658	362.62
393.882	350.62
394.107	358.62
394.331	362.62
394.556	356.62
394.78	356.62
395.005	352.62
395.229	330.62
395.454	358.62
395.678	362.62
395.903	375.62
396.127	374.62
396.352	376.62
396.576	387.62
396.801	365.62
397.025	365.62
397.249	386.62
397.474	382.62
397.698	384.62
397.922	373.62
398.147	377.62
398.371	400.62
398.595	376.62
398.82	392.62
399.044	404.62
399.268	411.62
399.492	432.62
399.717	432.62
399.941	455.62
400.165	462.62
400.389	496.62
400.613	442.62
400.837	415.62
401.062	396.62
401.286	388.62
401.51	405.62
401.734	379.62
401.958	391.62
402.182	401.62
402.406	413.62
402.63	406.62
402.854	417.62
403.078	409.62
403.302	411.62
403.526	423.62
403.75	430.62
403.974	420.62
404.198	388.62
404.422	421.62
404.645	414.62
404.869	418.62
405.093	439.62
405.317	456.62
405.541	479.62
405.765	454.62
405.988	422.62
406.212	429.62
406.436	475.62
406.66	486.62
406.883	468.62
407.107	481.62
407.331	494.62
407.555	515.62
407.778	533.62
408.002	493.62
408.226	453.62
408.449	430.62
408.673	458.62
408.896	440.62
409.12	488.62
409.344	452.62
409.567	431.62
409.791	425.62
410.014	410.62
410.238	423.62
410.461	418.62
410.685	415.62
410.908	442.62
411.132	444.62
411.355	469.62
411.578	452.62
411.802	411.62
412.025	427.62
412.249	419.62
412.472	439.62
412.695	450.62
412.919	432.62
413.142	414.62
413.365	407.62
413.589	412.62
413.812	390.62
414.035	386.62
414.258	379.62
414.482	381.62
414.705	382.62
414.928	388.62
415.151	401.62
415.374	388.62
415.597	379.62
415.821	371.62
416.044	378.62
416.267	408.62
416.49	387.62
416.713	383.62
416.936	408.62
417.159	374.62
417.382	390.62
417.605	387.62
417.828	388.62
418.051	405.62
418.274	408.62
418.497	403.62
418.72	390.62
418.943	414.62
419.166	407.62
419.389	427.62
419.611	421.62
419.834	418.62
420.057	409.62
420.28	392.62
420.503	398.62
420.726	400.62
420.948	416.62
421.171	448.62
421.394	467.62
421.617	450.62
421.839	416.62
422.062	406.62
422.285	427.62
422.507	462.62
422.73	518.62
422.953	494.62
423.175	440.62
423.398	423.62
423.621	411.62
423.843	435.62
424.066	444.62
424.288	441.62
424.511	422.62
424.733	489.62
424.956	553.62
425.178	527.62
425.401	523.62
425.623	518.62
425.846	462.62
426.068	437.62
426.291	441.62
426.513	445.62
426.735	442.62
426.958	458.62
427.18	534.62
427.402	631.62
427.625	704.62
427.847	620.62
428.069	524.62
428.292	461.62
428.514	456.62
428.736	422.62
428.958	433.62
429.181	406.62
429.403	398.62
429.625	425.62
429.847	423.62
430.069	482.62
430.292	480.62
430.514	430.62
430.736	396.62
430.958	402.62
431.18	375.62
431.402	395.62
431.624	379.62
431.846	386.62
432.068	400.62
432.29	392.62
432.512	371.62
432.734	393.62
432.956	387.62
433.178	391.62
433.4	414.62
433.622	383.62
433.844	406.62
434.066	384.62
434.287	398.62
434.509	377.62
434.731	392.62
434.953	429.62
435.175	402.62
435.397	439.62
435.618	442.62
435.84	480.62
436.062	559.62
436.284	600.62
436.505	498.62
436.727	440.62
436.949	411.62
437.17	413.62
437.392	414.62
437.614	415.62
437.835	471.62
438.057	540.62
438.278	596.62
438.5	601.62
438.721	649.62
438.943	622.62
439.165	506.62
439.386	463.62
439.608	452.62
439.829	463.62
440.05	469.62
440.272	505.62
440.493	488.62
440.715	425.62
440.936	423.62
441.158	406.62
441.379	421.62
441.6	423.62
441.822	451.62
442.043	471.62
442.264	538.62
442.486	572.62
442.707	471.62
442.928	455.62
443.149	468.62
443.371	480.62
443.592	491.62
443.813	579.62
444.034	630.62
444.255	516.62
444.476	464.62
444.698	445.62
444.919	428.62
445.14	516.62
445.361	492.62
445.582	468.62
445.803	516.62
446.024	600.62
446.245	606.62
446.466	567.62
446.687	480.62
446.908	454.62
447.129	431.62
447.35	404.62
447.571	412.62
447.792	424.62
448.013	415.62
448.234	424.62
448.455	469.62
448.675	552.62
448.896	651.62
449.117	548.62
449.338	538.62
449.559	606.62
449.779	638.62
450	548.62
450.221	444.62
450.442	419.62
450.662	427.62
450.883	416.62
451.104	444.62
451.324	431.62
451.545	391.62
451.766	394.62
451.986	367.62
452.207	376.62
452.428	376.62
452.648	357.62
452.869	377.62
453.089	390.62
453.31	391.62
453.53	382.62
453.751	393.62
453.971	366.62
454.192	394.62
454.412	408.62
454.633	381.62
454.853	376.62
455.073	395.62
455.294	414.62
455.514	451.62
455.734	434.62
455.955	386.62
456.175	338.62
456.395	355.62
456.616	351.62
456.836	355.62
457.056	348.62
457.276	355.62
457.497	354.62
457.717	333.62
457.937	348.62
458.157	359.62
458.377	383.62
458.598	391.62
458.818	434.62
459.038	512.62
459.258	514.62
459.478	450.62
459.698	390.62
459.918	393.62
460.138	386.62
460.358	382.62
460.578	398.62
460.798	387.62
461.018	407.62
461.238	385.62
461.458	380.62
461.678	378.62
461.898	403.62
462.118	398.62
462.338	392.62
462.558	401.62
462.777	404.62
462.997	409.62
463.217	418.62
463.437	411.62
463.657	425.62
463.876	411.62
464.096	422.62
464.316	410.62
464.536	418.62
464.755	412.62
464.975	418.62
465.195	478.62
465.414	553.62
465.634	479.62
465.854	444.62
466.073	405.62
466.293	382.62
466.512	382.62
466.732	371.62
466.951	374.62
467.171	388.62
467.391	401.62
467.61	382.62
467.829	405.62
468.049	403.62
468.268	403.62
468.488	354.62
468.707	366.62
468.927	360.62
469.146	374.62
469.365	365.62
469.585	375.62
469.804	391.62
470.023	392.62
470.243	417.62
470.462	396.62
470.681	412.62
470.901	400.62
471.12	401.62
471.339	388.62
471.558	398.62
471.777	374.62
471.997	387.62
472.216	398.62
472.435	413.62
472.654	403.62
472.873	406.62
473.092	379.62
473.311	382.62
473.53	406.62
473.749	382.62
473.968	402.62
474.187	494.62
474.406	500.62
474.625	440.62
474.844	416.62
475.063	376.62
475.282	416.62
475.501	401.62
475.72	386.62
475.939	400.62
476.158	401.62
476.377	387.62
476.596	399.62
476.814	430.62
477.033	422.62
477.252	422.62
477.471	411.62
477.69	416.62
477.908	435.62
478.127	418.62
478.346	422.62
478.564	419.62
478.783	420.62
479.002	437.62
479.22	442.62
479.439	442.62
479.658	459.62
479.876	480.62
480.095	477.62
480.313	485.62
480.532	478.62
480.751	469.62
480.969	493.62
481.188	539.62
481.406	567.62
481.624	499.62
481.843	502.62
482.061	483.62
482.28	472.62
482.498	462.62
482.717	455.62
482.935	456.62
483.153	461.62
483.372	452.62
483.59	468.62
483.808	466.62
484.027	429.62
484.245	446.62
484.463	473.62
484.681	455.62
484.9	464.62
485.118	465.62
485.336	471.62
485.554	446.62
485.772	484.62
485.99	462.62
486.209	464.62
486.427	474.62
486.645	483.62
486.863	501.62
487.081	489.62
487.299	481.62
487.517	482.62
487.735	470.62
487.953	490.62
488.171	498.62
488.389	498.62
488.607	476.62
488.825	489.62
489.043	475.62
489.261	482.62
489.479	494.62
489.696	482.62
489.914	490.62
490.132	510.62
490.35	488.62
490.568	517.62
490.786	514.62
491.003	521.62
491.221	566.62
491.439	563.62
491.657	558.62
491.874	556.62
492.092	535.62
492.31	542.62
492.527	546.62
492.745	558.62
492.963	579.62
493.18	555.62
493.398	555.62
493.615	598.62
493.833	578.62
494.05	548.62
494.268	570.62
494.485	581.62
494.703	580.62
494.92	563.62
495.138	551.62
495.355	571.62
495.573	576.62
495.79	557.62
496.008	581.62
496.225	572.62
496.442	572.62
496.66	556.62
496.877	563.62
497.094	581.62
497.312	595.62
497.529	594.62
497.746	590.62
497.963	614.62
498.181	623.62
498.398	615.62
498.615	623.62
498.832	627.62
499.049	640.62
499.267	655.62
499.484	664.62
499.701	693.62
499.918	678.62
500.135	725.62
500.352	724.62
500.569	728.62
500.786	745.62
501.003	724.62
501.22	711.62
501.437	724.62
501.654	694.62
501.871	723.62
502.088	679.62
