Data from 1965.PennyLincolnUp.Lamp.En5.5.200Scan.071719.P1._HRD10591_14-08-23-911.txt Node
Date: Thu Jul 18 14:08:23 EDT 2019
User: cochatt
Spectrometer: HR+D1059
Trigger mode: 1
Integration Time (sec): 1.000000E-1
Scans to average: 1
Electric dark correction enabled: true
Nonlinearity correction enabled: false
Boxcar width: 0
XAxis mode: Wavelengths
Number of Pixels in Spectrum: 2048
>>>>>Begin Spectral Data<<<<<
223.165	-18.38
223.4	-18.38
223.635	-18.38
223.869	-27.38
224.104	-6.38
224.338	-6.38
224.573	-14.38
224.808	-2.38
225.042	-15.38
225.277	-11.38
225.511	2.62
225.746	-10.38
225.98	17.62
226.215	8.62
226.449	16.62
226.683	21.62
226.918	14.62
227.152	30.62
227.387	31.62
227.621	43.62
227.856	51.62
228.09	59.62
228.324	47.62
228.559	63.62
228.793	69.62
229.027	108.62
229.262	90.62
229.496	109.62
229.73	128.62
229.964	133.62
230.199	121.62
230.433	113.62
230.667	110.62
230.901	94.62
231.136	105.62
231.37	95.62
231.604	98.62
231.838	108.62
232.072	99.62
232.306	113.62
232.541	107.62
232.775	101.62
233.009	133.62
233.243	93.62
233.477	110.62
233.711	101.62
233.945	123.62
234.179	103.62
234.413	117.62
234.647	112.62
234.881	112.62
235.115	110.62
235.349	101.62
235.583	117.62
235.817	124.62
236.051	110.62
236.285	121.62
236.519	123.62
236.753	117.62
236.987	140.62
237.221	144.62
237.455	200.62
237.689	174.62
237.922	141.62
238.156	127.62
238.39	121.62
238.624	105.62
238.858	105.62
239.091	122.62
239.325	112.62
239.559	98.62
239.793	109.62
240.027	120.62
240.26	125.62
240.494	130.62
240.728	126.62
240.961	130.62
241.195	121.62
241.429	125.62
241.662	104.62
241.896	109.62
242.13	121.62
242.363	122.62
242.597	125.62
242.83	119.62
243.064	117.62
243.298	126.62
243.531	135.62
243.765	121.62
243.998	133.62
244.232	124.62
244.465	124.62
244.699	134.62
244.932	127.62
245.166	132.62
245.399	131.62
245.633	121.62
245.866	137.62
246.099	129.62
246.333	128.62
246.566	135.62
246.8	133.62
247.033	129.62
247.266	137.62
247.5	130.62
247.733	153.62
247.966	161.62
248.2	155.62
248.433	152.62
248.666	165.62
248.899	175.62
249.133	181.62
249.366	183.62
249.599	176.62
249.832	158.62
250.066	164.62
250.299	149.62
250.532	172.62
250.765	183.62
250.998	195.62
251.231	177.62
251.465	180.62
251.698	166.62
251.931	178.62
252.164	165.62
252.397	168.62
252.63	171.62
252.863	192.62
253.096	183.62
253.329	184.62
253.562	197.62
253.795	184.62
254.028	186.62
254.261	185.62
254.494	190.62
254.727	223.62
254.96	228.62
255.193	235.62
255.426	214.62
255.659	197.62
255.892	199.62
256.124	189.62
256.357	201.62
256.59	192.62
256.823	192.62
257.056	187.62
257.289	194.62
257.521	172.62
257.754	189.62
257.987	164.62
258.22	177.62
258.452	192.62
258.685	174.62
258.918	179.62
259.151	160.62
259.383	179.62
259.616	183.62
259.849	196.62
260.081	198.62
260.314	214.62
260.547	214.62
260.779	199.62
261.012	191.62
261.244	212.62
261.477	193.62
261.71	187.62
261.942	192.62
262.175	208.62
262.407	199.62
262.64	188.62
262.872	191.62
263.105	182.62
263.337	190.62
263.57	198.62
263.802	193.62
264.035	204.62
264.267	183.62
264.499	206.62
264.732	179.62
264.964	181.62
265.197	179.62
265.429	165.62
265.661	183.62
265.894	195.62
266.126	179.62
266.358	189.62
266.591	186.62
266.823	174.62
267.055	190.62
267.287	191.62
267.52	194.62
267.752	195.62
267.984	197.62
268.216	195.62
268.448	188.62
268.681	182.62
268.913	200.62
269.145	203.62
269.377	217.62
269.609	244.62
269.841	218.62
270.073	212.62
270.306	224.62
270.538	255.62
270.77	251.62
271.002	263.62
271.234	245.62
271.466	247.62
271.698	246.62
271.93	262.62
272.162	266.62
272.394	267.62
272.626	244.62
272.858	254.62
273.09	223.62
273.322	211.62
273.553	234.62
273.785	210.62
274.017	212.62
274.249	217.62
274.481	239.62
274.713	199.62
274.945	231.62
275.176	218.62
275.408	213.62
275.64	209.62
275.872	230.62
276.104	213.62
276.335	235.62
276.567	234.62
276.799	258.62
277.031	264.62
277.262	266.62
277.494	254.62
277.726	237.62
277.957	238.62
278.189	218.62
278.421	235.62
278.652	214.62
278.884	229.62
279.115	225.62
279.347	239.62
279.579	219.62
279.81	243.62
280.042	227.62
280.273	220.62
280.505	222.62
280.736	222.62
280.968	237.62
281.199	225.62
281.431	216.62
281.662	233.62
281.894	227.62
282.125	217.62
282.356	244.62
282.588	247.62
282.819	259.62
283.051	232.62
283.282	229.62
283.513	213.62
283.745	234.62
283.976	225.62
284.207	230.62
284.439	217.62
284.67	228.62
284.901	224.62
285.132	227.62
285.364	236.62
285.595	229.62
285.826	216.62
286.057	234.62
286.288	225.62
286.52	225.62
286.751	238.62
286.982	233.62
287.213	225.62
287.444	237.62
287.675	232.62
287.906	243.62
288.138	248.62
288.369	246.62
288.6	246.62
288.831	236.62
289.062	259.62
289.293	250.62
289.524	237.62
289.755	245.62
289.986	238.62
290.217	229.62
290.448	234.62
290.679	252.62
290.91	249.62
291.141	232.62
291.371	244.62
291.602	243.62
291.833	247.62
292.064	217.62
292.295	248.62
292.526	244.62
292.757	232.62
292.987	247.62
293.218	228.62
293.449	238.62
293.68	206.62
293.91	235.62
294.141	241.62
294.372	225.62
294.603	250.62
294.833	229.62
295.064	230.62
295.295	241.62
295.525	235.62
295.756	225.62
295.987	250.62
296.217	281.62
296.448	277.62
296.679	252.62
296.909	252.62
297.14	243.62
297.37	261.62
297.601	256.62
297.831	240.62
298.062	255.62
298.292	250.62
298.523	254.62
298.753	258.62
298.984	246.62
299.214	235.62
299.445	265.62
299.675	262.62
299.905	274.62
300.136	271.62
300.366	264.62
300.597	254.62
300.827	259.62
301.057	261.62
301.288	260.62
301.518	272.62
301.748	270.62
301.979	254.62
302.209	266.62
302.439	271.62
302.669	267.62
302.9	267.62
303.13	267.62
303.36	270.62
303.59	274.62
303.82	288.62
304.051	281.62
304.281	276.62
304.511	254.62
304.741	283.62
304.971	284.62
305.201	269.62
305.431	272.62
305.661	276.62
305.891	271.62
306.121	273.62
306.352	276.62
306.582	303.62
306.812	287.62
307.042	285.62
307.272	279.62
307.502	271.62
307.731	272.62
307.961	260.62
308.191	276.62
308.421	278.62
308.651	288.62
308.881	291.62
309.111	281.62
309.341	285.62
309.571	277.62
309.8	302.62
310.03	308.62
310.26	327.62
310.49	331.62
310.72	318.62
310.949	330.62
311.179	333.62
311.409	327.62
311.639	334.62
311.868	325.62
312.098	322.62
312.328	319.62
312.557	335.62
312.787	343.62
313.017	338.62
313.246	310.62
313.476	326.62
313.706	310.62
313.935	322.62
314.165	342.62
314.394	356.62
314.624	335.62
314.853	338.62
315.083	337.62
315.312	319.62
315.542	317.62
315.771	297.62
316.001	299.62
316.23	304.62
316.46	319.62
316.689	318.62
316.919	318.62
317.148	299.62
317.377	320.62
317.607	304.62
317.836	316.62
318.065	320.62
318.295	313.62
318.524	329.62
318.753	324.62
318.983	317.62
319.212	320.62
319.441	325.62
319.67	334.62
319.9	331.62
320.129	305.62
320.358	325.62
320.587	310.62
320.816	331.62
321.046	321.62
321.275	338.62
321.504	325.62
321.733	307.62
321.962	356.62
322.191	367.62
322.42	367.62
322.649	381.62
322.878	368.62
323.108	397.62
323.337	392.62
323.566	414.62
323.795	449.62
324.024	482.62
324.253	595.62
324.482	870.62
324.71	1298.62
324.939	1773.62
325.168	1521.62
325.397	831.62
325.626	555.62
325.855	476.62
326.084	429.62
326.313	442.62
326.542	424.62
326.77	463.62
326.999	567.62
327.228	776.62
327.457	1162.62
327.686	1349.62
327.914	956.62
328.143	603.62
328.372	551.62
328.6	484.62
328.829	476.62
329.058	501.62
329.287	505.62
329.515	450.62
329.744	449.62
329.972	429.62
330.201	446.62
330.43	480.62
330.658	490.62
330.887	517.62
331.115	503.62
331.344	451.62
331.572	409.62
331.801	430.62
332.03	402.62
332.258	396.62
332.486	397.62
332.715	394.62
332.943	374.62
333.172	377.62
333.4	360.62
333.629	373.62
333.857	403.62
334.085	384.62
334.314	421.62
334.542	444.62
334.771	435.62
334.999	416.62
335.227	400.62
335.455	380.62
335.684	361.62
335.912	351.62
336.14	362.62
336.369	351.62
336.597	398.62
336.825	377.62
337.053	350.62
337.281	357.62
337.51	357.62
337.738	368.62
337.966	357.62
338.194	373.62
338.422	379.62
338.65	360.62
338.878	352.62
339.106	361.62
339.334	358.62
339.562	359.62
339.79	371.62
340.018	352.62
340.246	369.62
340.474	359.62
340.702	353.62
340.93	343.62
341.158	344.62
341.386	347.62
341.614	362.62
341.842	353.62
342.07	343.62
342.298	358.62
342.526	352.62
342.754	341.62
342.981	320.62
343.209	338.62
343.437	332.62
343.665	361.62
343.893	343.62
344.12	377.62
344.348	360.62
344.576	363.62
344.804	353.62
345.031	398.62
345.259	357.62
345.487	359.62
345.714	371.62
345.942	371.62
346.17	329.62
346.397	341.62
346.625	350.62
346.853	347.62
347.08	336.62
347.308	360.62
347.535	356.62
347.763	346.62
347.99	373.62
348.218	375.62
348.445	359.62
348.673	363.62
348.9	353.62
349.128	332.62
349.355	343.62
349.583	335.62
349.81	336.62
350.037	339.62
350.265	355.62
350.492	326.62
350.72	333.62
350.947	334.62
351.174	350.62
351.402	349.62
351.629	355.62
351.856	347.62
352.083	356.62
352.311	372.62
352.538	381.62
352.765	365.62
352.992	351.62
353.22	352.62
353.447	331.62
353.674	341.62
353.901	336.62
354.128	311.62
354.355	326.62
354.583	318.62
354.81	328.62
355.037	313.62
355.264	322.62
355.491	325.62
355.718	330.62
355.945	317.62
356.172	327.62
356.399	311.62
356.626	318.62
356.853	312.62
357.08	319.62
357.307	325.62
357.534	315.62
357.761	315.62
357.988	316.62
358.215	315.62
358.441	334.62
358.668	328.62
358.895	333.62
359.122	321.62
359.349	331.62
359.576	354.62
359.802	366.62
360.029	401.62
360.256	383.62
360.483	389.62
360.709	357.62
360.936	371.62
361.163	338.62
361.39	376.62
361.616	364.62
361.843	332.62
362.07	357.62
362.296	328.62
362.523	342.62
362.749	375.62
362.976	338.62
363.203	357.62
363.429	337.62
363.656	355.62
363.882	314.62
364.109	352.62
364.335	315.62
364.562	324.62
364.788	325.62
365.015	320.62
365.241	356.62
365.468	341.62
365.694	326.62
365.92	329.62
366.147	332.62
366.373	341.62
366.599	337.62
366.826	317.62
367.052	336.62
367.278	330.62
367.505	333.62
367.731	333.62
367.957	334.62
368.184	321.62
368.41	313.62
368.636	342.62
368.862	337.62
369.089	317.62
369.315	345.62
369.541	325.62
369.767	348.62
369.993	331.62
370.219	318.62
370.445	343.62
370.672	321.62
370.898	327.62
371.124	326.62
371.35	337.62
371.576	350.62
371.802	332.62
372.028	341.62
372.254	329.62
372.48	330.62
372.706	315.62
372.932	324.62
373.158	326.62
373.384	332.62
373.61	323.62
373.835	337.62
374.061	333.62
374.287	332.62
374.513	326.62
374.739	349.62
374.965	318.62
375.191	320.62
375.416	338.62
375.642	331.62
375.868	320.62
376.094	317.62
376.319	317.62
376.545	324.62
376.771	327.62
376.997	317.62
377.222	331.62
377.448	342.62
377.674	335.62
377.899	319.62
378.125	320.62
378.35	316.62
378.576	335.62
378.802	335.62
379.027	318.62
379.253	339.62
379.478	320.62
379.704	327.62
379.929	323.62
380.155	331.62
380.38	314.62
380.606	323.62
380.831	327.62
381.057	342.62
381.282	328.62
381.507	322.62
381.733	328.62
381.958	344.62
382.184	336.62
382.409	320.62
382.634	331.62
382.86	326.62
383.085	342.62
383.31	322.62
383.535	347.62
383.761	343.62
383.986	326.62
384.211	349.62
384.436	323.62
384.662	335.62
384.887	340.62
385.112	359.62
385.337	328.62
385.562	356.62
385.787	357.62
386.013	361.62
386.238	361.62
386.463	372.62
386.688	339.62
386.913	343.62
387.138	354.62
387.363	345.62
387.588	347.62
387.813	354.62
388.038	338.62
388.263	342.62
388.488	348.62
388.713	368.62
388.938	356.62
389.163	358.62
389.387	376.62
389.612	344.62
389.837	341.62
390.062	367.62
390.287	351.62
390.512	352.62
390.736	352.62
390.961	348.62
391.186	357.62
391.411	356.62
391.636	344.62
391.86	365.62
392.085	368.62
392.31	361.62
392.534	345.62
392.759	355.62
392.984	348.62
393.208	359.62
393.433	350.62
393.658	375.62
393.882	351.62
394.107	364.62
394.331	357.62
394.556	363.62
394.78	344.62
395.005	348.62
395.229	347.62
395.454	373.62
395.678	373.62
395.903	367.62
396.127	391.62
396.352	391.62
396.576	377.62
396.801	383.62
397.025	362.62
397.249	370.62
397.474	370.62
397.698	366.62
397.922	380.62
398.147	389.62
398.371	402.62
398.595	383.62
398.82	393.62
399.044	389.62
399.268	413.62
399.492	424.62
399.717	445.62
399.941	449.62
400.165	444.62
400.389	489.62
400.613	425.62
400.837	424.62
401.062	416.62
401.286	419.62
401.51	395.62
401.734	407.62
401.958	383.62
402.182	387.62
402.406	405.62
402.63	398.62
402.854	402.62
403.078	405.62
403.302	421.62
403.526	423.62
403.75	420.62
403.974	394.62
404.198	395.62
404.422	419.62
404.645	397.62
404.869	415.62
405.093	442.62
405.317	463.62
405.541	471.62
405.765	457.62
405.988	421.62
406.212	435.62
406.436	473.62
406.66	475.62
406.883	457.62
407.107	452.62
407.331	512.62
407.555	541.62
407.778	528.62
408.002	477.62
408.226	464.62
408.449	447.62
408.673	443.62
408.896	444.62
409.12	507.62
409.344	483.62
409.567	427.62
409.791	411.62
410.014	422.62
410.238	415.62
410.461	406.62
410.685	402.62
410.908	415.62
411.132	430.62
411.355	456.62
411.578	461.62
411.802	453.62
412.025	394.62
412.249	420.62
412.472	430.62
412.695	457.62
412.919	445.62
413.142	404.62
413.365	398.62
413.589	405.62
413.812	385.62
414.035	395.62
414.258	385.62
414.482	396.62
414.705	387.62
414.928	361.62
415.151	408.62
415.374	375.62
415.597	383.62
415.821	376.62
416.044	394.62
416.267	421.62
416.49	389.62
416.713	386.62
416.936	383.62
417.159	378.62
417.382	388.62
417.605	403.62
417.828	419.62
418.051	402.62
418.274	410.62
418.497	409.62
418.72	411.62
418.943	377.62
419.166	400.62
419.389	401.62
419.611	390.62
419.834	397.62
420.057	421.62
420.28	388.62
420.503	393.62
420.726	399.62
420.948	435.62
421.171	435.62
421.394	462.62
421.617	433.62
421.839	408.62
422.062	415.62
422.285	405.62
422.507	435.62
422.73	519.62
422.953	496.62
423.175	442.62
423.398	435.62
423.621	428.62
423.843	436.62
424.066	448.62
424.288	470.62
424.511	445.62
424.733	478.62
424.956	556.62
425.178	529.62
425.401	505.62
425.623	554.62
425.846	467.62
426.068	440.62
426.291	452.62
426.513	443.62
426.735	430.62
426.958	472.62
427.18	550.62
427.402	628.62
427.625	695.62
427.847	640.62
428.069	547.62
428.292	483.62
428.514	461.62
428.736	427.62
428.958	411.62
429.181	398.62
429.403	412.62
429.625	411.62
429.847	435.62
430.069	479.62
430.292	485.62
430.514	429.62
430.736	401.62
430.958	403.62
431.18	396.62
431.402	384.62
431.624	375.62
431.846	367.62
432.068	386.62
432.29	369.62
432.512	391.62
432.734	371.62
432.956	391.62
433.178	405.62
433.4	395.62
433.622	405.62
433.844	411.62
434.066	380.62
434.287	397.62
434.509	390.62
434.731	397.62
434.953	411.62
435.175	421.62
435.397	424.62
435.618	423.62
435.84	466.62
436.062	524.62
436.284	613.62
436.505	503.62
436.727	454.62
436.949	424.62
437.17	440.62
437.392	420.62
437.614	429.62
437.835	454.62
438.057	519.62
438.278	596.62
438.5	611.62
438.721	635.62
438.943	619.62
439.165	480.62
439.386	480.62
439.608	463.62
439.829	479.62
440.05	487.62
440.272	511.62
440.493	477.62
440.715	431.62
440.936	427.62
441.158	423.62
441.379	415.62
441.6	411.62
441.822	433.62
442.043	475.62
442.264	519.62
442.486	565.62
442.707	477.62
442.928	443.62
443.149	442.62
443.371	473.62
443.592	511.62
443.813	585.62
444.034	632.62
444.255	519.62
444.476	464.62
444.698	423.62
444.919	441.62
445.14	522.62
445.361	501.62
445.582	469.62
445.803	523.62
446.024	599.62
446.245	618.62
446.466	577.62
446.687	467.62
446.908	425.62
447.129	433.62
447.35	399.62
447.571	406.62
447.792	399.62
448.013	412.62
448.234	442.62
448.455	478.62
448.675	560.62
448.896	643.62
449.117	538.62
449.338	504.62
449.559	612.62
449.779	659.62
450	525.62
450.221	486.62
450.442	416.62
450.662	408.62
450.883	431.62
451.104	447.62
451.324	420.62
451.545	408.62
451.766	387.62
451.986	369.62
452.207	385.62
452.428	369.62
452.648	371.62
452.869	379.62
453.089	386.62
453.31	379.62
453.53	379.62
453.751	372.62
453.971	375.62
454.192	395.62
454.412	396.62
454.633	366.62
454.853	371.62
455.073	380.62
455.294	390.62
455.514	439.62
455.734	427.62
455.955	374.62
456.175	368.62
456.395	354.62
456.616	362.62
456.836	352.62
457.056	336.62
457.276	339.62
457.497	365.62
457.717	363.62
457.937	346.62
458.157	369.62
458.377	381.62
458.598	387.62
458.818	454.62
459.038	530.62
459.258	516.62
459.478	422.62
459.698	408.62
459.918	386.62
460.138	394.62
460.358	389.62
460.578	409.62
460.798	401.62
461.018	371.62
461.238	389.62
461.458	383.62
461.678	385.62
461.898	375.62
462.118	395.62
462.338	376.62
462.558	393.62
462.777	405.62
462.997	414.62
463.217	414.62
463.437	408.62
463.657	407.62
463.876	394.62
464.096	419.62
464.316	409.62
464.536	412.62
464.755	426.62
464.975	414.62
465.195	474.62
465.414	545.62
465.634	450.62
465.854	415.62
466.073	428.62
466.293	413.62
466.512	407.62
466.732	384.62
466.951	384.62
467.171	389.62
467.391	392.62
467.61	391.62
467.829	401.62
468.049	401.62
468.268	400.62
468.488	390.62
468.707	378.62
468.927	366.62
469.146	371.62
469.365	381.62
469.585	378.62
469.804	368.62
470.023	387.62
470.243	374.62
470.462	412.62
470.681	411.62
470.901	411.62
471.12	388.62
471.339	391.62
471.558	393.62
471.777	392.62
471.997	373.62
472.216	387.62
472.435	422.62
472.654	396.62
472.873	385.62
473.092	410.62
473.311	405.62
473.53	395.62
473.749	413.62
473.968	421.62
474.187	534.62
474.406	507.62
474.625	442.62
474.844	392.62
475.063	391.62
475.282	391.62
475.501	384.62
475.72	385.62
475.939	401.62
476.158	412.62
476.377	415.62
476.596	395.62
476.814	428.62
477.033	409.62
477.252	421.62
477.471	407.62
477.69	424.62
477.908	433.62
478.127	421.62
478.346	434.62
478.564	425.62
478.783	424.62
479.002	424.62
479.22	432.62
479.439	457.62
479.658	459.62
479.876	458.62
480.095	456.62
480.313	495.62
480.532	479.62
480.751	487.62
480.969	471.62
481.188	537.62
481.406	541.62
481.624	496.62
481.843	482.62
482.061	476.62
482.28	477.62
482.498	452.62
482.717	467.62
482.935	442.62
483.153	448.62
483.372	463.62
483.59	448.62
483.808	457.62
484.027	420.62
484.245	478.62
484.463	460.62
484.681	474.62
484.9	464.62
485.118	457.62
485.336	472.62
485.554	475.62
485.772	472.62
485.99	467.62
486.209	457.62
486.427	481.62
486.645	490.62
486.863	517.62
487.081	523.62
487.299	491.62
487.517	466.62
487.735	485.62
487.953	478.62
488.171	475.62
488.389	500.62
488.607	501.62
488.825	495.62
489.043	479.62
489.261	516.62
489.479	517.62
489.696	497.62
489.914	512.62
490.132	510.62
490.35	502.62
490.568	514.62
490.786	536.62
491.003	533.62
491.221	552.62
491.439	528.62
491.657	551.62
491.874	536.62
492.092	549.62
492.31	550.62
492.527	570.62
492.745	551.62
492.963	572.62
493.18	575.62
493.398	563.62
493.615	571.62
493.833	568.62
494.05	559.62
494.268	605.62
494.485	560.62
494.703	566.62
494.92	574.62
495.138	583.62
495.355	575.62
495.573	581.62
495.79	571.62
496.008	581.62
496.225	570.62
496.442	578.62
496.66	555.62
496.877	581.62
497.094	575.62
497.312	575.62
497.529	583.62
497.746	598.62
497.963	612.62
498.181	606.62
498.398	620.62
498.615	612.62
498.832	639.62
499.049	644.62
499.267	637.62
499.484	652.62
499.701	657.62
499.918	696.62
500.135	697.62
500.352	736.62
500.569	739.62
500.786	730.62
501.003	725.62
501.22	700.62
501.437	701.62
501.654	700.62
501.871	720.62
502.088	679.62
