Data from 1965.PennyLincolnUp.Lamp.En5.5.200Scan.071719.P1._HRD10591_14-09-15-911.txt Node
Date: Thu Jul 18 14:09:15 EDT 2019
User: cochatt
Spectrometer: HR+D1059
Trigger mode: 1
Integration Time (sec): 1.000000E-1
Scans to average: 1
Electric dark correction enabled: true
Nonlinearity correction enabled: false
Boxcar width: 0
XAxis mode: Wavelengths
Number of Pixels in Spectrum: 2048
>>>>>Begin Spectral Data<<<<<
223.165	-15.69
223.4	-15.69
223.635	-15.69
223.869	-21.69
224.104	-17.69
224.338	-0.69
224.573	-9.69
224.808	-12.69
225.042	-6.69
225.277	-1.69
225.511	11.31
225.746	5.31
225.98	9.31
226.215	4.31
226.449	11.31
226.683	8.31
226.918	17.31
227.152	19.31
227.387	13.31
227.621	24.31
227.856	41.31
228.09	54.31
228.324	39.31
228.559	37.31
228.793	66.31
229.027	79.31
229.262	104.31
229.496	96.31
229.73	121.31
229.964	134.31
230.199	102.31
230.433	106.31
230.667	113.31
230.901	102.31
231.136	94.31
231.37	105.31
231.604	99.31
231.838	113.31
232.072	96.31
232.306	92.31
232.541	99.31
232.775	98.31
233.009	96.31
233.243	104.31
233.477	106.31
233.711	97.31
233.945	103.31
234.179	94.31
234.413	100.31
234.647	105.31
234.881	106.31
235.115	96.31
235.349	102.31
235.583	114.31
235.817	98.31
236.051	110.31
236.285	117.31
236.519	109.31
236.753	127.31
236.987	129.31
237.221	154.31
237.455	206.31
237.689	180.31
237.922	134.31
238.156	111.31
238.39	108.31
238.624	106.31
238.858	112.31
239.091	110.31
239.325	110.31
239.559	103.31
239.793	120.31
240.027	104.31
240.26	126.31
240.494	135.31
240.728	128.31
240.961	127.31
241.195	128.31
241.429	115.31
241.662	111.31
241.896	103.31
242.13	118.31
242.363	128.31
242.597	113.31
242.83	116.31
243.064	131.31
243.298	133.31
243.531	122.31
243.765	130.31
243.998	126.31
244.232	130.31
244.465	127.31
244.699	114.31
244.932	123.31
245.166	132.31
245.399	116.31
245.633	132.31
245.866	118.31
246.099	119.31
246.333	143.31
246.566	129.31
246.8	147.31
247.033	128.31
247.266	139.31
247.5	142.31
247.733	146.31
247.966	152.31
248.2	162.31
248.433	139.31
248.666	144.31
248.899	158.31
249.133	179.31
249.366	194.31
249.599	175.31
249.832	165.31
250.066	168.31
250.299	174.31
250.532	171.31
250.765	163.31
250.998	201.31
251.231	185.31
251.465	184.31
251.698	186.31
251.931	167.31
252.164	155.31
252.397	168.31
252.63	190.31
252.863	182.31
253.096	178.31
253.329	182.31
253.562	194.31
253.795	191.31
254.028	187.31
254.261	178.31
254.494	198.31
254.727	236.31
254.96	244.31
255.193	231.31
255.426	199.31
255.659	196.31
255.892	198.31
256.124	191.31
256.357	198.31
256.59	195.31
256.823	207.31
257.056	178.31
257.289	188.31
257.521	193.31
257.754	185.31
257.987	161.31
258.22	199.31
258.452	176.31
258.685	166.31
258.918	179.31
259.151	184.31
259.383	196.31
259.616	186.31
259.849	190.31
260.081	211.31
260.314	231.31
260.547	215.31
260.779	205.31
261.012	186.31
261.244	202.31
261.477	200.31
261.71	179.31
261.942	203.31
262.175	204.31
262.407	197.31
262.64	199.31
262.872	198.31
263.105	186.31
263.337	192.31
263.57	192.31
263.802	171.31
264.035	175.31
264.267	182.31
264.499	196.31
264.732	183.31
264.964	179.31
265.197	174.31
265.429	179.31
265.661	195.31
265.894	192.31
266.126	193.31
266.358	176.31
266.591	177.31
266.823	193.31
267.055	203.31
267.287	202.31
267.52	191.31
267.752	195.31
267.984	190.31
268.216	193.31
268.448	196.31
268.681	208.31
268.913	214.31
269.145	230.31
269.377	227.31
269.609	232.31
269.841	230.31
270.073	236.31
270.306	251.31
270.538	270.31
270.77	276.31
271.002	263.31
271.234	243.31
271.466	257.31
271.698	260.31
271.93	280.31
272.162	278.31
272.394	275.31
272.626	267.31
272.858	251.31
273.09	252.31
273.322	231.31
273.553	223.31
273.785	244.31
274.017	221.31
274.249	227.31
274.481	219.31
274.713	232.31
274.945	232.31
275.176	242.31
275.408	209.31
275.64	243.31
275.872	229.31
276.104	242.31
276.335	231.31
276.567	225.31
276.799	260.31
277.031	265.31
277.262	289.31
277.494	261.31
277.726	263.31
277.957	261.31
278.189	229.31
278.421	224.31
278.652	223.31
278.884	244.31
279.115	227.31
279.347	242.31
279.579	213.31
279.81	227.31
280.042	235.31
280.273	238.31
280.505	222.31
280.736	227.31
280.968	228.31
281.199	214.31
281.431	229.31
281.662	214.31
281.894	223.31
282.125	223.31
282.356	256.31
282.588	254.31
282.819	260.31
283.051	243.31
283.282	209.31
283.513	219.31
283.745	235.31
283.976	214.31
284.207	239.31
284.439	236.31
284.67	247.31
284.901	231.31
285.132	238.31
285.364	217.31
285.595	246.31
285.826	224.31
286.057	228.31
286.288	221.31
286.52	228.31
286.751	231.31
286.982	238.31
287.213	242.31
287.444	234.31
287.675	260.31
287.906	258.31
288.138	249.31
288.369	271.31
288.6	254.31
288.831	226.31
289.062	242.31
289.293	245.31
289.524	228.31
289.755	254.31
289.986	235.31
290.217	240.31
290.448	249.31
290.679	258.31
290.91	244.31
291.141	242.31
291.371	258.31
291.602	240.31
291.833	230.31
292.064	254.31
292.295	260.31
292.526	255.31
292.757	241.31
292.987	241.31
293.218	234.31
293.449	234.31
293.68	235.31
293.91	246.31
294.141	248.31
294.372	224.31
294.603	250.31
294.833	252.31
295.064	247.31
295.295	246.31
295.525	246.31
295.756	263.31
295.987	262.31
296.217	271.31
296.448	296.31
296.679	254.31
296.909	245.31
297.14	261.31
297.37	259.31
297.601	259.31
297.831	254.31
298.062	248.31
298.292	246.31
298.523	258.31
298.753	260.31
298.984	262.31
299.214	276.31
299.445	267.31
299.675	262.31
299.905	256.31
300.136	262.31
300.366	273.31
300.597	262.31
300.827	278.31
301.057	276.31
301.288	278.31
301.518	259.31
301.748	291.31
301.979	263.31
302.209	266.31
302.439	268.31
302.669	288.31
302.9	295.31
303.13	281.31
303.36	262.31
303.59	293.31
303.82	297.31
304.051	291.31
304.281	280.31
304.511	281.31
304.741	247.31
304.971	289.31
305.201	268.31
305.431	279.31
305.661	278.31
305.891	272.31
306.121	261.31
306.352	280.31
306.582	279.31
306.812	295.31
307.042	292.31
307.272	286.31
307.502	291.31
307.731	299.31
307.961	280.31
308.191	290.31
308.421	267.31
308.651	282.31
308.881	276.31
309.111	277.31
309.341	284.31
309.571	295.31
309.8	309.31
310.03	313.31
310.26	328.31
310.49	318.31
310.72	339.31
310.949	358.31
311.179	347.31
311.409	313.31
311.639	320.31
311.868	335.31
312.098	319.31
312.328	338.31
312.557	343.31
312.787	361.31
313.017	378.31
313.246	342.31
313.476	316.31
313.706	332.31
313.935	315.31
314.165	346.31
314.394	361.31
314.624	336.31
314.853	333.31
315.083	339.31
315.312	335.31
315.542	321.31
315.771	338.31
316.001	324.31
316.23	319.31
316.46	347.31
316.689	328.31
316.919	326.31
317.148	337.31
317.377	344.31
317.607	340.31
317.836	327.31
318.065	328.31
318.295	321.31
318.524	314.31
318.753	320.31
318.983	318.31
319.212	300.31
319.441	327.31
319.67	368.31
319.9	352.31
320.129	338.31
320.358	325.31
320.587	332.31
320.816	343.31
321.046	341.31
321.275	345.31
321.504	330.31
321.733	340.31
321.962	392.31
322.191	378.31
322.42	395.31
322.649	408.31
322.878	397.31
323.108	409.31
323.337	440.31
323.566	476.31
323.795	475.31
324.024	531.31
324.253	648.31
324.482	957.31
324.71	1493.31
324.939	2013.31
325.168	1675.31
325.397	895.31
325.626	599.31
325.855	508.31
326.084	467.31
326.313	452.31
326.542	442.31
326.77	502.31
326.999	588.31
327.228	851.31
327.457	1298.31
327.686	1464.31
327.914	967.31
328.143	683.31
328.372	572.31
328.6	544.31
328.829	514.31
329.058	534.31
329.287	550.31
329.515	508.31
329.744	458.31
329.972	454.31
330.201	458.31
330.43	513.31
330.658	534.31
330.887	566.31
331.115	511.31
331.344	452.31
331.572	439.31
331.801	440.31
332.03	439.31
332.258	412.31
332.486	387.31
332.715	384.31
332.943	374.31
333.172	393.31
333.4	388.31
333.629	410.31
333.857	408.31
334.085	416.31
334.314	430.31
334.542	471.31
334.771	467.31
334.999	446.31
335.227	402.31
335.455	380.31
335.684	378.31
335.912	383.31
336.14	364.31
336.369	376.31
336.597	376.31
336.825	392.31
337.053	383.31
337.281	376.31
337.51	370.31
337.738	386.31
337.966	367.31
338.194	377.31
338.422	381.31
338.65	363.31
338.878	364.31
339.106	368.31
339.334	368.31
339.562	346.31
339.79	373.31
340.018	378.31
340.246	377.31
340.474	369.31
340.702	342.31
340.93	359.31
341.158	351.31
341.386	354.31
341.614	370.31
341.842	358.31
342.07	368.31
342.298	356.31
342.526	365.31
342.754	359.31
342.981	366.31
343.209	357.31
343.437	367.31
343.665	347.31
343.893	370.31
344.12	384.31
344.348	346.31
344.576	349.31
344.804	371.31
345.031	393.31
345.259	384.31
345.487	392.31
345.714	373.31
345.942	371.31
346.17	352.31
346.397	355.31
346.625	339.31
346.853	356.31
347.08	357.31
347.308	366.31
347.535	371.31
347.763	368.31
347.99	392.31
348.218	364.31
348.445	368.31
348.673	329.31
348.9	358.31
349.128	348.31
349.355	322.31
349.583	330.31
349.81	334.31
350.037	342.31
350.265	356.31
350.492	337.31
350.72	350.31
350.947	341.31
351.174	353.31
351.402	354.31
351.629	338.31
351.856	366.31
352.083	347.31
352.311	388.31
352.538	375.31
352.765	386.31
352.992	368.31
353.22	344.31
353.447	347.31
353.674	338.31
353.901	346.31
354.128	345.31
354.355	322.31
354.583	341.31
354.81	344.31
355.037	317.31
355.264	317.31
355.491	323.31
355.718	330.31
355.945	337.31
356.172	344.31
356.399	312.31
356.626	317.31
356.853	314.31
357.08	322.31
357.307	325.31
357.534	335.31
357.761	327.31
357.988	315.31
358.215	331.31
358.441	332.31
358.668	329.31
358.895	321.31
359.122	342.31
359.349	331.31
359.576	350.31
359.802	363.31
360.029	400.31
360.256	407.31
360.483	407.31
360.709	367.31
360.936	359.31
361.163	374.31
361.39	374.31
361.616	357.31
361.843	350.31
362.07	352.31
362.296	349.31
362.523	359.31
362.749	363.31
362.976	345.31
363.203	344.31
363.429	335.31
363.656	342.31
363.882	349.31
364.109	336.31
364.335	325.31
364.562	343.31
364.788	343.31
365.015	331.31
365.241	353.31
365.468	347.31
365.694	350.31
365.92	324.31
366.147	339.31
366.373	344.31
366.599	351.31
366.826	344.31
367.052	333.31
367.278	338.31
367.505	345.31
367.731	329.31
367.957	345.31
368.184	338.31
368.41	345.31
368.636	349.31
368.862	341.31
369.089	351.31
369.315	351.31
369.541	354.31
369.767	342.31
369.993	321.31
370.219	334.31
370.445	332.31
370.672	336.31
370.898	335.31
371.124	352.31
371.35	320.31
371.576	346.31
371.802	338.31
372.028	338.31
372.254	318.31
372.48	321.31
372.706	331.31
372.932	336.31
373.158	328.31
373.384	336.31
373.61	354.31
373.835	332.31
374.061	327.31
374.287	341.31
374.513	332.31
374.739	340.31
374.965	329.31
375.191	331.31
375.416	337.31
375.642	319.31
375.868	328.31
376.094	319.31
376.319	322.31
376.545	346.31
376.771	321.31
376.997	325.31
377.222	328.31
377.448	343.31
377.674	333.31
377.899	333.31
378.125	323.31
378.35	302.31
378.576	314.31
378.802	322.31
379.027	332.31
379.253	330.31
379.478	330.31
379.704	331.31
379.929	345.31
380.155	319.31
380.38	333.31
380.606	340.31
380.831	338.31
381.057	334.31
381.282	325.31
381.507	348.31
381.733	324.31
381.958	322.31
382.184	317.31
382.409	341.31
382.634	324.31
382.86	336.31
383.085	354.31
383.31	348.31
383.535	345.31
383.761	327.31
383.986	339.31
384.211	338.31
384.436	336.31
384.662	347.31
384.887	343.31
385.112	356.31
385.337	344.31
385.562	340.31
385.787	343.31
386.013	363.31
386.238	348.31
386.463	379.31
386.688	368.31
386.913	363.31
387.138	344.31
387.363	350.31
387.588	360.31
387.813	359.31
388.038	358.31
388.263	342.31
388.488	375.31
388.713	358.31
388.938	369.31
389.163	352.31
389.387	358.31
389.612	354.31
389.837	362.31
390.062	324.31
390.287	343.31
390.512	349.31
390.736	353.31
390.961	355.31
391.186	363.31
391.411	344.31
391.636	344.31
391.86	353.31
392.085	364.31
392.31	366.31
392.534	359.31
392.759	372.31
392.984	353.31
393.208	361.31
393.433	342.31
393.658	347.31
393.882	359.31
394.107	363.31
394.331	341.31
394.556	337.31
394.78	356.31
395.005	376.31
395.229	322.31
395.454	342.31
395.678	372.31
395.903	371.31
396.127	386.31
396.352	406.31
396.576	404.31
396.801	376.31
397.025	378.31
397.249	371.31
397.474	368.31
397.698	355.31
397.922	384.31
398.147	410.31
398.371	403.31
398.595	410.31
398.82	402.31
399.044	401.31
399.268	418.31
399.492	438.31
399.717	440.31
399.941	460.31
400.165	464.31
400.389	474.31
400.613	446.31
400.837	434.31
401.062	415.31
401.286	392.31
401.51	407.31
401.734	411.31
401.958	408.31
402.182	394.31
402.406	416.31
402.63	423.31
402.854	393.31
403.078	387.31
403.302	400.31
403.526	414.31
403.75	419.31
403.974	430.31
404.198	408.31
404.422	425.31
404.645	418.31
404.869	431.31
405.093	458.31
405.317	457.31
405.541	507.31
405.765	466.31
405.988	447.31
406.212	448.31
406.436	480.31
406.66	472.31
406.883	470.31
407.107	477.31
407.331	493.31
407.555	566.31
407.778	552.31
408.002	521.31
408.226	469.31
408.449	447.31
408.673	448.31
408.896	472.31
409.12	503.31
409.344	472.31
409.567	435.31
409.791	415.31
410.014	427.31
410.238	411.31
410.461	422.31
410.685	412.31
410.908	453.31
411.132	461.31
411.355	466.31
411.578	456.31
411.802	419.31
412.025	415.31
412.249	424.31
412.472	473.31
412.695	449.31
412.919	463.31
413.142	447.31
413.365	419.31
413.589	423.31
413.812	399.31
414.035	398.31
414.258	414.31
414.482	394.31
414.705	407.31
414.928	390.31
415.151	382.31
415.374	380.31
415.597	389.31
415.821	392.31
416.044	388.31
416.267	385.31
416.49	400.31
416.713	386.31
416.936	412.31
417.159	388.31
417.382	422.31
417.605	410.31
417.828	401.31
418.051	416.31
418.274	416.31
418.497	411.31
418.72	390.31
418.943	394.31
419.166	434.31
419.389	384.31
419.611	414.31
419.834	394.31
420.057	421.31
420.28	434.31
420.503	421.31
420.726	420.31
420.948	423.31
421.171	461.31
421.394	498.31
421.617	430.31
421.839	420.31
422.062	420.31
422.285	406.31
422.507	482.31
422.73	537.31
422.953	516.31
423.175	458.31
423.398	467.31
423.621	443.31
423.843	439.31
424.066	442.31
424.288	473.31
424.511	477.31
424.733	512.31
424.956	588.31
425.178	550.31
425.401	529.31
425.623	564.31
425.846	483.31
426.068	466.31
426.291	457.31
426.513	454.31
426.735	468.31
426.958	500.31
427.18	563.31
427.402	679.31
427.625	722.31
427.847	654.31
428.069	558.31
428.292	491.31
428.514	474.31
428.736	432.31
428.958	454.31
429.181	430.31
429.403	428.31
429.625	460.31
429.847	467.31
430.069	490.31
430.292	522.31
430.514	442.31
430.736	404.31
430.958	417.31
431.18	421.31
431.402	399.31
431.624	396.31
431.846	412.31
432.068	374.31
432.29	410.31
432.512	408.31
432.734	423.31
432.956	407.31
433.178	398.31
433.4	405.31
433.622	378.31
433.844	392.31
434.066	396.31
434.287	417.31
434.509	391.31
434.731	402.31
434.953	418.31
435.175	425.31
435.397	431.31
435.618	450.31
435.84	481.31
436.062	553.31
436.284	622.31
436.505	518.31
436.727	477.31
436.949	436.31
437.17	447.31
437.392	432.31
437.614	461.31
437.835	482.31
438.057	566.31
438.278	634.31
438.5	622.31
438.721	697.31
438.943	663.31
439.165	522.31
439.386	473.31
439.608	458.31
439.829	471.31
440.05	511.31
440.272	524.31
440.493	491.31
440.715	452.31
440.936	432.31
441.158	414.31
441.379	415.31
441.6	431.31
441.822	451.31
442.043	488.31
442.264	547.31
442.486	594.31
442.707	503.31
442.928	459.31
443.149	463.31
443.371	513.31
443.592	548.31
443.813	610.31
444.034	643.31
444.255	528.31
444.476	465.31
444.698	438.31
444.919	447.31
445.14	588.31
445.361	534.31
445.582	490.31
445.803	545.31
446.024	642.31
446.245	644.31
446.466	600.31
446.687	501.31
446.908	472.31
447.129	452.31
447.35	434.31
447.571	431.31
447.792	432.31
448.013	426.31
448.234	458.31
448.455	498.31
448.675	564.31
448.896	649.31
449.117	558.31
449.338	546.31
449.559	609.31
449.779	673.31
450	563.31
450.221	459.31
450.442	456.31
450.662	432.31
450.883	433.31
451.104	462.31
451.324	416.31
451.545	409.31
451.766	407.31
451.986	405.31
452.207	390.31
452.428	389.31
452.648	388.31
452.869	383.31
453.089	388.31
453.31	394.31
453.53	395.31
453.751	392.31
453.971	399.31
454.192	416.31
454.412	409.31
454.633	390.31
454.853	389.31
455.073	375.31
455.294	402.31
455.514	465.31
455.734	460.31
455.955	376.31
456.175	375.31
456.395	343.31
456.616	388.31
456.836	359.31
457.056	374.31
457.276	355.31
457.497	351.31
457.717	354.31
457.937	369.31
458.157	390.31
458.377	378.31
458.598	392.31
458.818	478.31
459.038	538.31
459.258	510.31
459.478	442.31
459.698	419.31
459.918	386.31
460.138	377.31
460.358	396.31
460.578	400.31
460.798	403.31
461.018	372.31
461.238	377.31
461.458	404.31
461.678	394.31
461.898	410.31
462.118	390.31
462.338	405.31
462.558	414.31
462.777	406.31
462.997	421.31
463.217	416.31
463.437	436.31
463.657	426.31
463.876	428.31
464.096	423.31
464.316	443.31
464.536	432.31
464.755	419.31
464.975	442.31
465.195	484.31
465.414	574.31
465.634	484.31
465.854	441.31
466.073	421.31
466.293	411.31
466.512	405.31
466.732	396.31
466.951	394.31
467.171	396.31
467.391	382.31
467.61	396.31
467.829	408.31
468.049	414.31
468.268	396.31
468.488	398.31
468.707	389.31
468.927	402.31
469.146	392.31
469.365	403.31
469.585	378.31
469.804	381.31
470.023	383.31
470.243	397.31
470.462	390.31
470.681	434.31
470.901	430.31
471.12	402.31
471.339	389.31
471.558	412.31
471.777	399.31
471.997	384.31
472.216	396.31
472.435	444.31
472.654	435.31
472.873	395.31
473.092	391.31
473.311	400.31
473.53	394.31
473.749	389.31
473.968	436.31
474.187	538.31
474.406	558.31
474.625	460.31
474.844	419.31
475.063	397.31
475.282	388.31
475.501	414.31
475.72	407.31
475.939	414.31
476.158	390.31
476.377	392.31
476.596	407.31
476.814	422.31
477.033	437.31
477.252	410.31
477.471	445.31
477.69	427.31
477.908	417.31
478.127	452.31
478.346	432.31
478.564	422.31
478.783	430.31
479.002	462.31
479.22	434.31
479.439	471.31
479.658	473.31
479.876	466.31
480.095	474.31
480.313	511.31
480.532	506.31
480.751	486.31
480.969	504.31
481.188	592.31
481.406	615.31
481.624	525.31
481.843	496.31
482.061	454.31
482.28	487.31
482.498	442.31
482.717	484.31
482.935	488.31
483.153	456.31
483.372	454.31
483.59	464.31
483.808	479.31
484.027	480.31
484.245	482.31
484.463	471.31
484.681	458.31
484.9	480.31
485.118	471.31
485.336	481.31
485.554	488.31
485.772	488.31
485.99	482.31
486.209	497.31
486.427	468.31
486.645	490.31
486.863	512.31
487.081	529.31
487.299	518.31
487.517	509.31
487.735	497.31
487.953	505.31
488.171	507.31
488.389	506.31
488.607	492.31
488.825	498.31
489.043	498.31
489.261	516.31
489.479	498.31
489.696	496.31
489.914	518.31
490.132	521.31
490.35	522.31
490.568	522.31
490.786	543.31
491.003	531.31
491.221	543.31
491.439	550.31
491.657	565.31
491.874	566.31
492.092	568.31
492.31	559.31
492.527	568.31
492.745	559.31
492.963	580.31
493.18	563.31
493.398	606.31
493.615	584.31
493.833	583.31
494.05	583.31
494.268	593.31
494.485	597.31
494.703	577.31
494.92	593.31
495.138	582.31
495.355	596.31
495.573	572.31
495.79	614.31
496.008	613.31
496.225	598.31
496.442	585.31
496.66	598.31
496.877	607.31
497.094	600.31
497.312	604.31
497.529	608.31
497.746	624.31
497.963	635.31
498.181	643.31
498.398	684.31
498.615	649.31
498.832	645.31
499.049	646.31
499.267	650.31
499.484	696.31
499.701	706.31
499.918	696.31
500.135	734.31
500.352	744.31
500.569	741.31
500.786	770.31
501.003	784.31
501.22	729.31
501.437	718.31
501.654	725.31
501.871	714.31
502.088	708.31
