Data from 1965.PennyLincolnUp.Lamp.En5.5.200Scan.071719.P1._HRD10591_14-09-22-912.txt Node
Date: Thu Jul 18 14:09:22 EDT 2019
User: cochatt
Spectrometer: HR+D1059
Trigger mode: 1
Integration Time (sec): 1.000000E-1
Scans to average: 1
Electric dark correction enabled: true
Nonlinearity correction enabled: false
Boxcar width: 0
XAxis mode: Wavelengths
Number of Pixels in Spectrum: 2048
>>>>>Begin Spectral Data<<<<<
223.165	-20.25
223.4	-20.25
223.635	-20.25
223.869	-6.25
224.104	-27.25
224.338	-19.25
224.573	-14.25
224.808	-15.25
225.042	-5.25
225.277	-11.25
225.511	7.75
225.746	2.75
225.98	11.75
226.215	4.75
226.449	19.75
226.683	16.75
226.918	11.75
227.152	43.75
227.387	38.75
227.621	32.75
227.856	43.75
228.09	48.75
228.324	50.75
228.559	66.75
228.793	85.75
229.027	95.75
229.262	103.75
229.496	118.75
229.73	118.75
229.964	147.75
230.199	121.75
230.433	130.75
230.667	104.75
230.901	104.75
231.136	107.75
231.37	100.75
231.604	103.75
231.838	103.75
232.072	100.75
232.306	96.75
232.541	100.75
232.775	109.75
233.009	106.75
233.243	102.75
233.477	117.75
233.711	109.75
233.945	120.75
234.179	109.75
234.413	111.75
234.647	118.75
234.881	115.75
235.115	103.75
235.349	114.75
235.583	98.75
235.817	125.75
236.051	121.75
236.285	119.75
236.519	110.75
236.753	95.75
236.987	131.75
237.221	174.75
237.455	214.75
237.689	162.75
237.922	124.75
238.156	107.75
238.39	117.75
238.624	116.75
238.858	123.75
239.091	107.75
239.325	121.75
239.559	119.75
239.793	130.75
240.027	120.75
240.26	117.75
240.494	133.75
240.728	135.75
240.961	134.75
241.195	139.75
241.429	116.75
241.662	124.75
241.896	122.75
242.13	123.75
242.363	128.75
242.597	137.75
242.83	139.75
243.064	117.75
243.298	129.75
243.531	134.75
243.765	126.75
243.998	132.75
244.232	111.75
244.465	138.75
244.699	131.75
244.932	128.75
245.166	114.75
245.399	127.75
245.633	134.75
245.866	136.75
246.099	134.75
246.333	126.75
246.566	144.75
246.8	131.75
247.033	144.75
247.266	142.75
247.5	144.75
247.733	146.75
247.966	160.75
248.2	172.75
248.433	151.75
248.666	144.75
248.899	170.75
249.133	168.75
249.366	180.75
249.599	180.75
249.832	158.75
250.066	173.75
250.299	170.75
250.532	162.75
250.765	183.75
250.998	204.75
251.231	193.75
251.465	179.75
251.698	184.75
251.931	176.75
252.164	173.75
252.397	178.75
252.63	168.75
252.863	170.75
253.096	192.75
253.329	199.75
253.562	210.75
253.795	196.75
254.028	203.75
254.261	196.75
254.494	230.75
254.727	226.75
254.96	241.75
255.193	239.75
255.426	207.75
255.659	218.75
255.892	216.75
256.124	206.75
256.357	194.75
256.59	198.75
256.823	194.75
257.056	181.75
257.289	200.75
257.521	186.75
257.754	181.75
257.987	188.75
258.22	199.75
258.452	183.75
258.685	186.75
258.918	182.75
259.151	174.75
259.383	200.75
259.616	206.75
259.849	187.75
260.081	215.75
260.314	228.75
260.547	220.75
260.779	212.75
261.012	192.75
261.244	213.75
261.477	189.75
261.71	208.75
261.942	196.75
262.175	222.75
262.407	212.75
262.64	196.75
262.872	206.75
263.105	200.75
263.337	195.75
263.57	186.75
263.802	198.75
264.035	199.75
264.267	183.75
264.499	179.75
264.732	194.75
264.964	182.75
265.197	187.75
265.429	176.75
265.661	184.75
265.894	190.75
266.126	168.75
266.358	194.75
266.591	203.75
266.823	206.75
267.055	210.75
267.287	204.75
267.52	185.75
267.752	186.75
267.984	197.75
268.216	193.75
268.448	202.75
268.681	213.75
268.913	216.75
269.145	228.75
269.377	243.75
269.609	242.75
269.841	236.75
270.073	243.75
270.306	237.75
270.538	286.75
270.77	262.75
271.002	282.75
271.234	266.75
271.466	271.75
271.698	277.75
271.93	294.75
272.162	277.75
272.394	270.75
272.626	253.75
272.858	263.75
273.09	249.75
273.322	232.75
273.553	220.75
273.785	222.75
274.017	227.75
274.249	220.75
274.481	251.75
274.713	234.75
274.945	225.75
275.176	231.75
275.408	233.75
275.64	219.75
275.872	222.75
276.104	232.75
276.335	230.75
276.567	236.75
276.799	260.75
277.031	244.75
277.262	293.75
277.494	275.75
277.726	252.75
277.957	257.75
278.189	235.75
278.421	223.75
278.652	236.75
278.884	239.75
279.115	226.75
279.347	228.75
279.579	230.75
279.81	239.75
280.042	240.75
280.273	244.75
280.505	242.75
280.736	227.75
280.968	206.75
281.199	220.75
281.431	223.75
281.662	228.75
281.894	236.75
282.125	232.75
282.356	282.75
282.588	280.75
282.819	262.75
283.051	230.75
283.282	230.75
283.513	223.75
283.745	242.75
283.976	235.75
284.207	237.75
284.439	250.75
284.67	245.75
284.901	242.75
285.132	234.75
285.364	239.75
285.595	231.75
285.826	225.75
286.057	237.75
286.288	230.75
286.52	250.75
286.751	231.75
286.982	243.75
287.213	241.75
287.444	236.75
287.675	252.75
287.906	257.75
288.138	268.75
288.369	272.75
288.6	268.75
288.831	242.75
289.062	261.75
289.293	237.75
289.524	247.75
289.755	254.75
289.986	253.75
290.217	254.75
290.448	263.75
290.679	249.75
290.91	253.75
291.141	256.75
291.371	240.75
291.602	238.75
291.833	252.75
292.064	257.75
292.295	250.75
292.526	240.75
292.757	246.75
292.987	237.75
293.218	238.75
293.449	241.75
293.68	244.75
293.91	267.75
294.141	246.75
294.372	262.75
294.603	249.75
294.833	247.75
295.064	236.75
295.295	246.75
295.525	228.75
295.756	256.75
295.987	273.75
296.217	268.75
296.448	299.75
296.679	281.75
296.909	245.75
297.14	245.75
297.37	258.75
297.601	233.75
297.831	253.75
298.062	247.75
298.292	265.75
298.523	266.75
298.753	266.75
298.984	270.75
299.214	247.75
299.445	272.75
299.675	263.75
299.905	262.75
300.136	279.75
300.366	268.75
300.597	269.75
300.827	268.75
301.057	281.75
301.288	272.75
301.518	296.75
301.748	263.75
301.979	272.75
302.209	269.75
302.439	295.75
302.669	297.75
302.9	277.75
303.13	280.75
303.36	281.75
303.59	276.75
303.82	292.75
304.051	293.75
304.281	269.75
304.511	297.75
304.741	293.75
304.971	269.75
305.201	289.75
305.431	289.75
305.661	301.75
305.891	311.75
306.121	292.75
306.352	286.75
306.582	308.75
306.812	293.75
307.042	295.75
307.272	290.75
307.502	293.75
307.731	277.75
307.961	287.75
308.191	295.75
308.421	310.75
308.651	288.75
308.881	315.75
309.111	314.75
309.341	317.75
309.571	318.75
309.8	323.75
310.03	340.75
310.26	341.75
310.49	325.75
310.72	339.75
310.949	356.75
311.179	358.75
311.409	334.75
311.639	323.75
311.868	322.75
312.098	332.75
312.328	320.75
312.557	366.75
312.787	355.75
313.017	359.75
313.246	361.75
313.476	329.75
313.706	337.75
313.935	326.75
314.165	348.75
314.394	360.75
314.624	344.75
314.853	328.75
315.083	329.75
315.312	318.75
315.542	323.75
315.771	326.75
316.001	334.75
316.23	327.75
316.46	328.75
316.689	354.75
316.919	338.75
317.148	370.75
317.377	352.75
317.607	326.75
317.836	348.75
318.065	344.75
318.295	336.75
318.524	331.75
318.753	331.75
318.983	339.75
319.212	332.75
319.441	350.75
319.67	376.75
319.9	361.75
320.129	329.75
320.358	334.75
320.587	334.75
320.816	350.75
321.046	356.75
321.275	355.75
321.504	350.75
321.733	363.75
321.962	379.75
322.191	372.75
322.42	394.75
322.649	396.75
322.878	405.75
323.108	418.75
323.337	439.75
323.566	451.75
323.795	491.75
324.024	537.75
324.253	679.75
324.482	976.75
324.71	1519.75
324.939	2057.75
325.168	1709.75
325.397	922.75
325.626	602.75
325.855	508.75
326.084	467.75
326.313	483.75
326.542	461.75
326.77	524.75
326.999	619.75
327.228	868.75
327.457	1321.75
327.686	1517.75
327.914	1043.75
328.143	681.75
328.372	595.75
328.6	574.75
328.829	525.75
329.058	524.75
329.287	556.75
329.515	490.75
329.744	468.75
329.972	456.75
330.201	488.75
330.43	527.75
330.658	562.75
330.887	582.75
331.115	557.75
331.344	494.75
331.572	427.75
331.801	465.75
332.03	452.75
332.258	422.75
332.486	404.75
332.715	388.75
332.943	391.75
333.172	404.75
333.4	392.75
333.629	395.75
333.857	424.75
334.085	456.75
334.314	449.75
334.542	480.75
334.771	501.75
334.999	453.75
335.227	420.75
335.455	398.75
335.684	386.75
335.912	391.75
336.14	383.75
336.369	390.75
336.597	392.75
336.825	379.75
337.053	382.75
337.281	384.75
337.51	380.75
337.738	388.75
337.966	378.75
338.194	381.75
338.422	386.75
338.65	378.75
338.878	358.75
339.106	366.75
339.334	363.75
339.562	359.75
339.79	383.75
340.018	363.75
340.246	369.75
340.474	394.75
340.702	374.75
340.93	382.75
341.158	363.75
341.386	358.75
341.614	370.75
341.842	370.75
342.07	354.75
342.298	363.75
342.526	360.75
342.754	380.75
342.981	365.75
343.209	362.75
343.437	378.75
343.665	366.75
343.893	374.75
344.12	381.75
344.348	365.75
344.576	377.75
344.804	376.75
345.031	404.75
345.259	406.75
345.487	382.75
345.714	388.75
345.942	389.75
346.17	366.75
346.397	390.75
346.625	388.75
346.853	380.75
347.08	342.75
347.308	374.75
347.535	378.75
347.763	382.75
347.99	390.75
348.218	371.75
348.445	398.75
348.673	388.75
348.9	376.75
349.128	359.75
349.355	355.75
349.583	337.75
349.81	350.75
350.037	334.75
350.265	341.75
350.492	347.75
350.72	349.75
350.947	350.75
351.174	367.75
351.402	384.75
351.629	375.75
351.856	370.75
352.083	357.75
352.311	380.75
352.538	386.75
352.765	390.75
352.992	375.75
353.22	379.75
353.447	368.75
353.674	378.75
353.901	365.75
354.128	348.75
354.355	335.75
354.583	330.75
354.81	346.75
355.037	358.75
355.264	343.75
355.491	314.75
355.718	354.75
355.945	343.75
356.172	332.75
356.399	321.75
356.626	314.75
356.853	324.75
357.08	333.75
357.307	316.75
357.534	327.75
357.761	320.75
357.988	344.75
358.215	335.75
358.441	335.75
358.668	345.75
358.895	327.75
359.122	348.75
359.349	345.75
359.576	364.75
359.802	379.75
360.029	409.75
360.256	412.75
360.483	393.75
360.709	389.75
360.936	380.75
361.163	367.75
361.39	370.75
361.616	372.75
361.843	360.75
362.07	353.75
362.296	376.75
362.523	370.75
362.749	352.75
362.976	365.75
363.203	364.75
363.429	373.75
363.656	356.75
363.882	354.75
364.109	340.75
364.335	335.75
364.562	354.75
364.788	359.75
365.015	347.75
365.241	346.75
365.468	358.75
365.694	351.75
365.92	350.75
366.147	357.75
366.373	334.75
366.599	340.75
366.826	350.75
367.052	330.75
367.278	340.75
367.505	349.75
367.731	335.75
367.957	341.75
368.184	335.75
368.41	352.75
368.636	372.75
368.862	354.75
369.089	359.75
369.315	334.75
369.541	346.75
369.767	341.75
369.993	328.75
370.219	327.75
370.445	331.75
370.672	335.75
370.898	332.75
371.124	343.75
371.35	345.75
371.576	325.75
371.802	344.75
372.028	335.75
372.254	345.75
372.48	338.75
372.706	332.75
372.932	358.75
373.158	357.75
373.384	343.75
373.61	359.75
373.835	338.75
374.061	330.75
374.287	327.75
374.513	364.75
374.739	337.75
374.965	347.75
375.191	350.75
375.416	358.75
375.642	345.75
375.868	330.75
376.094	358.75
376.319	326.75
376.545	344.75
376.771	310.75
376.997	339.75
377.222	329.75
377.448	336.75
377.674	323.75
377.899	350.75
378.125	329.75
378.35	328.75
378.576	343.75
378.802	331.75
379.027	343.75
379.253	319.75
379.478	327.75
379.704	348.75
379.929	314.75
380.155	346.75
380.38	328.75
380.606	337.75
380.831	335.75
381.057	330.75
381.282	346.75
381.507	333.75
381.733	349.75
381.958	355.75
382.184	350.75
382.409	357.75
382.634	370.75
382.86	346.75
383.085	332.75
383.31	331.75
383.535	360.75
383.761	350.75
383.986	350.75
384.211	336.75
384.436	348.75
384.662	354.75
384.887	353.75
385.112	354.75
385.337	371.75
385.562	370.75
385.787	351.75
386.013	370.75
386.238	357.75
386.463	352.75
386.688	372.75
386.913	353.75
387.138	359.75
387.363	350.75
387.588	366.75
387.813	359.75
388.038	361.75
388.263	366.75
388.488	356.75
388.713	363.75
388.938	360.75
389.163	371.75
389.387	366.75
389.612	351.75
389.837	375.75
390.062	363.75
390.287	352.75
390.512	358.75
390.736	358.75
390.961	353.75
391.186	354.75
391.411	376.75
391.636	370.75
391.86	388.75
392.085	357.75
392.31	343.75
392.534	375.75
392.759	363.75
392.984	374.75
393.208	376.75
393.433	378.75
393.658	379.75
393.882	374.75
394.107	359.75
394.331	351.75
394.556	373.75
394.78	376.75
395.005	362.75
395.229	372.75
395.454	384.75
395.678	391.75
395.903	383.75
396.127	382.75
396.352	388.75
396.576	371.75
396.801	373.75
397.025	374.75
397.249	391.75
397.474	388.75
397.698	381.75
397.922	410.75
398.147	410.75
398.371	414.75
398.595	403.75
398.82	405.75
399.044	414.75
399.268	405.75
399.492	406.75
399.717	464.75
399.941	461.75
400.165	480.75
400.389	526.75
400.613	474.75
400.837	402.75
401.062	416.75
401.286	419.75
401.51	419.75
401.734	385.75
401.958	396.75
402.182	421.75
402.406	435.75
402.63	421.75
402.854	402.75
403.078	437.75
403.302	400.75
403.526	436.75
403.75	428.75
403.974	417.75
404.198	407.75
404.422	426.75
404.645	450.75
404.869	436.75
405.093	455.75
405.317	498.75
405.541	483.75
405.765	484.75
405.988	462.75
406.212	462.75
406.436	486.75
406.66	511.75
406.883	480.75
407.107	480.75
407.331	515.75
407.555	546.75
407.778	540.75
408.002	502.75
408.226	479.75
408.449	477.75
408.673	455.75
408.896	465.75
409.12	516.75
409.344	494.75
409.567	451.75
409.791	423.75
410.014	433.75
410.238	409.75
410.461	423.75
410.685	423.75
410.908	434.75
411.132	472.75
411.355	496.75
411.578	461.75
411.802	439.75
412.025	418.75
412.249	425.75
412.472	452.75
412.695	477.75
412.919	470.75
413.142	426.75
413.365	416.75
413.589	430.75
413.812	410.75
414.035	414.75
414.258	405.75
414.482	422.75
414.705	395.75
414.928	416.75
415.151	408.75
415.374	380.75
415.597	431.75
415.821	395.75
416.044	408.75
416.267	413.75
416.49	424.75
416.713	400.75
416.936	394.75
417.159	399.75
417.382	401.75
417.605	387.75
417.828	422.75
418.051	437.75
418.274	417.75
418.497	407.75
418.72	410.75
418.943	430.75
419.166	410.75
419.389	423.75
419.611	429.75
419.834	424.75
420.057	419.75
420.28	440.75
420.503	423.75
420.726	423.75
420.948	435.75
421.171	454.75
421.394	511.75
421.617	457.75
421.839	418.75
422.062	445.75
422.285	456.75
422.507	458.75
422.73	544.75
422.953	539.75
423.175	454.75
423.398	443.75
423.621	434.75
423.843	469.75
424.066	467.75
424.288	440.75
424.511	478.75
424.733	538.75
424.956	583.75
425.178	548.75
425.401	550.75
425.623	572.75
425.846	499.75
426.068	460.75
426.291	457.75
426.513	458.75
426.735	475.75
426.958	505.75
427.18	567.75
427.402	670.75
427.625	727.75
427.847	682.75
428.069	579.75
428.292	519.75
428.514	452.75
428.736	451.75
428.958	447.75
429.181	424.75
429.403	428.75
429.625	408.75
429.847	461.75
430.069	527.75
430.292	505.75
430.514	435.75
430.736	419.75
430.958	435.75
431.18	414.75
431.402	401.75
431.624	409.75
431.846	400.75
432.068	390.75
432.29	416.75
432.512	417.75
432.734	408.75
432.956	421.75
433.178	406.75
433.4	403.75
433.622	407.75
433.844	398.75
434.066	401.75
434.287	419.75
434.509	392.75
434.731	412.75
434.953	415.75
435.175	427.75
435.397	464.75
435.618	474.75
435.84	496.75
436.062	583.75
436.284	633.75
436.505	506.75
436.727	492.75
436.949	451.75
437.17	424.75
437.392	442.75
437.614	453.75
437.835	478.75
438.057	589.75
438.278	635.75
438.5	628.75
438.721	712.75
438.943	654.75
439.165	526.75
439.386	478.75
439.608	470.75
439.829	486.75
440.05	525.75
440.272	555.75
440.493	504.75
440.715	458.75
440.936	458.75
441.158	430.75
441.379	433.75
441.6	432.75
441.822	462.75
442.043	499.75
442.264	568.75
442.486	604.75
442.707	512.75
442.928	478.75
443.149	478.75
443.371	523.75
443.592	526.75
443.813	613.75
444.034	643.75
444.255	565.75
444.476	483.75
444.698	457.75
444.919	448.75
445.14	570.75
445.361	546.75
445.582	518.75
445.803	574.75
446.024	652.75
446.245	644.75
446.466	616.75
446.687	502.75
446.908	473.75
447.129	458.75
447.35	450.75
447.571	441.75
447.792	439.75
448.013	439.75
448.234	457.75
448.455	488.75
448.675	624.75
448.896	687.75
449.117	608.75
449.338	551.75
449.559	619.75
449.779	678.75
450	588.75
450.221	476.75
450.442	446.75
450.662	427.75
450.883	440.75
451.104	462.75
451.324	469.75
451.545	419.75
451.766	406.75
451.986	391.75
452.207	382.75
452.428	390.75
452.648	387.75
452.869	406.75
453.089	400.75
453.31	416.75
453.53	404.75
453.751	382.75
453.971	401.75
454.192	438.75
454.412	401.75
454.633	393.75
454.853	394.75
455.073	391.75
455.294	410.75
455.514	466.75
455.734	468.75
455.955	393.75
456.175	377.75
456.395	385.75
456.616	384.75
456.836	358.75
457.056	390.75
457.276	337.75
457.497	380.75
457.717	379.75
457.937	368.75
458.157	379.75
458.377	394.75
458.598	382.75
458.818	448.75
459.038	526.75
459.258	518.75
459.478	472.75
459.698	415.75
459.918	419.75
460.138	407.75
460.358	413.75
460.578	419.75
460.798	402.75
461.018	398.75
461.238	386.75
461.458	377.75
461.678	388.75
461.898	390.75
462.118	397.75
462.338	415.75
462.558	431.75
462.777	412.75
462.997	419.75
463.217	444.75
463.437	436.75
463.657	432.75
463.876	423.75
464.096	439.75
464.316	426.75
464.536	434.75
464.755	461.75
464.975	434.75
465.195	496.75
465.414	574.75
465.634	488.75
465.854	428.75
466.073	427.75
466.293	412.75
466.512	399.75
466.732	400.75
466.951	398.75
467.171	398.75
467.391	391.75
467.61	401.75
467.829	401.75
468.049	398.75
468.268	399.75
468.488	398.75
468.707	391.75
468.927	392.75
469.146	383.75
469.365	393.75
469.585	377.75
469.804	395.75
470.023	390.75
470.243	418.75
470.462	399.75
470.681	447.75
470.901	412.75
471.12	406.75
471.339	418.75
471.558	399.75
471.777	410.75
471.997	392.75
472.216	411.75
472.435	434.75
472.654	434.75
472.873	422.75
473.092	397.75
473.311	407.75
473.53	408.75
473.749	412.75
473.968	451.75
474.187	546.75
474.406	531.75
474.625	468.75
474.844	415.75
475.063	411.75
475.282	400.75
475.501	413.75
475.72	425.75
475.939	420.75
476.158	421.75
476.377	424.75
476.596	419.75
476.814	426.75
477.033	437.75
477.252	440.75
477.471	447.75
477.69	451.75
477.908	434.75
478.127	449.75
478.346	426.75
478.564	451.75
478.783	434.75
479.002	465.75
479.22	449.75
479.439	478.75
479.658	482.75
479.876	490.75
480.095	471.75
480.313	536.75
480.532	499.75
480.751	494.75
480.969	512.75
481.188	600.75
481.406	607.75
481.624	514.75
481.843	492.75
482.061	485.75
482.28	490.75
482.498	461.75
482.717	495.75
482.935	462.75
483.153	485.75
483.372	450.75
483.59	484.75
483.808	475.75
484.027	477.75
484.245	452.75
484.463	482.75
484.681	496.75
484.9	486.75
485.118	482.75
485.336	467.75
485.554	469.75
485.772	493.75
485.99	483.75
486.209	486.75
486.427	504.75
486.645	532.75
486.863	555.75
487.081	518.75
487.299	530.75
487.517	495.75
487.735	507.75
487.953	506.75
488.171	502.75
488.389	502.75
488.607	506.75
488.825	488.75
489.043	495.75
489.261	528.75
489.479	532.75
489.696	519.75
489.914	511.75
490.132	523.75
490.35	538.75
490.568	545.75
490.786	550.75
491.003	548.75
491.221	562.75
491.439	560.75
491.657	582.75
491.874	574.75
492.092	590.75
492.31	583.75
492.527	580.75
492.745	575.75
492.963	583.75
493.18	582.75
493.398	600.75
493.615	583.75
493.833	581.75
494.05	608.75
494.268	598.75
494.485	598.75
494.703	589.75
494.92	582.75
495.138	595.75
495.355	592.75
495.573	601.75
495.79	590.75
496.008	602.75
496.225	617.75
496.442	614.75
496.66	592.75
496.877	630.75
497.094	628.75
497.312	601.75
497.529	621.75
497.746	619.75
497.963	615.75
498.181	661.75
498.398	657.75
498.615	647.75
498.832	650.75
499.049	686.75
499.267	679.75
499.484	662.75
499.701	700.75
499.918	708.75
500.135	750.75
500.352	775.75
500.569	762.75
500.786	763.75
501.003	766.75
501.22	732.75
501.437	748.75
501.654	738.75
501.871	717.75
