Data from 1965.PennyLincolnUp.Lamp.En5.5.200Scan.071719.P1._HRD10591_14-09-50-911.txt Node
Date: Thu Jul 18 14:09:50 EDT 2019
User: cochatt
Spectrometer: HR+D1059
Trigger mode: 1
Integration Time (sec): 1.000000E-1
Scans to average: 1
Electric dark correction enabled: true
Nonlinearity correction enabled: false
Boxcar width: 0
XAxis mode: Wavelengths
Number of Pixels in Spectrum: 2048
>>>>>Begin Spectral Data<<<<<
223.165	-10.12
223.4	-10.12
223.635	-10.12
223.869	-25.12
224.104	-25.12
224.338	-30.12
224.573	-21.12
224.808	-17.12
225.042	2.88
225.277	0.88
225.511	-3.12
225.746	10.88
225.98	14.88
226.215	23.88
226.449	22.88
226.683	20.88
226.918	8.88
227.152	25.88
227.387	38.88
227.621	34.88
227.856	32.88
228.09	50.88
228.324	29.88
228.559	43.88
228.793	67.88
229.027	99.88
229.262	99.88
229.496	105.88
229.73	129.88
229.964	134.88
230.199	132.88
230.433	114.88
230.667	104.88
230.901	109.88
231.136	108.88
231.37	109.88
231.604	114.88
231.838	119.88
232.072	102.88
232.306	104.88
232.541	119.88
232.775	99.88
233.009	111.88
233.243	98.88
233.477	99.88
233.711	102.88
233.945	114.88
234.179	109.88
234.413	115.88
234.647	112.88
234.881	106.88
235.115	109.88
235.349	104.88
235.583	119.88
235.817	116.88
236.051	125.88
236.285	124.88
236.519	126.88
236.753	107.88
236.987	142.88
237.221	184.88
237.455	212.88
237.689	184.88
237.922	130.88
238.156	127.88
238.39	127.88
238.624	111.88
238.858	114.88
239.091	126.88
239.325	122.88
239.559	122.88
239.793	120.88
240.027	130.88
240.26	143.88
240.494	151.88
240.728	144.88
240.961	137.88
241.195	145.88
241.429	138.88
241.662	121.88
241.896	123.88
242.13	115.88
242.363	120.88
242.597	128.88
242.83	118.88
243.064	111.88
243.298	130.88
243.531	123.88
243.765	131.88
243.998	145.88
244.232	123.88
244.465	139.88
244.699	135.88
244.932	130.88
245.166	134.88
245.399	145.88
245.633	134.88
245.866	128.88
246.099	126.88
246.333	128.88
246.566	133.88
246.8	140.88
247.033	149.88
247.266	139.88
247.5	145.88
247.733	156.88
247.966	166.88
248.2	152.88
248.433	162.88
248.666	156.88
248.899	156.88
249.133	168.88
249.366	204.88
249.599	182.88
249.832	151.88
250.066	182.88
250.299	173.88
250.532	178.88
250.765	178.88
250.998	205.88
251.231	217.88
251.465	184.88
251.698	190.88
251.931	189.88
252.164	187.88
252.397	174.88
252.63	178.88
252.863	195.88
253.096	201.88
253.329	217.88
253.562	222.88
253.795	184.88
254.028	210.88
254.261	203.88
254.494	197.88
254.727	230.88
254.96	251.88
255.193	245.88
255.426	230.88
255.659	227.88
255.892	215.88
256.124	212.88
256.357	209.88
256.59	196.88
256.823	204.88
257.056	198.88
257.289	184.88
257.521	192.88
257.754	199.88
257.987	188.88
258.22	182.88
258.452	180.88
258.685	200.88
258.918	189.88
259.151	203.88
259.383	204.88
259.616	209.88
259.849	196.88
260.081	215.88
260.314	238.88
260.547	233.88
260.779	220.88
261.012	223.88
261.244	210.88
261.477	207.88
261.71	203.88
261.942	210.88
262.175	225.88
262.407	202.88
262.64	195.88
262.872	204.88
263.105	171.88
263.337	221.88
263.57	198.88
263.802	190.88
264.035	199.88
264.267	192.88
264.499	187.88
264.732	201.88
264.964	196.88
265.197	187.88
265.429	183.88
265.661	191.88
265.894	200.88
266.126	198.88
266.358	196.88
266.591	192.88
266.823	210.88
267.055	184.88
267.287	212.88
267.52	214.88
267.752	182.88
267.984	200.88
268.216	208.88
268.448	201.88
268.681	215.88
268.913	217.88
269.145	229.88
269.377	239.88
269.609	245.88
269.841	237.88
270.073	236.88
270.306	266.88
270.538	278.88
270.77	280.88
271.002	269.88
271.234	267.88
271.466	265.88
271.698	268.88
271.93	280.88
272.162	280.88
272.394	281.88
272.626	276.88
272.858	274.88
273.09	245.88
273.322	239.88
273.553	233.88
273.785	230.88
274.017	223.88
274.249	221.88
274.481	233.88
274.713	255.88
274.945	261.88
275.176	246.88
275.408	253.88
275.64	237.88
275.872	225.88
276.104	247.88
276.335	255.88
276.567	244.88
276.799	250.88
277.031	281.88
277.262	278.88
277.494	288.88
277.726	276.88
277.957	252.88
278.189	242.88
278.421	236.88
278.652	246.88
278.884	246.88
279.115	237.88
279.347	242.88
279.579	227.88
279.81	242.88
280.042	230.88
280.273	232.88
280.505	224.88
280.736	229.88
280.968	234.88
281.199	224.88
281.431	233.88
281.662	237.88
281.894	237.88
282.125	237.88
282.356	285.88
282.588	274.88
282.819	273.88
283.051	256.88
283.282	239.88
283.513	240.88
283.745	223.88
283.976	249.88
284.207	267.88
284.439	266.88
284.67	262.88
284.901	242.88
285.132	242.88
285.364	251.88
285.595	243.88
285.826	252.88
286.057	244.88
286.288	242.88
286.52	262.88
286.751	252.88
286.982	227.88
287.213	260.88
287.444	254.88
287.675	254.88
287.906	259.88
288.138	266.88
288.369	264.88
288.6	272.88
288.831	279.88
289.062	246.88
289.293	256.88
289.524	258.88
289.755	242.88
289.986	255.88
290.217	241.88
290.448	243.88
290.679	258.88
290.91	255.88
291.141	236.88
291.371	235.88
291.602	252.88
291.833	249.88
292.064	247.88
292.295	261.88
292.526	263.88
292.757	263.88
292.987	257.88
293.218	264.88
293.449	279.88
293.68	249.88
293.91	265.88
294.141	260.88
294.372	246.88
294.603	252.88
294.833	255.88
295.064	279.88
295.295	263.88
295.525	252.88
295.756	268.88
295.987	272.88
296.217	279.88
296.448	290.88
296.679	262.88
296.909	262.88
297.14	260.88
297.37	252.88
297.601	248.88
297.831	263.88
298.062	295.88
298.292	271.88
298.523	271.88
298.753	271.88
298.984	263.88
299.214	263.88
299.445	252.88
299.675	264.88
299.905	285.88
300.136	266.88
300.366	268.88
300.597	287.88
300.827	287.88
301.057	283.88
301.288	299.88
301.518	287.88
301.748	282.88
301.979	268.88
302.209	295.88
302.439	278.88
302.669	294.88
302.9	296.88
303.13	309.88
303.36	302.88
303.59	292.88
303.82	310.88
304.051	304.88
304.281	287.88
304.511	285.88
304.741	282.88
304.971	300.88
305.201	282.88
305.431	285.88
305.661	286.88
305.891	290.88
306.121	295.88
306.352	291.88
306.582	300.88
306.812	310.88
307.042	297.88
307.272	291.88
307.502	286.88
307.731	289.88
307.961	272.88
308.191	278.88
308.421	292.88
308.651	284.88
308.881	301.88
309.111	311.88
309.341	295.88
309.571	310.88
309.8	314.88
310.03	333.88
310.26	327.88
310.49	317.88
310.72	339.88
310.949	361.88
311.179	356.88
311.409	342.88
311.639	326.88
311.868	360.88
312.098	328.88
312.328	342.88
312.557	371.88
312.787	382.88
313.017	374.88
313.246	346.88
313.476	334.88
313.706	350.88
313.935	350.88
314.165	373.88
314.394	359.88
314.624	363.88
314.853	358.88
315.083	355.88
315.312	336.88
315.542	326.88
315.771	334.88
316.001	324.88
316.23	329.88
316.46	350.88
316.689	340.88
316.919	346.88
317.148	341.88
317.377	356.88
317.607	332.88
317.836	327.88
318.065	339.88
318.295	339.88
318.524	333.88
318.753	338.88
318.983	338.88
319.212	334.88
319.441	341.88
319.67	336.88
319.9	334.88
320.129	331.88
320.358	343.88
320.587	346.88
320.816	360.88
321.046	361.88
321.275	372.88
321.504	362.88
321.733	353.88
321.962	371.88
322.191	381.88
322.42	396.88
322.649	410.88
322.878	415.88
323.108	416.88
323.337	445.88
323.566	471.88
323.795	514.88
324.024	540.88
324.253	704.88
324.482	1004.88
324.71	1527.88
324.939	2082.88
325.168	1716.88
325.397	940.88
325.626	634.88
325.855	504.88
326.084	471.88
326.313	466.88
326.542	471.88
326.77	504.88
326.999	635.88
327.228	876.88
327.457	1291.88
327.686	1547.88
327.914	1020.88
328.143	704.88
328.372	618.88
328.6	564.88
328.829	518.88
329.058	532.88
329.287	546.88
329.515	537.88
329.744	466.88
329.972	465.88
330.201	503.88
330.43	540.88
330.658	573.88
330.887	575.88
331.115	567.88
331.344	481.88
331.572	463.88
331.801	454.88
332.03	473.88
332.258	450.88
332.486	412.88
332.715	393.88
332.943	406.88
333.172	407.88
333.4	388.88
333.629	424.88
333.857	412.88
334.085	435.88
334.314	447.88
334.542	493.88
334.771	506.88
334.999	454.88
335.227	422.88
335.455	397.88
335.684	390.88
335.912	374.88
336.14	390.88
336.369	410.88
336.597	386.88
336.825	381.88
337.053	376.88
337.281	385.88
337.51	383.88
337.738	364.88
337.966	382.88
338.194	420.88
338.422	397.88
338.65	377.88
338.878	372.88
339.106	385.88
339.334	378.88
339.562	385.88
339.79	383.88
340.018	383.88
340.246	364.88
340.474	378.88
340.702	394.88
340.93	372.88
341.158	377.88
341.386	382.88
341.614	385.88
341.842	396.88
342.07	371.88
342.298	380.88
342.526	366.88
342.754	351.88
342.981	370.88
343.209	366.88
343.437	370.88
343.665	378.88
343.893	376.88
344.12	379.88
344.348	382.88
344.576	370.88
344.804	362.88
345.031	404.88
345.259	392.88
345.487	406.88
345.714	400.88
345.942	377.88
346.17	361.88
346.397	370.88
346.625	386.88
346.853	372.88
347.08	376.88
347.308	379.88
347.535	370.88
347.763	361.88
347.99	386.88
348.218	382.88
348.445	388.88
348.673	388.88
348.9	375.88
349.128	375.88
349.355	362.88
349.583	351.88
349.81	353.88
350.037	356.88
350.265	340.88
350.492	346.88
350.72	356.88
350.947	377.88
351.174	380.88
351.402	374.88
351.629	380.88
351.856	357.88
352.083	386.88
352.311	406.88
352.538	400.88
352.765	398.88
352.992	390.88
353.22	367.88
353.447	373.88
353.674	364.88
353.901	353.88
354.128	355.88
354.355	357.88
354.583	336.88
354.81	370.88
355.037	371.88
355.264	346.88
355.491	357.88
355.718	329.88
355.945	319.88
356.172	338.88
356.399	336.88
356.626	335.88
356.853	345.88
357.08	340.88
357.307	328.88
357.534	335.88
357.761	340.88
357.988	328.88
358.215	346.88
358.441	344.88
358.668	345.88
358.895	343.88
359.122	344.88
359.349	351.88
359.576	378.88
359.802	402.88
360.029	422.88
360.256	434.88
360.483	415.88
360.709	367.88
360.936	358.88
361.163	365.88
361.39	381.88
361.616	384.88
361.843	363.88
362.07	365.88
362.296	358.88
362.523	363.88
362.749	357.88
362.976	370.88
363.203	364.88
363.429	372.88
363.656	356.88
363.882	362.88
364.109	366.88
364.335	351.88
364.562	343.88
364.788	368.88
365.015	360.88
365.241	347.88
365.468	362.88
365.694	348.88
365.92	358.88
366.147	338.88
366.373	362.88
366.599	348.88
366.826	343.88
367.052	346.88
367.278	362.88
367.505	363.88
367.731	334.88
367.957	340.88
368.184	353.88
368.41	366.88
368.636	358.88
368.862	370.88
369.089	349.88
369.315	357.88
369.541	342.88
369.767	352.88
369.993	335.88
370.219	343.88
370.445	333.88
370.672	349.88
370.898	347.88
371.124	335.88
371.35	336.88
371.576	343.88
371.802	347.88
372.028	334.88
372.254	344.88
372.48	330.88
372.706	357.88
372.932	357.88
373.158	331.88
373.384	336.88
373.61	350.88
373.835	361.88
374.061	351.88
374.287	344.88
374.513	355.88
374.739	357.88
374.965	338.88
375.191	347.88
375.416	373.88
375.642	336.88
375.868	344.88
376.094	347.88
376.319	343.88
376.545	356.88
376.771	332.88
376.997	330.88
377.222	319.88
377.448	349.88
377.674	345.88
377.899	333.88
378.125	342.88
378.35	335.88
378.576	340.88
378.802	341.88
379.027	331.88
379.253	336.88
379.478	329.88
379.704	337.88
379.929	335.88
380.155	335.88
380.38	336.88
380.606	351.88
380.831	344.88
381.057	337.88
381.282	350.88
381.507	335.88
381.733	336.88
381.958	348.88
382.184	334.88
382.409	339.88
382.634	347.88
382.86	341.88
383.085	348.88
383.31	347.88
383.535	367.88
383.761	370.88
383.986	366.88
384.211	352.88
384.436	352.88
384.662	363.88
384.887	364.88
385.112	349.88
385.337	364.88
385.562	348.88
385.787	360.88
386.013	363.88
386.238	390.88
386.463	395.88
386.688	363.88
386.913	362.88
387.138	363.88
387.363	371.88
387.588	358.88
387.813	356.88
388.038	357.88
388.263	360.88
388.488	359.88
388.713	370.88
388.938	362.88
389.163	348.88
389.387	374.88
389.612	372.88
389.837	342.88
390.062	366.88
390.287	370.88
390.512	351.88
390.736	356.88
390.961	370.88
391.186	376.88
391.411	379.88
391.636	370.88
391.86	378.88
392.085	363.88
392.31	382.88
392.534	371.88
392.759	386.88
392.984	382.88
393.208	357.88
393.433	363.88
393.658	376.88
393.882	360.88
394.107	384.88
394.331	387.88
394.556	359.88
394.78	372.88
395.005	374.88
395.229	371.88
395.454	378.88
395.678	370.88
395.903	384.88
396.127	398.88
396.352	408.88
396.576	395.88
396.801	386.88
397.025	372.88
397.249	382.88
397.474	362.88
397.698	379.88
397.922	410.88
398.147	400.88
398.371	419.88
398.595	389.88
398.82	411.88
399.044	421.88
399.268	411.88
399.492	414.88
399.717	466.88
399.941	464.88
400.165	500.88
400.389	520.88
400.613	464.88
400.837	439.88
401.062	420.88
401.286	427.88
401.51	440.88
401.734	414.88
401.958	418.88
402.182	402.88
402.406	447.88
402.63	437.88
402.854	417.88
403.078	444.88
403.302	408.88
403.526	428.88
403.75	412.88
403.974	424.88
404.198	425.88
404.422	439.88
404.645	419.88
404.869	453.88
405.093	440.88
405.317	482.88
405.541	512.88
405.765	471.88
405.988	452.88
406.212	478.88
406.436	516.88
406.66	508.88
406.883	455.88
407.107	475.88
407.331	535.88
407.555	578.88
407.778	582.88
408.002	528.88
408.226	475.88
408.449	473.88
408.673	479.88
408.896	484.88
409.12	521.88
409.344	503.88
409.567	470.88
409.791	442.88
410.014	458.88
410.238	439.88
410.461	436.88
410.685	424.88
410.908	462.88
411.132	482.88
411.355	502.88
411.578	480.88
411.802	434.88
412.025	415.88
412.249	450.88
412.472	454.88
412.695	480.88
412.919	468.88
413.142	445.88
413.365	431.88
413.589	429.88
413.812	421.88
414.035	399.88
414.258	413.88
414.482	396.88
414.705	412.88
414.928	410.88
415.151	403.88
415.374	421.88
415.597	415.88
415.821	406.88
416.044	423.88
416.267	422.88
416.49	409.88
416.713	401.88
416.936	398.88
417.159	425.88
417.382	402.88
417.605	402.88
417.828	412.88
418.051	411.88
418.274	440.88
418.497	410.88
418.72	392.88
418.943	389.88
419.166	392.88
419.389	436.88
419.611	410.88
419.834	446.88
420.057	423.88
420.28	423.88
420.503	442.88
420.726	425.88
420.948	445.88
421.171	473.88
421.394	498.88
421.617	434.88
421.839	431.88
422.062	428.88
422.285	451.88
422.507	479.88
422.73	550.88
422.953	538.88
423.175	482.88
423.398	453.88
423.621	445.88
423.843	472.88
424.066	469.88
424.288	472.88
424.511	499.88
424.733	520.88
424.956	568.88
425.178	554.88
425.401	574.88
425.623	574.88
425.846	501.88
426.068	457.88
426.291	457.88
426.513	461.88
426.735	479.88
426.958	522.88
427.18	606.88
427.402	666.88
427.625	742.88
427.847	660.88
428.069	554.88
428.292	503.88
428.514	478.88
428.736	467.88
428.958	464.88
429.181	430.88
429.403	437.88
429.625	427.88
429.847	440.88
430.069	540.88
430.292	518.88
430.514	464.88
430.736	440.88
430.958	422.88
431.18	415.88
431.402	402.88
431.624	395.88
431.846	390.88
432.068	413.88
432.29	401.88
432.512	410.88
432.734	428.88
432.956	416.88
433.178	400.88
433.4	412.88
433.622	426.88
433.844	389.88
434.066	410.88
434.287	420.88
434.509	424.88
434.731	407.88
434.953	404.88
435.175	450.88
435.397	460.88
435.618	461.88
435.84	487.88
436.062	596.88
436.284	634.88
436.505	526.88
436.727	479.88
436.949	434.88
437.17	445.88
437.392	430.88
437.614	458.88
437.835	481.88
438.057	566.88
438.278	662.88
438.5	650.88
438.721	692.88
438.943	662.88
439.165	534.88
439.386	521.88
439.608	498.88
439.829	481.88
440.05	522.88
440.272	537.88
440.493	522.88
440.715	470.88
440.936	472.88
441.158	450.88
441.379	446.88
441.6	444.88
441.822	460.88
442.043	510.88
442.264	570.88
442.486	596.88
442.707	505.88
442.928	477.88
443.149	482.88
443.371	520.88
443.592	559.88
443.813	622.88
444.034	672.88
444.255	557.88
444.476	490.88
444.698	486.88
444.919	489.88
445.14	591.88
445.361	529.88
445.582	531.88
445.803	575.88
446.024	660.88
446.245	649.88
446.466	588.88
446.687	497.88
446.908	472.88
447.129	445.88
447.35	440.88
447.571	441.88
447.792	462.88
448.013	438.88
448.234	475.88
448.455	502.88
448.675	602.88
448.896	704.88
449.117	595.88
449.338	562.88
449.559	667.88
449.779	706.88
450	607.88
450.221	520.88
450.442	440.88
450.662	447.88
450.883	469.88
451.104	468.88
451.324	448.88
451.545	417.88
451.766	404.88
451.986	408.88
452.207	388.88
452.428	392.88
452.648	382.88
452.869	382.88
453.089	405.88
453.31	410.88
453.53	397.88
453.751	396.88
453.971	419.88
454.192	426.88
454.412	403.88
454.633	399.88
454.853	392.88
455.073	376.88
455.294	409.88
455.514	475.88
455.734	488.88
455.955	398.88
456.175	373.88
456.395	352.88
456.616	368.88
456.836	365.88
457.056	362.88
457.276	351.88
457.497	378.88
457.717	370.88
457.937	376.88
458.157	359.88
458.377	388.88
458.598	410.88
458.818	456.88
459.038	554.88
459.258	539.88
459.478	448.88
459.698	410.88
459.918	414.88
460.138	411.88
460.358	403.88
460.578	416.88
460.798	402.88
461.018	409.88
461.238	400.88
461.458	417.88
461.678	408.88
461.898	393.88
462.118	408.88
462.338	394.88
462.558	406.88
462.777	432.88
462.997	436.88
463.217	436.88
463.437	452.88
463.657	407.88
463.876	418.88
464.096	433.88
464.316	425.88
464.536	440.88
464.755	442.88
464.975	433.88
465.195	508.88
465.414	581.88
465.634	478.88
465.854	463.88
466.073	421.88
466.293	404.88
466.512	408.88
466.732	390.88
466.951	409.88
467.171	392.88
467.391	388.88
467.61	413.88
467.829	430.88
468.049	418.88
468.268	412.88
468.488	384.88
468.707	390.88
468.927	397.88
469.146	387.88
469.365	386.88
469.585	392.88
469.804	407.88
470.023	424.88
470.243	410.88
470.462	421.88
470.681	430.88
470.901	432.88
471.12	422.88
471.339	425.88
471.558	408.88
471.777	423.88
471.997	397.88
472.216	413.88
472.435	450.88
472.654	444.88
472.873	422.88
473.092	408.88
473.311	402.88
473.53	415.88
473.749	426.88
473.968	464.88
474.187	543.88
474.406	565.88
474.625	476.88
474.844	415.88
475.063	418.88
475.282	403.88
475.501	421.88
475.72	434.88
475.939	413.88
476.158	427.88
476.377	430.88
476.596	417.88
476.814	429.88
477.033	431.88
477.252	445.88
477.471	439.88
477.69	454.88
477.908	426.88
478.127	440.88
478.346	437.88
478.564	454.88
478.783	455.88
479.002	460.88
479.22	479.88
479.439	474.88
479.658	492.88
479.876	494.88
480.095	489.88
480.313	511.88
480.532	504.88
480.751	500.88
480.969	474.88
481.188	558.88
481.406	625.88
481.624	536.88
481.843	516.88
482.061	494.88
482.28	493.88
482.498	485.88
482.717	472.88
482.935	474.88
483.153	459.88
483.372	492.88
483.59	482.88
483.808	474.88
484.027	462.88
484.245	455.88
484.463	472.88
484.681	511.88
484.9	498.88
485.118	489.88
485.336	460.88
485.554	477.88
485.772	495.88
485.99	509.88
486.209	491.88
486.427	492.88
486.645	535.88
486.863	526.88
487.081	514.88
487.299	526.88
487.517	513.88
487.735	520.88
487.953	520.88
488.171	504.88
488.389	516.88
488.607	504.88
488.825	520.88
489.043	504.88
489.261	513.88
489.479	516.88
489.696	522.88
489.914	538.88
490.132	522.88
490.35	542.88
490.568	533.88
490.786	546.88
491.003	542.88
491.221	576.88
491.439	586.88
491.657	595.88
491.874	592.88
492.092	585.88
492.31	568.88
492.527	594.88
492.745	581.88
492.963	603.88
493.18	598.88
493.398	605.88
493.615	620.88
493.833	592.88
494.05	621.88
494.268	611.88
494.485	629.88
494.703	603.88
494.92	619.88
495.138	598.88
495.355	611.88
495.573	618.88
495.79	619.88
496.008	587.88
496.225	599.88
496.442	615.88
496.66	621.88
496.877	618.88
497.094	618.88
497.312	636.88
497.529	620.88
497.746	644.88
497.963	638.88
498.181	653.88
498.398	652.88
498.615	650.88
498.832	664.88
499.049	664.88
499.267	677.88
499.484	691.88
499.701	704.88
499.918	731.88
500.135	750.88
500.352	777.88
500.569	772.88
500.786	778.88
501.003	775.88
501.22	781.88
501.437	725.88
501.654	719.88
501.871	748.88
