Data from 1965.PennyLincolnUp.Lamp.En5.5.200Scan.071719.P1._HRD10591_14-10-10-911.txt Node
Date: Thu Jul 18 14:10:10 EDT 2019
User: cochatt
Spectrometer: HR+D1059
Trigger mode: 1
Integration Time (sec): 1.000000E-1
Scans to average: 1
Electric dark correction enabled: true
Nonlinearity correction enabled: false
Boxcar width: 0
XAxis mode: Wavelengths
Number of Pixels in Spectrum: 2048
>>>>>Begin Spectral Data<<<<<
223.165	-28.94
223.4	-28.94
223.635	-28.94
223.869	-7.94
224.104	-18.94
224.338	-7.94
224.573	-22.94
224.808	-7.94
225.042	-2.94
225.277	-8.94
225.511	-6.94
225.746	-7.94
225.98	1.06
226.215	23.06
226.449	34.06
226.683	15.06
226.918	19.06
227.152	29.06
227.387	36.06
227.621	46.06
227.856	57.06
228.09	52.06
228.324	34.06
228.559	53.06
228.793	58.06
229.027	110.06
229.262	87.06
229.496	103.06
229.73	140.06
229.964	158.06
230.199	124.06
230.433	92.06
230.667	106.06
230.901	108.06
231.136	114.06
231.37	101.06
231.604	116.06
231.838	115.06
232.072	104.06
232.306	114.06
232.541	102.06
232.775	111.06
233.009	117.06
233.243	106.06
233.477	106.06
233.711	119.06
233.945	116.06
234.179	115.06
234.413	121.06
234.647	105.06
234.881	120.06
235.115	102.06
235.349	110.06
235.583	106.06
235.817	105.06
236.051	133.06
236.285	121.06
236.519	137.06
236.753	125.06
236.987	142.06
237.221	164.06
237.455	212.06
237.689	184.06
237.922	148.06
238.156	126.06
238.39	138.06
238.624	130.06
238.858	118.06
239.091	117.06
239.325	123.06
239.559	120.06
239.793	125.06
240.027	128.06
240.26	131.06
240.494	147.06
240.728	133.06
240.961	131.06
241.195	126.06
241.429	145.06
241.662	129.06
241.896	125.06
242.13	116.06
242.363	112.06
242.597	132.06
242.83	130.06
243.064	150.06
243.298	133.06
243.531	131.06
243.765	127.06
243.998	135.06
244.232	126.06
244.465	126.06
244.699	141.06
244.932	129.06
245.166	118.06
245.399	146.06
245.633	133.06
245.866	136.06
246.099	124.06
246.333	144.06
246.566	138.06
246.8	137.06
247.033	128.06
247.266	162.06
247.5	170.06
247.733	151.06
247.966	143.06
248.2	154.06
248.433	144.06
248.666	158.06
248.899	156.06
249.133	186.06
249.366	183.06
249.599	194.06
249.832	178.06
250.066	194.06
250.299	175.06
250.532	187.06
250.765	193.06
250.998	196.06
251.231	202.06
251.465	194.06
251.698	180.06
251.931	196.06
252.164	192.06
252.397	184.06
252.63	187.06
252.863	175.06
253.096	198.06
253.329	212.06
253.562	203.06
253.795	200.06
254.028	192.06
254.261	210.06
254.494	203.06
254.727	239.06
254.96	246.06
255.193	234.06
255.426	235.06
255.659	216.06
255.892	215.06
256.124	228.06
256.357	219.06
256.59	203.06
256.823	196.06
257.056	206.06
257.289	210.06
257.521	200.06
257.754	206.06
257.987	196.06
258.22	205.06
258.452	203.06
258.685	196.06
258.918	211.06
259.151	193.06
259.383	199.06
259.616	210.06
259.849	200.06
260.081	217.06
260.314	227.06
260.547	238.06
260.779	238.06
261.012	233.06
261.244	223.06
261.477	208.06
261.71	215.06
261.942	203.06
262.175	227.06
262.407	206.06
262.64	202.06
262.872	202.06
263.105	207.06
263.337	207.06
263.57	199.06
263.802	189.06
264.035	190.06
264.267	201.06
264.499	187.06
264.732	190.06
264.964	180.06
265.197	196.06
265.429	190.06
265.661	189.06
265.894	195.06
266.126	206.06
266.358	187.06
266.591	207.06
266.823	209.06
267.055	211.06
267.287	212.06
267.52	188.06
267.752	203.06
267.984	206.06
268.216	200.06
268.448	194.06
268.681	197.06
268.913	222.06
269.145	223.06
269.377	255.06
269.609	226.06
269.841	246.06
270.073	267.06
270.306	245.06
270.538	280.06
270.77	274.06
271.002	275.06
271.234	263.06
271.466	274.06
271.698	273.06
271.93	304.06
272.162	293.06
272.394	287.06
272.626	285.06
272.858	265.06
273.09	262.06
273.322	244.06
273.553	232.06
273.785	231.06
274.017	250.06
274.249	236.06
274.481	232.06
274.713	245.06
274.945	236.06
275.176	245.06
275.408	239.06
275.64	243.06
275.872	245.06
276.104	239.06
276.335	230.06
276.567	256.06
276.799	260.06
277.031	266.06
277.262	283.06
277.494	269.06
277.726	274.06
277.957	260.06
278.189	265.06
278.421	250.06
278.652	229.06
278.884	246.06
279.115	236.06
279.347	232.06
279.579	232.06
279.81	252.06
280.042	248.06
280.273	260.06
280.505	243.06
280.736	235.06
280.968	227.06
281.199	224.06
281.431	232.06
281.662	224.06
281.894	246.06
282.125	255.06
282.356	267.06
282.588	296.06
282.819	281.06
283.051	242.06
283.282	243.06
283.513	250.06
283.745	248.06
283.976	254.06
284.207	236.06
284.439	254.06
284.67	266.06
284.901	234.06
285.132	243.06
285.364	233.06
285.595	230.06
285.826	249.06
286.057	256.06
286.288	243.06
286.52	240.06
286.751	265.06
286.982	251.06
287.213	252.06
287.444	247.06
287.675	261.06
287.906	264.06
288.138	271.06
288.369	252.06
288.6	276.06
288.831	273.06
289.062	249.06
289.293	260.06
289.524	263.06
289.755	262.06
289.986	258.06
290.217	244.06
290.448	259.06
290.679	263.06
290.91	262.06
291.141	270.06
291.371	258.06
291.602	258.06
291.833	255.06
292.064	265.06
292.295	238.06
292.526	227.06
292.757	274.06
292.987	260.06
293.218	256.06
293.449	272.06
293.68	250.06
293.91	257.06
294.141	259.06
294.372	255.06
294.603	249.06
294.833	260.06
295.064	264.06
295.295	256.06
295.525	248.06
295.756	274.06
295.987	271.06
296.217	272.06
296.448	302.06
296.679	272.06
296.909	281.06
297.14	273.06
297.37	272.06
297.601	262.06
297.831	258.06
298.062	265.06
298.292	270.06
298.523	298.06
298.753	276.06
298.984	257.06
299.214	271.06
299.445	253.06
299.675	277.06
299.905	268.06
300.136	283.06
300.366	276.06
300.597	275.06
300.827	277.06
301.057	282.06
301.288	288.06
301.518	280.06
301.748	269.06
301.979	290.06
302.209	276.06
302.439	293.06
302.669	280.06
302.9	287.06
303.13	282.06
303.36	289.06
303.59	278.06
303.82	306.06
304.051	306.06
304.281	314.06
304.511	297.06
304.741	287.06
304.971	284.06
305.201	291.06
305.431	284.06
305.661	286.06
305.891	280.06
306.121	277.06
306.352	303.06
306.582	305.06
306.812	290.06
307.042	264.06
307.272	291.06
307.502	287.06
307.731	304.06
307.961	293.06
308.191	294.06
308.421	309.06
308.651	285.06
308.881	308.06
309.111	300.06
309.341	310.06
309.571	316.06
309.8	334.06
310.03	314.06
310.26	332.06
310.49	336.06
310.72	354.06
310.949	349.06
311.179	351.06
311.409	345.06
311.639	350.06
311.868	351.06
312.098	323.06
312.328	347.06
312.557	368.06
312.787	384.06
313.017	370.06
313.246	352.06
313.476	336.06
313.706	339.06
313.935	363.06
314.165	353.06
314.394	365.06
314.624	362.06
314.853	359.06
315.083	344.06
315.312	339.06
315.542	332.06
315.771	329.06
316.001	343.06
316.23	335.06
316.46	359.06
316.689	349.06
316.919	362.06
317.148	354.06
317.377	371.06
317.607	347.06
317.836	374.06
318.065	346.06
318.295	351.06
318.524	335.06
318.753	333.06
318.983	347.06
319.212	351.06
319.441	351.06
319.67	371.06
319.9	341.06
320.129	351.06
320.358	361.06
320.587	364.06
320.816	345.06
321.046	366.06
321.275	359.06
321.504	334.06
321.733	366.06
321.962	370.06
322.191	383.06
322.42	401.06
322.649	405.06
322.878	428.06
323.108	445.06
323.337	482.06
323.566	478.06
323.795	519.06
324.024	562.06
324.253	709.06
324.482	1015.06
324.71	1573.06
324.939	2126.06
325.168	1782.06
325.397	958.06
325.626	623.06
325.855	542.06
326.084	498.06
326.313	472.06
326.542	455.06
326.77	538.06
326.999	656.06
327.228	923.06
327.457	1360.06
327.686	1550.06
327.914	1066.06
328.143	697.06
328.372	644.06
328.6	574.06
328.829	554.06
329.058	560.06
329.287	565.06
329.515	532.06
329.744	492.06
329.972	495.06
330.201	500.06
330.43	552.06
330.658	592.06
330.887	596.06
331.115	549.06
331.344	462.06
331.572	456.06
331.801	425.06
332.03	456.06
332.258	418.06
332.486	418.06
332.715	411.06
332.943	414.06
333.172	420.06
333.4	408.06
333.629	418.06
333.857	457.06
334.085	427.06
334.314	447.06
334.542	500.06
334.771	514.06
334.999	461.06
335.227	401.06
335.455	412.06
335.684	394.06
335.912	421.06
336.14	387.06
336.369	398.06
336.597	410.06
336.825	414.06
337.053	414.06
337.281	383.06
337.51	398.06
337.738	412.06
337.966	400.06
338.194	400.06
338.422	403.06
338.65	392.06
338.878	388.06
339.106	399.06
339.334	387.06
339.562	383.06
339.79	375.06
340.018	380.06
340.246	391.06
340.474	370.06
340.702	377.06
340.93	379.06
341.158	381.06
341.386	371.06
341.614	389.06
341.842	379.06
342.07	370.06
342.298	366.06
342.526	365.06
342.754	353.06
342.981	355.06
343.209	360.06
343.437	351.06
343.665	380.06
343.893	378.06
344.12	351.06
344.348	378.06
344.576	374.06
344.804	380.06
345.031	383.06
345.259	413.06
345.487	401.06
345.714	397.06
345.942	388.06
346.17	369.06
346.397	391.06
346.625	386.06
346.853	382.06
347.08	365.06
347.308	404.06
347.535	396.06
347.763	404.06
347.99	379.06
348.218	387.06
348.445	398.06
348.673	405.06
348.9	371.06
349.128	346.06
349.355	362.06
349.583	366.06
349.81	379.06
350.037	370.06
350.265	357.06
350.492	358.06
350.72	361.06
350.947	355.06
351.174	379.06
351.402	374.06
351.629	381.06
351.856	376.06
352.083	397.06
352.311	388.06
352.538	390.06
352.765	382.06
352.992	382.06
353.22	389.06
353.447	364.06
353.674	378.06
353.901	336.06
354.128	350.06
354.355	359.06
354.583	363.06
354.81	336.06
355.037	340.06
355.264	342.06
355.491	335.06
355.718	326.06
355.945	351.06
356.172	339.06
356.399	330.06
356.626	353.06
356.853	353.06
357.08	333.06
357.307	340.06
357.534	341.06
357.761	344.06
357.988	348.06
358.215	349.06
358.441	359.06
358.668	341.06
358.895	357.06
359.122	339.06
359.349	357.06
359.576	375.06
359.802	382.06
360.029	430.06
360.256	429.06
360.483	419.06
360.709	375.06
360.936	374.06
361.163	387.06
361.39	364.06
361.616	393.06
361.843	384.06
362.07	371.06
362.296	378.06
362.523	390.06
362.749	378.06
362.976	344.06
363.203	365.06
363.429	359.06
363.656	352.06
363.882	370.06
364.109	348.06
364.335	363.06
364.562	357.06
364.788	363.06
365.015	366.06
365.241	344.06
365.468	356.06
365.694	358.06
365.92	368.06
366.147	357.06
366.373	351.06
366.599	351.06
366.826	377.06
367.052	361.06
367.278	350.06
367.505	354.06
367.731	363.06
367.957	342.06
368.184	366.06
368.41	352.06
368.636	367.06
368.862	385.06
369.089	367.06
369.315	355.06
369.541	351.06
369.767	352.06
369.993	356.06
370.219	354.06
370.445	327.06
370.672	331.06
370.898	343.06
371.124	344.06
371.35	353.06
371.576	343.06
371.802	332.06
372.028	348.06
372.254	339.06
372.48	344.06
372.706	364.06
372.932	337.06
373.158	349.06
373.384	346.06
373.61	352.06
373.835	351.06
374.061	358.06
374.287	359.06
374.513	350.06
374.739	313.06
374.965	346.06
375.191	344.06
375.416	328.06
375.642	349.06
375.868	344.06
376.094	326.06
376.319	342.06
376.545	356.06
376.771	336.06
376.997	355.06
377.222	357.06
377.448	351.06
377.674	338.06
377.899	331.06
378.125	351.06
378.35	333.06
378.576	346.06
378.802	342.06
379.027	348.06
379.253	325.06
379.478	332.06
379.704	340.06
379.929	338.06
380.155	338.06
380.38	335.06
380.606	355.06
380.831	358.06
381.057	340.06
381.282	332.06
381.507	326.06
381.733	342.06
381.958	343.06
382.184	355.06
382.409	332.06
382.634	356.06
382.86	350.06
383.085	349.06
383.31	351.06
383.535	361.06
383.761	351.06
383.986	349.06
384.211	358.06
384.436	361.06
384.662	360.06
384.887	358.06
385.112	364.06
385.337	357.06
385.562	357.06
385.787	365.06
386.013	383.06
386.238	384.06
386.463	366.06
386.688	363.06
386.913	367.06
387.138	347.06
387.363	370.06
387.588	374.06
387.813	351.06
388.038	374.06
388.263	354.06
388.488	362.06
388.713	373.06
388.938	364.06
389.163	367.06
389.387	374.06
389.612	357.06
389.837	374.06
390.062	364.06
390.287	355.06
390.512	358.06
390.736	382.06
390.961	357.06
391.186	370.06
391.411	364.06
391.636	370.06
391.86	360.06
392.085	359.06
392.31	371.06
392.534	367.06
392.759	355.06
392.984	380.06
393.208	358.06
393.433	363.06
393.658	370.06
393.882	366.06
394.107	370.06
394.331	378.06
394.556	378.06
394.78	371.06
395.005	367.06
395.229	368.06
395.454	370.06
395.678	396.06
395.903	386.06
396.127	399.06
396.352	407.06
396.576	406.06
396.801	377.06
397.025	383.06
397.249	377.06
397.474	382.06
397.698	404.06
397.922	412.06
398.147	402.06
398.371	404.06
398.595	407.06
398.82	418.06
399.044	429.06
399.268	423.06
399.492	445.06
399.717	460.06
399.941	486.06
400.165	491.06
400.389	496.06
400.613	462.06
400.837	428.06
401.062	426.06
401.286	424.06
401.51	419.06
401.734	425.06
401.958	426.06
402.182	438.06
402.406	435.06
402.63	443.06
402.854	410.06
403.078	433.06
403.302	430.06
403.526	457.06
403.75	421.06
403.974	408.06
404.198	421.06
404.422	404.06
404.645	448.06
404.869	459.06
405.093	468.06
405.317	493.06
405.541	534.06
405.765	479.06
405.988	482.06
406.212	480.06
406.436	480.06
406.66	483.06
406.883	477.06
407.107	510.06
407.331	498.06
407.555	574.06
407.778	547.06
408.002	522.06
408.226	474.06
408.449	484.06
408.673	485.06
408.896	500.06
409.12	526.06
409.344	513.06
409.567	436.06
409.791	450.06
410.014	439.06
410.238	429.06
410.461	442.06
410.685	408.06
410.908	446.06
411.132	502.06
411.355	514.06
411.578	484.06
411.802	456.06
412.025	425.06
412.249	428.06
412.472	462.06
412.695	484.06
412.919	478.06
413.142	428.06
413.365	428.06
413.589	418.06
413.812	420.06
414.035	414.06
414.258	382.06
414.482	418.06
414.705	380.06
414.928	410.06
415.151	399.06
415.374	406.06
415.597	407.06
415.821	410.06
416.044	409.06
416.267	432.06
416.49	396.06
416.713	399.06
416.936	405.06
417.159	431.06
417.382	410.06
417.605	431.06
417.828	446.06
418.051	431.06
418.274	429.06
418.497	403.06
418.72	405.06
418.943	403.06
419.166	424.06
419.389	436.06
419.611	438.06
419.834	428.06
420.057	431.06
420.28	441.06
420.503	434.06
420.726	447.06
420.948	437.06
421.171	470.06
421.394	496.06
421.617	458.06
421.839	440.06
422.062	440.06
422.285	435.06
422.507	494.06
422.73	559.06
422.953	511.06
423.175	461.06
423.398	470.06
423.621	462.06
423.843	464.06
424.066	476.06
424.288	462.06
424.511	496.06
424.733	541.06
424.956	584.06
425.178	566.06
425.401	550.06
425.623	581.06
425.846	503.06
426.068	483.06
426.291	463.06
426.513	459.06
426.735	487.06
426.958	513.06
427.18	579.06
427.402	686.06
427.625	746.06
427.847	704.06
428.069	585.06
428.292	491.06
428.514	485.06
428.736	455.06
428.958	454.06
429.181	464.06
429.403	447.06
429.625	460.06
429.847	491.06
430.069	534.06
430.292	538.06
430.514	452.06
430.736	445.06
430.958	425.06
431.18	425.06
431.402	400.06
431.624	386.06
431.846	410.06
432.068	398.06
432.29	400.06
432.512	411.06
432.734	434.06
432.956	432.06
433.178	427.06
433.4	439.06
433.622	414.06
433.844	415.06
434.066	398.06
434.287	418.06
434.509	388.06
434.731	405.06
434.953	434.06
435.175	442.06
435.397	455.06
435.618	483.06
435.84	517.06
436.062	594.06
436.284	620.06
436.505	539.06
436.727	488.06
436.949	462.06
437.17	434.06
437.392	450.06
437.614	461.06
437.835	513.06
438.057	600.06
438.278	665.06
438.5	652.06
438.721	702.06
438.943	652.06
439.165	543.06
439.386	498.06
439.608	506.06
439.829	492.06
440.05	522.06
440.272	540.06
440.493	509.06
440.715	470.06
440.936	447.06
441.158	453.06
441.379	442.06
441.6	471.06
441.822	501.06
442.043	528.06
442.264	583.06
442.486	599.06
442.707	528.06
442.928	465.06
443.149	489.06
443.371	524.06
443.592	546.06
443.813	656.06
444.034	662.06
444.255	539.06
444.476	489.06
444.698	476.06
444.919	486.06
445.14	574.06
445.361	547.06
445.582	511.06
445.803	600.06
446.024	674.06
446.245	662.06
446.466	602.06
446.687	516.06
446.908	475.06
447.129	440.06
447.35	455.06
447.571	454.06
447.792	435.06
448.013	444.06
448.234	449.06
448.455	517.06
448.675	627.06
448.896	690.06
449.117	595.06
449.338	579.06
449.559	669.06
449.779	719.06
450	587.06
450.221	511.06
450.442	454.06
450.662	422.06
450.883	441.06
451.104	468.06
451.324	469.06
451.545	423.06
451.766	405.06
451.986	395.06
452.207	398.06
452.428	384.06
452.648	411.06
452.869	427.06
453.089	412.06
453.31	428.06
453.53	388.06
453.751	409.06
453.971	400.06
454.192	436.06
454.412	413.06
454.633	410.06
454.853	395.06
455.073	394.06
455.294	413.06
455.514	476.06
455.734	468.06
455.955	389.06
456.175	380.06
456.395	379.06
456.616	379.06
456.836	380.06
457.056	377.06
457.276	354.06
457.497	367.06
457.717	374.06
457.937	367.06
458.157	388.06
458.377	405.06
458.598	406.06
458.818	489.06
459.038	566.06
459.258	560.06
459.478	473.06
459.698	414.06
459.918	403.06
460.138	415.06
460.358	428.06
460.578	411.06
460.798	395.06
461.018	423.06
461.238	399.06
461.458	413.06
461.678	426.06
461.898	401.06
462.118	404.06
462.338	398.06
462.558	405.06
462.777	414.06
462.997	431.06
463.217	434.06
463.437	426.06
463.657	446.06
463.876	432.06
464.096	399.06
464.316	438.06
464.536	431.06
464.755	428.06
464.975	457.06
465.195	501.06
465.414	601.06
465.634	487.06
465.854	438.06
466.073	448.06
466.293	429.06
466.512	414.06
466.732	411.06
466.951	411.06
467.171	396.06
467.391	395.06
467.61	413.06
467.829	423.06
468.049	422.06
468.268	428.06
468.488	391.06
468.707	388.06
468.927	388.06
469.146	396.06
469.365	389.06
469.585	418.06
469.804	401.06
470.023	424.06
470.243	387.06
470.462	409.06
470.681	467.06
470.901	450.06
471.12	408.06
471.339	412.06
471.558	419.06
471.777	401.06
471.997	399.06
472.216	410.06
472.435	467.06
472.654	462.06
472.873	412.06
473.092	427.06
473.311	405.06
473.53	446.06
473.749	420.06
473.968	472.06
474.187	565.06
474.406	566.06
474.625	477.06
474.844	437.06
475.063	435.06
475.282	411.06
475.501	435.06
475.72	437.06
475.939	430.06
476.158	431.06
476.377	426.06
476.596	419.06
476.814	435.06
477.033	444.06
477.252	414.06
477.471	416.06
477.69	437.06
477.908	430.06
478.127	440.06
478.346	442.06
478.564	472.06
478.783	482.06
479.002	471.06
479.22	458.06
479.439	495.06
479.658	495.06
479.876	505.06
480.095	492.06
480.313	515.06
480.532	491.06
480.751	496.06
480.969	493.06
481.188	591.06
481.406	636.06
481.624	534.06
481.843	512.06
482.061	514.06
482.28	503.06
482.498	481.06
482.717	474.06
482.935	484.06
483.153	480.06
483.372	477.06
483.59	495.06
483.808	469.06
484.027	486.06
484.245	498.06
484.463	489.06
484.681	486.06
484.9	491.06
485.118	491.06
485.336	497.06
485.554	507.06
485.772	510.06
485.99	511.06
486.209	522.06
486.427	504.06
486.645	512.06
486.863	534.06
487.081	531.06
487.299	514.06
487.517	517.06
487.735	512.06
487.953	502.06
488.171	514.06
488.389	528.06
488.607	534.06
488.825	534.06
489.043	506.06
489.261	498.06
489.479	544.06
489.696	529.06
489.914	532.06
490.132	547.06
490.35	562.06
490.568	526.06
490.786	548.06
491.003	562.06
491.221	549.06
491.439	591.06
491.657	600.06
491.874	608.06
492.092	586.06
492.31	600.06
492.527	582.06
492.745	583.06
492.963	588.06
493.18	618.06
493.398	626.06
493.615	613.06
493.833	608.06
494.05	614.06
494.268	613.06
494.485	609.06
494.703	603.06
494.92	606.06
495.138	597.06
495.355	623.06
495.573	627.06
495.79	602.06
496.008	652.06
496.225	619.06
496.442	588.06
496.66	608.06
496.877	638.06
497.094	621.06
497.312	620.06
497.529	624.06
497.746	650.06
497.963	632.06
498.181	667.06
498.398	671.06
498.615	679.06
498.832	668.06
499.049	682.06
499.267	700.06
499.484	689.06
499.701	731.06
499.918	696.06
500.135	750.06
500.352	781.06
500.569	793.06
500.786	794.06
501.003	803.06
501.22	755.06
501.437	769.06
501.654	744.06
501.871	740.06
