Data from 1965.PennyLincolnUp.Lamp.En5.5.200Scan.071719.P1._HRD10591_14-09-56-912.txt Node
Date: Thu Jul 18 14:09:56 EDT 2019
User: cochatt
Spectrometer: HR+D1059
Trigger mode: 1
Integration Time (sec): 1.000000E-1
Scans to average: 1
Electric dark correction enabled: true
Nonlinearity correction enabled: false
Boxcar width: 0
XAxis mode: Wavelengths
Number of Pixels in Spectrum: 2048
>>>>>Begin Spectral Data<<<<<
223.165	-5.81
223.4	-5.81
223.635	-5.81
223.869	-9.81
224.104	-23.81
224.338	-3.81
224.573	-11.81
224.808	-9.81
225.042	-1.81
225.277	-17.81
225.511	-11.81
225.746	4.19
225.98	11.19
226.215	5.19
226.449	14.19
226.683	17.19
226.918	11.19
227.152	33.19
227.387	41.19
227.621	46.19
227.856	45.19
228.09	41.19
228.324	58.19
228.559	70.19
228.793	70.19
229.027	88.19
229.262	99.19
229.496	122.19
229.73	118.19
229.964	143.19
230.199	128.19
230.433	109.19
230.667	116.19
230.901	116.19
231.136	118.19
231.37	100.19
231.604	91.19
231.838	101.19
232.072	118.19
232.306	94.19
232.541	106.19
232.775	112.19
233.009	106.19
233.243	117.19
233.477	115.19
233.711	110.19
233.945	124.19
234.179	104.19
234.413	122.19
234.647	111.19
234.881	116.19
235.115	122.19
235.349	105.19
235.583	111.19
235.817	115.19
236.051	122.19
236.285	110.19
236.519	126.19
236.753	142.19
236.987	136.19
237.221	188.19
237.455	221.19
237.689	173.19
237.922	123.19
238.156	142.19
238.39	120.19
238.624	109.19
238.858	106.19
239.091	100.19
239.325	118.19
239.559	116.19
239.793	124.19
240.027	118.19
240.26	131.19
240.494	161.19
240.728	130.19
240.961	129.19
241.195	125.19
241.429	122.19
241.662	127.19
241.896	130.19
242.13	125.19
242.363	123.19
242.597	123.19
242.83	139.19
243.064	123.19
243.298	146.19
243.531	126.19
243.765	132.19
243.998	148.19
244.232	129.19
244.465	140.19
244.699	143.19
244.932	136.19
245.166	131.19
245.399	127.19
245.633	139.19
245.866	144.19
246.099	124.19
246.333	142.19
246.566	127.19
246.8	135.19
247.033	142.19
247.266	140.19
247.5	145.19
247.733	152.19
247.966	168.19
248.2	147.19
248.433	159.19
248.666	166.19
248.899	182.19
249.133	173.19
249.366	182.19
249.599	165.19
249.832	184.19
250.066	162.19
250.299	151.19
250.532	170.19
250.765	192.19
250.998	187.19
251.231	228.19
251.465	191.19
251.698	198.19
251.931	195.19
252.164	188.19
252.397	190.19
252.63	173.19
252.863	190.19
253.096	205.19
253.329	212.19
253.562	223.19
253.795	197.19
254.028	231.19
254.261	210.19
254.494	206.19
254.727	227.19
254.96	248.19
255.193	250.19
255.426	234.19
255.659	210.19
255.892	202.19
256.124	203.19
256.357	216.19
256.59	191.19
256.823	191.19
257.056	188.19
257.289	209.19
257.521	204.19
257.754	180.19
257.987	186.19
258.22	205.19
258.452	191.19
258.685	208.19
258.918	203.19
259.151	201.19
259.383	206.19
259.616	203.19
259.849	192.19
260.081	223.19
260.314	231.19
260.547	245.19
260.779	212.19
261.012	194.19
261.244	211.19
261.477	215.19
261.71	214.19
261.942	224.19
262.175	244.19
262.407	196.19
262.64	200.19
262.872	191.19
263.105	184.19
263.337	186.19
263.57	188.19
263.802	196.19
264.035	199.19
264.267	186.19
264.499	187.19
264.732	188.19
264.964	207.19
265.197	202.19
265.429	200.19
265.661	188.19
265.894	199.19
266.126	214.19
266.358	188.19
266.591	192.19
266.823	189.19
267.055	210.19
267.287	210.19
267.52	218.19
267.752	215.19
267.984	208.19
268.216	204.19
268.448	224.19
268.681	216.19
268.913	216.19
269.145	243.19
269.377	260.19
269.609	251.19
269.841	243.19
270.073	233.19
270.306	268.19
270.538	284.19
270.77	293.19
271.002	279.19
271.234	276.19
271.466	292.19
271.698	280.19
271.93	281.19
272.162	286.19
272.394	296.19
272.626	262.19
272.858	272.19
273.09	254.19
273.322	247.19
273.553	246.19
273.785	238.19
274.017	223.19
274.249	246.19
274.481	247.19
274.713	226.19
274.945	245.19
275.176	233.19
275.408	237.19
275.64	243.19
275.872	237.19
276.104	245.19
276.335	238.19
276.567	255.19
276.799	275.19
277.031	290.19
277.262	292.19
277.494	288.19
277.726	272.19
277.957	269.19
278.189	248.19
278.421	260.19
278.652	253.19
278.884	244.19
279.115	227.19
279.347	247.19
279.579	229.19
279.81	231.19
280.042	238.19
280.273	233.19
280.505	255.19
280.736	228.19
280.968	227.19
281.199	244.19
281.431	223.19
281.662	233.19
281.894	230.19
282.125	250.19
282.356	274.19
282.588	276.19
282.819	283.19
283.051	280.19
283.282	239.19
283.513	224.19
283.745	244.19
283.976	264.19
284.207	253.19
284.439	243.19
284.67	256.19
284.901	249.19
285.132	250.19
285.364	237.19
285.595	242.19
285.826	239.19
286.057	268.19
286.288	235.19
286.52	234.19
286.751	251.19
286.982	258.19
287.213	255.19
287.444	250.19
287.675	267.19
287.906	267.19
288.138	269.19
288.369	269.19
288.6	287.19
288.831	264.19
289.062	267.19
289.293	259.19
289.524	261.19
289.755	245.19
289.986	240.19
290.217	248.19
290.448	239.19
290.679	259.19
290.91	278.19
291.141	268.19
291.371	246.19
291.602	246.19
291.833	242.19
292.064	270.19
292.295	260.19
292.526	246.19
292.757	264.19
292.987	259.19
293.218	251.19
293.449	269.19
293.68	270.19
293.91	269.19
294.141	269.19
294.372	258.19
294.603	262.19
294.833	267.19
295.064	275.19
295.295	254.19
295.525	265.19
295.756	283.19
295.987	266.19
296.217	282.19
296.448	285.19
296.679	270.19
296.909	246.19
297.14	260.19
297.37	267.19
297.601	257.19
297.831	267.19
298.062	272.19
298.292	235.19
298.523	272.19
298.753	265.19
298.984	286.19
299.214	265.19
299.445	256.19
299.675	278.19
299.905	280.19
300.136	283.19
300.366	254.19
300.597	283.19
300.827	272.19
301.057	286.19
301.288	290.19
301.518	282.19
301.748	282.19
301.979	271.19
302.209	290.19
302.439	288.19
302.669	296.19
302.9	296.19
303.13	288.19
303.36	280.19
303.59	302.19
303.82	303.19
304.051	315.19
304.281	278.19
304.511	297.19
304.741	285.19
304.971	291.19
305.201	291.19
305.431	293.19
305.661	296.19
305.891	284.19
306.121	297.19
306.352	305.19
306.582	301.19
306.812	294.19
307.042	295.19
307.272	291.19
307.502	301.19
307.731	296.19
307.961	299.19
308.191	290.19
308.421	308.19
308.651	294.19
308.881	302.19
309.111	308.19
309.341	313.19
309.571	321.19
309.8	316.19
310.03	349.19
310.26	339.19
310.49	335.19
310.72	349.19
310.949	350.19
311.179	371.19
311.409	340.19
311.639	333.19
311.868	338.19
312.098	359.19
312.328	353.19
312.557	374.19
312.787	386.19
313.017	381.19
313.246	364.19
313.476	348.19
313.706	352.19
313.935	355.19
314.165	355.19
314.394	355.19
314.624	351.19
314.853	361.19
315.083	357.19
315.312	331.19
315.542	350.19
315.771	337.19
316.001	344.19
316.23	340.19
316.46	355.19
316.689	338.19
316.919	334.19
317.148	343.19
317.377	372.19
317.607	370.19
317.836	345.19
318.065	319.19
318.295	343.19
318.524	340.19
318.753	314.19
318.983	356.19
319.212	335.19
319.441	363.19
319.67	356.19
319.9	335.19
320.129	334.19
320.358	350.19
320.587	376.19
320.816	367.19
321.046	354.19
321.275	358.19
321.504	357.19
321.733	358.19
321.962	378.19
322.191	402.19
322.42	405.19
322.649	416.19
322.878	416.19
323.108	422.19
323.337	437.19
323.566	463.19
323.795	494.19
324.024	582.19
324.253	713.19
324.482	997.19
324.71	1511.19
324.939	2092.19
325.168	1718.19
325.397	928.19
325.626	628.19
325.855	518.19
326.084	503.19
326.313	486.19
326.542	485.19
326.77	548.19
326.999	634.19
327.228	902.19
327.457	1316.19
327.686	1563.19
327.914	1033.19
328.143	696.19
328.372	622.19
328.6	570.19
328.829	547.19
329.058	556.19
329.287	566.19
329.515	513.19
329.744	486.19
329.972	470.19
330.201	500.19
330.43	526.19
330.658	569.19
330.887	599.19
331.115	575.19
331.344	498.19
331.572	456.19
331.801	458.19
332.03	460.19
332.258	425.19
332.486	398.19
332.715	402.19
332.943	415.19
333.172	407.19
333.4	424.19
333.629	424.19
333.857	440.19
334.085	413.19
334.314	460.19
334.542	505.19
334.771	512.19
334.999	456.19
335.227	429.19
335.455	416.19
335.684	418.19
335.912	399.19
336.14	412.19
336.369	394.19
336.597	408.19
336.825	398.19
337.053	408.19
337.281	406.19
337.51	389.19
337.738	381.19
337.966	389.19
338.194	394.19
338.422	404.19
338.65	398.19
338.878	392.19
339.106	371.19
339.334	392.19
339.562	381.19
339.79	378.19
340.018	388.19
340.246	389.19
340.474	387.19
340.702	374.19
340.93	396.19
341.158	381.19
341.386	392.19
341.614	378.19
341.842	388.19
342.07	374.19
342.298	376.19
342.526	363.19
342.754	382.19
342.981	357.19
343.209	371.19
343.437	356.19
343.665	370.19
343.893	384.19
344.12	378.19
344.348	378.19
344.576	381.19
344.804	396.19
345.031	384.19
345.259	409.19
345.487	406.19
345.714	370.19
345.942	387.19
346.17	382.19
346.397	385.19
346.625	384.19
346.853	382.19
347.08	381.19
347.308	356.19
347.535	380.19
347.763	412.19
347.99	403.19
348.218	379.19
348.445	400.19
348.673	392.19
348.9	362.19
349.128	378.19
349.355	356.19
349.583	366.19
349.81	351.19
350.037	354.19
350.265	346.19
350.492	375.19
350.72	370.19
350.947	370.19
351.174	393.19
351.402	399.19
351.629	381.19
351.856	380.19
352.083	378.19
352.311	377.19
352.538	391.19
352.765	392.19
352.992	394.19
353.22	388.19
353.447	395.19
353.674	368.19
353.901	377.19
354.128	356.19
354.355	332.19
354.583	343.19
354.81	361.19
355.037	339.19
355.264	341.19
355.491	358.19
355.718	353.19
355.945	369.19
356.172	344.19
356.399	362.19
356.626	346.19
356.853	342.19
357.08	346.19
357.307	334.19
357.534	352.19
357.761	328.19
357.988	351.19
358.215	350.19
358.441	356.19
358.668	340.19
358.895	346.19
359.122	348.19
359.349	359.19
359.576	375.19
359.802	394.19
360.029	414.19
360.256	440.19
360.483	405.19
360.709	379.19
360.936	368.19
361.163	367.19
361.39	384.19
361.616	386.19
361.843	375.19
362.07	376.19
362.296	375.19
362.523	383.19
362.749	356.19
362.976	338.19
363.203	366.19
363.429	359.19
363.656	356.19
363.882	363.19
364.109	358.19
364.335	345.19
364.562	357.19
364.788	347.19
365.015	355.19
365.241	362.19
365.468	367.19
365.694	374.19
365.92	363.19
366.147	345.19
366.373	365.19
366.599	320.19
366.826	352.19
367.052	355.19
367.278	341.19
367.505	342.19
367.731	349.19
367.957	347.19
368.184	368.19
368.41	333.19
368.636	366.19
368.862	358.19
369.089	346.19
369.315	345.19
369.541	332.19
369.767	350.19
369.993	366.19
370.219	343.19
370.445	362.19
370.672	356.19
370.898	338.19
371.124	352.19
371.35	340.19
371.576	342.19
371.802	345.19
372.028	341.19
372.254	349.19
372.48	349.19
372.706	350.19
372.932	343.19
373.158	349.19
373.384	343.19
373.61	341.19
373.835	356.19
374.061	358.19
374.287	349.19
374.513	382.19
374.739	354.19
374.965	338.19
375.191	361.19
375.416	355.19
375.642	354.19
375.868	364.19
376.094	351.19
376.319	356.19
376.545	352.19
376.771	341.19
376.997	344.19
377.222	337.19
377.448	330.19
377.674	349.19
377.899	338.19
378.125	335.19
378.35	332.19
378.576	345.19
378.802	335.19
379.027	341.19
379.253	348.19
379.478	336.19
379.704	340.19
379.929	357.19
380.155	333.19
380.38	364.19
380.606	356.19
380.831	347.19
381.057	333.19
381.282	330.19
381.507	373.19
381.733	354.19
381.958	330.19
382.184	338.19
382.409	353.19
382.634	372.19
382.86	356.19
383.085	360.19
383.31	350.19
383.535	352.19
383.761	350.19
383.986	372.19
384.211	354.19
384.436	347.19
384.662	360.19
384.887	382.19
385.112	381.19
385.337	385.19
385.562	370.19
385.787	376.19
386.013	392.19
386.238	388.19
386.463	387.19
386.688	347.19
386.913	382.19
387.138	372.19
387.363	383.19
387.588	376.19
387.813	377.19
388.038	363.19
388.263	384.19
388.488	356.19
388.713	370.19
388.938	360.19
389.163	387.19
389.387	390.19
389.612	368.19
389.837	354.19
390.062	375.19
390.287	359.19
390.512	362.19
390.736	372.19
390.961	364.19
391.186	346.19
391.411	382.19
391.636	399.19
391.86	373.19
392.085	388.19
392.31	382.19
392.534	388.19
392.759	374.19
392.984	389.19
393.208	390.19
393.433	373.19
393.658	366.19
393.882	365.19
394.107	380.19
394.331	392.19
394.556	355.19
394.78	376.19
395.005	354.19
395.229	367.19
395.454	383.19
395.678	399.19
395.903	390.19
396.127	387.19
396.352	403.19
396.576	386.19
396.801	368.19
397.025	372.19
397.249	383.19
397.474	384.19
397.698	375.19
397.922	392.19
398.147	398.19
398.371	416.19
398.595	407.19
398.82	382.19
399.044	414.19
399.268	447.19
399.492	454.19
399.717	488.19
399.941	475.19
400.165	503.19
400.389	498.19
400.613	480.19
400.837	448.19
401.062	430.19
401.286	425.19
401.51	421.19
401.734	405.19
401.958	427.19
402.182	456.19
402.406	451.19
402.63	448.19
402.854	445.19
403.078	428.19
403.302	440.19
403.526	429.19
403.75	442.19
403.974	427.19
404.198	411.19
404.422	425.19
404.645	456.19
404.869	460.19
405.093	458.19
405.317	503.19
405.541	544.19
405.765	487.19
405.988	460.19
406.212	491.19
406.436	472.19
406.66	510.19
406.883	463.19
407.107	515.19
407.331	530.19
407.555	568.19
407.778	556.19
408.002	502.19
408.226	497.19
408.449	482.19
408.673	480.19
408.896	516.19
409.12	544.19
409.344	493.19
409.567	470.19
409.791	457.19
410.014	442.19
410.238	429.19
410.461	436.19
410.685	454.19
410.908	481.19
411.132	484.19
411.355	522.19
411.578	462.19
411.802	453.19
412.025	446.19
412.249	445.19
412.472	462.19
412.695	498.19
412.919	479.19
413.142	478.19
413.365	439.19
413.589	423.19
413.812	422.19
414.035	431.19
414.258	431.19
414.482	418.19
414.705	414.19
414.928	404.19
415.151	407.19
415.374	431.19
415.597	423.19
415.821	405.19
416.044	440.19
416.267	432.19
416.49	401.19
416.713	386.19
416.936	408.19
417.159	410.19
417.382	414.19
417.605	435.19
417.828	416.19
418.051	432.19
418.274	426.19
418.497	417.19
418.72	399.19
418.943	400.19
419.166	413.19
419.389	430.19
419.611	440.19
419.834	423.19
420.057	447.19
420.28	426.19
420.503	456.19
420.726	424.19
420.948	437.19
421.171	489.19
421.394	510.19
421.617	464.19
421.839	449.19
422.062	430.19
422.285	446.19
422.507	516.19
422.73	565.19
422.953	524.19
423.175	476.19
423.398	471.19
423.621	442.19
423.843	470.19
424.066	464.19
424.288	470.19
424.511	467.19
424.733	543.19
424.956	576.19
425.178	563.19
425.401	556.19
425.623	578.19
425.846	494.19
426.068	466.19
426.291	463.19
426.513	478.19
426.735	473.19
426.958	494.19
427.18	595.19
427.402	702.19
427.625	744.19
427.847	700.19
428.069	600.19
428.292	519.19
428.514	458.19
428.736	466.19
428.958	472.19
429.181	451.19
429.403	447.19
429.625	453.19
429.847	515.19
430.069	526.19
430.292	532.19
430.514	455.19
430.736	444.19
430.958	452.19
431.18	422.19
431.402	421.19
431.624	414.19
431.846	408.19
432.068	395.19
432.29	427.19
432.512	424.19
432.734	427.19
432.956	412.19
433.178	444.19
433.4	427.19
433.622	404.19
433.844	430.19
434.066	431.19
434.287	404.19
434.509	421.19
434.731	410.19
434.953	434.19
435.175	443.19
435.397	472.19
435.618	478.19
435.84	518.19
436.062	594.19
436.284	622.19
436.505	548.19
436.727	500.19
436.949	467.19
437.17	438.19
437.392	445.19
437.614	459.19
437.835	505.19
438.057	576.19
438.278	660.19
438.5	666.19
438.721	723.19
438.943	668.19
439.165	559.19
439.386	485.19
439.608	488.19
439.829	484.19
440.05	528.19
440.272	548.19
440.493	516.19
440.715	469.19
440.936	479.19
441.158	459.19
441.379	453.19
441.6	456.19
441.822	477.19
442.043	487.19
442.264	570.19
442.486	607.19
442.707	543.19
442.928	497.19
443.149	477.19
443.371	527.19
443.592	559.19
443.813	629.19
444.034	691.19
444.255	575.19
444.476	490.19
444.698	484.19
444.919	461.19
445.14	621.19
445.361	543.19
445.582	526.19
445.803	570.19
446.024	681.19
446.245	680.19
446.466	616.19
446.687	538.19
446.908	511.19
447.129	465.19
447.35	453.19
447.571	456.19
447.792	443.19
448.013	453.19
448.234	470.19
448.455	504.19
448.675	639.19
448.896	691.19
449.117	574.19
449.338	567.19
449.559	657.19
449.779	696.19
450	611.19
450.221	494.19
450.442	448.19
450.662	441.19
450.883	458.19
451.104	478.19
451.324	446.19
451.545	432.19
451.766	404.19
451.986	395.19
452.207	403.19
452.428	416.19
452.648	378.19
452.869	423.19
453.089	428.19
453.31	424.19
453.53	431.19
453.751	413.19
453.971	421.19
454.192	434.19
454.412	432.19
454.633	407.19
454.853	414.19
455.073	396.19
455.294	426.19
455.514	489.19
455.734	452.19
455.955	414.19
456.175	394.19
456.395	378.19
456.616	370.19
456.836	375.19
457.056	381.19
457.276	368.19
457.497	374.19
457.717	374.19
457.937	389.19
458.157	387.19
458.377	391.19
458.598	419.19
458.818	489.19
459.038	567.19
459.258	551.19
459.478	479.19
459.698	428.19
459.918	401.19
460.138	418.19
460.358	420.19
460.578	408.19
460.798	412.19
461.018	421.19
461.238	419.19
461.458	412.19
461.678	408.19
461.898	416.19
462.118	400.19
462.338	409.19
462.558	404.19
462.777	439.19
462.997	441.19
463.217	431.19
463.437	444.19
463.657	437.19
463.876	437.19
464.096	431.19
464.316	446.19
464.536	421.19
464.755	444.19
464.975	438.19
465.195	498.19
465.414	568.19
465.634	505.19
465.854	455.19
466.073	450.19
466.293	415.19
466.512	412.19
466.732	436.19
466.951	410.19
467.171	404.19
467.391	404.19
467.61	413.19
467.829	437.19
468.049	434.19
468.268	428.19
468.488	414.19
468.707	398.19
468.927	403.19
469.146	412.19
469.365	412.19
469.585	382.19
469.804	396.19
470.023	414.19
470.243	411.19
470.462	427.19
470.681	440.19
470.901	445.19
471.12	429.19
471.339	423.19
471.558	440.19
471.777	425.19
471.997	420.19
472.216	427.19
472.435	473.19
472.654	434.19
472.873	412.19
473.092	417.19
473.311	410.19
473.53	428.19
473.749	429.19
473.968	468.19
474.187	559.19
474.406	565.19
474.625	481.19
474.844	434.19
475.063	410.19
475.282	414.19
475.501	434.19
475.72	436.19
475.939	421.19
476.158	423.19
476.377	443.19
476.596	419.19
476.814	425.19
477.033	441.19
477.252	432.19
477.471	447.19
477.69	425.19
477.908	447.19
478.127	444.19
478.346	434.19
478.564	449.19
478.783	449.19
479.002	454.19
479.22	470.19
479.439	491.19
479.658	508.19
479.876	500.19
480.095	498.19
480.313	525.19
480.532	536.19
480.751	520.19
480.969	522.19
481.188	582.19
481.406	633.19
481.624	554.19
481.843	522.19
482.061	528.19
482.28	496.19
482.498	491.19
482.717	499.19
482.935	476.19
483.153	490.19
483.372	455.19
483.59	494.19
483.808	498.19
484.027	478.19
484.245	473.19
484.463	493.19
484.681	510.19
484.9	508.19
485.118	487.19
485.336	504.19
485.554	490.19
485.772	493.19
485.99	511.19
486.209	510.19
486.427	510.19
486.645	546.19
486.863	528.19
487.081	545.19
487.299	552.19
487.517	528.19
487.735	524.19
487.953	520.19
488.171	503.19
488.389	527.19
488.607	520.19
488.825	535.19
489.043	525.19
489.261	530.19
489.479	532.19
489.696	545.19
489.914	528.19
490.132	548.19
490.35	553.19
490.568	568.19
490.786	570.19
491.003	582.19
491.221	600.19
491.439	599.19
491.657	606.19
491.874	586.19
492.092	566.19
492.31	606.19
492.527	603.19
492.745	621.19
492.963	592.19
493.18	628.19
493.398	610.19
493.615	613.19
493.833	613.19
494.05	624.19
494.268	614.19
494.485	611.19
494.703	627.19
494.92	630.19
495.138	618.19
495.355	631.19
495.573	630.19
495.79	612.19
496.008	615.19
496.225	614.19
496.442	616.19
496.66	622.19
496.877	618.19
497.094	621.19
497.312	644.19
497.529	633.19
497.746	642.19
497.963	656.19
498.181	675.19
498.398	662.19
498.615	655.19
498.832	654.19
499.049	684.19
499.267	701.19
499.484	722.19
499.701	740.19
499.918	739.19
500.135	778.19
500.352	772.19
500.569	778.19
500.786	773.19
501.003	785.19
501.22	784.19
501.437	764.19
501.654	772.19
501.871	765.19
502.088	755.19
