Data from 1965.PennyLincolnUp.Lamp.En5.5.200Scan.071719.P1._HRD10591_14-09-21-911.txt Node
Date: Thu Jul 18 14:09:21 EDT 2019
User: cochatt
Spectrometer: HR+D1059
Trigger mode: 1
Integration Time (sec): 1.000000E-1
Scans to average: 1
Electric dark correction enabled: true
Nonlinearity correction enabled: false
Boxcar width: 0
XAxis mode: Wavelengths
Number of Pixels in Spectrum: 2048
>>>>>Begin Spectral Data<<<<<
223.165	-30.06
223.4	-30.06
223.635	-30.06
223.869	-12.06
224.104	-20.06
224.338	-20.06
224.573	-25.06
224.808	-13.06
225.042	-2.06
225.277	-0.06
225.511	2.94
225.746	1.94
225.98	13.94
226.215	18.94
226.449	10.94
226.683	13.94
226.918	26.94
227.152	32.94
227.387	25.94
227.621	31.94
227.856	45.94
228.09	61.94
228.324	50.94
228.559	55.94
228.793	69.94
229.027	103.94
229.262	96.94
229.496	113.94
229.73	129.94
229.964	154.94
230.199	134.94
230.433	111.94
230.667	110.94
230.901	98.94
231.136	106.94
231.37	109.94
231.604	102.94
231.838	110.94
232.072	111.94
232.306	100.94
232.541	104.94
232.775	103.94
233.009	99.94
233.243	89.94
233.477	116.94
233.711	114.94
233.945	103.94
234.179	109.94
234.413	116.94
234.647	120.94
234.881	105.94
235.115	118.94
235.349	125.94
235.583	125.94
235.817	102.94
236.051	104.94
236.285	124.94
236.519	101.94
236.753	128.94
236.987	147.94
237.221	172.94
237.455	208.94
237.689	165.94
237.922	124.94
238.156	122.94
238.39	116.94
238.624	122.94
238.858	118.94
239.091	134.94
239.325	110.94
239.559	120.94
239.793	124.94
240.027	114.94
240.26	127.94
240.494	141.94
240.728	129.94
240.961	138.94
241.195	129.94
241.429	126.94
241.662	118.94
241.896	118.94
242.13	121.94
242.363	117.94
242.597	121.94
242.83	128.94
243.064	119.94
243.298	118.94
243.531	132.94
243.765	140.94
243.998	120.94
244.232	132.94
244.465	141.94
244.699	128.94
244.932	132.94
245.166	125.94
245.399	122.94
245.633	109.94
245.866	136.94
246.099	136.94
246.333	149.94
246.566	132.94
246.8	126.94
247.033	141.94
247.266	125.94
247.5	142.94
247.733	147.94
247.966	150.94
248.2	152.94
248.433	136.94
248.666	163.94
248.899	170.94
249.133	182.94
249.366	196.94
249.599	189.94
249.832	150.94
250.066	157.94
250.299	164.94
250.532	155.94
250.765	176.94
250.998	204.94
251.231	203.94
251.465	188.94
251.698	180.94
251.931	177.94
252.164	184.94
252.397	180.94
252.63	170.94
252.863	187.94
253.096	189.94
253.329	220.94
253.562	195.94
253.795	191.94
254.028	180.94
254.261	176.94
254.494	197.94
254.727	224.94
254.96	241.94
255.193	245.94
255.426	214.94
255.659	216.94
255.892	203.94
256.124	199.94
256.357	201.94
256.59	185.94
256.823	187.94
257.056	194.94
257.289	183.94
257.521	182.94
257.754	198.94
257.987	177.94
258.22	200.94
258.452	179.94
258.685	194.94
258.918	193.94
259.151	184.94
259.383	196.94
259.616	194.94
259.849	205.94
260.081	208.94
260.314	224.94
260.547	218.94
260.779	209.94
261.012	199.94
261.244	192.94
261.477	189.94
261.71	213.94
261.942	213.94
262.175	202.94
262.407	209.94
262.64	183.94
262.872	187.94
263.105	178.94
263.337	196.94
263.57	196.94
263.802	194.94
264.035	197.94
264.267	182.94
264.499	189.94
264.732	164.94
264.964	186.94
265.197	206.94
265.429	202.94
265.661	190.94
265.894	177.94
266.126	192.94
266.358	197.94
266.591	179.94
266.823	197.94
267.055	213.94
267.287	214.94
267.52	197.94
267.752	206.94
267.984	200.94
268.216	217.94
268.448	198.94
268.681	205.94
268.913	221.94
269.145	219.94
269.377	255.94
269.609	242.94
269.841	250.94
270.073	263.94
270.306	262.94
270.538	304.94
270.77	288.94
271.002	272.94
271.234	270.94
271.466	242.94
271.698	270.94
271.93	294.94
272.162	279.94
272.394	276.94
272.626	266.94
272.858	257.94
273.09	261.94
273.322	243.94
273.553	221.94
273.785	240.94
274.017	205.94
274.249	231.94
274.481	226.94
274.713	250.94
274.945	253.94
275.176	235.94
275.408	229.94
275.64	236.94
275.872	229.94
276.104	218.94
276.335	250.94
276.567	231.94
276.799	245.94
277.031	268.94
277.262	282.94
277.494	285.94
277.726	264.94
277.957	258.94
278.189	251.94
278.421	237.94
278.652	236.94
278.884	249.94
279.115	260.94
279.347	249.94
279.579	245.94
279.81	238.94
280.042	242.94
280.273	241.94
280.505	221.94
280.736	204.94
280.968	226.94
281.199	230.94
281.431	241.94
281.662	236.94
281.894	259.94
282.125	241.94
282.356	251.94
282.588	277.94
282.819	270.94
283.051	237.94
283.282	243.94
283.513	229.94
283.745	213.94
283.976	256.94
284.207	240.94
284.439	246.94
284.67	244.94
284.901	243.94
285.132	235.94
285.364	235.94
285.595	244.94
285.826	253.94
286.057	247.94
286.288	229.94
286.52	233.94
286.751	235.94
286.982	249.94
287.213	240.94
287.444	226.94
287.675	254.94
287.906	264.94
288.138	267.94
288.369	258.94
288.6	260.94
288.831	238.94
289.062	264.94
289.293	254.94
289.524	246.94
289.755	247.94
289.986	234.94
290.217	239.94
290.448	242.94
290.679	250.94
290.91	240.94
291.141	258.94
291.371	248.94
291.602	259.94
291.833	238.94
292.064	261.94
292.295	269.94
292.526	262.94
292.757	245.94
292.987	245.94
293.218	251.94
293.449	238.94
293.68	253.94
293.91	256.94
294.141	250.94
294.372	250.94
294.603	254.94
294.833	256.94
295.064	247.94
295.295	245.94
295.525	266.94
295.756	278.94
295.987	265.94
296.217	284.94
296.448	301.94
296.679	282.94
296.909	256.94
297.14	266.94
297.37	248.94
297.601	255.94
297.831	251.94
298.062	257.94
298.292	267.94
298.523	273.94
298.753	269.94
298.984	257.94
299.214	261.94
299.445	268.94
299.675	270.94
299.905	271.94
300.136	272.94
300.366	270.94
300.597	273.94
300.827	287.94
301.057	272.94
301.288	283.94
301.518	288.94
301.748	281.94
301.979	274.94
302.209	272.94
302.439	291.94
302.669	284.94
302.9	272.94
303.13	266.94
303.36	287.94
303.59	273.94
303.82	294.94
304.051	293.94
304.281	290.94
304.511	286.94
304.741	286.94
304.971	282.94
305.201	278.94
305.431	278.94
305.661	294.94
305.891	284.94
306.121	292.94
306.352	294.94
306.582	299.94
306.812	299.94
307.042	271.94
307.272	307.94
307.502	274.94
307.731	288.94
307.961	291.94
308.191	309.94
308.421	285.94
308.651	280.94
308.881	308.94
309.111	297.94
309.341	306.94
309.571	318.94
309.8	321.94
310.03	338.94
310.26	328.94
310.49	341.94
310.72	348.94
310.949	360.94
311.179	358.94
311.409	338.94
311.639	349.94
311.868	355.94
312.098	334.94
312.328	337.94
312.557	346.94
312.787	372.94
313.017	354.94
313.246	332.94
313.476	332.94
313.706	326.94
313.935	353.94
314.165	329.94
314.394	363.94
314.624	349.94
314.853	337.94
315.083	325.94
315.312	322.94
315.542	333.94
315.771	327.94
316.001	336.94
316.23	328.94
316.46	321.94
316.689	325.94
316.919	349.94
317.148	360.94
317.377	351.94
317.607	360.94
317.836	348.94
318.065	330.94
318.295	330.94
318.524	337.94
318.753	337.94
318.983	322.94
319.212	317.94
319.441	337.94
319.67	340.94
319.9	354.94
320.129	345.94
320.358	332.94
320.587	341.94
320.816	357.94
321.046	353.94
321.275	353.94
321.504	362.94
321.733	386.94
321.962	360.94
322.191	374.94
322.42	398.94
322.649	399.94
322.878	424.94
323.108	416.94
323.337	469.94
323.566	470.94
323.795	469.94
324.024	529.94
324.253	662.94
324.482	966.94
324.71	1461.94
324.939	2016.94
325.168	1697.94
325.397	901.94
325.626	622.94
325.855	528.94
326.084	468.94
326.313	472.94
326.542	480.94
326.77	510.94
326.999	626.94
327.228	858.94
327.457	1272.94
327.686	1505.94
327.914	1001.94
328.143	705.94
328.372	608.94
328.6	541.94
328.829	520.94
329.058	542.94
329.287	538.94
329.515	497.94
329.744	454.94
329.972	474.94
330.201	500.94
330.43	524.94
330.658	549.94
330.887	562.94
331.115	574.94
331.344	462.94
331.572	456.94
331.801	445.94
332.03	437.94
332.258	405.94
332.486	397.94
332.715	396.94
332.943	381.94
333.172	376.94
333.4	387.94
333.629	407.94
333.857	418.94
334.085	417.94
334.314	446.94
334.542	473.94
334.771	508.94
334.999	430.94
335.227	409.94
335.455	408.94
335.684	392.94
335.912	402.94
336.14	381.94
336.369	390.94
336.597	408.94
336.825	402.94
337.053	406.94
337.281	388.94
337.51	388.94
337.738	389.94
337.966	359.94
338.194	378.94
338.422	378.94
338.65	395.94
338.878	389.94
339.106	376.94
339.334	379.94
339.562	363.94
339.79	363.94
340.018	373.94
340.246	380.94
340.474	365.94
340.702	376.94
340.93	384.94
341.158	368.94
341.386	376.94
341.614	377.94
341.842	382.94
342.07	382.94
342.298	365.94
342.526	373.94
342.754	365.94
342.981	366.94
343.209	366.94
343.437	360.94
343.665	356.94
343.893	389.94
344.12	376.94
344.348	384.94
344.576	357.94
344.804	398.94
345.031	386.94
345.259	384.94
345.487	377.94
345.714	381.94
345.942	381.94
346.17	370.94
346.397	377.94
346.625	380.94
346.853	352.94
347.08	365.94
347.308	356.94
347.535	363.94
347.763	374.94
347.99	404.94
348.218	374.94
348.445	386.94
348.673	380.94
348.9	370.94
349.128	374.94
349.355	349.94
349.583	362.94
349.81	363.94
350.037	336.94
350.265	352.94
350.492	349.94
350.72	349.94
350.947	348.94
351.174	375.94
351.402	362.94
351.629	363.94
351.856	370.94
352.083	388.94
352.311	376.94
352.538	374.94
352.765	385.94
352.992	368.94
353.22	388.94
353.447	362.94
353.674	374.94
353.901	362.94
354.128	341.94
354.355	333.94
354.583	342.94
354.81	351.94
355.037	332.94
355.264	334.94
355.491	323.94
355.718	340.94
355.945	352.94
356.172	339.94
356.399	347.94
356.626	339.94
356.853	334.94
357.08	318.94
357.307	338.94
357.534	361.94
357.761	328.94
357.988	323.94
358.215	340.94
358.441	345.94
358.668	342.94
358.895	361.94
359.122	345.94
359.349	353.94
359.576	378.94
359.802	384.94
360.029	407.94
360.256	427.94
360.483	408.94
360.709	373.94
360.936	367.94
361.163	346.94
361.39	384.94
361.616	358.94
361.843	384.94
362.07	388.94
362.296	350.94
362.523	374.94
362.749	360.94
362.976	357.94
363.203	372.94
363.429	352.94
363.656	357.94
363.882	333.94
364.109	353.94
364.335	345.94
364.562	358.94
364.788	338.94
365.015	349.94
365.241	340.94
365.468	354.94
365.694	361.94
365.92	343.94
366.147	354.94
366.373	340.94
366.599	344.94
366.826	327.94
367.052	354.94
367.278	343.94
367.505	338.94
367.731	347.94
367.957	340.94
368.184	365.94
368.41	333.94
368.636	341.94
368.862	356.94
369.089	356.94
369.315	342.94
369.541	342.94
369.767	355.94
369.993	358.94
370.219	348.94
370.445	332.94
370.672	343.94
370.898	338.94
371.124	326.94
371.35	347.94
371.576	332.94
371.802	323.94
372.028	349.94
372.254	338.94
372.48	324.94
372.706	347.94
372.932	343.94
373.158	336.94
373.384	346.94
373.61	341.94
373.835	345.94
374.061	333.94
374.287	332.94
374.513	344.94
374.739	357.94
374.965	347.94
375.191	347.94
375.416	334.94
375.642	343.94
375.868	337.94
376.094	325.94
376.319	350.94
376.545	330.94
376.771	339.94
376.997	329.94
377.222	348.94
377.448	341.94
377.674	321.94
377.899	326.94
378.125	342.94
378.35	323.94
378.576	339.94
378.802	336.94
379.027	330.94
379.253	344.94
379.478	340.94
379.704	357.94
379.929	340.94
380.155	336.94
380.38	348.94
380.606	350.94
380.831	340.94
381.057	344.94
381.282	334.94
381.507	324.94
381.733	332.94
381.958	342.94
382.184	361.94
382.409	352.94
382.634	345.94
382.86	362.94
383.085	330.94
383.31	339.94
383.535	357.94
383.761	351.94
383.986	342.94
384.211	349.94
384.436	352.94
384.662	354.94
384.887	355.94
385.112	369.94
385.337	353.94
385.562	364.94
385.787	355.94
386.013	361.94
386.238	380.94
386.463	378.94
386.688	371.94
386.913	369.94
387.138	369.94
387.363	341.94
387.588	341.94
387.813	376.94
388.038	371.94
388.263	376.94
388.488	359.94
388.713	376.94
388.938	368.94
389.163	361.94
389.387	362.94
389.612	369.94
389.837	376.94
390.062	364.94
390.287	368.94
390.512	362.94
390.736	372.94
390.961	375.94
391.186	357.94
391.411	376.94
391.636	377.94
391.86	370.94
392.085	386.94
392.31	367.94
392.534	369.94
392.759	386.94
392.984	358.94
393.208	370.94
393.433	346.94
393.658	345.94
393.882	348.94
394.107	365.94
394.331	361.94
394.556	356.94
394.78	364.94
395.005	357.94
395.229	363.94
395.454	381.94
395.678	362.94
395.903	381.94
396.127	406.94
396.352	421.94
396.576	387.94
396.801	384.94
397.025	378.94
397.249	373.94
397.474	391.94
397.698	402.94
397.922	409.94
398.147	390.94
398.371	412.94
398.595	400.94
398.82	402.94
399.044	416.94
399.268	430.94
399.492	435.94
399.717	453.94
399.941	458.94
400.165	472.94
400.389	499.94
400.613	467.94
400.837	446.94
401.062	421.94
401.286	427.94
401.51	399.94
401.734	408.94
401.958	416.94
402.182	410.94
402.406	437.94
402.63	436.94
402.854	417.94
403.078	434.94
403.302	432.94
403.526	449.94
403.75	421.94
403.974	444.94
404.198	404.94
404.422	431.94
404.645	424.94
404.869	457.94
405.093	460.94
405.317	497.94
405.541	526.94
405.765	463.94
405.988	455.94
406.212	448.94
406.436	465.94
406.66	487.94
406.883	453.94
407.107	496.94
407.331	524.94
407.555	557.94
407.778	550.94
408.002	533.94
408.226	479.94
408.449	514.94
408.673	457.94
408.896	474.94
409.12	527.94
409.344	489.94
409.567	451.94
409.791	440.94
410.014	428.94
410.238	441.94
410.461	465.94
410.685	437.94
410.908	467.94
411.132	464.94
411.355	495.94
411.578	461.94
411.802	435.94
412.025	422.94
412.249	426.94
412.472	420.94
412.695	470.94
412.919	481.94
413.142	436.94
413.365	416.94
413.589	421.94
413.812	424.94
414.035	416.94
414.258	421.94
414.482	391.94
414.705	426.94
414.928	402.94
415.151	381.94
415.374	393.94
415.597	390.94
415.821	399.94
416.044	419.94
416.267	413.94
416.49	389.94
416.713	398.94
416.936	419.94
417.159	422.94
417.382	399.94
417.605	410.94
417.828	433.94
418.051	434.94
418.274	408.94
418.497	401.94
418.72	402.94
418.943	409.94
419.166	425.94
419.389	458.94
419.611	441.94
419.834	441.94
420.057	440.94
420.28	426.94
420.503	429.94
420.726	407.94
420.948	420.94
421.171	462.94
421.394	490.94
421.617	444.94
421.839	440.94
422.062	425.94
422.285	443.94
422.507	476.94
422.73	533.94
422.953	542.94
423.175	455.94
423.398	436.94
423.621	434.94
423.843	450.94
424.066	458.94
424.288	440.94
424.511	496.94
424.733	501.94
424.956	586.94
425.178	564.94
425.401	557.94
425.623	574.94
425.846	509.94
426.068	473.94
426.291	466.94
426.513	459.94
426.735	472.94
426.958	513.94
427.18	588.94
427.402	657.94
427.625	732.94
427.847	682.94
428.069	591.94
428.292	528.94
428.514	457.94
428.736	461.94
428.958	454.94
429.181	440.94
429.403	435.94
429.625	439.94
429.847	483.94
430.069	516.94
430.292	513.94
430.514	460.94
430.736	436.94
430.958	396.94
431.18	407.94
431.402	405.94
431.624	395.94
431.846	411.94
432.068	414.94
432.29	403.94
432.512	396.94
432.734	407.94
432.956	432.94
433.178	417.94
433.4	425.94
433.622	427.94
433.844	410.94
434.066	419.94
434.287	389.94
434.509	404.94
434.731	436.94
434.953	419.94
435.175	424.94
435.397	430.94
435.618	470.94
435.84	507.94
436.062	588.94
436.284	631.94
436.505	539.94
436.727	480.94
436.949	453.94
437.17	429.94
437.392	431.94
437.614	465.94
437.835	472.94
438.057	552.94
438.278	644.94
438.5	660.94
438.721	693.94
438.943	661.94
439.165	541.94
439.386	502.94
439.608	474.94
439.829	476.94
440.05	519.94
440.272	541.94
440.493	509.94
440.715	462.94
440.936	468.94
441.158	437.94
441.379	448.94
441.6	457.94
441.822	459.94
442.043	511.94
442.264	576.94
442.486	592.94
442.707	502.94
442.928	484.94
443.149	474.94
443.371	507.94
443.592	551.94
443.813	604.94
444.034	656.94
444.255	546.94
444.476	489.94
444.698	470.94
444.919	458.94
445.14	568.94
445.361	530.94
445.582	516.94
445.803	573.94
446.024	650.94
446.245	629.94
446.466	600.94
446.687	510.94
446.908	456.94
447.129	428.94
447.35	434.94
447.571	441.94
447.792	434.94
448.013	431.94
448.234	468.94
448.455	494.94
448.675	593.94
448.896	688.94
449.117	585.94
449.338	546.94
449.559	644.94
449.779	701.94
450	573.94
450.221	492.94
450.442	442.94
450.662	434.94
450.883	434.94
451.104	453.94
451.324	451.94
451.545	418.94
451.766	422.94
451.986	391.94
452.207	392.94
452.428	408.94
452.648	388.94
452.869	414.94
453.089	399.94
453.31	414.94
453.53	404.94
453.751	393.94
453.971	402.94
454.192	424.94
454.412	409.94
454.633	400.94
454.853	387.94
455.073	394.94
455.294	408.94
455.514	484.94
455.734	455.94
455.955	376.94
456.175	374.94
456.395	377.94
456.616	368.94
456.836	363.94
457.056	364.94
457.276	347.94
457.497	359.94
457.717	385.94
457.937	357.94
458.157	379.94
458.377	377.94
458.598	391.94
458.818	478.94
459.038	541.94
459.258	519.94
459.478	442.94
459.698	406.94
459.918	416.94
460.138	405.94
460.358	411.94
460.578	419.94
460.798	419.94
461.018	421.94
461.238	419.94
461.458	398.94
461.678	405.94
461.898	399.94
462.118	410.94
462.338	411.94
462.558	423.94
462.777	444.94
462.997	439.94
463.217	433.94
463.437	451.94
463.657	421.94
463.876	425.94
464.096	438.94
464.316	441.94
464.536	437.94
464.755	447.94
464.975	470.94
465.195	484.94
465.414	566.94
465.634	499.94
465.854	446.94
466.073	421.94
466.293	410.94
466.512	396.94
466.732	392.94
466.951	388.94
467.171	384.94
467.391	399.94
467.61	412.94
467.829	411.94
468.049	411.94
468.268	422.94
468.488	407.94
468.707	379.94
468.927	398.94
469.146	393.94
469.365	393.94
469.585	380.94
469.804	375.94
470.023	405.94
470.243	401.94
470.462	398.94
470.681	426.94
470.901	397.94
471.12	395.94
471.339	400.94
471.558	417.94
471.777	424.94
471.997	411.94
472.216	403.94
472.435	457.94
472.654	444.94
472.873	430.94
473.092	414.94
473.311	407.94
473.53	422.94
473.749	414.94
473.968	462.94
474.187	557.94
474.406	551.94
474.625	470.94
474.844	426.94
475.063	430.94
475.282	421.94
475.501	410.94
475.72	417.94
475.939	414.94
476.158	400.94
476.377	424.94
476.596	421.94
476.814	437.94
477.033	433.94
477.252	430.94
477.471	423.94
477.69	421.94
477.908	441.94
478.127	441.94
478.346	440.94
478.564	456.94
478.783	462.94
479.002	466.94
479.22	459.94
479.439	460.94
479.658	487.94
479.876	489.94
480.095	493.94
480.313	521.94
480.532	499.94
480.751	487.94
480.969	516.94
481.188	577.94
481.406	597.94
481.624	513.94
481.843	500.94
482.061	479.94
482.28	474.94
482.498	496.94
482.717	489.94
482.935	480.94
483.153	483.94
483.372	482.94
483.59	480.94
483.808	468.94
484.027	476.94
484.245	478.94
484.463	486.94
484.681	506.94
484.9	487.94
485.118	498.94
485.336	496.94
485.554	490.94
485.772	514.94
485.99	501.94
486.209	501.94
486.427	505.94
486.645	500.94
486.863	526.94
487.081	516.94
487.299	516.94
487.517	535.94
487.735	501.94
487.953	501.94
488.171	525.94
488.389	514.94
488.607	527.94
488.825	520.94
489.043	517.94
489.261	532.94
489.479	545.94
489.696	523.94
489.914	532.94
490.132	518.94
490.35	547.94
490.568	556.94
490.786	543.94
491.003	566.94
491.221	562.94
491.439	572.94
491.657	587.94
491.874	579.94
492.092	587.94
492.31	594.94
492.527	572.94
492.745	586.94
492.963	589.94
493.18	585.94
493.398	626.94
493.615	612.94
493.833	620.94
494.05	617.94
494.268	597.94
494.485	600.94
494.703	609.94
494.92	602.94
495.138	597.94
495.355	598.94
495.573	595.94
495.79	592.94
496.008	615.94
496.225	616.94
496.442	605.94
496.66	608.94
496.877	597.94
497.094	633.94
497.312	596.94
497.529	602.94
497.746	645.94
497.963	624.94
498.181	662.94
498.398	665.94
498.615	684.94
498.832	651.94
499.049	665.94
499.267	681.94
499.484	702.94
499.701	688.94
499.918	724.94
500.135	707.94
500.352	776.94
500.569	755.94
500.786	775.94
501.003	782.94
501.22	743.94
501.437	742.94
501.654	742.94
501.871	758.94
