Data from 1965.PennyLincolnUp.Lamp.En5.5.200Scan.071719.P1._HRD10591_14-09-34-912.txt Node
Date: Thu Jul 18 14:09:34 EDT 2019
User: cochatt
Spectrometer: HR+D1059
Trigger mode: 1
Integration Time (sec): 1.000000E-1
Scans to average: 1
Electric dark correction enabled: true
Nonlinearity correction enabled: false
Boxcar width: 0
XAxis mode: Wavelengths
Number of Pixels in Spectrum: 2048
>>>>>Begin Spectral Data<<<<<
223.165	-24.69
223.4	-24.69
223.635	-24.69
223.869	-17.69
224.104	-15.69
224.338	-5.69
224.573	-12.69
224.808	-6.69
225.042	-15.69
225.277	-8.69
225.511	-8.69
225.746	8.31
225.98	-5.69
226.215	12.31
226.449	25.31
226.683	18.31
226.918	31.31
227.152	26.31
227.387	35.31
227.621	36.31
227.856	37.31
228.09	40.31
228.324	55.31
228.559	57.31
228.793	75.31
229.027	91.31
229.262	115.31
229.496	118.31
229.73	128.31
229.964	157.31
230.199	129.31
230.433	129.31
230.667	114.31
230.901	124.31
231.136	108.31
231.37	103.31
231.604	99.31
231.838	119.31
232.072	117.31
232.306	113.31
232.541	121.31
232.775	124.31
233.009	104.31
233.243	114.31
233.477	100.31
233.711	116.31
233.945	111.31
234.179	132.31
234.413	126.31
234.647	116.31
234.881	120.31
235.115	107.31
235.349	122.31
235.583	117.31
235.817	116.31
236.051	124.31
236.285	136.31
236.519	120.31
236.753	129.31
236.987	138.31
237.221	169.31
237.455	231.31
237.689	179.31
237.922	133.31
238.156	132.31
238.39	126.31
238.624	113.31
238.858	107.31
239.091	125.31
239.325	129.31
239.559	109.31
239.793	147.31
240.027	135.31
240.26	135.31
240.494	149.31
240.728	138.31
240.961	139.31
241.195	140.31
241.429	130.31
241.662	142.31
241.896	131.31
242.13	111.31
242.363	131.31
242.597	135.31
242.83	143.31
243.064	153.31
243.298	142.31
243.531	109.31
243.765	131.31
243.998	123.31
244.232	140.31
244.465	141.31
244.699	144.31
244.932	141.31
245.166	139.31
245.399	137.31
245.633	143.31
245.866	153.31
246.099	143.31
246.333	139.31
246.566	139.31
246.8	155.31
247.033	150.31
247.266	159.31
247.5	136.31
247.733	155.31
247.966	159.31
248.2	155.31
248.433	147.31
248.666	157.31
248.899	175.31
249.133	189.31
249.366	211.31
249.599	179.31
249.832	172.31
250.066	164.31
250.299	164.31
250.532	173.31
250.765	188.31
250.998	204.31
251.231	202.31
251.465	188.31
251.698	194.31
251.931	181.31
252.164	200.31
252.397	192.31
252.63	178.31
252.863	195.31
253.096	209.31
253.329	213.31
253.562	232.31
253.795	201.31
254.028	207.31
254.261	213.31
254.494	215.31
254.727	229.31
254.96	259.31
255.193	235.31
255.426	225.31
255.659	234.31
255.892	217.31
256.124	215.31
256.357	223.31
256.59	207.31
256.823	201.31
257.056	180.31
257.289	191.31
257.521	189.31
257.754	187.31
257.987	208.31
258.22	204.31
258.452	178.31
258.685	181.31
258.918	196.31
259.151	191.31
259.383	208.31
259.616	212.31
259.849	209.31
260.081	224.31
260.314	241.31
260.547	236.31
260.779	216.31
261.012	222.31
261.244	205.31
261.477	221.31
261.71	229.31
261.942	218.31
262.175	214.31
262.407	228.31
262.64	199.31
262.872	209.31
263.105	203.31
263.337	194.31
263.57	184.31
263.802	212.31
264.035	195.31
264.267	199.31
264.499	193.31
264.732	192.31
264.964	188.31
265.197	194.31
265.429	201.31
265.661	174.31
265.894	193.31
266.126	187.31
266.358	190.31
266.591	194.31
266.823	199.31
267.055	210.31
267.287	210.31
267.52	200.31
267.752	207.31
267.984	213.31
268.216	215.31
268.448	221.31
268.681	219.31
268.913	224.31
269.145	253.31
269.377	261.31
269.609	242.31
269.841	243.31
270.073	216.31
270.306	265.31
270.538	279.31
270.77	283.31
271.002	273.31
271.234	265.31
271.466	284.31
271.698	293.31
271.93	285.31
272.162	287.31
272.394	299.31
272.626	288.31
272.858	265.31
273.09	249.31
273.322	267.31
273.553	244.31
273.785	247.31
274.017	237.31
274.249	232.31
274.481	243.31
274.713	245.31
274.945	244.31
275.176	230.31
275.408	219.31
275.64	221.31
275.872	254.31
276.104	247.31
276.335	271.31
276.567	254.31
276.799	274.31
277.031	296.31
277.262	305.31
277.494	307.31
277.726	272.31
277.957	267.31
278.189	266.31
278.421	256.31
278.652	256.31
278.884	242.31
279.115	247.31
279.347	236.31
279.579	247.31
279.81	256.31
280.042	233.31
280.273	244.31
280.505	243.31
280.736	234.31
280.968	228.31
281.199	255.31
281.431	259.31
281.662	252.31
281.894	248.31
282.125	230.31
282.356	265.31
282.588	269.31
282.819	293.31
283.051	265.31
283.282	254.31
283.513	250.31
283.745	247.31
283.976	252.31
284.207	257.31
284.439	253.31
284.67	253.31
284.901	232.31
285.132	254.31
285.364	245.31
285.595	233.31
285.826	229.31
286.057	265.31
286.288	244.31
286.52	249.31
286.751	261.31
286.982	248.31
287.213	251.31
287.444	282.31
287.675	250.31
287.906	265.31
288.138	271.31
288.369	272.31
288.6	265.31
288.831	259.31
289.062	276.31
289.293	246.31
289.524	263.31
289.755	272.31
289.986	256.31
290.217	270.31
290.448	259.31
290.679	264.31
290.91	255.31
291.141	259.31
291.371	226.31
291.602	251.31
291.833	242.31
292.064	253.31
292.295	244.31
292.526	268.31
292.757	249.31
292.987	258.31
293.218	275.31
293.449	245.31
293.68	245.31
293.91	249.31
294.141	251.31
294.372	257.31
294.603	264.31
294.833	272.31
295.064	275.31
295.295	249.31
295.525	261.31
295.756	263.31
295.987	271.31
296.217	298.31
296.448	303.31
296.679	285.31
296.909	281.31
297.14	268.31
297.37	268.31
297.601	278.31
297.831	267.31
298.062	276.31
298.292	282.31
298.523	269.31
298.753	279.31
298.984	272.31
299.214	271.31
299.445	251.31
299.675	273.31
299.905	283.31
300.136	285.31
300.366	287.31
300.597	283.31
300.827	273.31
301.057	281.31
301.288	307.31
301.518	285.31
301.748	287.31
301.979	294.31
302.209	301.31
302.439	291.31
302.669	293.31
302.9	279.31
303.13	285.31
303.36	289.31
303.59	294.31
303.82	293.31
304.051	294.31
304.281	279.31
304.511	292.31
304.741	293.31
304.971	268.31
305.201	278.31
305.431	290.31
305.661	284.31
305.891	295.31
306.121	277.31
306.352	288.31
306.582	319.31
306.812	285.31
307.042	306.31
307.272	287.31
307.502	303.31
307.731	299.31
307.961	291.31
308.191	299.31
308.421	282.31
308.651	297.31
308.881	296.31
309.111	302.31
309.341	306.31
309.571	306.31
309.8	333.31
310.03	335.31
310.26	339.31
310.49	351.31
310.72	349.31
310.949	354.31
311.179	356.31
311.409	347.31
311.639	338.31
311.868	345.31
312.098	346.31
312.328	349.31
312.557	367.31
312.787	381.31
313.017	387.31
313.246	350.31
313.476	353.31
313.706	346.31
313.935	343.31
314.165	346.31
314.394	368.31
314.624	370.31
314.853	362.31
315.083	345.31
315.312	334.31
315.542	365.31
315.771	337.31
316.001	341.31
316.23	344.31
316.46	329.31
316.689	346.31
316.919	344.31
317.148	362.31
317.377	353.31
317.607	351.31
317.836	357.31
318.065	346.31
318.295	332.31
318.524	322.31
318.753	351.31
318.983	339.31
319.212	346.31
319.441	370.31
319.67	367.31
319.9	334.31
320.129	364.31
320.358	350.31
320.587	339.31
320.816	371.31
321.046	364.31
321.275	391.31
321.504	381.31
321.733	377.31
321.962	371.31
322.191	395.31
322.42	403.31
322.649	401.31
322.878	411.31
323.108	410.31
323.337	465.31
323.566	475.31
323.795	545.31
324.024	587.31
324.253	698.31
324.482	1020.31
324.71	1571.31
324.939	2143.31
325.168	1751.31
325.397	917.31
325.626	635.31
325.855	551.31
326.084	496.31
326.313	480.31
326.542	516.31
326.77	529.31
326.999	650.31
327.228	895.31
327.457	1377.31
327.686	1566.31
327.914	1071.31
328.143	688.31
328.372	617.31
328.6	576.31
328.829	538.31
329.058	563.31
329.287	562.31
329.515	519.31
329.744	512.31
329.972	493.31
330.201	516.31
330.43	552.31
330.658	596.31
330.887	586.31
331.115	573.31
331.344	488.31
331.572	461.31
331.801	479.31
332.03	451.31
332.258	440.31
332.486	421.31
332.715	391.31
332.943	411.31
333.172	400.31
333.4	400.31
333.629	405.31
333.857	423.31
334.085	457.31
334.314	444.31
334.542	498.31
334.771	495.31
334.999	471.31
335.227	444.31
335.455	413.31
335.684	408.31
335.912	419.31
336.14	404.31
336.369	410.31
336.597	413.31
336.825	404.31
337.053	400.31
337.281	385.31
337.51	375.31
337.738	395.31
337.966	405.31
338.194	411.31
338.422	386.31
338.65	383.31
338.878	376.31
339.106	375.31
339.334	386.31
339.562	390.31
339.79	379.31
340.018	408.31
340.246	377.31
340.474	387.31
340.702	389.31
340.93	387.31
341.158	357.31
341.386	379.31
341.614	381.31
341.842	388.31
342.07	372.31
342.298	345.31
342.526	369.31
342.754	379.31
342.981	371.31
343.209	391.31
343.437	361.31
343.665	368.31
343.893	387.31
344.12	378.31
344.348	386.31
344.576	382.31
344.804	413.31
345.031	397.31
345.259	407.31
345.487	424.31
345.714	380.31
345.942	393.31
346.17	392.31
346.397	357.31
346.625	369.31
346.853	370.31
347.08	377.31
347.308	373.31
347.535	403.31
347.763	396.31
347.99	376.31
348.218	393.31
348.445	389.31
348.673	390.31
348.9	370.31
349.128	346.31
349.355	362.31
349.583	364.31
349.81	375.31
350.037	381.31
350.265	371.31
350.492	344.31
350.72	376.31
350.947	364.31
351.174	381.31
351.402	383.31
351.629	384.31
351.856	386.31
352.083	405.31
352.311	393.31
352.538	400.31
352.765	396.31
352.992	376.31
353.22	383.31
353.447	386.31
353.674	391.31
353.901	371.31
354.128	364.31
354.355	337.31
354.583	342.31
354.81	349.31
355.037	346.31
355.264	339.31
355.491	319.31
355.718	342.31
355.945	339.31
356.172	337.31
356.399	349.31
356.626	334.31
356.853	331.31
357.08	333.31
357.307	355.31
357.534	346.31
357.761	333.31
357.988	357.31
358.215	366.31
358.441	354.31
358.668	359.31
358.895	371.31
359.122	347.31
359.349	341.31
359.576	391.31
359.802	413.31
360.029	421.31
360.256	432.31
360.483	410.31
360.709	384.31
360.936	386.31
361.163	382.31
361.39	387.31
361.616	388.31
361.843	389.31
362.07	381.31
362.296	362.31
362.523	377.31
362.749	379.31
362.976	377.31
363.203	375.31
363.429	351.31
363.656	359.31
363.882	353.31
364.109	351.31
364.335	357.31
364.562	367.31
364.788	341.31
365.015	362.31
365.241	345.31
365.468	365.31
365.694	368.31
365.92	383.31
366.147	355.31
366.373	365.31
366.599	337.31
366.826	356.31
367.052	336.31
367.278	359.31
367.505	335.31
367.731	347.31
367.957	353.31
368.184	365.31
368.41	358.31
368.636	370.31
368.862	357.31
369.089	350.31
369.315	351.31
369.541	356.31
369.767	369.31
369.993	355.31
370.219	332.31
370.445	347.31
370.672	344.31
370.898	349.31
371.124	341.31
371.35	347.31
371.576	341.31
371.802	326.31
372.028	347.31
372.254	353.31
372.48	364.31
372.706	339.31
372.932	338.31
373.158	358.31
373.384	366.31
373.61	356.31
373.835	351.31
374.061	352.31
374.287	377.31
374.513	377.31
374.739	353.31
374.965	355.31
375.191	347.31
375.416	361.31
375.642	347.31
375.868	334.31
376.094	341.31
376.319	342.31
376.545	352.31
376.771	346.31
376.997	354.31
377.222	348.31
377.448	346.31
377.674	335.31
377.899	330.31
378.125	347.31
378.35	342.31
378.576	343.31
378.802	332.31
379.027	343.31
379.253	350.31
379.478	340.31
379.704	353.31
379.929	354.31
380.155	364.31
380.38	350.31
380.606	354.31
380.831	346.31
381.057	352.31
381.282	325.31
381.507	331.31
381.733	340.31
381.958	338.31
382.184	360.31
382.409	347.31
382.634	361.31
382.86	354.31
383.085	380.31
383.31	367.31
383.535	351.31
383.761	343.31
383.986	366.31
384.211	362.31
384.436	347.31
384.662	341.31
384.887	361.31
385.112	366.31
385.337	367.31
385.562	366.31
385.787	381.31
386.013	385.31
386.238	369.31
386.463	372.31
386.688	363.31
386.913	360.31
387.138	385.31
387.363	362.31
387.588	369.31
387.813	365.31
388.038	363.31
388.263	370.31
388.488	367.31
388.713	373.31
388.938	385.31
389.163	390.31
389.387	370.31
389.612	371.31
389.837	371.31
390.062	378.31
390.287	359.31
390.512	367.31
390.736	362.31
390.961	380.31
391.186	358.31
391.411	391.31
391.636	372.31
391.86	374.31
392.085	351.31
392.31	383.31
392.534	385.31
392.759	379.31
392.984	357.31
393.208	375.31
393.433	375.31
393.658	380.31
393.882	375.31
394.107	377.31
394.331	374.31
394.556	379.31
394.78	364.31
395.005	382.31
395.229	364.31
395.454	385.31
395.678	395.31
395.903	397.31
396.127	397.31
396.352	401.31
396.576	398.31
396.801	370.31
397.025	391.31
397.249	376.31
397.474	376.31
397.698	379.31
397.922	411.31
398.147	411.31
398.371	408.31
398.595	395.31
398.82	396.31
399.044	413.31
399.268	433.31
399.492	450.31
399.717	475.31
399.941	465.31
400.165	492.31
400.389	497.31
400.613	461.31
400.837	458.31
401.062	446.31
401.286	425.31
401.51	435.31
401.734	424.31
401.958	429.31
402.182	404.31
402.406	447.31
402.63	472.31
402.854	422.31
403.078	452.31
403.302	405.31
403.526	433.31
403.75	423.31
403.974	427.31
404.198	411.31
404.422	466.31
404.645	447.31
404.869	433.31
405.093	474.31
405.317	523.31
405.541	524.31
405.765	470.31
405.988	455.31
406.212	469.31
406.436	500.31
406.66	482.31
406.883	471.31
407.107	516.31
407.331	525.31
407.555	543.31
407.778	545.31
408.002	524.31
408.226	501.31
408.449	482.31
408.673	491.31
408.896	494.31
409.12	551.31
409.344	534.31
409.567	481.31
409.791	451.31
410.014	447.31
410.238	441.31
410.461	436.31
410.685	427.31
410.908	456.31
411.132	479.31
411.355	507.31
411.578	475.31
411.802	465.31
412.025	443.31
412.249	440.31
412.472	477.31
412.695	496.31
412.919	494.31
413.142	443.31
413.365	437.31
413.589	435.31
413.812	425.31
414.035	426.31
414.258	412.31
414.482	419.31
414.705	423.31
414.928	415.31
415.151	404.31
415.374	421.31
415.597	403.31
415.821	394.31
416.044	411.31
416.267	410.31
416.49	410.31
416.713	405.31
416.936	421.31
417.159	408.31
417.382	422.31
417.605	414.31
417.828	428.31
418.051	449.31
418.274	415.31
418.497	423.31
418.72	431.31
418.943	411.31
419.166	445.31
419.389	456.31
419.611	424.31
419.834	445.31
420.057	443.31
420.28	421.31
420.503	418.31
420.726	426.31
420.948	457.31
421.171	454.31
421.394	499.31
421.617	431.31
421.839	435.31
422.062	424.31
422.285	455.31
422.507	478.31
422.73	565.31
422.953	520.31
423.175	456.31
423.398	489.31
423.621	455.31
423.843	439.31
424.066	459.31
424.288	464.31
424.511	480.31
424.733	530.31
424.956	594.31
425.178	578.31
425.401	574.31
425.623	576.31
425.846	500.31
426.068	459.31
426.291	491.31
426.513	468.31
426.735	483.31
426.958	543.31
427.18	602.31
427.402	685.31
427.625	739.31
427.847	690.31
428.069	581.31
428.292	527.31
428.514	461.31
428.736	455.31
428.958	449.31
429.181	446.31
429.403	439.31
429.625	445.31
429.847	463.31
430.069	535.31
430.292	525.31
430.514	462.31
430.736	447.31
430.958	425.31
431.18	403.31
431.402	410.31
431.624	425.31
431.846	405.31
432.068	421.31
432.29	413.31
432.512	428.31
432.734	410.31
432.956	406.31
433.178	416.31
433.4	447.31
433.622	408.31
433.844	396.31
434.066	415.31
434.287	432.31
434.509	431.31
434.731	428.31
434.953	425.31
435.175	445.31
435.397	473.31
435.618	468.31
435.84	521.31
436.062	587.31
436.284	641.31
436.505	547.31
436.727	490.31
436.949	451.31
437.17	452.31
437.392	459.31
437.614	456.31
437.835	501.31
438.057	595.31
438.278	631.31
438.5	635.31
438.721	693.31
438.943	667.31
439.165	543.31
439.386	497.31
439.608	490.31
439.829	488.31
440.05	510.31
440.272	554.31
440.493	540.31
440.715	476.31
440.936	458.31
441.158	459.31
441.379	439.31
441.6	473.31
441.822	483.31
442.043	509.31
442.264	586.31
442.486	581.31
442.707	550.31
442.928	501.31
443.149	512.31
443.371	501.31
443.592	565.31
443.813	618.31
444.034	671.31
444.255	561.31
444.476	485.31
444.698	481.31
444.919	475.31
445.14	579.31
445.361	513.31
445.582	519.31
445.803	570.31
446.024	668.31
446.245	655.31
446.466	603.31
446.687	527.31
446.908	459.31
447.129	446.31
447.35	433.31
447.571	434.31
447.792	444.31
448.013	440.31
448.234	480.31
448.455	532.31
448.675	623.31
448.896	701.31
449.117	587.31
449.338	569.31
449.559	642.31
449.779	689.31
450	584.31
450.221	505.31
450.442	453.31
450.662	449.31
450.883	468.31
451.104	481.31
451.324	477.31
451.545	448.31
451.766	411.31
451.986	404.31
452.207	394.31
452.428	403.31
452.648	420.31
452.869	418.31
453.089	419.31
453.31	424.31
453.53	407.31
453.751	415.31
453.971	404.31
454.192	428.31
454.412	424.31
454.633	397.31
454.853	413.31
455.073	387.31
455.294	418.31
455.514	498.31
455.734	482.31
455.955	417.31
456.175	417.31
456.395	400.31
456.616	380.31
456.836	368.31
457.056	376.31
457.276	359.31
457.497	368.31
457.717	373.31
457.937	390.31
458.157	399.31
458.377	386.31
458.598	421.31
458.818	483.31
459.038	530.31
459.258	551.31
459.478	452.31
459.698	398.31
459.918	425.31
460.138	405.31
460.358	405.31
460.578	400.31
460.798	422.31
461.018	420.31
461.238	417.31
461.458	401.31
461.678	424.31
461.898	428.31
462.118	448.31
462.338	428.31
462.558	430.31
462.777	435.31
462.997	427.31
463.217	422.31
463.437	431.31
463.657	438.31
463.876	413.31
464.096	449.31
464.316	435.31
464.536	460.31
464.755	436.31
464.975	459.31
465.195	495.31
465.414	589.31
465.634	516.31
465.854	450.31
466.073	441.31
466.293	439.31
466.512	418.31
466.732	398.31
466.951	391.31
467.171	413.31
467.391	394.31
467.61	421.31
467.829	426.31
468.049	441.31
468.268	424.31
468.488	406.31
468.707	391.31
468.927	416.31
469.146	387.31
469.365	411.31
469.585	410.31
469.804	407.31
470.023	418.31
470.243	401.31
470.462	428.31
470.681	442.31
470.901	434.31
471.12	405.31
471.339	404.31
471.558	406.31
471.777	425.31
471.997	404.31
472.216	426.31
472.435	460.31
472.654	460.31
472.873	414.31
473.092	390.31
473.311	382.31
473.53	417.31
473.749	427.31
473.968	466.31
474.187	548.31
474.406	566.31
474.625	466.31
474.844	433.31
475.063	437.31
475.282	432.31
475.501	402.31
475.72	419.31
475.939	430.31
476.158	415.31
476.377	411.31
476.596	417.31
476.814	426.31
477.033	455.31
477.252	457.31
477.471	437.31
477.69	434.31
477.908	440.31
478.127	452.31
478.346	442.31
478.564	433.31
478.783	448.31
479.002	459.31
479.22	464.31
479.439	469.31
479.658	515.31
479.876	515.31
480.095	494.31
480.313	505.31
480.532	507.31
480.751	517.31
480.969	522.31
481.188	587.31
481.406	631.31
481.624	557.31
481.843	530.31
482.061	499.31
482.28	470.31
482.498	485.31
482.717	493.31
482.935	483.31
483.153	499.31
483.372	484.31
483.59	496.31
483.808	495.31
484.027	493.31
484.245	471.31
484.463	490.31
484.681	464.31
484.9	473.31
485.118	475.31
485.336	474.31
485.554	500.31
485.772	499.31
485.99	485.31
486.209	509.31
486.427	506.31
486.645	521.31
486.863	522.31
487.081	535.31
487.299	523.31
487.517	534.31
487.735	515.31
487.953	508.31
488.171	525.31
488.389	523.31
488.607	530.31
488.825	538.31
489.043	526.31
489.261	511.31
489.479	526.31
489.696	540.31
489.914	525.31
490.132	546.31
490.35	546.31
490.568	541.31
490.786	557.31
491.003	563.31
491.221	552.31
491.439	602.31
491.657	597.31
491.874	580.31
492.092	601.31
492.31	609.31
492.527	605.31
492.745	601.31
492.963	594.31
493.18	615.31
493.398	593.31
493.615	618.31
493.833	611.31
494.05	606.31
494.268	616.31
494.485	610.31
494.703	610.31
494.92	621.31
495.138	632.31
495.355	601.31
495.573	628.31
495.79	601.31
496.008	618.31
496.225	625.31
496.442	625.31
496.66	610.31
496.877	627.31
497.094	644.31
497.312	616.31
497.529	647.31
497.746	627.31
497.963	616.31
498.181	650.31
498.398	657.31
498.615	674.31
498.832	676.31
499.049	683.31
499.267	708.31
499.484	725.31
499.701	724.31
499.918	707.31
500.135	777.31
500.352	747.31
500.569	789.31
500.786	781.31
501.003	789.31
501.22	773.31
501.437	773.31
501.654	756.31
501.871	741.31
