Data from 1965.PennyLincolnUp.Lamp.En5.5.200Scan.071719.P1._HRD10591_14-10-35-912.txt Node
Date: Thu Jul 18 14:10:35 EDT 2019
User: cochatt
Spectrometer: HR+D1059
Trigger mode: 1
Integration Time (sec): 1.000000E-1
Scans to average: 1
Electric dark correction enabled: true
Nonlinearity correction enabled: false
Boxcar width: 0
XAxis mode: Wavelengths
Number of Pixels in Spectrum: 2048
>>>>>Begin Spectral Data<<<<<
223.165	-16.69
223.4	-16.69
223.635	-16.69
223.869	-9.69
224.104	-20.69
224.338	-21.69
224.573	-20.69
224.808	-10.69
225.042	-2.69
225.277	-1.69
225.511	-7.69
225.746	2.31
225.98	6.31
226.215	11.31
226.449	27.31
226.683	19.31
226.918	24.31
227.152	21.31
227.387	44.31
227.621	42.31
227.856	55.31
228.09	50.31
228.324	36.31
228.559	51.31
228.793	66.31
229.027	80.31
229.262	107.31
229.496	120.31
229.73	126.31
229.964	155.31
230.199	125.31
230.433	112.31
230.667	122.31
230.901	110.31
231.136	114.31
231.37	104.31
231.604	99.31
231.838	114.31
232.072	101.31
232.306	108.31
232.541	106.31
232.775	117.31
233.009	101.31
233.243	132.31
233.477	116.31
233.711	104.31
233.945	106.31
234.179	111.31
234.413	111.31
234.647	115.31
234.881	100.31
235.115	110.31
235.349	112.31
235.583	121.31
235.817	108.31
236.051	125.31
236.285	116.31
236.519	122.31
236.753	123.31
236.987	132.31
237.221	169.31
237.455	224.31
237.689	175.31
237.922	132.31
238.156	137.31
238.39	128.31
238.624	122.31
238.858	112.31
239.091	114.31
239.325	111.31
239.559	106.31
239.793	128.31
240.027	135.31
240.26	130.31
240.494	147.31
240.728	142.31
240.961	137.31
241.195	150.31
241.429	127.31
241.662	126.31
241.896	115.31
242.13	143.31
242.363	142.31
242.597	126.31
242.83	125.31
243.064	130.31
243.298	147.31
243.531	126.31
243.765	128.31
243.998	135.31
244.232	134.31
244.465	139.31
244.699	127.31
244.932	142.31
245.166	144.31
245.399	155.31
245.633	142.31
245.866	148.31
246.099	124.31
246.333	133.31
246.566	135.31
246.8	142.31
247.033	150.31
247.266	152.31
247.5	144.31
247.733	143.31
247.966	161.31
248.2	165.31
248.433	151.31
248.666	149.31
248.899	162.31
249.133	188.31
249.366	199.31
249.599	197.31
249.832	166.31
250.066	162.31
250.299	166.31
250.532	192.31
250.765	195.31
250.998	207.31
251.231	211.31
251.465	198.31
251.698	207.31
251.931	207.31
252.164	199.31
252.397	174.31
252.63	180.31
252.863	186.31
253.096	193.31
253.329	219.31
253.562	204.31
253.795	212.31
254.028	188.31
254.261	203.31
254.494	215.31
254.727	242.31
254.96	259.31
255.193	266.31
255.426	230.31
255.659	226.31
255.892	227.31
256.124	226.31
256.357	216.31
256.59	200.31
256.823	218.31
257.056	204.31
257.289	186.31
257.521	201.31
257.754	180.31
257.987	203.31
258.22	214.31
258.452	172.31
258.685	196.31
258.918	179.31
259.151	185.31
259.383	200.31
259.616	195.31
259.849	207.31
260.081	212.31
260.314	236.31
260.547	226.31
260.779	238.31
261.012	203.31
261.244	227.31
261.477	204.31
261.71	192.31
261.942	202.31
262.175	237.31
262.407	222.31
262.64	194.31
262.872	205.31
263.105	171.31
263.337	199.31
263.57	190.31
263.802	195.31
264.035	198.31
264.267	194.31
264.499	206.31
264.732	200.31
264.964	192.31
265.197	205.31
265.429	183.31
265.661	215.31
265.894	198.31
266.126	210.31
266.358	190.31
266.591	188.31
266.823	205.31
267.055	202.31
267.287	208.31
267.52	215.31
267.752	196.31
267.984	200.31
268.216	210.31
268.448	212.31
268.681	209.31
268.913	227.31
269.145	246.31
269.377	254.31
269.609	244.31
269.841	243.31
270.073	251.31
270.306	273.31
270.538	283.31
270.77	279.31
271.002	289.31
271.234	269.31
271.466	284.31
271.698	285.31
271.93	288.31
272.162	296.31
272.394	285.31
272.626	268.31
272.858	277.31
273.09	236.31
273.322	257.31
273.553	256.31
273.785	242.31
274.017	258.31
274.249	242.31
274.481	226.31
274.713	234.31
274.945	255.31
275.176	247.31
275.408	223.31
275.64	238.31
275.872	250.31
276.104	223.31
276.335	254.31
276.567	227.31
276.799	268.31
277.031	310.31
277.262	306.31
277.494	289.31
277.726	277.31
277.957	276.31
278.189	271.31
278.421	255.31
278.652	260.31
278.884	259.31
279.115	237.31
279.347	233.31
279.579	251.31
279.81	230.31
280.042	239.31
280.273	246.31
280.505	223.31
280.736	243.31
280.968	234.31
281.199	236.31
281.431	231.31
281.662	251.31
281.894	235.31
282.125	240.31
282.356	255.31
282.588	275.31
282.819	282.31
283.051	235.31
283.282	235.31
283.513	233.31
283.745	258.31
283.976	234.31
284.207	256.31
284.439	235.31
284.67	243.31
284.901	244.31
285.132	256.31
285.364	230.31
285.595	244.31
285.826	256.31
286.057	258.31
286.288	249.31
286.52	254.31
286.751	237.31
286.982	223.31
287.213	233.31
287.444	248.31
287.675	270.31
287.906	264.31
288.138	263.31
288.369	270.31
288.6	283.31
288.831	254.31
289.062	243.31
289.293	265.31
289.524	246.31
289.755	242.31
289.986	262.31
290.217	257.31
290.448	251.31
290.679	251.31
290.91	250.31
291.141	252.31
291.371	249.31
291.602	251.31
291.833	248.31
292.064	262.31
292.295	263.31
292.526	268.31
292.757	260.31
292.987	267.31
293.218	246.31
293.449	261.31
293.68	250.31
293.91	277.31
294.141	258.31
294.372	263.31
294.603	265.31
294.833	260.31
295.064	267.31
295.295	278.31
295.525	258.31
295.756	263.31
295.987	297.31
296.217	282.31
296.448	297.31
296.679	296.31
296.909	253.31
297.14	261.31
297.37	265.31
297.601	267.31
297.831	265.31
298.062	258.31
298.292	251.31
298.523	257.31
298.753	287.31
298.984	268.31
299.214	285.31
299.445	266.31
299.675	276.31
299.905	276.31
300.136	267.31
300.366	286.31
300.597	283.31
300.827	296.31
301.057	303.31
301.288	299.31
301.518	290.31
301.748	293.31
301.979	304.31
302.209	288.31
302.439	303.31
302.669	290.31
302.9	277.31
303.13	280.31
303.36	292.31
303.59	297.31
303.82	300.31
304.051	288.31
304.281	302.31
304.511	286.31
304.741	292.31
304.971	284.31
305.201	299.31
305.431	301.31
305.661	283.31
305.891	287.31
306.121	291.31
306.352	304.31
306.582	301.31
306.812	297.31
307.042	290.31
307.272	292.31
307.502	300.31
307.731	294.31
307.961	303.31
308.191	304.31
308.421	287.31
308.651	306.31
308.881	307.31
309.111	308.31
309.341	323.31
309.571	325.31
309.8	314.31
310.03	338.31
310.26	343.31
310.49	341.31
310.72	345.31
310.949	341.31
311.179	363.31
311.409	351.31
311.639	336.31
311.868	357.31
312.098	342.31
312.328	352.31
312.557	379.31
312.787	380.31
313.017	377.31
313.246	360.31
313.476	336.31
313.706	333.31
313.935	355.31
314.165	357.31
314.394	351.31
314.624	362.31
314.853	349.31
315.083	343.31
315.312	333.31
315.542	338.31
315.771	333.31
316.001	333.31
316.23	331.31
316.46	331.31
316.689	331.31
316.919	347.31
317.148	339.31
317.377	354.31
317.607	352.31
317.836	340.31
318.065	339.31
318.295	336.31
318.524	329.31
318.753	324.31
318.983	334.31
319.212	359.31
319.441	349.31
319.67	348.31
319.9	350.31
320.129	354.31
320.358	359.31
320.587	356.31
320.816	347.31
321.046	365.31
321.275	364.31
321.504	351.31
321.733	373.31
321.962	383.31
322.191	416.31
322.42	401.31
322.649	404.31
322.878	441.31
323.108	449.31
323.337	460.31
323.566	485.31
323.795	507.31
324.024	580.31
324.253	724.31
324.482	1024.31
324.71	1612.31
324.939	2178.31
325.168	1835.31
325.397	995.31
325.626	638.31
325.855	516.31
326.084	522.31
326.313	494.31
326.542	493.31
326.77	566.31
326.999	652.31
327.228	935.31
327.457	1399.31
327.686	1613.31
327.914	1080.31
328.143	706.31
328.372	646.31
328.6	591.31
328.829	564.31
329.058	580.31
329.287	584.31
329.515	543.31
329.744	489.31
329.972	484.31
330.201	534.31
330.43	536.31
330.658	600.31
330.887	604.31
331.115	591.31
331.344	490.31
331.572	462.31
331.801	457.31
332.03	432.31
332.258	438.31
332.486	406.31
332.715	414.31
332.943	419.31
333.172	404.31
333.4	423.31
333.629	444.31
333.857	434.31
334.085	452.31
334.314	456.31
334.542	502.31
334.771	522.31
334.999	456.31
335.227	432.31
335.455	424.31
335.684	394.31
335.912	401.31
336.14	396.31
336.369	412.31
336.597	414.31
336.825	418.31
337.053	406.31
337.281	411.31
337.51	373.31
337.738	395.31
337.966	390.31
338.194	406.31
338.422	406.31
338.65	385.31
338.878	384.31
339.106	382.31
339.334	374.31
339.562	380.31
339.79	395.31
340.018	393.31
340.246	380.31
340.474	398.31
340.702	386.31
340.93	388.31
341.158	388.31
341.386	364.31
341.614	382.31
341.842	388.31
342.07	396.31
342.298	376.31
342.526	366.31
342.754	378.31
342.981	364.31
343.209	367.31
343.437	383.31
343.665	384.31
343.893	368.31
344.12	381.31
344.348	380.31
344.576	407.31
344.804	389.31
345.031	390.31
345.259	421.31
345.487	397.31
345.714	387.31
345.942	370.31
346.17	370.31
346.397	382.31
346.625	381.31
346.853	386.31
347.08	396.31
347.308	379.31
347.535	387.31
347.763	394.31
347.99	379.31
348.218	392.31
348.445	404.31
348.673	402.31
348.9	390.31
349.128	379.31
349.355	368.31
349.583	351.31
349.81	366.31
350.037	370.31
350.265	366.31
350.492	358.31
350.72	356.31
350.947	375.31
351.174	374.31
351.402	401.31
351.629	360.31
351.856	389.31
352.083	390.31
352.311	406.31
352.538	389.31
352.765	402.31
352.992	402.31
353.22	399.31
353.447	376.31
353.674	372.31
353.901	378.31
354.128	352.31
354.355	365.31
354.583	363.31
354.81	338.31
355.037	348.31
355.264	342.31
355.491	350.31
355.718	343.31
355.945	358.31
356.172	324.31
356.399	335.31
356.626	328.31
356.853	332.31
357.08	343.31
357.307	335.31
357.534	343.31
357.761	346.31
357.988	343.31
358.215	365.31
358.441	328.31
358.668	341.31
358.895	370.31
359.122	337.31
359.349	350.31
359.576	382.31
359.802	414.31
360.029	454.31
360.256	450.31
360.483	431.31
360.709	384.31
360.936	363.31
361.163	372.31
361.39	360.31
361.616	365.31
361.843	357.31
362.07	375.31
362.296	392.31
362.523	382.31
362.749	378.31
362.976	346.31
363.203	361.31
363.429	340.31
363.656	368.31
363.882	361.31
364.109	347.31
364.335	336.31
364.562	356.31
364.788	358.31
365.015	333.31
365.241	363.31
365.468	367.31
365.694	358.31
365.92	376.31
366.147	381.31
366.373	365.31
366.599	354.31
366.826	352.31
367.052	351.31
367.278	352.31
367.505	348.31
367.731	357.31
367.957	336.31
368.184	350.31
368.41	350.31
368.636	355.31
368.862	370.31
369.089	350.31
369.315	356.31
369.541	359.31
369.767	370.31
369.993	346.31
370.219	354.31
370.445	355.31
370.672	348.31
370.898	328.31
371.124	354.31
371.35	355.31
371.576	347.31
371.802	324.31
372.028	360.31
372.254	344.31
372.48	336.31
372.706	352.31
372.932	347.31
373.158	339.31
373.384	343.31
373.61	350.31
373.835	360.31
374.061	352.31
374.287	365.31
374.513	351.31
374.739	330.31
374.965	337.31
375.191	337.31
375.416	360.31
375.642	361.31
375.868	349.31
376.094	345.31
376.319	360.31
376.545	345.31
376.771	360.31
376.997	362.31
377.222	347.31
377.448	350.31
377.674	341.31
377.899	350.31
378.125	344.31
378.35	348.31
378.576	338.31
378.802	330.31
379.027	313.31
379.253	327.31
379.478	362.31
379.704	334.31
379.929	337.31
380.155	365.31
380.38	344.31
380.606	332.31
380.831	365.31
381.057	363.31
381.282	323.31
381.507	324.31
381.733	342.31
381.958	342.31
382.184	344.31
382.409	347.31
382.634	348.31
382.86	362.31
383.085	375.31
383.31	358.31
383.535	372.31
383.761	338.31
383.986	370.31
384.211	352.31
384.436	355.31
384.662	363.31
384.887	371.31
385.112	370.31
385.337	379.31
385.562	355.31
385.787	370.31
386.013	391.31
386.238	382.31
386.463	354.31
386.688	367.31
386.913	370.31
387.138	344.31
387.363	374.31
387.588	361.31
387.813	370.31
388.038	370.31
388.263	355.31
388.488	378.31
388.713	362.31
388.938	372.31
389.163	361.31
389.387	368.31
389.612	361.31
389.837	372.31
390.062	372.31
390.287	363.31
390.512	375.31
390.736	360.31
390.961	384.31
391.186	364.31
391.411	371.31
391.636	366.31
391.86	390.31
392.085	376.31
392.31	374.31
392.534	370.31
392.759	375.31
392.984	371.31
393.208	371.31
393.433	372.31
393.658	376.31
393.882	361.31
394.107	374.31
394.331	365.31
394.556	372.31
394.78	364.31
395.005	372.31
395.229	372.31
395.454	366.31
395.678	382.31
395.903	382.31
396.127	391.31
396.352	401.31
396.576	379.31
396.801	374.31
397.025	382.31
397.249	377.31
397.474	411.31
397.698	404.31
397.922	412.31
398.147	424.31
398.371	423.31
398.595	415.31
398.82	413.31
399.044	406.31
399.268	415.31
399.492	441.31
399.717	463.31
399.941	474.31
400.165	494.31
400.389	495.31
400.613	463.31
400.837	431.31
401.062	435.31
401.286	437.31
401.51	414.31
401.734	405.31
401.958	426.31
402.182	428.31
402.406	430.31
402.63	460.31
402.854	436.31
403.078	429.31
403.302	428.31
403.526	431.31
403.75	414.31
403.974	450.31
404.198	439.31
404.422	437.31
404.645	440.31
404.869	452.31
405.093	485.31
405.317	504.31
405.541	532.31
405.765	487.31
405.988	463.31
406.212	459.31
406.436	478.31
406.66	503.31
406.883	498.31
407.107	488.31
407.331	524.31
407.555	578.31
407.778	567.31
408.002	532.31
408.226	510.31
408.449	487.31
408.673	480.31
408.896	492.31
409.12	532.31
409.344	512.31
409.567	435.31
409.791	443.31
410.014	437.31
410.238	434.31
410.461	425.31
410.685	462.31
410.908	461.31
411.132	491.31
411.355	515.31
411.578	514.31
411.802	460.31
412.025	450.31
412.249	439.31
412.472	453.31
412.695	497.31
412.919	478.31
413.142	452.31
413.365	440.31
413.589	428.31
413.812	438.31
414.035	412.31
414.258	423.31
414.482	411.31
414.705	413.31
414.928	422.31
415.151	400.31
415.374	409.31
415.597	428.31
415.821	416.31
416.044	396.31
416.267	412.31
416.49	412.31
416.713	404.31
416.936	414.31
417.159	398.31
417.382	417.31
417.605	413.31
417.828	436.31
418.051	441.31
418.274	447.31
418.497	399.31
418.72	396.31
418.943	412.31
419.166	415.31
419.389	462.31
419.611	438.31
419.834	428.31
420.057	422.31
420.28	413.31
420.503	438.31
420.726	451.31
420.948	446.31
421.171	490.31
421.394	496.31
421.617	456.31
421.839	425.31
422.062	441.31
422.285	453.31
422.507	529.31
422.73	566.31
422.953	511.31
423.175	471.31
423.398	468.31
423.621	450.31
423.843	470.31
424.066	468.31
424.288	468.31
424.511	485.31
424.733	520.31
424.956	581.31
425.178	581.31
425.401	575.31
425.623	577.31
425.846	493.31
426.068	481.31
426.291	476.31
426.513	490.31
426.735	488.31
426.958	487.31
427.18	596.31
427.402	720.31
427.625	767.31
427.847	696.31
428.069	580.31
428.292	530.31
428.514	473.31
428.736	464.31
428.958	454.31
429.181	462.31
429.403	441.31
429.625	453.31
429.847	491.31
430.069	534.31
430.292	544.31
430.514	450.31
430.736	444.31
430.958	403.31
431.18	423.31
431.402	441.31
431.624	431.31
431.846	394.31
432.068	404.31
432.29	437.31
432.512	424.31
432.734	417.31
432.956	395.31
433.178	427.31
433.4	436.31
433.622	428.31
433.844	416.31
434.066	420.31
434.287	422.31
434.509	429.31
434.731	418.31
434.953	408.31
435.175	421.31
435.397	466.31
435.618	476.31
435.84	520.31
436.062	617.31
436.284	658.31
436.505	546.31
436.727	498.31
436.949	461.31
437.17	448.31
437.392	455.31
437.614	452.31
437.835	479.31
438.057	610.31
438.278	682.31
438.5	650.31
438.721	702.31
438.943	651.31
439.165	545.31
439.386	495.31
439.608	516.31
439.829	498.31
440.05	538.31
440.272	557.31
440.493	536.31
440.715	489.31
440.936	462.31
441.158	464.31
441.379	450.31
441.6	459.31
441.822	460.31
442.043	527.31
442.264	597.31
442.486	622.31
442.707	552.31
442.928	509.31
443.149	505.31
443.371	513.31
443.592	561.31
443.813	641.31
444.034	678.31
444.255	575.31
444.476	485.31
444.698	481.31
444.919	469.31
445.14	556.31
445.361	530.31
445.582	517.31
445.803	595.31
446.024	665.31
446.245	668.31
446.466	621.31
446.687	526.31
446.908	478.31
447.129	456.31
447.35	438.31
447.571	451.31
447.792	443.31
448.013	452.31
448.234	477.31
448.455	522.31
448.675	624.31
448.896	710.31
449.117	606.31
449.338	584.31
449.559	672.31
449.779	731.31
450	598.31
450.221	496.31
450.442	467.31
450.662	468.31
450.883	480.31
451.104	475.31
451.324	465.31
451.545	442.31
451.766	415.31
451.986	416.31
452.207	396.31
452.428	392.31
452.648	399.31
452.869	404.31
453.089	428.31
453.31	447.31
453.53	396.31
453.751	404.31
453.971	406.31
454.192	413.31
454.412	427.31
454.633	415.31
454.853	407.31
455.073	412.31
455.294	439.31
455.514	486.31
455.734	489.31
455.955	400.31
456.175	374.31
456.395	358.31
456.616	366.31
456.836	380.31
457.056	395.31
457.276	365.31
457.497	388.31
457.717	361.31
457.937	366.31
458.157	396.31
458.377	384.31
458.598	415.31
458.818	482.31
459.038	566.31
459.258	568.31
459.478	460.31
459.698	418.31
459.918	400.31
460.138	405.31
460.358	417.31
460.578	419.31
460.798	422.31
461.018	421.31
461.238	408.31
461.458	431.31
461.678	391.31
461.898	413.31
462.118	426.31
462.338	437.31
462.558	426.31
462.777	438.31
462.997	410.31
463.217	440.31
463.437	439.31
463.657	435.31
463.876	403.31
464.096	427.31
464.316	432.31
464.536	453.31
464.755	440.31
464.975	462.31
465.195	516.31
465.414	574.31
465.634	504.31
465.854	452.31
466.073	426.31
466.293	418.31
466.512	427.31
466.732	404.31
466.951	403.31
467.171	417.31
467.391	398.31
467.61	422.31
467.829	436.31
468.049	434.31
468.268	437.31
468.488	399.31
468.707	395.31
468.927	387.31
469.146	391.31
469.365	413.31
469.585	412.31
469.804	401.31
470.023	416.31
470.243	414.31
470.462	426.31
470.681	439.31
470.901	442.31
471.12	418.31
471.339	410.31
471.558	407.31
471.777	414.31
471.997	423.31
472.216	424.31
472.435	482.31
472.654	458.31
472.873	429.31
473.092	407.31
473.311	413.31
473.53	420.31
473.749	412.31
473.968	445.31
474.187	568.31
474.406	574.31
474.625	475.31
474.844	430.31
475.063	410.31
475.282	419.31
475.501	406.31
475.72	428.31
475.939	425.31
476.158	424.31
476.377	410.31
476.596	426.31
476.814	424.31
477.033	463.31
477.252	444.31
477.471	439.31
477.69	459.31
477.908	432.31
478.127	453.31
478.346	444.31
478.564	461.31
478.783	448.31
479.002	448.31
479.22	455.31
479.439	473.31
479.658	484.31
479.876	509.31
480.095	498.31
480.313	541.31
480.532	507.31
480.751	497.31
480.969	501.31
481.188	602.31
481.406	648.31
481.624	559.31
481.843	514.31
482.061	500.31
482.28	485.31
482.498	498.31
482.717	503.31
482.935	471.31
483.153	475.31
483.372	483.31
483.59	485.31
483.808	477.31
484.027	490.31
484.245	491.31
484.463	480.31
484.681	509.31
484.9	488.31
485.118	507.31
485.336	487.31
485.554	493.31
485.772	500.31
485.99	512.31
486.209	498.31
486.427	518.31
486.645	524.31
486.863	536.31
487.081	524.31
487.299	492.31
487.517	512.31
487.735	514.31
487.953	520.31
488.171	526.31
488.389	539.31
488.607	532.31
488.825	526.31
489.043	542.31
489.261	511.31
489.479	532.31
489.696	560.31
489.914	554.31
490.132	559.31
490.35	555.31
490.568	578.31
490.786	556.31
491.003	576.31
491.221	580.31
491.439	599.31
491.657	595.31
491.874	592.31
492.092	590.31
492.31	622.31
492.527	612.31
492.745	618.31
492.963	619.31
493.18	600.31
493.398	607.31
493.615	612.31
493.833	614.31
494.05	632.31
494.268	624.31
494.485	607.31
494.703	629.31
494.92	642.31
495.138	599.31
495.355	621.31
495.573	639.31
495.79	621.31
496.008	615.31
496.225	627.31
496.442	619.31
496.66	644.31
496.877	632.31
497.094	625.31
497.312	621.31
497.529	658.31
497.746	640.31
497.963	623.31
498.181	677.31
498.398	695.31
498.615	680.31
498.832	676.31
499.049	708.31
499.267	693.31
499.484	712.31
499.701	725.31
499.918	735.31
500.135	777.31
500.352	762.31
500.569	763.31
500.786	798.31
501.003	798.31
501.22	770.31
501.437	744.31
501.654	738.31
501.871	751.31
