Data from 1965.PennyLincolnUp.Lamp.En5.5.200Scan.071719.P1._HRD10591_14-08-57-911.txt Node
Date: Thu Jul 18 14:08:57 EDT 2019
User: cochatt
Spectrometer: HR+D1059
Trigger mode: 1
Integration Time (sec): 1.000000E-1
Scans to average: 1
Electric dark correction enabled: true
Nonlinearity correction enabled: false
Boxcar width: 0
XAxis mode: Wavelengths
Number of Pixels in Spectrum: 2048
>>>>>Begin Spectral Data<<<<<
223.165	-8.5
223.4	-8.5
223.635	-8.5
223.869	-17.5
224.104	-20.5
224.338	-16.5
224.573	-20.5
224.808	-12.5
225.042	-11.5
225.277	-20.5
225.511	1.5
225.746	13.5
225.98	22.5
226.215	17.5
226.449	12.5
226.683	21.5
226.918	15.5
227.152	23.5
227.387	18.5
227.621	37.5
227.856	39.5
228.09	53.5
228.324	45.5
228.559	52.5
228.793	53.5
229.027	80.5
229.262	91.5
229.496	111.5
229.73	119.5
229.964	140.5
230.199	109.5
230.433	106.5
230.667	118.5
230.901	135.5
231.136	116.5
231.37	109.5
231.604	99.5
231.838	97.5
232.072	103.5
232.306	110.5
232.541	114.5
232.775	115.5
233.009	108.5
233.243	115.5
233.477	107.5
233.711	102.5
233.945	99.5
234.179	114.5
234.413	124.5
234.647	116.5
234.881	116.5
235.115	103.5
235.349	104.5
235.583	99.5
235.817	98.5
236.051	122.5
236.285	108.5
236.519	123.5
236.753	105.5
236.987	135.5
237.221	184.5
237.455	201.5
237.689	185.5
237.922	133.5
238.156	125.5
238.39	122.5
238.624	129.5
238.858	122.5
239.091	115.5
239.325	106.5
239.559	121.5
239.793	119.5
240.027	124.5
240.26	128.5
240.494	131.5
240.728	139.5
240.961	138.5
241.195	143.5
241.429	118.5
241.662	114.5
241.896	119.5
242.13	130.5
242.363	127.5
242.597	121.5
242.83	122.5
243.064	129.5
243.298	125.5
243.531	126.5
243.765	121.5
243.998	126.5
244.232	124.5
244.465	142.5
244.699	128.5
244.932	126.5
245.166	129.5
245.399	124.5
245.633	141.5
245.866	137.5
246.099	133.5
246.333	138.5
246.566	126.5
246.8	135.5
247.033	144.5
247.266	159.5
247.5	147.5
247.733	140.5
247.966	164.5
248.2	169.5
248.433	143.5
248.666	157.5
248.899	157.5
249.133	172.5
249.366	186.5
249.599	170.5
249.832	146.5
250.066	161.5
250.299	170.5
250.532	163.5
250.765	181.5
250.998	203.5
251.231	229.5
251.465	188.5
251.698	185.5
251.931	156.5
252.164	181.5
252.397	174.5
252.63	167.5
252.863	190.5
253.096	194.5
253.329	217.5
253.562	205.5
253.795	197.5
254.028	187.5
254.261	188.5
254.494	205.5
254.727	222.5
254.96	252.5
255.193	243.5
255.426	243.5
255.659	212.5
255.892	208.5
256.124	195.5
256.357	211.5
256.59	198.5
256.823	194.5
257.056	183.5
257.289	185.5
257.521	177.5
257.754	168.5
257.987	181.5
258.22	164.5
258.452	181.5
258.685	173.5
258.918	195.5
259.151	180.5
259.383	187.5
259.616	187.5
259.849	192.5
260.081	207.5
260.314	222.5
260.547	222.5
260.779	219.5
261.012	196.5
261.244	211.5
261.477	189.5
261.71	191.5
261.942	220.5
262.175	222.5
262.407	206.5
262.64	202.5
262.872	191.5
263.105	195.5
263.337	198.5
263.57	185.5
263.802	192.5
264.035	183.5
264.267	190.5
264.499	190.5
264.732	194.5
264.964	188.5
265.197	194.5
265.429	192.5
265.661	181.5
265.894	187.5
266.126	169.5
266.358	191.5
266.591	185.5
266.823	204.5
267.055	205.5
267.287	195.5
267.52	195.5
267.752	199.5
267.984	199.5
268.216	198.5
268.448	202.5
268.681	215.5
268.913	231.5
269.145	220.5
269.377	252.5
269.609	232.5
269.841	246.5
270.073	231.5
270.306	246.5
270.538	279.5
270.77	281.5
271.002	259.5
271.234	251.5
271.466	254.5
271.698	274.5
271.93	272.5
272.162	245.5
272.394	285.5
272.626	280.5
272.858	244.5
273.09	257.5
273.322	235.5
273.553	241.5
273.785	246.5
274.017	237.5
274.249	236.5
274.481	241.5
274.713	231.5
274.945	234.5
275.176	249.5
275.408	235.5
275.64	227.5
275.872	202.5
276.104	241.5
276.335	230.5
276.567	236.5
276.799	225.5
277.031	266.5
277.262	289.5
277.494	277.5
277.726	268.5
277.957	262.5
278.189	264.5
278.421	251.5
278.652	241.5
278.884	240.5
279.115	222.5
279.347	244.5
279.579	223.5
279.81	247.5
280.042	228.5
280.273	230.5
280.505	225.5
280.736	232.5
280.968	235.5
281.199	215.5
281.431	217.5
281.662	230.5
281.894	222.5
282.125	217.5
282.356	247.5
282.588	259.5
282.819	270.5
283.051	248.5
283.282	236.5
283.513	252.5
283.745	251.5
283.976	216.5
284.207	255.5
284.439	246.5
284.67	237.5
284.901	241.5
285.132	236.5
285.364	230.5
285.595	237.5
285.826	224.5
286.057	260.5
286.288	238.5
286.52	245.5
286.751	225.5
286.982	252.5
287.213	234.5
287.444	230.5
287.675	259.5
287.906	265.5
288.138	257.5
288.369	283.5
288.6	263.5
288.831	241.5
289.062	251.5
289.293	246.5
289.524	246.5
289.755	250.5
289.986	244.5
290.217	255.5
290.448	250.5
290.679	248.5
290.91	257.5
291.141	238.5
291.371	229.5
291.602	264.5
291.833	252.5
292.064	226.5
292.295	257.5
292.526	252.5
292.757	246.5
292.987	230.5
293.218	257.5
293.449	250.5
293.68	259.5
293.91	255.5
294.141	244.5
294.372	249.5
294.603	262.5
294.833	239.5
295.064	243.5
295.295	250.5
295.525	259.5
295.756	249.5
295.987	252.5
296.217	286.5
296.448	284.5
296.679	271.5
296.909	259.5
297.14	244.5
297.37	276.5
297.601	256.5
297.831	267.5
298.062	279.5
298.292	255.5
298.523	241.5
298.753	243.5
298.984	245.5
299.214	246.5
299.445	268.5
299.675	270.5
299.905	274.5
300.136	281.5
300.366	261.5
300.597	270.5
300.827	263.5
301.057	278.5
301.288	299.5
301.518	283.5
301.748	282.5
301.979	279.5
302.209	269.5
302.439	279.5
302.669	266.5
302.9	279.5
303.13	278.5
303.36	272.5
303.59	283.5
303.82	286.5
304.051	304.5
304.281	285.5
304.511	272.5
304.741	276.5
304.971	261.5
305.201	289.5
305.431	271.5
305.661	295.5
305.891	288.5
306.121	281.5
306.352	271.5
306.582	291.5
306.812	278.5
307.042	275.5
307.272	270.5
307.502	290.5
307.731	291.5
307.961	267.5
308.191	300.5
308.421	299.5
308.651	283.5
308.881	292.5
309.111	285.5
309.341	296.5
309.571	300.5
309.8	309.5
310.03	323.5
310.26	333.5
310.49	317.5
310.72	334.5
310.949	342.5
311.179	357.5
311.409	345.5
311.639	328.5
311.868	326.5
312.098	329.5
312.328	349.5
312.557	353.5
312.787	359.5
313.017	351.5
313.246	334.5
313.476	328.5
313.706	338.5
313.935	337.5
314.165	342.5
314.394	349.5
314.624	330.5
314.853	330.5
315.083	336.5
315.312	344.5
315.542	314.5
315.771	329.5
316.001	318.5
316.23	313.5
316.46	322.5
316.689	316.5
316.919	319.5
317.148	331.5
317.377	340.5
317.607	334.5
317.836	317.5
318.065	332.5
318.295	335.5
318.524	299.5
318.753	323.5
318.983	334.5
319.212	339.5
319.441	340.5
319.67	328.5
319.9	325.5
320.129	323.5
320.358	323.5
320.587	327.5
320.816	350.5
321.046	371.5
321.275	374.5
321.504	364.5
321.733	360.5
321.962	360.5
322.191	363.5
322.42	375.5
322.649	391.5
322.878	394.5
323.108	420.5
323.337	445.5
323.566	481.5
323.795	470.5
324.024	547.5
324.253	677.5
324.482	974.5
324.71	1490.5
324.939	2069.5
325.168	1650.5
325.397	885.5
325.626	595.5
325.855	498.5
326.084	468.5
326.313	460.5
326.542	460.5
326.77	532.5
326.999	630.5
327.228	851.5
327.457	1286.5
327.686	1496.5
327.914	997.5
328.143	685.5
328.372	601.5
328.6	542.5
328.829	525.5
329.058	515.5
329.287	534.5
329.515	509.5
329.744	430.5
329.972	459.5
330.201	493.5
330.43	529.5
330.658	542.5
330.887	573.5
331.115	533.5
331.344	473.5
331.572	439.5
331.801	440.5
332.03	438.5
332.258	381.5
332.486	401.5
332.715	388.5
332.943	385.5
333.172	389.5
333.4	408.5
333.629	414.5
333.857	410.5
334.085	430.5
334.314	445.5
334.542	482.5
334.771	486.5
334.999	423.5
335.227	420.5
335.455	399.5
335.684	391.5
335.912	374.5
336.14	379.5
336.369	372.5
336.597	379.5
336.825	384.5
337.053	385.5
337.281	367.5
337.51	379.5
337.738	371.5
337.966	385.5
338.194	389.5
338.422	384.5
338.65	380.5
338.878	378.5
339.106	370.5
339.334	365.5
339.562	382.5
339.79	368.5
340.018	360.5
340.246	373.5
340.474	355.5
340.702	380.5
340.93	376.5
341.158	370.5
341.386	359.5
341.614	370.5
341.842	385.5
342.07	389.5
342.298	357.5
342.526	362.5
342.754	350.5
342.981	340.5
343.209	349.5
343.437	355.5
343.665	356.5
343.893	344.5
344.12	372.5
344.348	374.5
344.576	347.5
344.804	371.5
345.031	373.5
345.259	393.5
345.487	388.5
345.714	373.5
345.942	369.5
346.17	359.5
346.397	353.5
346.625	361.5
346.853	371.5
347.08	351.5
347.308	370.5
347.535	384.5
347.763	393.5
347.99	397.5
348.218	390.5
348.445	382.5
348.673	379.5
348.9	351.5
349.128	351.5
349.355	342.5
349.583	348.5
349.81	357.5
350.037	343.5
350.265	353.5
350.492	346.5
350.72	357.5
350.947	333.5
351.174	360.5
351.402	382.5
351.629	350.5
351.856	356.5
352.083	383.5
352.311	385.5
352.538	404.5
352.765	369.5
352.992	350.5
353.22	363.5
353.447	366.5
353.674	364.5
353.901	362.5
354.128	342.5
354.355	345.5
354.583	333.5
354.81	350.5
355.037	355.5
355.264	339.5
355.491	323.5
355.718	309.5
355.945	338.5
356.172	331.5
356.399	326.5
356.626	323.5
356.853	310.5
357.08	323.5
357.307	339.5
357.534	325.5
357.761	339.5
357.988	332.5
358.215	316.5
358.441	329.5
358.668	341.5
358.895	338.5
359.122	344.5
359.349	356.5
359.576	355.5
359.802	383.5
360.029	407.5
360.256	436.5
360.483	397.5
360.709	371.5
360.936	382.5
361.163	359.5
361.39	363.5
361.616	355.5
361.843	371.5
362.07	360.5
362.296	359.5
362.523	355.5
362.749	372.5
362.976	381.5
363.203	360.5
363.429	346.5
363.656	343.5
363.882	358.5
364.109	342.5
364.335	338.5
364.562	351.5
364.788	334.5
365.015	338.5
365.241	339.5
365.468	350.5
365.694	343.5
365.92	346.5
366.147	346.5
366.373	362.5
366.599	335.5
366.826	326.5
367.052	348.5
367.278	349.5
367.505	323.5
367.731	357.5
367.957	341.5
368.184	349.5
368.41	350.5
368.636	335.5
368.862	345.5
369.089	350.5
369.315	345.5
369.541	342.5
369.767	347.5
369.993	338.5
370.219	347.5
370.445	360.5
370.672	335.5
370.898	335.5
371.124	339.5
371.35	344.5
371.576	327.5
371.802	337.5
372.028	341.5
372.254	333.5
372.48	322.5
372.706	337.5
372.932	341.5
373.158	334.5
373.384	347.5
373.61	325.5
373.835	349.5
374.061	333.5
374.287	336.5
374.513	355.5
374.739	337.5
374.965	321.5
375.191	350.5
375.416	318.5
375.642	339.5
375.868	324.5
376.094	335.5
376.319	340.5
376.545	335.5
376.771	330.5
376.997	324.5
377.222	334.5
377.448	324.5
377.674	323.5
377.899	326.5
378.125	309.5
378.35	338.5
378.576	333.5
378.802	337.5
379.027	327.5
379.253	327.5
379.478	343.5
379.704	341.5
379.929	341.5
380.155	332.5
380.38	309.5
380.606	326.5
380.831	335.5
381.057	332.5
381.282	334.5
381.507	326.5
381.733	351.5
381.958	335.5
382.184	347.5
382.409	348.5
382.634	358.5
382.86	340.5
383.085	334.5
383.31	362.5
383.535	330.5
383.761	312.5
383.986	349.5
384.211	339.5
384.436	355.5
384.662	359.5
384.887	329.5
385.112	349.5
385.337	341.5
385.562	355.5
385.787	335.5
386.013	350.5
386.238	363.5
386.463	371.5
386.688	363.5
386.913	358.5
387.138	353.5
387.363	347.5
387.588	346.5
387.813	361.5
388.038	353.5
388.263	367.5
388.488	349.5
388.713	359.5
388.938	368.5
389.163	363.5
389.387	353.5
389.612	358.5
389.837	362.5
390.062	353.5
390.287	360.5
390.512	351.5
390.736	349.5
390.961	347.5
391.186	347.5
391.411	369.5
391.636	385.5
391.86	364.5
392.085	355.5
392.31	349.5
392.534	347.5
392.759	359.5
392.984	365.5
393.208	365.5
393.433	358.5
393.658	371.5
393.882	346.5
394.107	361.5
394.331	376.5
394.556	366.5
394.78	355.5
395.005	357.5
395.229	347.5
395.454	355.5
395.678	364.5
395.903	376.5
396.127	377.5
396.352	397.5
396.576	381.5
396.801	359.5
397.025	366.5
397.249	356.5
397.474	374.5
397.698	372.5
397.922	399.5
398.147	399.5
398.371	417.5
398.595	391.5
398.82	407.5
399.044	435.5
399.268	402.5
399.492	438.5
399.717	455.5
399.941	463.5
400.165	486.5
400.389	502.5
400.613	483.5
400.837	413.5
401.062	425.5
401.286	424.5
401.51	402.5
401.734	422.5
401.958	394.5
402.182	412.5
402.406	409.5
402.63	412.5
402.854	415.5
403.078	434.5
403.302	413.5
403.526	412.5
403.75	434.5
403.974	419.5
404.198	411.5
404.422	419.5
404.645	421.5
404.869	439.5
405.093	461.5
405.317	483.5
405.541	503.5
405.765	475.5
405.988	450.5
406.212	454.5
406.436	465.5
406.66	488.5
406.883	483.5
407.107	470.5
407.331	504.5
407.555	577.5
407.778	558.5
408.002	487.5
408.226	464.5
408.449	466.5
408.673	492.5
408.896	492.5
409.12	519.5
409.344	477.5
409.567	440.5
409.791	440.5
410.014	436.5
410.238	420.5
410.461	421.5
410.685	420.5
410.908	443.5
411.132	475.5
411.355	487.5
411.578	454.5
411.802	451.5
412.025	421.5
412.249	443.5
412.472	460.5
412.695	485.5
412.919	455.5
413.142	432.5
413.365	423.5
413.589	411.5
413.812	406.5
414.035	400.5
414.258	405.5
414.482	395.5
414.705	388.5
414.928	382.5
415.151	405.5
415.374	383.5
415.597	403.5
415.821	398.5
416.044	380.5
416.267	392.5
416.49	419.5
416.713	385.5
416.936	398.5
417.159	386.5
417.382	408.5
417.605	406.5
417.828	416.5
418.051	411.5
418.274	418.5
418.497	398.5
418.72	424.5
418.943	414.5
419.166	403.5
419.389	431.5
419.611	412.5
419.834	441.5
420.057	427.5
420.28	411.5
420.503	418.5
420.726	427.5
420.948	419.5
421.171	484.5
421.394	498.5
421.617	435.5
421.839	423.5
422.062	414.5
422.285	434.5
422.507	486.5
422.73	555.5
422.953	505.5
423.175	461.5
423.398	430.5
423.621	425.5
423.843	438.5
424.066	441.5
424.288	471.5
424.511	466.5
424.733	495.5
424.956	587.5
425.178	556.5
425.401	537.5
425.623	580.5
425.846	486.5
426.068	454.5
426.291	451.5
426.513	457.5
426.735	467.5
426.958	482.5
427.18	566.5
427.402	665.5
427.625	733.5
427.847	655.5
428.069	574.5
428.292	513.5
428.514	478.5
428.736	457.5
428.958	449.5
429.181	423.5
429.403	429.5
429.625	439.5
429.847	468.5
430.069	505.5
430.292	502.5
430.514	431.5
430.736	422.5
430.958	405.5
431.18	413.5
431.402	411.5
431.624	392.5
431.846	383.5
432.068	406.5
432.29	409.5
432.512	421.5
432.734	410.5
432.956	409.5
433.178	415.5
433.4	417.5
433.622	405.5
433.844	417.5
434.066	403.5
434.287	403.5
434.509	408.5
434.731	421.5
434.953	419.5
435.175	437.5
435.397	459.5
435.618	461.5
435.84	497.5
436.062	589.5
436.284	601.5
436.505	517.5
436.727	457.5
436.949	428.5
437.17	419.5
437.392	419.5
437.614	445.5
437.835	485.5
438.057	567.5
438.278	648.5
438.5	616.5
438.721	677.5
438.943	646.5
439.165	524.5
439.386	453.5
439.608	461.5
439.829	466.5
440.05	493.5
440.272	522.5
440.493	489.5
440.715	484.5
440.936	445.5
441.158	435.5
441.379	421.5
441.6	446.5
441.822	467.5
442.043	494.5
442.264	574.5
442.486	607.5
442.707	514.5
442.928	498.5
443.149	489.5
443.371	501.5
443.592	543.5
443.813	619.5
444.034	642.5
444.255	553.5
444.476	495.5
444.698	454.5
444.919	462.5
445.14	565.5
445.361	512.5
445.582	517.5
445.803	561.5
446.024	644.5
446.245	637.5
446.466	598.5
446.687	509.5
446.908	450.5
447.129	439.5
447.35	452.5
447.571	422.5
447.792	427.5
448.013	437.5
448.234	460.5
448.455	486.5
448.675	589.5
448.896	667.5
449.117	567.5
449.338	547.5
449.559	641.5
449.779	679.5
450	591.5
450.221	475.5
450.442	441.5
450.662	419.5
450.883	458.5
451.104	441.5
451.324	434.5
451.545	397.5
451.766	418.5
451.986	390.5
452.207	367.5
452.428	406.5
452.648	384.5
452.869	399.5
453.089	404.5
453.31	419.5
453.53	393.5
453.751	411.5
453.971	403.5
454.192	422.5
454.412	390.5
454.633	391.5
454.853	397.5
455.073	396.5
455.294	407.5
455.514	460.5
455.734	461.5
455.955	389.5
456.175	386.5
456.395	367.5
456.616	375.5
456.836	380.5
457.056	366.5
457.276	357.5
457.497	362.5
457.717	377.5
457.937	371.5
458.157	373.5
458.377	375.5
458.598	377.5
458.818	448.5
459.038	561.5
459.258	543.5
459.478	473.5
459.698	419.5
459.918	407.5
460.138	414.5
460.358	408.5
460.578	400.5
460.798	407.5
461.018	421.5
461.238	398.5
461.458	404.5
461.678	413.5
461.898	389.5
462.118	411.5
462.338	400.5
462.558	413.5
462.777	414.5
462.997	421.5
463.217	443.5
463.437	431.5
463.657	418.5
463.876	445.5
464.096	417.5
464.316	445.5
464.536	431.5
464.755	422.5
464.975	437.5
465.195	513.5
465.414	583.5
465.634	497.5
465.854	433.5
466.073	404.5
466.293	413.5
466.512	409.5
466.732	377.5
466.951	380.5
467.171	400.5
467.391	396.5
467.61	395.5
467.829	422.5
468.049	415.5
468.268	433.5
468.488	396.5
468.707	375.5
468.927	385.5
469.146	372.5
469.365	384.5
469.585	373.5
469.804	398.5
470.023	414.5
470.243	411.5
470.462	405.5
470.681	451.5
470.901	409.5
471.12	421.5
471.339	388.5
471.558	403.5
471.777	399.5
471.997	393.5
472.216	418.5
472.435	445.5
472.654	435.5
472.873	395.5
473.092	414.5
473.311	414.5
473.53	398.5
473.749	409.5
473.968	452.5
474.187	535.5
474.406	565.5
474.625	456.5
474.844	420.5
475.063	380.5
475.282	414.5
475.501	401.5
475.72	419.5
475.939	414.5
476.158	416.5
476.377	419.5
476.596	425.5
476.814	423.5
477.033	443.5
477.252	433.5
477.471	421.5
477.69	436.5
477.908	441.5
478.127	441.5
478.346	443.5
478.564	462.5
478.783	451.5
479.002	446.5
479.22	443.5
479.439	444.5
479.658	463.5
479.876	483.5
480.095	476.5
480.313	554.5
480.532	492.5
480.751	480.5
480.969	498.5
481.188	564.5
481.406	604.5
481.624	540.5
481.843	502.5
482.061	519.5
482.28	462.5
482.498	450.5
482.717	455.5
482.935	498.5
483.153	476.5
483.372	490.5
483.59	455.5
483.808	475.5
484.027	455.5
484.245	493.5
484.463	476.5
484.681	478.5
484.9	470.5
485.118	481.5
485.336	481.5
485.554	489.5
485.772	494.5
485.99	491.5
486.209	493.5
486.427	492.5
486.645	485.5
486.863	510.5
487.081	512.5
487.299	534.5
487.517	508.5
487.735	526.5
487.953	517.5
488.171	513.5
488.389	500.5
488.607	523.5
488.825	517.5
489.043	505.5
489.261	501.5
489.479	536.5
489.696	524.5
489.914	525.5
490.132	521.5
490.35	522.5
490.568	524.5
490.786	510.5
491.003	560.5
491.221	531.5
491.439	558.5
491.657	561.5
491.874	582.5
492.092	587.5
492.31	569.5
492.527	584.5
492.745	594.5
492.963	593.5
493.18	578.5
493.398	597.5
493.615	582.5
493.833	586.5
494.05	619.5
494.268	592.5
494.485	595.5
494.703	607.5
494.92	583.5
495.138	604.5
495.355	595.5
495.573	605.5
495.79	585.5
496.008	603.5
496.225	616.5
496.442	590.5
496.66	598.5
496.877	604.5
497.094	619.5
497.312	596.5
497.529	601.5
497.746	607.5
497.963	600.5
498.181	648.5
498.398	616.5
498.615	637.5
498.832	655.5
499.049	663.5
499.267	666.5
499.484	673.5
499.701	703.5
499.918	715.5
500.135	719.5
500.352	751.5
500.569	767.5
500.786	793.5
501.003	748.5
501.22	740.5
501.437	732.5
501.654	714.5
501.871	713.5
502.088	702.5
502.305	696.5
502.522	667.5
502.739	641.5
502.956	645.5
503.172	658.5
503.389	635.5
503.606	657.5
503.823	649.5
504.04	629.5
504.256	583.5
504.473	605.5
504.69	590.5
504.907	590.5
505.123	580.5
505.34	568.5
505.557	559.5
505.773	575.5
505.99	571.5
506.207	567.5
506.423	571.5
506.64	582.5
506.856	554.5
507.073	561.5
507.289	559.5
507.506	602.5
507.722	587.5
507.939	579.5
508.155	554.5
508.372	553.5
508.588	547.5
508.805	547.5
509.021	542.5
509.238	571.5
509.454	590.5
509.67	564.5
509.887	538.5
510.103	554.5
510.319	574.5
510.536	666.5
510.752	1199.5
510.968	927.5
511.184	612.5
511.401	561.5
511.617	556.5
511.833	529.5
512.049	549.5
512.265	521.5
512.481	526.5
512.698	527.5
512.914	537.5
513.13	519.5
513.346	533.5
513.562	524.5
513.778	519.5
513.994	571.5
514.21	570.5
514.426	573.5
514.642	639.5
514.858	642.5
515.074	684.5
515.29	839.5
515.506	1298.5
515.721	1056.5
515.937	666.5
516.153	617.5
516.369	596.5
516.585	565.5
516.801	548.5
517.016	565.5
517.232	572.5
517.448	543.5
517.664	556.5
517.879	541.5
518.095	541.5
518.311	548.5
518.527	524.5
518.742	554.5
518.958	543.5
519.173	528.5
519.389	539.5
519.605	535.5
519.82	547.5
