Data from 1965.PennyLincolnUp.Lamp.En5.5.200Scan.071719.P1._HRD10591_14-08-09-910.txt Node
Date: Thu Jul 18 14:08:09 EDT 2019
User: cochatt
Spectrometer: HR+D1059
Trigger mode: 1
Integration Time (sec): 1.000000E-1
Scans to average: 1
Electric dark correction enabled: true
Nonlinearity correction enabled: false
Boxcar width: 0
XAxis mode: Wavelengths
Number of Pixels in Spectrum: 2048
>>>>>Begin Spectral Data<<<<<
223.165	-17.81
223.4	-17.81
223.635	-17.81
223.869	-9.81
224.104	-7.81
224.338	1.19
224.573	-5.81
224.808	-1.81
225.042	-9.81
225.277	11.19
225.511	-16.81
225.746	-4.81
225.98	-4.81
226.215	0.19
226.449	10.19
226.683	17.19
226.918	14.19
227.152	25.19
227.387	42.19
227.621	29.19
227.856	48.19
228.09	46.19
228.324	50.19
228.559	48.19
228.793	63.19
229.027	83.19
229.262	98.19
229.496	110.19
229.73	122.19
229.964	118.19
230.199	119.19
230.433	91.19
230.667	102.19
230.901	103.19
231.136	98.19
231.37	110.19
231.604	105.19
231.838	96.19
232.072	94.19
232.306	91.19
232.541	119.19
232.775	102.19
233.009	101.19
233.243	113.19
233.477	110.19
233.711	106.19
233.945	118.19
234.179	110.19
234.413	105.19
234.647	100.19
234.881	96.19
235.115	114.19
235.349	116.19
235.583	104.19
235.817	110.19
236.051	114.19
236.285	129.19
236.519	120.19
236.753	118.19
236.987	125.19
237.221	152.19
237.455	185.19
237.689	144.19
237.922	130.19
238.156	130.19
238.39	105.19
238.624	108.19
238.858	117.19
239.091	117.19
239.325	120.19
239.559	130.19
239.793	127.19
240.027	127.19
240.26	130.19
240.494	151.19
240.728	134.19
240.961	143.19
241.195	126.19
241.429	113.19
241.662	110.19
241.896	121.19
242.13	122.19
242.363	111.19
242.597	111.19
242.83	136.19
243.064	121.19
243.298	121.19
243.531	114.19
243.765	137.19
243.998	114.19
244.232	128.19
244.465	109.19
244.699	126.19
244.932	130.19
245.166	132.19
245.399	128.19
245.633	136.19
245.866	127.19
246.099	140.19
246.333	122.19
246.566	126.19
246.8	118.19
247.033	146.19
247.266	133.19
247.5	131.19
247.733	136.19
247.966	142.19
248.2	151.19
248.433	140.19
248.666	144.19
248.899	156.19
249.133	174.19
249.366	186.19
249.599	175.19
249.832	158.19
250.066	145.19
250.299	157.19
250.532	172.19
250.765	151.19
250.998	167.19
251.231	184.19
251.465	173.19
251.698	174.19
251.931	172.19
252.164	171.19
252.397	169.19
252.63	165.19
252.863	172.19
253.096	179.19
253.329	188.19
253.562	193.19
253.795	180.19
254.028	170.19
254.261	180.19
254.494	188.19
254.727	214.19
254.96	218.19
255.193	226.19
255.426	214.19
255.659	174.19
255.892	190.19
256.124	193.19
256.357	193.19
256.59	189.19
256.823	165.19
257.056	180.19
257.289	197.19
257.521	170.19
257.754	170.19
257.987	176.19
258.22	181.19
258.452	180.19
258.685	171.19
258.918	164.19
259.151	189.19
259.383	173.19
259.616	176.19
259.849	178.19
260.081	192.19
260.314	212.19
260.547	205.19
260.779	205.19
261.012	185.19
261.244	198.19
261.477	188.19
261.71	177.19
261.942	175.19
262.175	194.19
262.407	182.19
262.64	190.19
262.872	173.19
263.105	173.19
263.337	160.19
263.57	184.19
263.802	177.19
264.035	182.19
264.267	174.19
264.499	185.19
264.732	182.19
264.964	174.19
265.197	166.19
265.429	162.19
265.661	175.19
265.894	172.19
266.126	180.19
266.358	173.19
266.591	180.19
266.823	175.19
267.055	192.19
267.287	203.19
267.52	177.19
267.752	184.19
267.984	192.19
268.216	195.19
268.448	182.19
268.681	202.19
268.913	206.19
269.145	209.19
269.377	242.19
269.609	197.19
269.841	204.19
270.073	206.19
270.306	247.19
270.538	244.19
270.77	233.19
271.002	229.19
271.234	238.19
271.466	244.19
271.698	234.19
271.93	250.19
272.162	258.19
272.394	260.19
272.626	244.19
272.858	238.19
273.09	224.19
273.322	233.19
273.553	205.19
273.785	223.19
274.017	217.19
274.249	205.19
274.481	226.19
274.713	212.19
274.945	224.19
275.176	212.19
275.408	216.19
275.64	203.19
275.872	214.19
276.104	217.19
276.335	209.19
276.567	236.19
276.799	224.19
277.031	236.19
277.262	240.19
277.494	257.19
277.726	233.19
277.957	237.19
278.189	226.19
278.421	228.19
278.652	222.19
278.884	212.19
279.115	228.19
279.347	220.19
279.579	207.19
279.81	220.19
280.042	209.19
280.273	233.19
280.505	216.19
280.736	215.19
280.968	231.19
281.199	233.19
281.431	223.19
281.662	238.19
281.894	212.19
282.125	244.19
282.356	248.19
282.588	242.19
282.819	238.19
283.051	219.19
283.282	212.19
283.513	202.19
283.745	222.19
283.976	225.19
284.207	220.19
284.439	226.19
284.67	233.19
284.901	234.19
285.132	246.19
285.364	216.19
285.595	226.19
285.826	236.19
286.057	224.19
286.288	220.19
286.52	244.19
286.751	218.19
286.982	215.19
287.213	243.19
287.444	229.19
287.675	236.19
287.906	239.19
288.138	220.19
288.369	234.19
288.6	232.19
288.831	228.19
289.062	248.19
289.293	237.19
289.524	231.19
289.755	214.19
289.986	231.19
290.217	221.19
290.448	221.19
290.679	229.19
290.91	233.19
291.141	232.19
291.371	241.19
291.602	222.19
291.833	232.19
292.064	239.19
292.295	238.19
292.526	230.19
292.757	228.19
292.987	231.19
293.218	228.19
293.449	228.19
293.68	231.19
293.91	235.19
294.141	231.19
294.372	246.19
294.603	238.19
294.833	240.19
295.064	233.19
295.295	246.19
295.525	241.19
295.756	233.19
295.987	245.19
296.217	260.19
296.448	276.19
296.679	260.19
296.909	234.19
297.14	233.19
297.37	246.19
297.601	240.19
297.831	254.19
298.062	245.19
298.292	221.19
298.523	266.19
298.753	242.19
298.984	248.19
299.214	261.19
299.445	249.19
299.675	252.19
299.905	272.19
300.136	242.19
300.366	237.19
300.597	248.19
300.827	259.19
301.057	258.19
301.288	257.19
301.518	248.19
301.748	266.19
301.979	260.19
302.209	252.19
302.439	249.19
302.669	248.19
302.9	253.19
303.13	279.19
303.36	268.19
303.59	268.19
303.82	282.19
304.051	264.19
304.281	256.19
304.511	234.19
304.741	279.19
304.971	258.19
305.201	269.19
305.431	269.19
305.661	281.19
305.891	255.19
306.121	271.19
306.352	288.19
306.582	268.19
306.812	265.19
307.042	255.19
307.272	270.19
307.502	253.19
307.731	267.19
307.961	280.19
308.191	278.19
308.421	280.19
308.651	274.19
308.881	270.19
309.111	274.19
309.341	280.19
309.571	301.19
309.8	287.19
310.03	298.19
310.26	309.19
310.49	311.19
310.72	309.19
310.949	318.19
311.179	319.19
311.409	301.19
311.639	316.19
311.868	296.19
312.098	301.19
312.328	312.19
312.557	318.19
312.787	301.19
313.017	322.19
313.246	308.19
313.476	308.19
313.706	321.19
313.935	300.19
314.165	319.19
314.394	336.19
314.624	317.19
314.853	304.19
315.083	326.19
315.312	303.19
315.542	285.19
315.771	297.19
316.001	311.19
316.23	299.19
316.46	312.19
316.689	303.19
316.919	309.19
317.148	316.19
317.377	315.19
317.607	331.19
317.836	296.19
318.065	313.19
318.295	322.19
318.524	294.19
318.753	290.19
318.983	306.19
319.212	303.19
319.441	301.19
319.67	320.19
319.9	316.19
320.129	313.19
320.358	309.19
320.587	321.19
320.816	329.19
321.046	322.19
321.275	334.19
321.504	316.19
321.733	335.19
321.962	332.19
322.191	348.19
322.42	364.19
322.649	348.19
322.878	370.19
323.108	356.19
323.337	397.19
323.566	400.19
323.795	420.19
324.024	464.19
324.253	579.19
324.482	806.19
324.71	1245.19
324.939	1643.19
325.168	1409.19
325.397	775.19
325.626	533.19
325.855	461.19
326.084	414.19
326.313	409.19
326.542	406.19
326.77	448.19
326.999	538.19
327.228	736.19
327.457	1080.19
327.686	1252.19
327.914	851.19
328.143	576.19
328.372	530.19
328.6	467.19
328.829	456.19
329.058	468.19
329.287	475.19
329.515	448.19
329.744	434.19
329.972	423.19
330.201	430.19
330.43	465.19
330.658	488.19
330.887	493.19
331.115	471.19
331.344	422.19
331.572	406.19
331.801	409.19
332.03	412.19
332.258	366.19
332.486	362.19
332.715	351.19
332.943	350.19
333.172	367.19
333.4	366.19
333.629	345.19
333.857	376.19
334.085	378.19
334.314	414.19
334.542	429.19
334.771	423.19
334.999	409.19
335.227	363.19
335.455	378.19
335.684	377.19
335.912	366.19
336.14	350.19
336.369	359.19
336.597	367.19
336.825	364.19
337.053	369.19
337.281	359.19
337.51	341.19
337.738	331.19
337.966	382.19
338.194	344.19
338.422	368.19
338.65	351.19
338.878	358.19
339.106	329.19
339.334	366.19
339.562	345.19
339.79	338.19
340.018	339.19
340.246	352.19
340.474	361.19
340.702	359.19
340.93	341.19
341.158	344.19
341.386	350.19
341.614	357.19
341.842	349.19
342.07	332.19
342.298	345.19
342.526	337.19
342.754	349.19
342.981	331.19
343.209	344.19
343.437	332.19
343.665	346.19
343.893	351.19
344.12	340.19
344.348	355.19
344.576	351.19
344.804	348.19
345.031	384.19
345.259	362.19
345.487	364.19
345.714	356.19
345.942	357.19
346.17	350.19
346.397	329.19
346.625	338.19
346.853	338.19
347.08	334.19
347.308	333.19
347.535	344.19
347.763	342.19
347.99	364.19
348.218	342.19
348.445	333.19
348.673	357.19
348.9	363.19
349.128	328.19
349.355	340.19
349.583	338.19
349.81	330.19
350.037	318.19
350.265	324.19
350.492	315.19
350.72	348.19
350.947	324.19
351.174	328.19
351.402	333.19
351.629	335.19
351.856	321.19
352.083	336.19
352.311	364.19
352.538	366.19
352.765	373.19
352.992	352.19
353.22	340.19
353.447	335.19
353.674	334.19
353.901	311.19
354.128	322.19
354.355	333.19
354.583	320.19
354.81	323.19
355.037	292.19
355.264	320.19
355.491	302.19
355.718	306.19
355.945	315.19
356.172	304.19
356.399	326.19
356.626	328.19
356.853	313.19
357.08	316.19
357.307	305.19
357.534	305.19
357.761	312.19
357.988	318.19
358.215	318.19
358.441	309.19
358.668	336.19
358.895	336.19
359.122	314.19
359.349	324.19
359.576	331.19
359.802	344.19
360.029	362.19
360.256	382.19
360.483	366.19
360.709	334.19
360.936	344.19
361.163	344.19
361.39	361.19
361.616	346.19
361.843	320.19
362.07	337.19
362.296	349.19
362.523	342.19
362.749	337.19
362.976	337.19
363.203	344.19
363.429	307.19
363.656	320.19
363.882	324.19
364.109	317.19
364.335	320.19
364.562	303.19
364.788	313.19
365.015	318.19
365.241	318.19
365.468	334.19
365.694	324.19
365.92	327.19
366.147	303.19
366.373	320.19
366.599	316.19
366.826	323.19
367.052	318.19
367.278	314.19
367.505	333.19
367.731	313.19
367.957	302.19
368.184	330.19
368.41	318.19
368.636	336.19
368.862	344.19
369.089	326.19
369.315	328.19
369.541	302.19
369.767	339.19
369.993	310.19
370.219	319.19
370.445	318.19
370.672	335.19
370.898	325.19
371.124	332.19
371.35	316.19
371.576	316.19
371.802	313.19
372.028	300.19
372.254	327.19
372.48	328.19
372.706	314.19
372.932	318.19
373.158	308.19
373.384	321.19
373.61	312.19
373.835	324.19
374.061	327.19
374.287	317.19
374.513	340.19
374.739	332.19
374.965	349.19
375.191	323.19
375.416	308.19
375.642	325.19
375.868	309.19
376.094	313.19
376.319	318.19
376.545	321.19
376.771	296.19
376.997	323.19
377.222	313.19
377.448	312.19
377.674	317.19
377.899	313.19
378.125	316.19
378.35	323.19
378.576	307.19
378.802	313.19
379.027	308.19
379.253	334.19
379.478	322.19
379.704	306.19
379.929	310.19
380.155	338.19
380.38	310.19
380.606	315.19
380.831	338.19
381.057	302.19
381.282	315.19
381.507	330.19
381.733	321.19
381.958	311.19
382.184	310.19
382.409	335.19
382.634	337.19
382.86	332.19
383.085	335.19
383.31	327.19
383.535	338.19
383.761	339.19
383.986	312.19
384.211	331.19
384.436	337.19
384.662	319.19
384.887	329.19
385.112	324.19
385.337	325.19
385.562	345.19
385.787	329.19
386.013	344.19
386.238	343.19
386.463	343.19
386.688	332.19
386.913	343.19
387.138	332.19
387.363	351.19
387.588	346.19
387.813	323.19
388.038	354.19
388.263	338.19
388.488	356.19
388.713	352.19
388.938	344.19
389.163	346.19
389.387	350.19
389.612	324.19
389.837	349.19
390.062	322.19
390.287	345.19
390.512	357.19
390.736	349.19
390.961	350.19
391.186	351.19
391.411	351.19
391.636	355.19
391.86	348.19
392.085	349.19
392.31	341.19
392.534	343.19
392.759	354.19
392.984	351.19
393.208	349.19
393.433	346.19
393.658	373.19
393.882	352.19
394.107	339.19
394.331	348.19
394.556	355.19
394.78	333.19
395.005	346.19
395.229	357.19
395.454	350.19
395.678	353.19
395.903	337.19
396.127	349.19
396.352	364.19
396.576	356.19
396.801	353.19
397.025	370.19
397.249	370.19
397.474	376.19
397.698	365.19
397.922	378.19
398.147	387.19
398.371	386.19
398.595	390.19
398.82	390.19
399.044	386.19
399.268	390.19
399.492	410.19
399.717	412.19
399.941	458.19
400.165	459.19
400.389	477.19
400.613	426.19
400.837	404.19
401.062	409.19
401.286	401.19
401.51	403.19
401.734	384.19
401.958	374.19
402.182	412.19
402.406	399.19
402.63	390.19
402.854	401.19
403.078	387.19
403.302	380.19
403.526	395.19
403.75	402.19
403.974	396.19
404.198	394.19
404.422	412.19
404.645	395.19
404.869	392.19
405.093	412.19
405.317	477.19
405.541	479.19
405.765	445.19
405.988	415.19
406.212	452.19
406.436	451.19
406.66	458.19
406.883	436.19
407.107	439.19
407.331	454.19
407.555	508.19
407.778	504.19
408.002	487.19
408.226	460.19
408.449	442.19
408.673	460.19
408.896	481.19
409.12	486.19
409.344	462.19
409.567	438.19
409.791	423.19
410.014	402.19
410.238	409.19
410.461	395.19
410.685	417.19
410.908	414.19
411.132	447.19
411.355	451.19
411.578	431.19
411.802	406.19
412.025	409.19
412.249	406.19
412.472	410.19
412.695	455.19
412.919	451.19
413.142	415.19
413.365	424.19
413.589	379.19
413.812	402.19
414.035	368.19
414.258	392.19
414.482	379.19
414.705	398.19
414.928	400.19
415.151	372.19
415.374	373.19
415.597	381.19
415.821	389.19
416.044	384.19
416.267	387.19
416.49	365.19
416.713	384.19
416.936	373.19
417.159	388.19
417.382	398.19
417.605	381.19
417.828	378.19
418.051	389.19
418.274	397.19
418.497	375.19
418.72	380.19
418.943	372.19
419.166	398.19
419.389	424.19
419.611	398.19
419.834	396.19
420.057	398.19
420.28	401.19
420.503	381.19
420.726	384.19
420.948	413.19
421.171	454.19
421.394	463.19
421.617	424.19
421.839	378.19
422.062	418.19
422.285	421.19
422.507	467.19
422.73	510.19
422.953	464.19
423.175	445.19
423.398	420.19
423.621	398.19
423.843	403.19
424.066	412.19
424.288	420.19
424.511	430.19
424.733	473.19
424.956	534.19
425.178	534.19
425.401	522.19
425.623	533.19
425.846	451.19
426.068	411.19
426.291	418.19
426.513	430.19
426.735	436.19
426.958	462.19
427.18	531.19
427.402	611.19
427.625	685.19
427.847	605.19
428.069	510.19
428.292	462.19
428.514	440.19
428.736	414.19
428.958	407.19
429.181	384.19
429.403	380.19
429.625	415.19
429.847	445.19
430.069	477.19
430.292	463.19
430.514	426.19
430.736	400.19
430.958	396.19
431.18	383.19
431.402	374.19
431.624	376.19
431.846	362.19
432.068	388.19
432.29	394.19
432.512	394.19
432.734	380.19
432.956	397.19
433.178	385.19
433.4	401.19
433.622	386.19
433.844	381.19
434.066	382.19
434.287	379.19
434.509	394.19
434.731	400.19
434.953	403.19
435.175	388.19
435.397	433.19
435.618	458.19
435.84	470.19
436.062	507.19
436.284	574.19
436.505	504.19
436.727	444.19
436.949	431.19
437.17	407.19
437.392	415.19
437.614	440.19
437.835	470.19
438.057	490.19
438.278	569.19
438.5	571.19
438.721	619.19
438.943	593.19
439.165	493.19
439.386	452.19
439.608	446.19
439.829	459.19
440.05	465.19
440.272	498.19
440.493	444.19
440.715	424.19
440.936	413.19
441.158	408.19
441.379	398.19
441.6	401.19
441.822	425.19
442.043	481.19
442.264	525.19
442.486	537.19
442.707	477.19
442.928	429.19
443.149	458.19
443.371	481.19
443.592	512.19
443.813	558.19
444.034	580.19
444.255	503.19
444.476	453.19
444.698	454.19
444.919	446.19
445.14	509.19
445.361	476.19
445.582	472.19
445.803	502.19
446.024	587.19
446.245	581.19
446.466	541.19
446.687	453.19
446.908	444.19
447.129	421.19
447.35	413.19
447.571	407.19
447.792	405.19
448.013	401.19
448.234	405.19
448.455	470.19
448.675	549.19
448.896	615.19
449.117	498.19
449.338	525.19
449.559	586.19
449.779	640.19
450	516.19
450.221	454.19
450.442	401.19
450.662	399.19
450.883	412.19
451.104	404.19
451.324	393.19
451.545	389.19
451.766	378.19
451.986	372.19
452.207	361.19
452.428	354.19
452.648	372.19
452.869	388.19
453.089	365.19
453.31	379.19
453.53	388.19
453.751	378.19
453.971	372.19
454.192	380.19
454.412	383.19
454.633	364.19
454.853	377.19
455.073	360.19
455.294	380.19
455.514	427.19
455.734	433.19
455.955	366.19
456.175	340.19
456.395	358.19
456.616	350.19
456.836	330.19
457.056	342.19
457.276	328.19
457.497	337.19
457.717	356.19
457.937	348.19
458.157	356.19
458.377	348.19
458.598	368.19
458.818	423.19
459.038	470.19
459.258	501.19
459.478	434.19
459.698	403.19
459.918	374.19
460.138	399.19
460.358	390.19
460.578	407.19
460.798	411.19
461.018	391.19
461.238	378.19
461.458	410.19
461.678	380.19
461.898	376.19
462.118	391.19
462.338	403.19
462.558	390.19
462.777	417.19
462.997	392.19
463.217	405.19
463.437	416.19
463.657	386.19
463.876	393.19
464.096	411.19
464.316	408.19
464.536	415.19
464.755	408.19
464.975	425.19
465.195	452.19
465.414	496.19
465.634	464.19
465.854	413.19
466.073	406.19
466.293	397.19
466.512	383.19
466.732	370.19
466.951	372.19
467.171	364.19
467.391	396.19
467.61	393.19
467.829	384.19
468.049	385.19
468.268	394.19
468.488	378.19
468.707	383.19
468.927	381.19
469.146	369.19
469.365	365.19
469.585	360.19
469.804	367.19
470.023	377.19
470.243	390.19
470.462	394.19
470.681	399.19
470.901	383.19
471.12	373.19
471.339	373.19
471.558	399.19
471.777	399.19
471.997	373.19
472.216	361.19
472.435	429.19
472.654	423.19
472.873	384.19
473.092	380.19
473.311	378.19
473.53	383.19
473.749	400.19
473.968	398.19
474.187	492.19
474.406	512.19
474.625	414.19
474.844	391.19
475.063	378.19
475.282	380.19
475.501	381.19
475.72	391.19
475.939	373.19
476.158	406.19
476.377	399.19
476.596	386.19
476.814	398.19
477.033	400.19
477.252	400.19
477.471	401.19
477.69	410.19
477.908	426.19
478.127	411.19
478.346	400.19
478.564	419.19
478.783	422.19
479.002	425.19
479.22	397.19
479.439	445.19
479.658	460.19
479.876	454.19
480.095	449.19
480.313	481.19
480.532	477.19
480.751	460.19
480.969	480.19
481.188	492.19
481.406	525.19
481.624	496.19
481.843	487.19
482.061	445.19
482.28	433.19
482.498	451.19
482.717	430.19
482.935	431.19
483.153	452.19
483.372	436.19
483.59	456.19
483.808	432.19
484.027	423.19
484.245	451.19
484.463	448.19
484.681	433.19
484.9	446.19
485.118	455.19
485.336	458.19
485.554	466.19
485.772	473.19
485.99	472.19
486.209	462.19
486.427	465.19
486.645	475.19
486.863	506.19
487.081	506.19
487.299	462.19
487.517	458.19
487.735	472.19
487.953	495.19
488.171	477.19
488.389	470.19
488.607	477.19
488.825	501.19
489.043	477.19
489.261	474.19
489.479	473.19
489.696	483.19
489.914	493.19
490.132	489.19
490.35	498.19
490.568	493.19
490.786	511.19
491.003	500.19
491.221	536.19
491.439	530.19
491.657	547.19
491.874	532.19
492.092	535.19
492.31	557.19
492.527	551.19
492.745	553.19
492.963	558.19
493.18	558.19
493.398	545.19
493.615	539.19
493.833	562.19
494.05	570.19
494.268	558.19
494.485	546.19
494.703	561.19
494.92	571.19
495.138	574.19
495.355	549.19
495.573	575.19
495.79	575.19
496.008	562.19
496.225	577.19
496.442	563.19
496.66	560.19
496.877	546.19
497.094	548.19
497.312	572.19
497.529	580.19
497.746	590.19
497.963	591.19
498.181	628.19
498.398	598.19
498.615	613.19
498.832	613.19
499.049	631.19
499.267	642.19
499.484	657.19
499.701	672.19
499.918	691.19
500.135	709.19
500.352	705.19
500.569	700.19
500.786	702.19
501.003	706.19
501.22	713.19
501.437	693.19
501.654	686.19
501.871	683.19
502.088	669.19
