Data from 1965.PennyLincolnUp.Lamp.En5.5.200Scan.071719.P1._HRD10591_14-10-22-911.txt Node
Date: Thu Jul 18 14:10:22 EDT 2019
User: cochatt
Spectrometer: HR+D1059
Trigger mode: 1
Integration Time (sec): 1.000000E-1
Scans to average: 1
Electric dark correction enabled: true
Nonlinearity correction enabled: false
Boxcar width: 0
XAxis mode: Wavelengths
Number of Pixels in Spectrum: 2048
>>>>>Begin Spectral Data<<<<<
223.165	-16.5
223.4	-16.5
223.635	-16.5
223.869	-6.5
224.104	-23.5
224.338	-12.5
224.573	-1.5
224.808	-18.5
225.042	-15.5
225.277	-13.5
225.511	11.5
225.746	1.5
225.98	9.5
226.215	8.5
226.449	34.5
226.683	22.5
226.918	1.5
227.152	18.5
227.387	17.5
227.621	55.5
227.856	40.5
228.09	54.5
228.324	56.5
228.559	49.5
228.793	71.5
229.027	104.5
229.262	110.5
229.496	104.5
229.73	133.5
229.964	164.5
230.199	133.5
230.433	101.5
230.667	113.5
230.901	108.5
231.136	97.5
231.37	112.5
231.604	110.5
231.838	116.5
232.072	105.5
232.306	122.5
232.541	111.5
232.775	119.5
233.009	105.5
233.243	114.5
233.477	139.5
233.711	120.5
233.945	108.5
234.179	98.5
234.413	110.5
234.647	114.5
234.881	119.5
235.115	118.5
235.349	113.5
235.583	112.5
235.817	113.5
236.051	138.5
236.285	101.5
236.519	114.5
236.753	125.5
236.987	156.5
237.221	192.5
237.455	194.5
237.689	169.5
237.922	130.5
238.156	117.5
238.39	124.5
238.624	114.5
238.858	127.5
239.091	105.5
239.325	132.5
239.559	120.5
239.793	127.5
240.027	132.5
240.26	135.5
240.494	141.5
240.728	141.5
240.961	146.5
241.195	155.5
241.429	135.5
241.662	138.5
241.896	122.5
242.13	124.5
242.363	129.5
242.597	120.5
242.83	133.5
243.064	132.5
243.298	138.5
243.531	129.5
243.765	132.5
243.998	140.5
244.232	125.5
244.465	129.5
244.699	150.5
244.932	153.5
245.166	122.5
245.399	146.5
245.633	136.5
245.866	155.5
246.099	132.5
246.333	139.5
246.566	153.5
246.8	148.5
247.033	155.5
247.266	144.5
247.5	152.5
247.733	157.5
247.966	159.5
248.2	158.5
248.433	154.5
248.666	159.5
248.899	187.5
249.133	204.5
249.366	201.5
249.599	188.5
249.832	185.5
250.066	170.5
250.299	179.5
250.532	177.5
250.765	184.5
250.998	215.5
251.231	213.5
251.465	200.5
251.698	194.5
251.931	184.5
252.164	186.5
252.397	185.5
252.63	181.5
252.863	194.5
253.096	194.5
253.329	206.5
253.562	214.5
253.795	204.5
254.028	196.5
254.261	212.5
254.494	212.5
254.727	236.5
254.96	252.5
255.193	246.5
255.426	217.5
255.659	224.5
255.892	224.5
256.124	217.5
256.357	215.5
256.59	207.5
256.823	209.5
257.056	208.5
257.289	211.5
257.521	184.5
257.754	187.5
257.987	197.5
258.22	201.5
258.452	194.5
258.685	200.5
258.918	186.5
259.151	199.5
259.383	197.5
259.616	204.5
259.849	213.5
260.081	225.5
260.314	250.5
260.547	234.5
260.779	243.5
261.012	210.5
261.244	209.5
261.477	209.5
261.71	197.5
261.942	225.5
262.175	233.5
262.407	231.5
262.64	205.5
262.872	196.5
263.105	188.5
263.337	200.5
263.57	203.5
263.802	212.5
264.035	192.5
264.267	180.5
264.499	192.5
264.732	198.5
264.964	199.5
265.197	209.5
265.429	214.5
265.661	184.5
265.894	196.5
266.126	203.5
266.358	219.5
266.591	189.5
266.823	222.5
267.055	205.5
267.287	210.5
267.52	209.5
267.752	190.5
267.984	210.5
268.216	213.5
268.448	236.5
268.681	200.5
268.913	230.5
269.145	245.5
269.377	236.5
269.609	251.5
269.841	253.5
270.073	259.5
270.306	273.5
270.538	294.5
270.77	294.5
271.002	280.5
271.234	276.5
271.466	291.5
271.698	287.5
271.93	296.5
272.162	294.5
272.394	294.5
272.626	265.5
272.858	264.5
273.09	258.5
273.322	239.5
273.553	250.5
273.785	250.5
274.017	237.5
274.249	234.5
274.481	240.5
274.713	250.5
274.945	255.5
275.176	260.5
275.408	234.5
275.64	232.5
275.872	254.5
276.104	218.5
276.335	239.5
276.567	252.5
276.799	280.5
277.031	283.5
277.262	289.5
277.494	301.5
277.726	270.5
277.957	265.5
278.189	252.5
278.421	247.5
278.652	244.5
278.884	233.5
279.115	246.5
279.347	242.5
279.579	232.5
279.81	249.5
280.042	244.5
280.273	245.5
280.505	235.5
280.736	256.5
280.968	248.5
281.199	242.5
281.431	233.5
281.662	218.5
281.894	233.5
282.125	236.5
282.356	274.5
282.588	278.5
282.819	283.5
283.051	262.5
283.282	234.5
283.513	246.5
283.745	262.5
283.976	253.5
284.207	257.5
284.439	238.5
284.67	238.5
284.901	253.5
285.132	266.5
285.364	249.5
285.595	246.5
285.826	263.5
286.057	254.5
286.288	270.5
286.52	255.5
286.751	274.5
286.982	256.5
287.213	265.5
287.444	278.5
287.675	252.5
287.906	275.5
288.138	281.5
288.369	258.5
288.6	267.5
288.831	265.5
289.062	257.5
289.293	246.5
289.524	253.5
289.755	254.5
289.986	238.5
290.217	242.5
290.448	260.5
290.679	266.5
290.91	239.5
291.141	246.5
291.371	286.5
291.602	260.5
291.833	261.5
292.064	277.5
292.295	274.5
292.526	245.5
292.757	254.5
292.987	232.5
293.218	261.5
293.449	265.5
293.68	264.5
293.91	252.5
294.141	271.5
294.372	249.5
294.603	249.5
294.833	254.5
295.064	254.5
295.295	269.5
295.525	262.5
295.756	272.5
295.987	283.5
296.217	289.5
296.448	324.5
296.679	285.5
296.909	275.5
297.14	245.5
297.37	275.5
297.601	259.5
297.831	253.5
298.062	262.5
298.292	270.5
298.523	281.5
298.753	262.5
298.984	259.5
299.214	278.5
299.445	274.5
299.675	277.5
299.905	273.5
300.136	290.5
300.366	278.5
300.597	280.5
300.827	287.5
301.057	280.5
301.288	288.5
301.518	292.5
301.748	279.5
301.979	283.5
302.209	288.5
302.439	296.5
302.669	295.5
302.9	297.5
303.13	303.5
303.36	281.5
303.59	308.5
303.82	315.5
304.051	306.5
304.281	277.5
304.511	274.5
304.741	289.5
304.971	297.5
305.201	306.5
305.431	295.5
305.661	309.5
305.891	296.5
306.121	309.5
306.352	310.5
306.582	311.5
306.812	278.5
307.042	284.5
307.272	308.5
307.502	300.5
307.731	310.5
307.961	292.5
308.191	314.5
308.421	290.5
308.651	322.5
308.881	320.5
309.111	316.5
309.341	314.5
309.571	330.5
309.8	316.5
310.03	337.5
310.26	345.5
310.49	357.5
310.72	365.5
310.949	377.5
311.179	366.5
311.409	333.5
311.639	342.5
311.868	353.5
312.098	345.5
312.328	351.5
312.557	364.5
312.787	387.5
313.017	388.5
313.246	384.5
313.476	360.5
313.706	351.5
313.935	350.5
314.165	357.5
314.394	358.5
314.624	360.5
314.853	345.5
315.083	346.5
315.312	334.5
315.542	330.5
315.771	333.5
316.001	349.5
316.23	346.5
316.46	341.5
316.689	338.5
316.919	340.5
317.148	355.5
317.377	358.5
317.607	362.5
317.836	360.5
318.065	335.5
318.295	355.5
318.524	334.5
318.753	362.5
318.983	349.5
319.212	347.5
319.441	353.5
319.67	385.5
319.9	357.5
320.129	354.5
320.358	351.5
320.587	360.5
320.816	359.5
321.046	382.5
321.275	372.5
321.504	360.5
321.733	382.5
321.962	388.5
322.191	393.5
322.42	431.5
322.649	406.5
322.878	431.5
323.108	453.5
323.337	476.5
323.566	480.5
323.795	534.5
324.024	573.5
324.253	713.5
324.482	1057.5
324.71	1610.5
324.939	2162.5
325.168	1824.5
325.397	959.5
325.626	623.5
325.855	530.5
326.084	502.5
326.313	489.5
326.542	469.5
326.77	525.5
326.999	654.5
327.228	922.5
327.457	1390.5
327.686	1616.5
327.914	1071.5
328.143	706.5
328.372	642.5
328.6	593.5
328.829	566.5
329.058	596.5
329.287	578.5
329.515	542.5
329.744	497.5
329.972	490.5
330.201	522.5
330.43	539.5
330.658	581.5
330.887	604.5
331.115	588.5
331.344	506.5
331.572	474.5
331.801	450.5
332.03	462.5
332.258	411.5
332.486	412.5
332.715	395.5
332.943	411.5
333.172	396.5
333.4	428.5
333.629	444.5
333.857	442.5
334.085	449.5
334.314	472.5
334.542	529.5
334.771	509.5
334.999	453.5
335.227	421.5
335.455	437.5
335.684	401.5
335.912	395.5
336.14	377.5
336.369	408.5
336.597	416.5
336.825	410.5
337.053	396.5
337.281	367.5
337.51	403.5
337.738	424.5
337.966	392.5
338.194	390.5
338.422	392.5
338.65	391.5
338.878	398.5
339.106	393.5
339.334	385.5
339.562	389.5
339.79	386.5
340.018	392.5
340.246	398.5
340.474	396.5
340.702	396.5
340.93	402.5
341.158	390.5
341.386	394.5
341.614	392.5
341.842	393.5
342.07	388.5
342.298	385.5
342.526	372.5
342.754	397.5
342.981	357.5
343.209	394.5
343.437	386.5
343.665	394.5
343.893	389.5
344.12	377.5
344.348	385.5
344.576	415.5
344.804	411.5
345.031	411.5
345.259	414.5
345.487	389.5
345.714	388.5
345.942	386.5
346.17	394.5
346.397	388.5
346.625	378.5
346.853	379.5
347.08	381.5
347.308	377.5
347.535	366.5
347.763	388.5
347.99	382.5
348.218	401.5
348.445	412.5
348.673	392.5
348.9	378.5
349.128	375.5
349.355	363.5
349.583	357.5
349.81	366.5
350.037	359.5
350.265	370.5
350.492	372.5
350.72	366.5
350.947	378.5
351.174	402.5
351.402	405.5
351.629	395.5
351.856	379.5
352.083	393.5
352.311	396.5
352.538	397.5
352.765	401.5
352.992	380.5
353.22	386.5
353.447	375.5
353.674	365.5
353.901	374.5
354.128	350.5
354.355	370.5
354.583	337.5
354.81	348.5
355.037	370.5
355.264	352.5
355.491	327.5
355.718	342.5
355.945	336.5
356.172	344.5
356.399	330.5
356.626	335.5
356.853	354.5
357.08	339.5
357.307	339.5
357.534	338.5
357.761	364.5
357.988	358.5
358.215	351.5
358.441	367.5
358.668	352.5
358.895	361.5
359.122	351.5
359.349	376.5
359.576	376.5
359.802	410.5
360.029	434.5
360.256	458.5
360.483	420.5
360.709	382.5
360.936	385.5
361.163	373.5
361.39	384.5
361.616	382.5
361.843	379.5
362.07	366.5
362.296	400.5
362.523	390.5
362.749	409.5
362.976	357.5
363.203	364.5
363.429	375.5
363.656	358.5
363.882	362.5
364.109	365.5
364.335	364.5
364.562	352.5
364.788	347.5
365.015	353.5
365.241	348.5
365.468	355.5
365.694	366.5
365.92	375.5
366.147	369.5
366.373	367.5
366.599	356.5
366.826	350.5
367.052	359.5
367.278	355.5
367.505	355.5
367.731	364.5
367.957	370.5
368.184	362.5
368.41	358.5
368.636	375.5
368.862	372.5
369.089	377.5
369.315	359.5
369.541	377.5
369.767	368.5
369.993	356.5
370.219	344.5
370.445	356.5
370.672	345.5
370.898	349.5
371.124	346.5
371.35	357.5
371.576	336.5
371.802	348.5
372.028	350.5
372.254	371.5
372.48	356.5
372.706	368.5
372.932	361.5
373.158	377.5
373.384	372.5
373.61	376.5
373.835	361.5
374.061	354.5
374.287	369.5
374.513	364.5
374.739	350.5
374.965	353.5
375.191	350.5
375.416	362.5
375.642	365.5
375.868	353.5
376.094	368.5
376.319	368.5
376.545	358.5
376.771	345.5
376.997	350.5
377.222	358.5
377.448	350.5
377.674	335.5
377.899	342.5
378.125	360.5
378.35	333.5
378.576	346.5
378.802	362.5
379.027	357.5
379.253	353.5
379.478	341.5
379.704	330.5
379.929	374.5
380.155	348.5
380.38	356.5
380.606	356.5
380.831	363.5
381.057	345.5
381.282	358.5
381.507	354.5
381.733	363.5
381.958	356.5
382.184	361.5
382.409	358.5
382.634	369.5
382.86	368.5
383.085	342.5
383.31	349.5
383.535	362.5
383.761	361.5
383.986	354.5
384.211	362.5
384.436	392.5
384.662	365.5
384.887	361.5
385.112	363.5
385.337	349.5
385.562	369.5
385.787	363.5
386.013	381.5
386.238	384.5
386.463	364.5
386.688	359.5
386.913	372.5
387.138	375.5
387.363	381.5
387.588	374.5
387.813	358.5
388.038	382.5
388.263	364.5
388.488	382.5
388.713	369.5
388.938	376.5
389.163	374.5
389.387	392.5
389.612	385.5
389.837	374.5
390.062	364.5
390.287	378.5
390.512	376.5
390.736	369.5
390.961	361.5
391.186	368.5
391.411	365.5
391.636	378.5
391.86	392.5
392.085	387.5
392.31	378.5
392.534	380.5
392.759	384.5
392.984	368.5
393.208	357.5
393.433	369.5
393.658	377.5
393.882	374.5
394.107	374.5
394.331	376.5
394.556	354.5
394.78	378.5
395.005	372.5
395.229	388.5
395.454	381.5
395.678	406.5
395.903	414.5
396.127	414.5
396.352	401.5
396.576	372.5
396.801	406.5
397.025	398.5
397.249	391.5
397.474	388.5
397.698	402.5
397.922	412.5
398.147	423.5
398.371	427.5
398.595	426.5
398.82	411.5
399.044	420.5
399.268	429.5
399.492	460.5
399.717	481.5
399.941	478.5
400.165	502.5
400.389	528.5
400.613	479.5
400.837	430.5
401.062	436.5
401.286	429.5
401.51	431.5
401.734	447.5
401.958	428.5
402.182	439.5
402.406	447.5
402.63	465.5
402.854	455.5
403.078	443.5
403.302	422.5
403.526	438.5
403.75	429.5
403.974	441.5
404.198	438.5
404.422	452.5
404.645	461.5
404.869	452.5
405.093	476.5
405.317	490.5
405.541	529.5
405.765	496.5
405.988	477.5
406.212	480.5
406.436	495.5
406.66	508.5
406.883	480.5
407.107	485.5
407.331	515.5
407.555	583.5
407.778	576.5
408.002	530.5
408.226	504.5
408.449	493.5
408.673	504.5
408.896	512.5
409.12	527.5
409.344	499.5
409.567	465.5
409.791	471.5
410.014	459.5
410.238	436.5
410.461	445.5
410.685	464.5
410.908	455.5
411.132	470.5
411.355	488.5
411.578	493.5
411.802	433.5
412.025	438.5
412.249	463.5
412.472	461.5
412.695	506.5
412.919	493.5
413.142	452.5
413.365	440.5
413.589	438.5
413.812	422.5
414.035	423.5
414.258	402.5
414.482	429.5
414.705	407.5
414.928	410.5
415.151	416.5
415.374	411.5
415.597	401.5
415.821	408.5
416.044	424.5
416.267	413.5
416.49	400.5
416.713	386.5
416.936	424.5
417.159	417.5
417.382	404.5
417.605	429.5
417.828	420.5
418.051	448.5
418.274	428.5
418.497	427.5
418.72	401.5
418.943	400.5
419.166	430.5
419.389	445.5
419.611	429.5
419.834	448.5
420.057	444.5
420.28	451.5
420.503	422.5
420.726	445.5
420.948	452.5
421.171	488.5
421.394	537.5
421.617	459.5
421.839	452.5
422.062	431.5
422.285	470.5
422.507	485.5
422.73	556.5
422.953	545.5
423.175	465.5
423.398	473.5
423.621	437.5
423.843	465.5
424.066	485.5
424.288	468.5
424.511	493.5
424.733	550.5
424.956	573.5
425.178	565.5
425.401	577.5
425.623	580.5
425.846	508.5
426.068	481.5
426.291	460.5
426.513	476.5
426.735	502.5
426.958	528.5
427.18	587.5
427.402	698.5
427.625	748.5
427.847	694.5
428.069	586.5
428.292	545.5
428.514	480.5
428.736	452.5
428.958	442.5
429.181	446.5
429.403	439.5
429.625	454.5
429.847	494.5
430.069	537.5
430.292	539.5
430.514	470.5
430.736	437.5
430.958	442.5
431.18	443.5
431.402	421.5
431.624	422.5
431.846	403.5
432.068	391.5
432.29	404.5
432.512	419.5
432.734	427.5
432.956	421.5
433.178	432.5
433.4	434.5
433.622	434.5
433.844	429.5
434.066	413.5
434.287	424.5
434.509	424.5
434.731	428.5
434.953	414.5
435.175	447.5
435.397	488.5
435.618	485.5
435.84	523.5
436.062	601.5
436.284	662.5
436.505	530.5
436.727	513.5
436.949	477.5
437.17	439.5
437.392	449.5
437.614	465.5
437.835	521.5
438.057	577.5
438.278	703.5
438.5	661.5
438.721	730.5
438.943	696.5
439.165	544.5
439.386	500.5
439.608	481.5
439.829	520.5
440.05	530.5
440.272	573.5
440.493	527.5
440.715	498.5
440.936	454.5
441.158	461.5
441.379	428.5
441.6	455.5
441.822	489.5
442.043	522.5
442.264	585.5
442.486	614.5
442.707	522.5
442.928	475.5
443.149	506.5
443.371	518.5
443.592	561.5
443.813	614.5
444.034	652.5
444.255	544.5
444.476	509.5
444.698	500.5
444.919	465.5
445.14	544.5
445.361	534.5
445.582	535.5
445.803	599.5
446.024	674.5
446.245	672.5
446.466	630.5
446.687	524.5
446.908	502.5
447.129	478.5
447.35	460.5
447.571	441.5
447.792	433.5
448.013	445.5
448.234	461.5
448.455	514.5
448.675	610.5
448.896	688.5
449.117	614.5
449.338	589.5
449.559	659.5
449.779	722.5
450	608.5
450.221	516.5
450.442	475.5
450.662	452.5
450.883	468.5
451.104	462.5
451.324	465.5
451.545	434.5
451.766	421.5
451.986	423.5
452.207	409.5
452.428	404.5
452.648	402.5
452.869	392.5
453.089	433.5
453.31	451.5
453.53	419.5
453.751	401.5
453.971	415.5
454.192	454.5
454.412	428.5
454.633	407.5
454.853	394.5
455.073	399.5
455.294	430.5
455.514	477.5
455.734	465.5
455.955	420.5
456.175	396.5
456.395	391.5
456.616	380.5
456.836	384.5
457.056	376.5
457.276	383.5
457.497	382.5
457.717	392.5
457.937	379.5
458.157	374.5
458.377	382.5
458.598	434.5
458.818	485.5
459.038	556.5
459.258	564.5
459.478	476.5
459.698	424.5
459.918	430.5
460.138	402.5
460.358	425.5
460.578	423.5
460.798	410.5
461.018	432.5
461.238	412.5
461.458	414.5
461.678	413.5
461.898	418.5
462.118	413.5
462.338	408.5
462.558	420.5
462.777	433.5
462.997	445.5
463.217	453.5
463.437	448.5
463.657	442.5
463.876	431.5
464.096	440.5
464.316	442.5
464.536	441.5
464.755	448.5
464.975	466.5
465.195	518.5
465.414	588.5
465.634	487.5
465.854	483.5
466.073	453.5
466.293	410.5
466.512	409.5
466.732	400.5
466.951	400.5
467.171	405.5
467.391	406.5
467.61	423.5
467.829	426.5
468.049	420.5
468.268	438.5
468.488	410.5
468.707	394.5
468.927	395.5
469.146	403.5
469.365	396.5
469.585	391.5
469.804	405.5
470.023	418.5
470.243	417.5
470.462	420.5
470.681	441.5
470.901	458.5
471.12	409.5
471.339	430.5
471.558	421.5
471.777	426.5
471.997	403.5
472.216	415.5
472.435	474.5
472.654	454.5
472.873	439.5
473.092	421.5
473.311	431.5
473.53	411.5
473.749	431.5
473.968	478.5
474.187	564.5
474.406	573.5
474.625	484.5
474.844	442.5
475.063	428.5
475.282	405.5
475.501	427.5
475.72	424.5
475.939	441.5
476.158	438.5
476.377	450.5
476.596	450.5
476.814	453.5
477.033	438.5
477.252	433.5
477.471	457.5
477.69	430.5
477.908	452.5
478.127	440.5
478.346	439.5
478.564	485.5
478.783	444.5
479.002	467.5
479.22	466.5
479.439	480.5
479.658	493.5
479.876	525.5
480.095	503.5
480.313	530.5
480.532	522.5
480.751	496.5
480.969	505.5
481.188	607.5
481.406	640.5
481.624	576.5
481.843	524.5
482.061	494.5
482.28	509.5
482.498	504.5
482.717	520.5
482.935	486.5
483.153	477.5
483.372	486.5
483.59	500.5
483.808	495.5
484.027	488.5
484.245	471.5
484.463	500.5
484.681	497.5
484.9	497.5
485.118	486.5
485.336	521.5
485.554	529.5
485.772	512.5
485.99	500.5
486.209	526.5
486.427	498.5
486.645	517.5
486.863	539.5
487.081	555.5
487.299	545.5
487.517	542.5
487.735	536.5
487.953	524.5
488.171	538.5
488.389	529.5
488.607	521.5
488.825	511.5
489.043	554.5
489.261	550.5
489.479	561.5
489.696	550.5
489.914	535.5
490.132	548.5
490.35	545.5
490.568	555.5
490.786	540.5
491.003	552.5
491.221	594.5
491.439	584.5
491.657	584.5
491.874	596.5
492.092	617.5
492.31	612.5
492.527	624.5
492.745	613.5
492.963	594.5
493.18	622.5
493.398	614.5
493.615	610.5
493.833	623.5
494.05	636.5
494.268	620.5
494.485	616.5
494.703	612.5
494.92	625.5
495.138	614.5
495.355	609.5
495.573	640.5
495.79	632.5
496.008	628.5
496.225	638.5
496.442	613.5
496.66	628.5
496.877	638.5
497.094	639.5
497.312	637.5
497.529	640.5
497.746	672.5
497.963	655.5
498.181	652.5
498.398	663.5
498.615	677.5
498.832	711.5
499.049	683.5
499.267	692.5
499.484	708.5
499.701	727.5
499.918	753.5
500.135	762.5
500.352	797.5
500.569	799.5
500.786	787.5
501.003	807.5
501.22	797.5
501.437	774.5
501.654	777.5
501.871	748.5
502.088	742.5
502.305	703.5
502.522	701.5
502.739	684.5
502.956	656.5
503.172	655.5
503.389	648.5
503.606	635.5
503.823	658.5
504.04	645.5
504.256	632.5
504.473	613.5
504.69	616.5
504.907	623.5
505.123	615.5
505.34	589.5
505.557	586.5
505.773	596.5
505.99	601.5
506.207	622.5
506.423	594.5
506.64	601.5
506.856	602.5
507.073	590.5
507.289	578.5
507.506	621.5
507.722	606.5
507.939	613.5
508.155	604.5
508.372	578.5
508.588	594.5
508.805	590.5
509.021	593.5
509.238	584.5
509.454	597.5
509.67	588.5
509.887	595.5
510.103	600.5
510.319	593.5
510.536	701.5
510.752	1245.5
510.968	975.5
511.184	634.5
511.401	574.5
511.617	582.5
511.833	558.5
512.049	539.5
512.265	561.5
512.481	541.5
512.698	559.5
512.914	574.5
513.13	566.5
513.346	546.5
513.562	550.5
513.778	562.5
513.994	568.5
514.21	557.5
514.426	606.5
514.642	656.5
514.858	686.5
515.074	729.5
515.29	881.5
515.506	1369.5
515.721	1063.5
515.937	700.5
516.153	634.5
516.369	610.5
516.585	589.5
516.801	598.5
517.016	558.5
517.232	553.5
517.448	566.5
517.664	581.5
517.879	580.5
518.095	555.5
518.311	559.5
518.527	556.5
518.742	547.5
518.958	556.5
519.173	529.5
519.389	561.5
519.605	546.5
519.82	557.5
