Data from 1965.PennyLincolnUp.Lamp.En5.5.200Scan.071719.P1._HRD10591_14-08-30-912.txt Node
Date: Thu Jul 18 14:08:30 EDT 2019
User: cochatt
Spectrometer: HR+D1059
Trigger mode: 1
Integration Time (sec): 1.000000E-1
Scans to average: 1
Electric dark correction enabled: true
Nonlinearity correction enabled: false
Boxcar width: 0
XAxis mode: Wavelengths
Number of Pixels in Spectrum: 2048
>>>>>Begin Spectral Data<<<<<
223.165	1.94
223.4	1.94
223.635	1.94
223.869	-16.06
224.104	-6.06
224.338	-13.06
224.573	-16.06
224.808	-31.06
225.042	-8.06
225.277	-15.06
225.511	-6.06
225.746	11.94
225.98	14.94
226.215	4.94
226.449	13.94
226.683	19.94
226.918	13.94
227.152	29.94
227.387	36.94
227.621	39.94
227.856	45.94
228.09	57.94
228.324	54.94
228.559	65.94
228.793	69.94
229.027	95.94
229.262	93.94
229.496	97.94
229.73	119.94
229.964	134.94
230.199	116.94
230.433	118.94
230.667	108.94
230.901	117.94
231.136	104.94
231.37	113.94
231.604	110.94
231.838	118.94
232.072	103.94
232.306	93.94
232.541	99.94
232.775	114.94
233.009	112.94
233.243	105.94
233.477	108.94
233.711	106.94
233.945	104.94
234.179	114.94
234.413	113.94
234.647	108.94
234.881	120.94
235.115	103.94
235.349	128.94
235.583	120.94
235.817	117.94
236.051	121.94
236.285	95.94
236.519	123.94
236.753	127.94
236.987	138.94
237.221	152.94
237.455	202.94
237.689	172.94
237.922	130.94
238.156	116.94
238.39	124.94
238.624	115.94
238.858	122.94
239.091	120.94
239.325	110.94
239.559	110.94
239.793	128.94
240.027	125.94
240.26	125.94
240.494	129.94
240.728	132.94
240.961	132.94
241.195	130.94
241.429	133.94
241.662	114.94
241.896	109.94
242.13	123.94
242.363	116.94
242.597	112.94
242.83	112.94
243.064	127.94
243.298	127.94
243.531	112.94
243.765	105.94
243.998	114.94
244.232	130.94
244.465	138.94
244.699	158.94
244.932	126.94
245.166	130.94
245.399	135.94
245.633	140.94
245.866	134.94
246.099	135.94
246.333	146.94
246.566	137.94
246.8	137.94
247.033	132.94
247.266	139.94
247.5	140.94
247.733	149.94
247.966	140.94
248.2	146.94
248.433	164.94
248.666	149.94
248.899	161.94
249.133	156.94
249.366	173.94
249.599	172.94
249.832	162.94
250.066	169.94
250.299	171.94
250.532	148.94
250.765	182.94
250.998	186.94
251.231	199.94
251.465	199.94
251.698	167.94
251.931	190.94
252.164	184.94
252.397	190.94
252.63	177.94
252.863	192.94
253.096	189.94
253.329	191.94
253.562	192.94
253.795	194.94
254.028	204.94
254.261	195.94
254.494	201.94
254.727	217.94
254.96	232.94
255.193	227.94
255.426	199.94
255.659	197.94
255.892	204.94
256.124	188.94
256.357	199.94
256.59	198.94
256.823	209.94
257.056	176.94
257.289	180.94
257.521	193.94
257.754	155.94
257.987	182.94
258.22	165.94
258.452	187.94
258.685	181.94
258.918	189.94
259.151	189.94
259.383	194.94
259.616	200.94
259.849	195.94
260.081	202.94
260.314	212.94
260.547	210.94
260.779	212.94
261.012	202.94
261.244	203.94
261.477	188.94
261.71	189.94
261.942	206.94
262.175	195.94
262.407	179.94
262.64	198.94
262.872	182.94
263.105	197.94
263.337	176.94
263.57	177.94
263.802	167.94
264.035	186.94
264.267	182.94
264.499	188.94
264.732	187.94
264.964	174.94
265.197	183.94
265.429	195.94
265.661	172.94
265.894	186.94
266.126	185.94
266.358	174.94
266.591	198.94
266.823	190.94
267.055	202.94
267.287	201.94
267.52	195.94
267.752	198.94
267.984	203.94
268.216	205.94
268.448	205.94
268.681	190.94
268.913	207.94
269.145	232.94
269.377	222.94
269.609	231.94
269.841	233.94
270.073	241.94
270.306	238.94
270.538	281.94
270.77	265.94
271.002	240.94
271.234	251.94
271.466	267.94
271.698	257.94
271.93	238.94
272.162	268.94
272.394	272.94
272.626	255.94
272.858	236.94
273.09	225.94
273.322	251.94
273.553	226.94
273.785	235.94
274.017	215.94
274.249	223.94
274.481	220.94
274.713	225.94
274.945	222.94
275.176	246.94
275.408	233.94
275.64	217.94
275.872	224.94
276.104	238.94
276.335	224.94
276.567	231.94
276.799	234.94
277.031	265.94
277.262	265.94
277.494	280.94
277.726	254.94
277.957	248.94
278.189	235.94
278.421	233.94
278.652	233.94
278.884	231.94
279.115	226.94
279.347	239.94
279.579	237.94
279.81	220.94
280.042	233.94
280.273	226.94
280.505	224.94
280.736	208.94
280.968	218.94
281.199	230.94
281.431	217.94
281.662	231.94
281.894	220.94
282.125	211.94
282.356	223.94
282.588	261.94
282.819	264.94
283.051	245.94
283.282	220.94
283.513	228.94
283.745	224.94
283.976	232.94
284.207	229.94
284.439	236.94
284.67	227.94
284.901	237.94
285.132	222.94
285.364	227.94
285.595	236.94
285.826	242.94
286.057	229.94
286.288	220.94
286.52	219.94
286.751	226.94
286.982	249.94
287.213	238.94
287.444	245.94
287.675	253.94
287.906	266.94
288.138	248.94
288.369	273.94
288.6	262.94
288.831	249.94
289.062	252.94
289.293	242.94
289.524	241.94
289.755	245.94
289.986	233.94
290.217	240.94
290.448	240.94
290.679	244.94
290.91	233.94
291.141	217.94
291.371	238.94
291.602	216.94
291.833	224.94
292.064	241.94
292.295	244.94
292.526	244.94
292.757	237.94
292.987	239.94
293.218	232.94
293.449	240.94
293.68	248.94
293.91	225.94
294.141	250.94
294.372	232.94
294.603	249.94
294.833	227.94
295.064	256.94
295.295	251.94
295.525	258.94
295.756	253.94
295.987	241.94
296.217	268.94
296.448	277.94
296.679	284.94
296.909	252.94
297.14	247.94
297.37	237.94
297.601	241.94
297.831	242.94
298.062	246.94
298.292	250.94
298.523	237.94
298.753	268.94
298.984	264.94
299.214	269.94
299.445	253.94
299.675	265.94
299.905	259.94
300.136	263.94
300.366	257.94
300.597	262.94
300.827	271.94
301.057	262.94
301.288	266.94
301.518	251.94
301.748	279.94
301.979	261.94
302.209	272.94
302.439	273.94
302.669	274.94
302.9	271.94
303.13	273.94
303.36	272.94
303.59	278.94
303.82	292.94
304.051	275.94
304.281	273.94
304.511	275.94
304.741	260.94
304.971	261.94
305.201	285.94
305.431	274.94
305.661	278.94
305.891	295.94
306.121	273.94
306.352	273.94
306.582	289.94
306.812	283.94
307.042	274.94
307.272	278.94
307.502	267.94
307.731	287.94
307.961	285.94
308.191	277.94
308.421	292.94
308.651	266.94
308.881	299.94
309.111	298.94
309.341	283.94
309.571	293.94
309.8	312.94
310.03	318.94
310.26	331.94
310.49	326.94
310.72	321.94
310.949	330.94
311.179	363.94
311.409	327.94
311.639	327.94
311.868	309.94
312.098	310.94
312.328	320.94
312.557	348.94
312.787	345.94
313.017	344.94
313.246	329.94
313.476	327.94
313.706	322.94
313.935	321.94
314.165	337.94
314.394	342.94
314.624	321.94
314.853	333.94
315.083	311.94
315.312	312.94
315.542	318.94
315.771	303.94
316.001	335.94
316.23	302.94
316.46	314.94
316.689	301.94
316.919	330.94
317.148	332.94
317.377	321.94
317.607	321.94
317.836	325.94
318.065	306.94
318.295	316.94
318.524	316.94
318.753	298.94
318.983	303.94
319.212	318.94
319.441	324.94
319.67	326.94
319.9	325.94
320.129	328.94
320.358	337.94
320.587	334.94
320.816	332.94
321.046	339.94
321.275	311.94
321.504	321.94
321.733	341.94
321.962	345.94
322.191	355.94
322.42	394.94
322.649	400.94
322.878	384.94
323.108	378.94
323.337	405.94
323.566	416.94
323.795	464.94
324.024	502.94
324.253	596.94
324.482	857.94
324.71	1331.94
324.939	1802.94
325.168	1518.94
325.397	824.94
325.626	584.94
325.855	474.94
326.084	442.94
326.313	433.94
326.542	433.94
326.77	469.94
326.999	576.94
327.228	769.94
327.457	1147.94
327.686	1353.94
327.914	922.94
328.143	624.94
328.372	558.94
328.6	527.94
328.829	486.94
329.058	505.94
329.287	510.94
329.515	477.94
329.744	440.94
329.972	438.94
330.201	446.94
330.43	503.94
330.658	513.94
330.887	553.94
331.115	523.94
331.344	425.94
331.572	402.94
331.801	403.94
332.03	420.94
332.258	392.94
332.486	380.94
332.715	386.94
332.943	384.94
333.172	367.94
333.4	388.94
333.629	395.94
333.857	389.94
334.085	401.94
334.314	418.94
334.542	439.94
334.771	449.94
334.999	404.94
335.227	382.94
335.455	379.94
335.684	380.94
335.912	373.94
336.14	383.94
336.369	381.94
336.597	372.94
336.825	377.94
337.053	366.94
337.281	358.94
337.51	367.94
337.738	364.94
337.966	350.94
338.194	380.94
338.422	382.94
338.65	358.94
338.878	372.94
339.106	360.94
339.334	360.94
339.562	350.94
339.79	357.94
340.018	356.94
340.246	353.94
340.474	351.94
340.702	351.94
340.93	342.94
341.158	357.94
341.386	373.94
341.614	372.94
341.842	348.94
342.07	367.94
342.298	359.94
342.526	329.94
342.754	335.94
342.981	337.94
343.209	342.94
343.437	353.94
343.665	347.94
343.893	354.94
344.12	337.94
344.348	377.94
344.576	352.94
344.804	356.94
345.031	370.94
345.259	392.94
345.487	346.94
345.714	365.94
345.942	353.94
346.17	351.94
346.397	342.94
346.625	362.94
346.853	365.94
347.08	359.94
347.308	352.94
347.535	351.94
347.763	357.94
347.99	356.94
348.218	353.94
348.445	360.94
348.673	346.94
348.9	345.94
349.128	341.94
349.355	315.94
349.583	321.94
349.81	333.94
350.037	350.94
350.265	338.94
350.492	335.94
350.72	328.94
350.947	334.94
351.174	349.94
351.402	361.94
351.629	352.94
351.856	358.94
352.083	360.94
352.311	377.94
352.538	383.94
352.765	367.94
352.992	366.94
353.22	356.94
353.447	332.94
353.674	339.94
353.901	322.94
354.128	322.94
354.355	330.94
354.583	327.94
354.81	321.94
355.037	325.94
355.264	317.94
355.491	312.94
355.718	322.94
355.945	324.94
356.172	321.94
356.399	327.94
356.626	324.94
356.853	335.94
357.08	328.94
357.307	333.94
357.534	316.94
357.761	325.94
357.988	332.94
358.215	335.94
358.441	318.94
358.668	328.94
358.895	326.94
359.122	325.94
359.349	341.94
359.576	353.94
359.802	356.94
360.029	364.94
360.256	395.94
360.483	384.94
360.709	360.94
360.936	343.94
361.163	355.94
361.39	354.94
361.616	359.94
361.843	358.94
362.07	346.94
362.296	349.94
362.523	353.94
362.749	353.94
362.976	348.94
363.203	336.94
363.429	336.94
363.656	324.94
363.882	327.94
364.109	340.94
364.335	343.94
364.562	343.94
364.788	317.94
365.015	332.94
365.241	320.94
365.468	336.94
365.694	348.94
365.92	327.94
366.147	343.94
366.373	310.94
366.599	326.94
366.826	330.94
367.052	338.94
367.278	342.94
367.505	302.94
367.731	338.94
367.957	347.94
368.184	344.94
368.41	327.94
368.636	351.94
368.862	345.94
369.089	338.94
369.315	315.94
369.541	315.94
369.767	344.94
369.993	329.94
370.219	313.94
370.445	348.94
370.672	317.94
370.898	323.94
371.124	314.94
371.35	335.94
371.576	334.94
371.802	321.94
372.028	343.94
372.254	336.94
372.48	340.94
372.706	341.94
372.932	326.94
373.158	341.94
373.384	331.94
373.61	353.94
373.835	347.94
374.061	318.94
374.287	340.94
374.513	335.94
374.739	337.94
374.965	331.94
375.191	356.94
375.416	335.94
375.642	290.94
375.868	327.94
376.094	316.94
376.319	332.94
376.545	340.94
376.771	333.94
376.997	330.94
377.222	342.94
377.448	314.94
377.674	333.94
377.899	336.94
378.125	316.94
378.35	342.94
378.576	324.94
378.802	305.94
379.027	336.94
379.253	317.94
379.478	328.94
379.704	322.94
379.929	321.94
380.155	335.94
380.38	344.94
380.606	332.94
380.831	326.94
381.057	338.94
381.282	342.94
381.507	334.94
381.733	350.94
381.958	304.94
382.184	338.94
382.409	333.94
382.634	348.94
382.86	335.94
383.085	333.94
383.31	322.94
383.535	336.94
383.761	328.94
383.986	354.94
384.211	320.94
384.436	344.94
384.662	331.94
384.887	343.94
385.112	340.94
385.337	341.94
385.562	358.94
385.787	349.94
386.013	345.94
386.238	371.94
386.463	354.94
386.688	348.94
386.913	349.94
387.138	326.94
387.363	352.94
387.588	347.94
387.813	364.94
388.038	354.94
388.263	350.94
388.488	337.94
388.713	365.94
388.938	346.94
389.163	359.94
389.387	341.94
389.612	345.94
389.837	331.94
390.062	366.94
390.287	356.94
390.512	352.94
390.736	361.94
390.961	349.94
391.186	341.94
391.411	346.94
391.636	365.94
391.86	358.94
392.085	395.94
392.31	360.94
392.534	354.94
392.759	372.94
392.984	362.94
393.208	354.94
393.433	350.94
393.658	359.94
393.882	337.94
394.107	360.94
394.331	364.94
394.556	354.94
394.78	337.94
395.005	364.94
395.229	341.94
395.454	375.94
395.678	384.94
395.903	372.94
396.127	398.94
396.352	392.94
396.576	381.94
396.801	365.94
397.025	358.94
397.249	365.94
397.474	375.94
397.698	372.94
397.922	379.94
398.147	400.94
398.371	399.94
398.595	379.94
398.82	394.94
399.044	409.94
399.268	413.94
399.492	418.94
399.717	427.94
399.941	461.94
400.165	465.94
400.389	479.94
400.613	439.94
400.837	424.94
401.062	422.94
401.286	397.94
401.51	409.94
401.734	398.94
401.958	396.94
402.182	405.94
402.406	406.94
402.63	421.94
402.854	422.94
403.078	401.94
403.302	413.94
403.526	415.94
403.75	412.94
403.974	427.94
404.198	411.94
404.422	433.94
404.645	430.94
404.869	442.94
405.093	454.94
405.317	460.94
405.541	473.94
405.765	475.94
405.988	436.94
406.212	458.94
406.436	450.94
406.66	463.94
406.883	457.94
407.107	479.94
407.331	498.94
407.555	541.94
407.778	544.94
408.002	480.94
408.226	472.94
408.449	447.94
408.673	431.94
408.896	467.94
409.12	469.94
409.344	470.94
409.567	431.94
409.791	395.94
410.014	428.94
410.238	420.94
410.461	403.94
410.685	422.94
410.908	408.94
411.132	453.94
411.355	480.94
411.578	442.94
411.802	428.94
412.025	431.94
412.249	428.94
412.472	415.94
412.695	473.94
412.919	457.94
413.142	423.94
413.365	419.94
413.589	401.94
413.812	401.94
414.035	408.94
414.258	396.94
414.482	379.94
414.705	387.94
414.928	394.94
415.151	397.94
415.374	398.94
415.597	389.94
415.821	399.94
416.044	387.94
416.267	399.94
416.49	390.94
416.713	377.94
416.936	378.94
417.159	399.94
417.382	402.94
417.605	408.94
417.828	392.94
418.051	397.94
418.274	396.94
418.497	410.94
418.72	396.94
418.943	401.94
419.166	405.94
419.389	424.94
419.611	407.94
419.834	421.94
420.057	415.94
420.28	410.94
420.503	411.94
420.726	420.94
420.948	428.94
421.171	472.94
421.394	470.94
421.617	420.94
421.839	415.94
422.062	432.94
422.285	432.94
422.507	446.94
422.73	514.94
422.953	503.94
423.175	448.94
423.398	426.94
423.621	426.94
423.843	431.94
424.066	429.94
424.288	439.94
424.511	459.94
424.733	496.94
424.956	568.94
425.178	536.94
425.401	533.94
425.623	533.94
425.846	478.94
426.068	458.94
426.291	441.94
426.513	450.94
426.735	439.94
426.958	490.94
427.18	536.94
427.402	652.94
427.625	698.94
427.847	631.94
428.069	535.94
428.292	484.94
428.514	452.94
428.736	445.94
428.958	425.94
429.181	406.94
429.403	381.94
429.625	401.94
429.847	461.94
430.069	476.94
430.292	477.94
430.514	432.94
430.736	410.94
430.958	406.94
431.18	403.94
431.402	402.94
431.624	386.94
431.846	388.94
432.068	383.94
432.29	384.94
432.512	397.94
432.734	408.94
432.956	390.94
433.178	406.94
433.4	398.94
433.622	389.94
433.844	394.94
434.066	386.94
434.287	390.94
434.509	386.94
434.731	393.94
434.953	402.94
435.175	390.94
435.397	432.94
435.618	445.94
435.84	486.94
436.062	542.94
436.284	584.94
436.505	496.94
436.727	454.94
436.949	423.94
437.17	415.94
437.392	427.94
437.614	433.94
437.835	455.94
438.057	542.94
438.278	588.94
438.5	598.94
438.721	644.94
438.943	602.94
439.165	500.94
439.386	454.94
439.608	466.94
439.829	444.94
440.05	484.94
440.272	524.94
440.493	479.94
440.715	439.94
440.936	420.94
441.158	425.94
441.379	414.94
441.6	436.94
441.822	443.94
442.043	483.94
442.264	551.94
442.486	566.94
442.707	496.94
442.928	480.94
443.149	481.94
443.371	479.94
443.592	518.94
443.813	568.94
444.034	601.94
444.255	526.94
444.476	482.94
444.698	449.94
444.919	450.94
445.14	524.94
445.361	482.94
445.582	462.94
445.803	529.94
446.024	600.94
446.245	605.94
446.466	572.94
446.687	480.94
446.908	451.94
447.129	448.94
447.35	423.94
447.571	403.94
447.792	416.94
448.013	411.94
448.234	450.94
448.455	494.94
448.675	549.94
448.896	644.94
449.117	556.94
449.338	533.94
449.559	575.94
449.779	670.94
450	553.94
450.221	448.94
450.442	432.94
450.662	405.94
450.883	412.94
451.104	438.94
451.324	417.94
451.545	406.94
451.766	378.94
451.986	386.94
452.207	370.94
452.428	361.94
452.648	369.94
452.869	372.94
453.089	384.94
453.31	410.94
453.53	389.94
453.751	375.94
453.971	392.94
454.192	403.94
454.412	408.94
454.633	367.94
454.853	372.94
455.073	374.94
455.294	402.94
455.514	442.94
455.734	442.94
455.955	367.94
456.175	350.94
456.395	349.94
456.616	358.94
456.836	356.94
457.056	356.94
457.276	349.94
457.497	376.94
457.717	352.94
457.937	374.94
458.157	366.94
458.377	368.94
458.598	379.94
458.818	429.94
459.038	502.94
459.258	500.94
459.478	424.94
459.698	402.94
459.918	381.94
460.138	389.94
460.358	409.94
460.578	384.94
460.798	387.94
461.018	390.94
461.238	395.94
461.458	399.94
461.678	379.94
461.898	398.94
462.118	410.94
462.338	402.94
462.558	415.94
462.777	408.94
462.997	425.94
463.217	409.94
463.437	422.94
463.657	424.94
463.876	397.94
464.096	411.94
464.316	414.94
464.536	422.94
464.755	433.94
464.975	436.94
465.195	448.94
465.414	528.94
465.634	490.94
465.854	402.94
466.073	406.94
466.293	381.94
466.512	393.94
466.732	369.94
466.951	373.94
467.171	392.94
467.391	380.94
467.61	425.94
467.829	406.94
468.049	393.94
468.268	400.94
468.488	377.94
468.707	381.94
468.927	403.94
469.146	380.94
469.365	353.94
469.585	354.94
469.804	392.94
470.023	390.94
470.243	390.94
470.462	389.94
470.681	402.94
470.901	420.94
471.12	393.94
471.339	402.94
471.558	400.94
471.777	399.94
471.997	376.94
472.216	407.94
472.435	454.94
472.654	426.94
472.873	378.94
473.092	410.94
473.311	383.94
473.53	395.94
473.749	417.94
473.968	416.94
474.187	513.94
474.406	537.94
474.625	433.94
474.844	392.94
475.063	395.94
475.282	384.94
475.501	388.94
475.72	400.94
475.939	384.94
476.158	382.94
476.377	392.94
476.596	401.94
476.814	420.94
477.033	399.94
477.252	407.94
477.471	411.94
477.69	408.94
477.908	434.94
478.127	405.94
478.346	438.94
478.564	440.94
478.783	430.94
479.002	439.94
479.22	440.94
479.439	432.94
479.658	463.94
479.876	477.94
480.095	459.94
480.313	502.94
480.532	475.94
480.751	468.94
480.969	496.94
481.188	529.94
481.406	572.94
481.624	500.94
481.843	465.94
482.061	461.94
482.28	474.94
482.498	462.94
482.717	446.94
482.935	454.94
483.153	461.94
483.372	454.94
483.59	448.94
483.808	445.94
484.027	453.94
484.245	474.94
484.463	470.94
484.681	474.94
484.9	460.94
485.118	447.94
485.336	461.94
485.554	455.94
485.772	460.94
485.99	469.94
486.209	452.94
486.427	473.94
486.645	489.94
486.863	492.94
487.081	495.94
487.299	502.94
487.517	493.94
487.735	496.94
487.953	491.94
488.171	497.94
488.389	507.94
488.607	511.94
488.825	481.94
489.043	489.94
489.261	492.94
489.479	478.94
489.696	463.94
489.914	479.94
490.132	507.94
490.35	508.94
490.568	505.94
490.786	526.94
491.003	524.94
491.221	528.94
491.439	532.94
491.657	560.94
491.874	565.94
492.092	536.94
492.31	551.94
492.527	545.94
492.745	541.94
492.963	545.94
493.18	541.94
493.398	565.94
493.615	554.94
493.833	545.94
494.05	554.94
494.268	549.94
494.485	551.94
494.703	550.94
494.92	586.94
495.138	556.94
495.355	553.94
495.573	572.94
495.79	555.94
496.008	594.94
496.225	575.94
496.442	572.94
496.66	562.94
496.877	580.94
497.094	595.94
497.312	568.94
497.529	594.94
497.746	583.94
497.963	600.94
498.181	638.94
498.398	644.94
498.615	602.94
498.832	634.94
499.049	633.94
499.267	646.94
499.484	679.94
499.701	688.94
499.918	670.94
500.135	690.94
500.352	738.94
500.569	750.94
500.786	734.94
501.003	730.94
501.22	714.94
501.437	705.94
501.654	712.94
501.871	689.94
502.088	676.94
