Data from 1965.PennyLincolnUp.Lamp.En5.5.200Scan.071719.P1._HRD10591_14-09-03-912.txt Node
Date: Thu Jul 18 14:09:03 EDT 2019
User: cochatt
Spectrometer: HR+D1059
Trigger mode: 1
Integration Time (sec): 1.000000E-1
Scans to average: 1
Electric dark correction enabled: true
Nonlinearity correction enabled: false
Boxcar width: 0
XAxis mode: Wavelengths
Number of Pixels in Spectrum: 2048
>>>>>Begin Spectral Data<<<<<
223.165	-9.81
223.4	-9.81
223.635	-9.81
223.869	-11.81
224.104	-1.81
224.338	-25.81
224.573	-10.81
224.808	-21.81
225.042	3.19
225.277	-12.81
225.511	-13.81
225.746	6.19
225.98	-0.81
226.215	19.19
226.449	5.19
226.683	22.19
226.918	30.19
227.152	23.19
227.387	19.19
227.621	42.19
227.856	29.19
228.09	39.19
228.324	40.19
228.559	61.19
228.793	79.19
229.027	96.19
229.262	107.19
229.496	119.19
229.73	127.19
229.964	154.19
230.199	114.19
230.433	92.19
230.667	113.19
230.901	98.19
231.136	120.19
231.37	105.19
231.604	96.19
231.838	105.19
232.072	121.19
232.306	106.19
232.541	114.19
232.775	110.19
233.009	99.19
233.243	118.19
233.477	104.19
233.711	101.19
233.945	119.19
234.179	114.19
234.413	96.19
234.647	112.19
234.881	113.19
235.115	98.19
235.349	104.19
235.583	106.19
235.817	125.19
236.051	112.19
236.285	127.19
236.519	114.19
236.753	118.19
236.987	135.19
237.221	181.19
237.455	231.19
237.689	182.19
237.922	144.19
238.156	131.19
238.39	125.19
238.624	119.19
238.858	128.19
239.091	120.19
239.325	123.19
239.559	121.19
239.793	123.19
240.027	127.19
240.26	126.19
240.494	156.19
240.728	155.19
240.961	142.19
241.195	132.19
241.429	133.19
241.662	108.19
241.896	112.19
242.13	108.19
242.363	133.19
242.597	121.19
242.83	128.19
243.064	131.19
243.298	143.19
243.531	135.19
243.765	134.19
243.998	133.19
244.232	133.19
244.465	133.19
244.699	133.19
244.932	117.19
245.166	132.19
245.399	128.19
245.633	139.19
245.866	142.19
246.099	140.19
246.333	152.19
246.566	148.19
246.8	146.19
247.033	128.19
247.266	158.19
247.5	153.19
247.733	156.19
247.966	143.19
248.2	151.19
248.433	161.19
248.666	157.19
248.899	170.19
249.133	183.19
249.366	196.19
249.599	196.19
249.832	184.19
250.066	161.19
250.299	168.19
250.532	172.19
250.765	191.19
250.998	192.19
251.231	202.19
251.465	190.19
251.698	186.19
251.931	182.19
252.164	177.19
252.397	172.19
252.63	155.19
252.863	170.19
253.096	185.19
253.329	203.19
253.562	189.19
253.795	189.19
254.028	202.19
254.261	190.19
254.494	216.19
254.727	231.19
254.96	233.19
255.193	243.19
255.426	220.19
255.659	199.19
255.892	205.19
256.124	198.19
256.357	229.19
256.59	217.19
256.823	204.19
257.056	195.19
257.289	199.19
257.521	193.19
257.754	186.19
257.987	192.19
258.22	187.19
258.452	199.19
258.685	170.19
258.918	193.19
259.151	202.19
259.383	217.19
259.616	206.19
259.849	201.19
260.081	223.19
260.314	229.19
260.547	224.19
260.779	220.19
261.012	207.19
261.244	193.19
261.477	206.19
261.71	213.19
261.942	201.19
262.175	224.19
262.407	215.19
262.64	174.19
262.872	181.19
263.105	179.19
263.337	184.19
263.57	198.19
263.802	188.19
264.035	185.19
264.267	174.19
264.499	178.19
264.732	200.19
264.964	194.19
265.197	183.19
265.429	192.19
265.661	186.19
265.894	186.19
266.126	203.19
266.358	200.19
266.591	197.19
266.823	205.19
267.055	214.19
267.287	209.19
267.52	193.19
267.752	186.19
267.984	213.19
268.216	204.19
268.448	205.19
268.681	214.19
268.913	224.19
269.145	248.19
269.377	250.19
269.609	252.19
269.841	235.19
270.073	240.19
270.306	267.19
270.538	273.19
270.77	274.19
271.002	269.19
271.234	267.19
271.466	261.19
271.698	257.19
271.93	270.19
272.162	281.19
272.394	279.19
272.626	267.19
272.858	264.19
273.09	263.19
273.322	242.19
273.553	241.19
273.785	241.19
274.017	223.19
274.249	237.19
274.481	231.19
274.713	240.19
274.945	248.19
275.176	222.19
275.408	221.19
275.64	226.19
275.872	242.19
276.104	235.19
276.335	246.19
276.567	245.19
276.799	241.19
277.031	290.19
277.262	290.19
277.494	281.19
277.726	271.19
277.957	271.19
278.189	256.19
278.421	230.19
278.652	246.19
278.884	231.19
279.115	239.19
279.347	226.19
279.579	246.19
279.81	240.19
280.042	233.19
280.273	230.19
280.505	230.19
280.736	239.19
280.968	217.19
281.199	236.19
281.431	227.19
281.662	242.19
281.894	231.19
282.125	229.19
282.356	247.19
282.588	269.19
282.819	271.19
283.051	241.19
283.282	246.19
283.513	259.19
283.745	266.19
283.976	241.19
284.207	261.19
284.439	233.19
284.67	246.19
284.901	251.19
285.132	223.19
285.364	223.19
285.595	241.19
285.826	226.19
286.057	231.19
286.288	241.19
286.52	235.19
286.751	247.19
286.982	229.19
287.213	257.19
287.444	236.19
287.675	243.19
287.906	261.19
288.138	268.19
288.369	262.19
288.6	243.19
288.831	258.19
289.062	277.19
289.293	269.19
289.524	242.19
289.755	271.19
289.986	259.19
290.217	262.19
290.448	236.19
290.679	249.19
290.91	247.19
291.141	249.19
291.371	257.19
291.602	251.19
291.833	268.19
292.064	242.19
292.295	251.19
292.526	262.19
292.757	253.19
292.987	241.19
293.218	261.19
293.449	245.19
293.68	274.19
293.91	256.19
294.141	266.19
294.372	254.19
294.603	250.19
294.833	262.19
295.064	253.19
295.295	241.19
295.525	263.19
295.756	258.19
295.987	265.19
296.217	285.19
296.448	312.19
296.679	260.19
296.909	263.19
297.14	258.19
297.37	265.19
297.601	260.19
297.831	259.19
298.062	261.19
298.292	263.19
298.523	257.19
298.753	267.19
298.984	261.19
299.214	254.19
299.445	275.19
299.675	280.19
299.905	281.19
300.136	274.19
300.366	249.19
300.597	263.19
300.827	271.19
301.057	303.19
301.288	286.19
301.518	288.19
301.748	282.19
301.979	281.19
302.209	292.19
302.439	285.19
302.669	295.19
302.9	293.19
303.13	279.19
303.36	295.19
303.59	287.19
303.82	305.19
304.051	299.19
304.281	273.19
304.511	285.19
304.741	280.19
304.971	272.19
305.201	278.19
305.431	287.19
305.661	276.19
305.891	288.19
306.121	285.19
306.352	290.19
306.582	299.19
306.812	281.19
307.042	282.19
307.272	285.19
307.502	289.19
307.731	295.19
307.961	301.19
308.191	307.19
308.421	279.19
308.651	306.19
308.881	279.19
309.111	303.19
309.341	296.19
309.571	304.19
309.8	335.19
310.03	337.19
310.26	308.19
310.49	349.19
310.72	335.19
310.949	356.19
311.179	351.19
311.409	335.19
311.639	354.19
311.868	349.19
312.098	338.19
312.328	340.19
312.557	347.19
312.787	362.19
313.017	364.19
313.246	342.19
313.476	321.19
313.706	353.19
313.935	322.19
314.165	344.19
314.394	345.19
314.624	349.19
314.853	329.19
315.083	341.19
315.312	316.19
315.542	339.19
315.771	314.19
316.001	310.19
316.23	329.19
316.46	331.19
316.689	349.19
316.919	337.19
317.148	347.19
317.377	340.19
317.607	364.19
317.836	348.19
318.065	331.19
318.295	338.19
318.524	324.19
318.753	341.19
318.983	343.19
319.212	336.19
319.441	344.19
319.67	364.19
319.9	343.19
320.129	331.19
320.358	347.19
320.587	345.19
320.816	341.19
321.046	383.19
321.275	377.19
321.504	369.19
321.733	349.19
321.962	380.19
322.191	382.19
322.42	383.19
322.649	403.19
322.878	427.19
323.108	421.19
323.337	425.19
323.566	474.19
323.795	502.19
324.024	542.19
324.253	686.19
324.482	989.19
324.71	1472.19
324.939	2029.19
325.168	1725.19
325.397	938.19
325.626	643.19
325.855	519.19
326.084	472.19
326.313	447.19
326.542	473.19
326.77	506.19
326.999	611.19
327.228	858.19
327.457	1297.19
327.686	1487.19
327.914	998.19
328.143	697.19
328.372	594.19
328.6	560.19
328.829	520.19
329.058	538.19
329.287	538.19
329.515	528.19
329.744	464.19
329.972	461.19
330.201	499.19
330.43	542.19
330.658	555.19
330.887	583.19
331.115	575.19
331.344	492.19
331.572	447.19
331.801	466.19
332.03	450.19
332.258	412.19
332.486	413.19
332.715	401.19
332.943	403.19
333.172	393.19
333.4	383.19
333.629	398.19
333.857	405.19
334.085	442.19
334.314	456.19
334.542	471.19
334.771	501.19
334.999	466.19
335.227	411.19
335.455	405.19
335.684	394.19
335.912	383.19
336.14	387.19
336.369	379.19
336.597	395.19
336.825	394.19
337.053	385.19
337.281	377.19
337.51	370.19
337.738	389.19
337.966	361.19
338.194	374.19
338.422	379.19
338.65	366.19
338.878	355.19
339.106	366.19
339.334	380.19
339.562	369.19
339.79	375.19
340.018	382.19
340.246	366.19
340.474	379.19
340.702	391.19
340.93	361.19
341.158	382.19
341.386	377.19
341.614	389.19
341.842	381.19
342.07	364.19
342.298	358.19
342.526	358.19
342.754	346.19
342.981	357.19
343.209	371.19
343.437	373.19
343.665	359.19
343.893	373.19
344.12	373.19
344.348	373.19
344.576	378.19
344.804	382.19
345.031	387.19
345.259	415.19
345.487	390.19
345.714	395.19
345.942	365.19
346.17	362.19
346.397	370.19
346.625	388.19
346.853	375.19
347.08	361.19
347.308	367.19
347.535	375.19
347.763	389.19
347.99	397.19
348.218	395.19
348.445	387.19
348.673	401.19
348.9	357.19
349.128	375.19
349.355	353.19
349.583	368.19
349.81	353.19
350.037	358.19
350.265	350.19
350.492	359.19
350.72	366.19
350.947	367.19
351.174	376.19
351.402	377.19
351.629	379.19
351.856	361.19
352.083	379.19
352.311	400.19
352.538	381.19
352.765	386.19
352.992	370.19
353.22	370.19
353.447	357.19
353.674	357.19
353.901	343.19
354.128	332.19
354.355	355.19
354.583	348.19
354.81	334.19
355.037	331.19
355.264	325.19
355.491	330.19
355.718	328.19
355.945	342.19
356.172	313.19
356.399	327.19
356.626	344.19
356.853	342.19
357.08	336.19
357.307	349.19
357.534	337.19
357.761	338.19
357.988	341.19
358.215	327.19
358.441	328.19
358.668	334.19
358.895	352.19
359.122	349.19
359.349	352.19
359.576	374.19
359.802	399.19
360.029	434.19
360.256	404.19
360.483	413.19
360.709	363.19
360.936	358.19
361.163	377.19
361.39	355.19
361.616	366.19
361.843	373.19
362.07	369.19
362.296	379.19
362.523	381.19
362.749	353.19
362.976	354.19
363.203	351.19
363.429	350.19
363.656	358.19
363.882	361.19
364.109	352.19
364.335	342.19
364.562	357.19
364.788	354.19
365.015	352.19
365.241	351.19
365.468	369.19
365.694	365.19
365.92	361.19
366.147	339.19
366.373	353.19
366.599	358.19
366.826	348.19
367.052	341.19
367.278	338.19
367.505	345.19
367.731	349.19
367.957	341.19
368.184	333.19
368.41	350.19
368.636	348.19
368.862	364.19
369.089	344.19
369.315	342.19
369.541	339.19
369.767	339.19
369.993	335.19
370.219	342.19
370.445	342.19
370.672	325.19
370.898	356.19
371.124	327.19
371.35	337.19
371.576	346.19
371.802	348.19
372.028	332.19
372.254	335.19
372.48	331.19
372.706	325.19
372.932	348.19
373.158	345.19
373.384	335.19
373.61	338.19
373.835	341.19
374.061	350.19
374.287	340.19
374.513	343.19
374.739	345.19
374.965	347.19
375.191	323.19
375.416	344.19
375.642	342.19
375.868	344.19
376.094	344.19
376.319	325.19
376.545	346.19
376.771	327.19
376.997	341.19
377.222	350.19
377.448	335.19
377.674	339.19
377.899	333.19
378.125	326.19
378.35	350.19
378.576	335.19
378.802	317.19
379.027	328.19
379.253	328.19
379.478	325.19
379.704	327.19
379.929	344.19
380.155	334.19
380.38	315.19
380.606	343.19
380.831	347.19
381.057	335.19
381.282	352.19
381.507	328.19
381.733	320.19
381.958	348.19
382.184	335.19
382.409	337.19
382.634	333.19
382.86	360.19
383.085	352.19
383.31	351.19
383.535	350.19
383.761	344.19
383.986	352.19
384.211	366.19
384.436	353.19
384.662	350.19
384.887	370.19
385.112	339.19
385.337	375.19
385.562	345.19
385.787	369.19
386.013	393.19
386.238	367.19
386.463	384.19
386.688	347.19
386.913	341.19
387.138	374.19
387.363	373.19
387.588	365.19
387.813	352.19
388.038	351.19
388.263	368.19
388.488	370.19
388.713	347.19
388.938	370.19
389.163	365.19
389.387	349.19
389.612	371.19
389.837	381.19
390.062	352.19
390.287	355.19
390.512	343.19
390.736	352.19
390.961	354.19
391.186	362.19
391.411	356.19
391.636	371.19
391.86	366.19
392.085	377.19
392.31	368.19
392.534	368.19
392.759	379.19
392.984	375.19
393.208	378.19
393.433	355.19
393.658	379.19
393.882	397.19
394.107	352.19
394.331	373.19
394.556	362.19
394.78	383.19
395.005	370.19
395.229	369.19
395.454	374.19
395.678	383.19
395.903	376.19
396.127	394.19
396.352	394.19
396.576	375.19
396.801	345.19
397.025	383.19
397.249	376.19
397.474	391.19
397.698	371.19
397.922	395.19
398.147	403.19
398.371	417.19
398.595	386.19
398.82	418.19
399.044	416.19
399.268	423.19
399.492	451.19
399.717	447.19
399.941	451.19
400.165	489.19
400.389	501.19
400.613	443.19
400.837	414.19
401.062	400.19
401.286	421.19
401.51	402.19
401.734	409.19
401.958	409.19
402.182	403.19
402.406	431.19
402.63	449.19
402.854	399.19
403.078	412.19
403.302	417.19
403.526	428.19
403.75	428.19
403.974	417.19
404.198	391.19
404.422	423.19
404.645	426.19
404.869	433.19
405.093	482.19
405.317	495.19
405.541	518.19
405.765	467.19
405.988	475.19
406.212	484.19
406.436	496.19
406.66	520.19
406.883	469.19
407.107	486.19
407.331	520.19
407.555	573.19
407.778	574.19
408.002	495.19
408.226	452.19
408.449	470.19
408.673	476.19
408.896	485.19
409.12	507.19
409.344	487.19
409.567	465.19
409.791	430.19
410.014	432.19
410.238	428.19
410.461	439.19
410.685	447.19
410.908	416.19
411.132	467.19
411.355	506.19
411.578	484.19
411.802	437.19
412.025	429.19
412.249	430.19
412.472	466.19
412.695	481.19
412.919	471.19
413.142	439.19
413.365	409.19
413.589	422.19
413.812	414.19
414.035	419.19
414.258	395.19
414.482	381.19
414.705	402.19
414.928	406.19
415.151	390.19
415.374	425.19
415.597	410.19
415.821	391.19
416.044	397.19
416.267	409.19
416.49	396.19
416.713	391.19
416.936	409.19
417.159	403.19
417.382	408.19
417.605	409.19
417.828	418.19
418.051	415.19
418.274	418.19
418.497	418.19
418.72	424.19
418.943	395.19
419.166	410.19
419.389	437.19
419.611	426.19
419.834	423.19
420.057	425.19
420.28	412.19
420.503	439.19
420.726	429.19
420.948	415.19
421.171	473.19
421.394	484.19
421.617	411.19
421.839	427.19
422.062	433.19
422.285	446.19
422.507	480.19
422.73	549.19
422.953	510.19
423.175	466.19
423.398	454.19
423.621	453.19
423.843	440.19
424.066	462.19
424.288	465.19
424.511	481.19
424.733	527.19
424.956	570.19
425.178	549.19
425.401	547.19
425.623	573.19
425.846	506.19
426.068	475.19
426.291	451.19
426.513	451.19
426.735	475.19
426.958	491.19
427.18	569.19
427.402	665.19
427.625	722.19
427.847	684.19
428.069	575.19
428.292	524.19
428.514	480.19
428.736	429.19
428.958	445.19
429.181	433.19
429.403	425.19
429.625	438.19
429.847	456.19
430.069	507.19
430.292	493.19
430.514	449.19
430.736	431.19
430.958	449.19
431.18	416.19
431.402	402.19
431.624	399.19
431.846	409.19
432.068	399.19
432.29	405.19
432.512	396.19
432.734	402.19
432.956	406.19
433.178	429.19
433.4	419.19
433.622	432.19
433.844	407.19
434.066	408.19
434.287	408.19
434.509	413.19
434.731	401.19
434.953	411.19
435.175	452.19
435.397	453.19
435.618	484.19
435.84	512.19
436.062	586.19
436.284	606.19
436.505	514.19
436.727	476.19
436.949	446.19
437.17	441.19
437.392	427.19
437.614	453.19
437.835	479.19
438.057	565.19
438.278	635.19
438.5	637.19
438.721	680.19
438.943	643.19
439.165	497.19
439.386	473.19
439.608	476.19
439.829	472.19
440.05	514.19
440.272	527.19
440.493	503.19
440.715	468.19
440.936	436.19
441.158	434.19
441.379	434.19
441.6	449.19
441.822	465.19
442.043	516.19
442.264	553.19
442.486	597.19
442.707	504.19
442.928	478.19
443.149	478.19
443.371	519.19
443.592	537.19
443.813	601.19
444.034	615.19
444.255	561.19
444.476	487.19
444.698	471.19
444.919	460.19
445.14	553.19
445.361	503.19
445.582	486.19
445.803	563.19
446.024	663.19
446.245	671.19
446.466	603.19
446.687	515.19
446.908	486.19
447.129	443.19
447.35	440.19
447.571	437.19
447.792	425.19
448.013	434.19
448.234	472.19
448.455	511.19
448.675	589.19
448.896	675.19
449.117	571.19
449.338	545.19
449.559	629.19
449.779	701.19
450	559.19
450.221	504.19
450.442	432.19
450.662	435.19
450.883	434.19
451.104	448.19
451.324	437.19
451.545	416.19
451.766	397.19
451.986	410.19
452.207	403.19
452.428	386.19
452.648	400.19
452.869	393.19
453.089	393.19
453.31	405.19
453.53	403.19
453.751	417.19
453.971	404.19
454.192	417.19
454.412	410.19
454.633	397.19
454.853	399.19
455.073	386.19
455.294	434.19
455.514	465.19
455.734	439.19
455.955	391.19
456.175	384.19
456.395	385.19
456.616	376.19
456.836	358.19
457.056	376.19
457.276	349.19
457.497	370.19
457.717	371.19
457.937	381.19
458.157	377.19
458.377	384.19
458.598	414.19
458.818	485.19
459.038	541.19
459.258	553.19
459.478	466.19
459.698	429.19
459.918	414.19
460.138	393.19
460.358	397.19
460.578	394.19
460.798	421.19
461.018	429.19
461.238	413.19
461.458	415.19
461.678	396.19
461.898	419.19
462.118	412.19
462.338	418.19
462.558	438.19
462.777	431.19
462.997	417.19
463.217	410.19
463.437	434.19
463.657	441.19
463.876	454.19
464.096	429.19
464.316	433.19
464.536	436.19
464.755	434.19
464.975	445.19
465.195	503.19
465.414	562.19
465.634	497.19
465.854	448.19
466.073	431.19
466.293	413.19
466.512	411.19
466.732	384.19
466.951	405.19
467.171	413.19
467.391	419.19
467.61	412.19
467.829	438.19
468.049	413.19
468.268	405.19
468.488	408.19
468.707	386.19
468.927	387.19
469.146	380.19
469.365	372.19
469.585	380.19
469.804	384.19
470.023	411.19
470.243	409.19
470.462	401.19
470.681	434.19
470.901	423.19
471.12	401.19
471.339	421.19
471.558	414.19
471.777	394.19
471.997	409.19
472.216	399.19
472.435	461.19
472.654	449.19
472.873	427.19
473.092	418.19
473.311	403.19
473.53	404.19
473.749	417.19
473.968	452.19
474.187	546.19
474.406	555.19
474.625	480.19
474.844	420.19
475.063	408.19
475.282	407.19
475.501	400.19
475.72	413.19
475.939	387.19
476.158	411.19
476.377	429.19
476.596	421.19
476.814	428.19
477.033	427.19
477.252	428.19
477.471	410.19
477.69	429.19
477.908	438.19
478.127	442.19
478.346	416.19
478.564	446.19
478.783	453.19
479.002	470.19
479.22	461.19
479.439	467.19
479.658	498.19
479.876	471.19
480.095	515.19
480.313	526.19
480.532	503.19
480.751	492.19
480.969	488.19
481.188	560.19
481.406	598.19
481.624	527.19
481.843	493.19
482.061	487.19
482.28	483.19
482.498	465.19
482.717	456.19
482.935	482.19
483.153	471.19
483.372	483.19
483.59	492.19
483.808	481.19
484.027	474.19
484.245	449.19
484.463	477.19
484.681	475.19
484.9	466.19
485.118	475.19
485.336	469.19
485.554	469.19
485.772	488.19
485.99	493.19
486.209	476.19
486.427	488.19
486.645	515.19
486.863	520.19
487.081	529.19
487.299	519.19
487.517	506.19
487.735	507.19
487.953	511.19
488.171	523.19
488.389	504.19
488.607	504.19
488.825	514.19
489.043	496.19
489.261	503.19
489.479	511.19
489.696	534.19
489.914	532.19
490.132	537.19
490.35	533.19
490.568	538.19
490.786	533.19
491.003	540.19
491.221	562.19
491.439	543.19
491.657	568.19
491.874	590.19
492.092	567.19
492.31	566.19
492.527	576.19
492.745	598.19
492.963	594.19
493.18	575.19
493.398	613.19
493.615	603.19
493.833	594.19
494.05	598.19
494.268	601.19
494.485	603.19
494.703	600.19
494.92	606.19
495.138	607.19
495.355	577.19
495.573	595.19
495.79	608.19
496.008	601.19
496.225	601.19
496.442	582.19
496.66	624.19
496.877	611.19
497.094	610.19
497.312	596.19
497.529	616.19
497.746	611.19
497.963	645.19
498.181	647.19
498.398	654.19
498.615	656.19
498.832	658.19
499.049	673.19
499.267	671.19
499.484	681.19
499.701	714.19
499.918	727.19
500.135	721.19
500.352	773.19
500.569	797.19
500.786	775.19
501.003	775.19
501.22	775.19
501.437	751.19
501.654	730.19
501.871	727.19
502.088	718.19
