Data from 1965.PennyLincolnUp.Lamp.En5.5.200Scan.071719.P1._HRD10591_14-09-41-911.txt Node
Date: Thu Jul 18 14:09:41 EDT 2019
User: cochatt
Spectrometer: HR+D1059
Trigger mode: 1
Integration Time (sec): 1.000000E-1
Scans to average: 1
Electric dark correction enabled: true
Nonlinearity correction enabled: false
Boxcar width: 0
XAxis mode: Wavelengths
Number of Pixels in Spectrum: 2048
>>>>>Begin Spectral Data<<<<<
223.165	-6.31
223.4	-6.31
223.635	-6.31
223.869	-21.31
224.104	-17.31
224.338	-14.31
224.573	-25.31
224.808	-10.31
225.042	-10.31
225.277	-1.31
225.511	-1.31
225.746	-4.31
225.98	2.69
226.215	20.69
226.449	23.69
226.683	21.69
226.918	29.69
227.152	13.69
227.387	44.69
227.621	31.69
227.856	41.69
228.09	40.69
228.324	56.69
228.559	53.69
228.793	85.69
229.027	97.69
229.262	83.69
229.496	109.69
229.73	120.69
229.964	144.69
230.199	120.69
230.433	110.69
230.667	105.69
230.901	125.69
231.136	107.69
231.37	108.69
231.604	111.69
231.838	96.69
232.072	96.69
232.306	112.69
232.541	113.69
232.775	113.69
233.009	114.69
233.243	107.69
233.477	110.69
233.711	115.69
233.945	111.69
234.179	125.69
234.413	117.69
234.647	115.69
234.881	103.69
235.115	116.69
235.349	120.69
235.583	117.69
235.817	99.69
236.051	106.69
236.285	121.69
236.519	114.69
236.753	125.69
236.987	139.69
237.221	171.69
237.455	223.69
237.689	179.69
237.922	140.69
238.156	122.69
238.39	130.69
238.624	125.69
238.858	112.69
239.091	105.69
239.325	109.69
239.559	114.69
239.793	130.69
240.027	131.69
240.26	147.69
240.494	122.69
240.728	126.69
240.961	149.69
241.195	132.69
241.429	136.69
241.662	138.69
241.896	122.69
242.13	127.69
242.363	131.69
242.597	120.69
242.83	122.69
243.064	122.69
243.298	126.69
243.531	123.69
243.765	121.69
243.998	131.69
244.232	140.69
244.465	122.69
244.699	126.69
244.932	139.69
245.166	138.69
245.399	130.69
245.633	132.69
245.866	134.69
246.099	151.69
246.333	149.69
246.566	143.69
246.8	140.69
247.033	130.69
247.266	140.69
247.5	154.69
247.733	149.69
247.966	154.69
248.2	166.69
248.433	149.69
248.666	159.69
248.899	173.69
249.133	168.69
249.366	170.69
249.599	188.69
249.832	170.69
250.066	175.69
250.299	159.69
250.532	152.69
250.765	191.69
250.998	196.69
251.231	203.69
251.465	200.69
251.698	193.69
251.931	174.69
252.164	196.69
252.397	195.69
252.63	179.69
252.863	189.69
253.096	195.69
253.329	193.69
253.562	197.69
253.795	202.69
254.028	193.69
254.261	197.69
254.494	221.69
254.727	222.69
254.96	252.69
255.193	253.69
255.426	232.69
255.659	207.69
255.892	215.69
256.124	214.69
256.357	216.69
256.59	206.69
256.823	210.69
257.056	185.69
257.289	199.69
257.521	190.69
257.754	191.69
257.987	191.69
258.22	197.69
258.452	199.69
258.685	196.69
258.918	167.69
259.151	188.69
259.383	184.69
259.616	195.69
259.849	190.69
260.081	200.69
260.314	218.69
260.547	235.69
260.779	226.69
261.012	238.69
261.244	198.69
261.477	206.69
261.71	188.69
261.942	205.69
262.175	202.69
262.407	212.69
262.64	186.69
262.872	208.69
263.105	202.69
263.337	195.69
263.57	199.69
263.802	200.69
264.035	174.69
264.267	204.69
264.499	171.69
264.732	205.69
264.964	193.69
265.197	184.69
265.429	197.69
265.661	192.69
265.894	182.69
266.126	195.69
266.358	188.69
266.591	210.69
266.823	207.69
267.055	202.69
267.287	210.69
267.52	206.69
267.752	209.69
267.984	198.69
268.216	232.69
268.448	222.69
268.681	203.69
268.913	212.69
269.145	232.69
269.377	250.69
269.609	248.69
269.841	231.69
270.073	242.69
270.306	246.69
270.538	268.69
270.77	285.69
271.002	274.69
271.234	261.69
271.466	288.69
271.698	302.69
271.93	293.69
272.162	296.69
272.394	291.69
272.626	268.69
272.858	258.69
273.09	262.69
273.322	250.69
273.553	263.69
273.785	245.69
274.017	227.69
274.249	248.69
274.481	235.69
274.713	250.69
274.945	234.69
275.176	239.69
275.408	232.69
275.64	248.69
275.872	235.69
276.104	241.69
276.335	239.69
276.567	234.69
276.799	250.69
277.031	285.69
277.262	280.69
277.494	279.69
277.726	258.69
277.957	254.69
278.189	232.69
278.421	252.69
278.652	240.69
278.884	243.69
279.115	235.69
279.347	237.69
279.579	239.69
279.81	222.69
280.042	218.69
280.273	254.69
280.505	240.69
280.736	232.69
280.968	249.69
281.199	248.69
281.431	236.69
281.662	230.69
281.894	248.69
282.125	245.69
282.356	239.69
282.588	266.69
282.819	272.69
283.051	235.69
283.282	238.69
283.513	238.69
283.745	252.69
283.976	238.69
284.207	246.69
284.439	230.69
284.67	246.69
284.901	258.69
285.132	260.69
285.364	236.69
285.595	245.69
285.826	239.69
286.057	238.69
286.288	233.69
286.52	250.69
286.751	257.69
286.982	255.69
287.213	238.69
287.444	236.69
287.675	244.69
287.906	286.69
288.138	293.69
288.369	267.69
288.6	255.69
288.831	261.69
289.062	243.69
289.293	250.69
289.524	259.69
289.755	270.69
289.986	250.69
290.217	254.69
290.448	243.69
290.679	262.69
290.91	260.69
291.141	253.69
291.371	262.69
291.602	256.69
291.833	245.69
292.064	255.69
292.295	255.69
292.526	259.69
292.757	264.69
292.987	249.69
293.218	264.69
293.449	277.69
293.68	266.69
293.91	247.69
294.141	243.69
294.372	262.69
294.603	268.69
294.833	250.69
295.064	254.69
295.295	240.69
295.525	251.69
295.756	277.69
295.987	251.69
296.217	286.69
296.448	274.69
296.679	274.69
296.909	248.69
297.14	261.69
297.37	257.69
297.601	271.69
297.831	260.69
298.062	265.69
298.292	267.69
298.523	262.69
298.753	273.69
298.984	288.69
299.214	239.69
299.445	287.69
299.675	282.69
299.905	262.69
300.136	285.69
300.366	289.69
300.597	271.69
300.827	292.69
301.057	301.69
301.288	298.69
301.518	279.69
301.748	283.69
301.979	282.69
302.209	292.69
302.439	300.69
302.669	295.69
302.9	287.69
303.13	283.69
303.36	279.69
303.59	307.69
303.82	284.69
304.051	284.69
304.281	286.69
304.511	277.69
304.741	286.69
304.971	302.69
305.201	283.69
305.431	290.69
305.661	286.69
305.891	281.69
306.121	272.69
306.352	301.69
306.582	296.69
306.812	283.69
307.042	286.69
307.272	290.69
307.502	290.69
307.731	305.69
307.961	297.69
308.191	281.69
308.421	292.69
308.651	312.69
308.881	296.69
309.111	310.69
309.341	324.69
309.571	295.69
309.8	322.69
310.03	330.69
310.26	340.69
310.49	357.69
310.72	364.69
310.949	355.69
311.179	354.69
311.409	335.69
311.639	332.69
311.868	336.69
312.098	337.69
312.328	352.69
312.557	336.69
312.787	347.69
313.017	361.69
313.246	346.69
313.476	331.69
313.706	359.69
313.935	340.69
314.165	355.69
314.394	382.69
314.624	359.69
314.853	334.69
315.083	332.69
315.312	344.69
315.542	314.69
315.771	319.69
316.001	335.69
316.23	340.69
316.46	329.69
316.689	348.69
316.919	358.69
317.148	361.69
317.377	355.69
317.607	352.69
317.836	333.69
318.065	343.69
318.295	349.69
318.524	336.69
318.753	327.69
318.983	343.69
319.212	330.69
319.441	347.69
319.67	363.69
319.9	351.69
320.129	339.69
320.358	340.69
320.587	349.69
320.816	354.69
321.046	367.69
321.275	375.69
321.504	360.69
321.733	368.69
321.962	378.69
322.191	374.69
322.42	396.69
322.649	412.69
322.878	408.69
323.108	435.69
323.337	426.69
323.566	471.69
323.795	499.69
324.024	539.69
324.253	681.69
324.482	1004.69
324.71	1494.69
324.939	2025.69
325.168	1724.69
325.397	918.69
325.626	638.69
325.855	527.69
326.084	467.69
326.313	476.69
326.542	488.69
326.77	528.69
326.999	634.69
327.228	899.69
327.457	1306.69
327.686	1538.69
327.914	1015.69
328.143	699.69
328.372	614.69
328.6	550.69
328.829	532.69
329.058	551.69
329.287	554.69
329.515	505.69
329.744	485.69
329.972	468.69
330.201	486.69
330.43	535.69
330.658	544.69
330.887	583.69
331.115	566.69
331.344	478.69
331.572	457.69
331.801	450.69
332.03	424.69
332.258	416.69
332.486	391.69
332.715	388.69
332.943	414.69
333.172	392.69
333.4	415.69
333.629	408.69
333.857	398.69
334.085	447.69
334.314	463.69
334.542	494.69
334.771	503.69
334.999	441.69
335.227	399.69
335.455	391.69
335.684	416.69
335.912	372.69
336.14	379.69
336.369	394.69
336.597	399.69
336.825	396.69
337.053	408.69
337.281	379.69
337.51	359.69
337.738	396.69
337.966	388.69
338.194	394.69
338.422	412.69
338.65	398.69
338.878	382.69
339.106	384.69
339.334	387.69
339.562	376.69
339.79	382.69
340.018	372.69
340.246	372.69
340.474	378.69
340.702	382.69
340.93	363.69
341.158	380.69
341.386	375.69
341.614	386.69
341.842	375.69
342.07	388.69
342.298	375.69
342.526	362.69
342.754	373.69
342.981	374.69
343.209	366.69
343.437	368.69
343.665	378.69
343.893	360.69
344.12	355.69
344.348	379.69
344.576	364.69
344.804	380.69
345.031	407.69
345.259	411.69
345.487	399.69
345.714	393.69
345.942	375.69
346.17	359.69
346.397	359.69
346.625	381.69
346.853	355.69
347.08	359.69
347.308	377.69
347.535	383.69
347.763	373.69
347.99	394.69
348.218	376.69
348.445	379.69
348.673	380.69
348.9	385.69
349.128	361.69
349.355	370.69
349.583	339.69
349.81	355.69
350.037	382.69
350.265	350.69
350.492	373.69
350.72	367.69
350.947	346.69
351.174	389.69
351.402	396.69
351.629	359.69
351.856	384.69
352.083	371.69
352.311	407.69
352.538	387.69
352.765	390.69
352.992	367.69
353.22	374.69
353.447	357.69
353.674	374.69
353.901	364.69
354.128	344.69
354.355	344.69
354.583	353.69
354.81	328.69
355.037	336.69
355.264	330.69
355.491	342.69
355.718	341.69
355.945	326.69
356.172	335.69
356.399	331.69
356.626	340.69
356.853	335.69
357.08	348.69
357.307	332.69
357.534	331.69
357.761	342.69
357.988	344.69
358.215	336.69
358.441	360.69
358.668	341.69
358.895	342.69
359.122	371.69
359.349	347.69
359.576	363.69
359.802	382.69
360.029	397.69
360.256	435.69
360.483	392.69
360.709	381.69
360.936	384.69
361.163	358.69
361.39	371.69
361.616	354.69
361.843	358.69
362.07	338.69
362.296	367.69
362.523	359.69
362.749	348.69
362.976	351.69
363.203	354.69
363.429	349.69
363.656	352.69
363.882	350.69
364.109	359.69
364.335	339.69
364.562	348.69
364.788	376.69
365.015	342.69
365.241	355.69
365.468	374.69
365.694	346.69
365.92	337.69
366.147	343.69
366.373	342.69
366.599	342.69
366.826	348.69
367.052	352.69
367.278	321.69
367.505	338.69
367.731	350.69
367.957	336.69
368.184	338.69
368.41	354.69
368.636	345.69
368.862	367.69
369.089	337.69
369.315	344.69
369.541	358.69
369.767	371.69
369.993	328.69
370.219	350.69
370.445	339.69
370.672	344.69
370.898	334.69
371.124	330.69
371.35	347.69
371.576	344.69
371.802	316.69
372.028	352.69
372.254	342.69
372.48	342.69
372.706	332.69
372.932	346.69
373.158	348.69
373.384	328.69
373.61	357.69
373.835	327.69
374.061	338.69
374.287	355.69
374.513	335.69
374.739	342.69
374.965	354.69
375.191	336.69
375.416	341.69
375.642	357.69
375.868	349.69
376.094	341.69
376.319	343.69
376.545	308.69
376.771	326.69
376.997	360.69
377.222	351.69
377.448	356.69
377.674	351.69
377.899	324.69
378.125	330.69
378.35	331.69
378.576	340.69
378.802	333.69
379.027	335.69
379.253	351.69
379.478	345.69
379.704	347.69
379.929	328.69
380.155	323.69
380.38	325.69
380.606	340.69
380.831	346.69
381.057	346.69
381.282	342.69
381.507	333.69
381.733	340.69
381.958	349.69
382.184	343.69
382.409	338.69
382.634	336.69
382.86	358.69
383.085	332.69
383.31	338.69
383.535	362.69
383.761	349.69
383.986	354.69
384.211	351.69
384.436	357.69
384.662	342.69
384.887	351.69
385.112	350.69
385.337	365.69
385.562	373.69
385.787	345.69
386.013	364.69
386.238	376.69
386.463	374.69
386.688	360.69
386.913	355.69
387.138	371.69
387.363	354.69
387.588	370.69
387.813	374.69
388.038	366.69
388.263	350.69
388.488	375.69
388.713	362.69
388.938	366.69
389.163	368.69
389.387	378.69
389.612	350.69
389.837	358.69
390.062	376.69
390.287	379.69
390.512	375.69
390.736	371.69
390.961	364.69
391.186	372.69
391.411	365.69
391.636	368.69
391.86	374.69
392.085	362.69
392.31	372.69
392.534	370.69
392.759	362.69
392.984	392.69
393.208	350.69
393.433	347.69
393.658	362.69
393.882	383.69
394.107	376.69
394.331	368.69
394.556	353.69
394.78	363.69
395.005	364.69
395.229	363.69
395.454	381.69
395.678	374.69
395.903	390.69
396.127	388.69
396.352	394.69
396.576	388.69
396.801	380.69
397.025	387.69
397.249	367.69
397.474	396.69
397.698	394.69
397.922	395.69
398.147	414.69
398.371	410.69
398.595	412.69
398.82	407.69
399.044	422.69
399.268	406.69
399.492	434.69
399.717	446.69
399.941	490.69
400.165	493.69
400.389	521.69
400.613	447.69
400.837	436.69
401.062	416.69
401.286	424.69
401.51	438.69
401.734	401.69
401.958	418.69
402.182	415.69
402.406	430.69
402.63	416.69
402.854	436.69
403.078	420.69
403.302	439.69
403.526	431.69
403.75	429.69
403.974	425.69
404.198	427.69
404.422	422.69
404.645	442.69
404.869	450.69
405.093	463.69
405.317	482.69
405.541	528.69
405.765	470.69
405.988	455.69
406.212	484.69
406.436	466.69
406.66	502.69
406.883	485.69
407.107	507.69
407.331	498.69
407.555	549.69
407.778	553.69
408.002	523.69
408.226	482.69
408.449	488.69
408.673	476.69
408.896	489.69
409.12	536.69
409.344	507.69
409.567	455.69
409.791	472.69
410.014	439.69
410.238	439.69
410.461	431.69
410.685	439.69
410.908	445.69
411.132	465.69
411.355	523.69
411.578	480.69
411.802	455.69
412.025	434.69
412.249	421.69
412.472	452.69
412.695	510.69
412.919	484.69
413.142	431.69
413.365	435.69
413.589	417.69
413.812	403.69
414.035	404.69
414.258	417.69
414.482	403.69
414.705	422.69
414.928	406.69
415.151	396.69
415.374	404.69
415.597	409.69
415.821	397.69
416.044	404.69
416.267	410.69
416.49	386.69
416.713	385.69
416.936	430.69
417.159	415.69
417.382	424.69
417.605	396.69
417.828	421.69
418.051	424.69
418.274	428.69
418.497	398.69
418.72	415.69
418.943	426.69
419.166	429.69
419.389	423.69
419.611	443.69
419.834	431.69
420.057	430.69
420.28	434.69
420.503	430.69
420.726	436.69
420.948	452.69
421.171	473.69
421.394	495.69
421.617	442.69
421.839	416.69
422.062	434.69
422.285	462.69
422.507	479.69
422.73	531.69
422.953	548.69
423.175	487.69
423.398	456.69
423.621	447.69
423.843	455.69
424.066	478.69
424.288	468.69
424.511	471.69
424.733	517.69
424.956	598.69
425.178	554.69
425.401	563.69
425.623	585.69
425.846	494.69
426.068	443.69
426.291	460.69
426.513	460.69
426.735	471.69
426.958	491.69
427.18	579.69
427.402	672.69
427.625	752.69
427.847	658.69
428.069	572.69
428.292	528.69
428.514	482.69
428.736	453.69
428.958	452.69
429.181	428.69
429.403	445.69
429.625	453.69
429.847	463.69
430.069	516.69
430.292	508.69
430.514	469.69
430.736	424.69
430.958	429.69
431.18	411.69
431.402	409.69
431.624	415.69
431.846	412.69
432.068	407.69
432.29	409.69
432.512	404.69
432.734	422.69
432.956	416.69
433.178	406.69
433.4	429.69
433.622	399.69
433.844	420.69
434.066	384.69
434.287	406.69
434.509	398.69
434.731	408.69
434.953	437.69
435.175	438.69
435.397	450.69
435.618	464.69
435.84	525.69
436.062	590.69
436.284	649.69
436.505	537.69
436.727	486.69
436.949	464.69
437.17	438.69
437.392	458.69
437.614	470.69
437.835	488.69
438.057	578.69
438.278	642.69
438.5	627.69
438.721	679.69
438.943	675.69
439.165	537.69
439.386	482.69
439.608	489.69
439.829	489.69
440.05	514.69
440.272	542.69
440.493	516.69
440.715	458.69
440.936	476.69
441.158	451.69
441.379	436.69
441.6	460.69
441.822	473.69
442.043	508.69
442.264	582.69
442.486	612.69
442.707	524.69
442.928	498.69
443.149	476.69
443.371	507.69
443.592	557.69
443.813	622.69
444.034	658.69
444.255	529.69
444.476	507.69
444.698	465.69
444.919	462.69
445.14	580.69
445.361	541.69
445.582	524.69
445.803	578.69
446.024	651.69
446.245	658.69
446.466	592.69
446.687	522.69
446.908	476.69
447.129	457.69
447.35	463.69
447.571	453.69
447.792	446.69
448.013	440.69
448.234	458.69
448.455	518.69
448.675	605.69
448.896	679.69
449.117	572.69
449.338	570.69
449.559	638.69
449.779	716.69
450	589.69
450.221	481.69
450.442	440.69
450.662	429.69
450.883	463.69
451.104	450.69
451.324	455.69
451.545	437.69
451.766	423.69
451.986	412.69
452.207	382.69
452.428	411.69
452.648	406.69
452.869	388.69
453.089	411.69
453.31	425.69
453.53	395.69
453.751	399.69
453.971	421.69
454.192	414.69
454.412	423.69
454.633	402.69
454.853	408.69
455.073	404.69
455.294	423.69
455.514	481.69
455.734	475.69
455.955	401.69
456.175	386.69
456.395	390.69
456.616	370.69
456.836	379.69
457.056	384.69
457.276	362.69
457.497	360.69
457.717	376.69
457.937	367.69
458.157	384.69
458.377	386.69
458.598	402.69
458.818	453.69
459.038	538.69
459.258	540.69
459.478	428.69
459.698	447.69
459.918	406.69
460.138	420.69
460.358	398.69
460.578	396.69
460.798	413.69
461.018	415.69
461.238	412.69
461.458	411.69
461.678	412.69
461.898	409.69
462.118	430.69
462.338	419.69
462.558	425.69
462.777	418.69
462.997	447.69
463.217	440.69
463.437	455.69
463.657	436.69
463.876	448.69
464.096	420.69
464.316	446.69
464.536	445.69
464.755	463.69
464.975	454.69
465.195	494.69
465.414	554.69
465.634	516.69
465.854	462.69
466.073	436.69
466.293	411.69
466.512	416.69
466.732	383.69
466.951	407.69
467.171	408.69
467.391	411.69
467.61	423.69
467.829	422.69
468.049	405.69
468.268	404.69
468.488	373.69
468.707	390.69
468.927	413.69
469.146	394.69
469.365	399.69
469.585	382.69
469.804	415.69
470.023	423.69
470.243	404.69
470.462	425.69
470.681	429.69
470.901	416.69
471.12	408.69
471.339	410.69
471.558	401.69
471.777	400.69
471.997	415.69
472.216	424.69
472.435	451.69
472.654	438.69
472.873	413.69
473.092	419.69
473.311	388.69
473.53	415.69
473.749	424.69
473.968	467.69
474.187	545.69
474.406	570.69
474.625	452.69
474.844	416.69
475.063	407.69
475.282	427.69
475.501	433.69
475.72	434.69
475.939	421.69
476.158	440.69
476.377	431.69
476.596	413.69
476.814	434.69
477.033	445.69
477.252	434.69
477.471	429.69
477.69	448.69
477.908	447.69
478.127	447.69
478.346	434.69
478.564	463.69
478.783	479.69
479.002	457.69
479.22	448.69
479.439	459.69
479.658	512.69
479.876	501.69
480.095	512.69
480.313	510.69
480.532	500.69
480.751	506.69
480.969	511.69
481.188	584.69
481.406	590.69
481.624	540.69
481.843	498.69
482.061	499.69
482.28	474.69
482.498	477.69
482.717	464.69
482.935	471.69
483.153	489.69
483.372	469.69
483.59	476.69
483.808	499.69
484.027	487.69
484.245	484.69
484.463	485.69
484.681	472.69
484.9	478.69
485.118	490.69
485.336	480.69
485.554	488.69
485.772	517.69
485.99	485.69
486.209	519.69
486.427	482.69
486.645	496.69
486.863	542.69
487.081	521.69
487.299	526.69
487.517	516.69
487.735	505.69
487.953	511.69
488.171	544.69
488.389	511.69
488.607	520.69
488.825	520.69
489.043	519.69
489.261	520.69
489.479	538.69
489.696	506.69
489.914	527.69
490.132	528.69
490.35	538.69
490.568	560.69
490.786	526.69
491.003	566.69
491.221	583.69
491.439	586.69
491.657	572.69
491.874	587.69
492.092	569.69
492.31	581.69
492.527	602.69
492.745	592.69
492.963	598.69
493.18	589.69
493.398	600.69
493.615	618.69
493.833	633.69
494.05	609.69
494.268	618.69
494.485	609.69
494.703	600.69
494.92	605.69
495.138	598.69
495.355	634.69
495.573	621.69
495.79	596.69
496.008	613.69
496.225	622.69
496.442	614.69
496.66	605.69
496.877	605.69
497.094	611.69
497.312	636.69
497.529	637.69
497.746	659.69
497.963	640.69
498.181	671.69
498.398	686.69
498.615	650.69
498.832	660.69
499.049	671.69
499.267	707.69
499.484	686.69
499.701	706.69
499.918	732.69
500.135	732.69
500.352	766.69
500.569	792.69
500.786	781.69
501.003	756.69
501.22	777.69
501.437	736.69
501.654	743.69
501.871	754.69
