Data from 1965.PennyLincolnUp.Lamp.En5.5.200Scan.071719.P1._HRD10591_14-08-28-911.txt Node
Date: Thu Jul 18 14:08:28 EDT 2019
User: cochatt
Spectrometer: HR+D1059
Trigger mode: 1
Integration Time (sec): 1.000000E-1
Scans to average: 1
Electric dark correction enabled: true
Nonlinearity correction enabled: false
Boxcar width: 0
XAxis mode: Wavelengths
Number of Pixels in Spectrum: 2048
>>>>>Begin Spectral Data<<<<<
223.165	-22.31
223.4	-22.31
223.635	-22.31
223.869	11.69
224.104	-12.31
224.338	-33.31
224.573	-23.31
224.808	-24.31
225.042	4.69
225.277	-2.31
225.511	-1.31
225.746	8.69
225.98	3.69
226.215	21.69
226.449	16.69
226.683	13.69
226.918	8.69
227.152	29.69
227.387	34.69
227.621	34.69
227.856	42.69
228.09	43.69
228.324	50.69
228.559	40.69
228.793	73.69
229.027	94.69
229.262	104.69
229.496	105.69
229.73	115.69
229.964	134.69
230.199	113.69
230.433	124.69
230.667	112.69
230.901	97.69
231.136	98.69
231.37	121.69
231.604	113.69
231.838	107.69
232.072	101.69
232.306	92.69
232.541	105.69
232.775	97.69
233.009	98.69
233.243	108.69
233.477	120.69
233.711	107.69
233.945	108.69
234.179	103.69
234.413	104.69
234.647	103.69
234.881	98.69
235.115	107.69
235.349	110.69
235.583	93.69
235.817	120.69
236.051	120.69
236.285	112.69
236.519	124.69
236.753	120.69
236.987	138.69
237.221	156.69
237.455	201.69
237.689	151.69
237.922	125.69
238.156	113.69
238.39	117.69
238.624	108.69
238.858	112.69
239.091	121.69
239.325	119.69
239.559	122.69
239.793	103.69
240.027	132.69
240.26	121.69
240.494	141.69
240.728	137.69
240.961	136.69
241.195	122.69
241.429	134.69
241.662	138.69
241.896	110.69
242.13	119.69
242.363	118.69
242.597	115.69
242.83	129.69
243.064	117.69
243.298	109.69
243.531	121.69
243.765	131.69
243.998	120.69
244.232	124.69
244.465	125.69
244.699	128.69
244.932	130.69
245.166	110.69
245.399	134.69
245.633	134.69
245.866	142.69
246.099	134.69
246.333	137.69
246.566	127.69
246.8	130.69
247.033	141.69
247.266	135.69
247.5	146.69
247.733	144.69
247.966	144.69
248.2	135.69
248.433	143.69
248.666	152.69
248.899	163.69
249.133	186.69
249.366	190.69
249.599	179.69
249.832	165.69
250.066	161.69
250.299	150.69
250.532	182.69
250.765	185.69
250.998	190.69
251.231	181.69
251.465	192.69
251.698	179.69
251.931	185.69
252.164	171.69
252.397	157.69
252.63	172.69
252.863	177.69
253.096	169.69
253.329	203.69
253.562	198.69
253.795	195.69
254.028	183.69
254.261	185.69
254.494	187.69
254.727	226.69
254.96	237.69
255.193	222.69
255.426	211.69
255.659	201.69
255.892	200.69
256.124	204.69
256.357	205.69
256.59	189.69
256.823	173.69
257.056	188.69
257.289	188.69
257.521	194.69
257.754	178.69
257.987	176.69
258.22	191.69
258.452	183.69
258.685	175.69
258.918	192.69
259.151	172.69
259.383	181.69
259.616	185.69
259.849	183.69
260.081	213.69
260.314	225.69
260.547	221.69
260.779	211.69
261.012	197.69
261.244	187.69
261.477	203.69
261.71	190.69
261.942	192.69
262.175	215.69
262.407	202.69
262.64	189.69
262.872	193.69
263.105	202.69
263.337	186.69
263.57	174.69
263.802	174.69
264.035	184.69
264.267	193.69
264.499	177.69
264.732	203.69
264.964	168.69
265.197	190.69
265.429	181.69
265.661	191.69
265.894	166.69
266.126	184.69
266.358	192.69
266.591	186.69
266.823	189.69
267.055	212.69
267.287	209.69
267.52	191.69
267.752	211.69
267.984	180.69
268.216	187.69
268.448	213.69
268.681	197.69
268.913	218.69
269.145	219.69
269.377	222.69
269.609	215.69
269.841	236.69
270.073	227.69
270.306	257.69
270.538	276.69
270.77	274.69
271.002	250.69
271.234	238.69
271.466	262.69
271.698	263.69
271.93	267.69
272.162	277.69
272.394	259.69
272.626	260.69
272.858	238.69
273.09	241.69
273.322	235.69
273.553	247.69
273.785	219.69
274.017	229.69
274.249	223.69
274.481	235.69
274.713	220.69
274.945	220.69
275.176	225.69
275.408	221.69
275.64	238.69
275.872	216.69
276.104	220.69
276.335	215.69
276.567	233.69
276.799	244.69
277.031	272.69
277.262	261.69
277.494	263.69
277.726	260.69
277.957	243.69
278.189	253.69
278.421	230.69
278.652	218.69
278.884	231.69
279.115	214.69
279.347	227.69
279.579	233.69
279.81	225.69
280.042	230.69
280.273	222.69
280.505	214.69
280.736	237.69
280.968	228.69
281.199	229.69
281.431	229.69
281.662	221.69
281.894	230.69
282.125	237.69
282.356	231.69
282.588	272.69
282.819	281.69
283.051	231.69
283.282	241.69
283.513	249.69
283.745	241.69
283.976	239.69
284.207	247.69
284.439	236.69
284.67	248.69
284.901	226.69
285.132	241.69
285.364	233.69
285.595	247.69
285.826	252.69
286.057	228.69
286.288	235.69
286.52	227.69
286.751	235.69
286.982	244.69
287.213	220.69
287.444	242.69
287.675	263.69
287.906	235.69
288.138	253.69
288.369	246.69
288.6	242.69
288.831	244.69
289.062	242.69
289.293	248.69
289.524	245.69
289.755	251.69
289.986	242.69
290.217	263.69
290.448	248.69
290.679	253.69
290.91	243.69
291.141	260.69
291.371	244.69
291.602	232.69
291.833	231.69
292.064	253.69
292.295	234.69
292.526	254.69
292.757	238.69
292.987	264.69
293.218	224.69
293.449	251.69
293.68	252.69
293.91	246.69
294.141	227.69
294.372	230.69
294.603	249.69
294.833	256.69
295.064	257.69
295.295	236.69
295.525	256.69
295.756	263.69
295.987	247.69
296.217	274.69
296.448	264.69
296.679	262.69
296.909	256.69
297.14	255.69
297.37	265.69
297.601	248.69
297.831	266.69
298.062	261.69
298.292	256.69
298.523	273.69
298.753	285.69
298.984	265.69
299.214	258.69
299.445	271.69
299.675	279.69
299.905	282.69
300.136	272.69
300.366	271.69
300.597	258.69
300.827	262.69
301.057	281.69
301.288	285.69
301.518	281.69
301.748	265.69
301.979	279.69
302.209	273.69
302.439	254.69
302.669	291.69
302.9	280.69
303.13	275.69
303.36	280.69
303.59	293.69
303.82	291.69
304.051	260.69
304.281	272.69
304.511	282.69
304.741	269.69
304.971	266.69
305.201	276.69
305.431	276.69
305.661	279.69
305.891	263.69
306.121	275.69
306.352	288.69
306.582	299.69
306.812	290.69
307.042	276.69
307.272	280.69
307.502	265.69
307.731	292.69
307.961	277.69
308.191	292.69
308.421	303.69
308.651	296.69
308.881	296.69
309.111	299.69
309.341	306.69
309.571	321.69
309.8	315.69
310.03	321.69
310.26	334.69
310.49	325.69
310.72	324.69
310.949	359.69
311.179	349.69
311.409	330.69
311.639	318.69
311.868	331.69
312.098	340.69
312.328	317.69
312.557	338.69
312.787	355.69
313.017	333.69
313.246	326.69
313.476	313.69
313.706	318.69
313.935	327.69
314.165	342.69
314.394	341.69
314.624	352.69
314.853	319.69
315.083	330.69
315.312	327.69
315.542	314.69
315.771	307.69
316.001	303.69
316.23	326.69
316.46	317.69
316.689	319.69
316.919	318.69
317.148	328.69
317.377	354.69
317.607	321.69
317.836	312.69
318.065	319.69
318.295	319.69
318.524	339.69
318.753	307.69
318.983	334.69
319.212	325.69
319.441	346.69
319.67	342.69
319.9	339.69
320.129	334.69
320.358	340.69
320.587	314.69
320.816	334.69
321.046	353.69
321.275	344.69
321.504	331.69
321.733	347.69
321.962	361.69
322.191	374.69
322.42	369.69
322.649	373.69
322.878	377.69
323.108	389.69
323.337	410.69
323.566	437.69
323.795	455.69
324.024	541.69
324.253	639.69
324.482	917.69
324.71	1377.69
324.939	1874.69
325.168	1571.69
325.397	827.69
325.626	573.69
325.855	490.69
326.084	465.69
326.313	454.69
326.542	462.69
326.77	496.69
326.999	575.69
327.228	803.69
327.457	1162.69
327.686	1393.69
327.914	925.69
328.143	629.69
328.372	563.69
328.6	537.69
328.829	505.69
329.058	522.69
329.287	507.69
329.515	476.69
329.744	460.69
329.972	414.69
330.201	455.69
330.43	491.69
330.658	536.69
330.887	540.69
331.115	514.69
331.344	445.69
331.572	403.69
331.801	415.69
332.03	405.69
332.258	414.69
332.486	391.69
332.715	384.69
332.943	383.69
333.172	384.69
333.4	379.69
333.629	377.69
333.857	404.69
334.085	413.69
334.314	421.69
334.542	446.69
334.771	464.69
334.999	414.69
335.227	396.69
335.455	405.69
335.684	394.69
335.912	367.69
336.14	385.69
336.369	379.69
336.597	396.69
336.825	396.69
337.053	370.69
337.281	355.69
337.51	351.69
337.738	395.69
337.966	367.69
338.194	367.69
338.422	386.69
338.65	352.69
338.878	376.69
339.106	356.69
339.334	354.69
339.562	375.69
339.79	360.69
340.018	346.69
340.246	380.69
340.474	363.69
340.702	353.69
340.93	373.69
341.158	364.69
341.386	358.69
341.614	385.69
341.842	362.69
342.07	332.69
342.298	349.69
342.526	349.69
342.754	330.69
342.981	333.69
343.209	363.69
343.437	345.69
343.665	346.69
343.893	349.69
344.12	360.69
344.348	377.69
344.576	364.69
344.804	382.69
345.031	374.69
345.259	381.69
345.487	373.69
345.714	366.69
345.942	361.69
346.17	361.69
346.397	361.69
346.625	371.69
346.853	354.69
347.08	341.69
347.308	342.69
347.535	359.69
347.763	349.69
347.99	365.69
348.218	365.69
348.445	363.69
348.673	367.69
348.9	362.69
349.128	351.69
349.355	335.69
349.583	338.69
349.81	326.69
350.037	346.69
350.265	362.69
350.492	357.69
350.72	358.69
350.947	341.69
351.174	361.69
351.402	378.69
351.629	348.69
351.856	362.69
352.083	359.69
352.311	363.69
352.538	369.69
352.765	360.69
352.992	349.69
353.22	359.69
353.447	343.69
353.674	350.69
353.901	351.69
354.128	345.69
354.355	340.69
354.583	322.69
354.81	337.69
355.037	350.69
355.264	341.69
355.491	313.69
355.718	329.69
355.945	317.69
356.172	336.69
356.399	336.69
356.626	338.69
356.853	328.69
357.08	348.69
357.307	347.69
357.534	328.69
357.761	328.69
357.988	332.69
358.215	327.69
358.441	329.69
358.668	317.69
358.895	343.69
359.122	359.69
359.349	340.69
359.576	362.69
359.802	366.69
360.029	404.69
360.256	415.69
360.483	384.69
360.709	387.69
360.936	345.69
361.163	353.69
361.39	378.69
361.616	369.69
361.843	356.69
362.07	373.69
362.296	355.69
362.523	359.69
362.749	358.69
362.976	347.69
363.203	342.69
363.429	351.69
363.656	353.69
363.882	343.69
364.109	331.69
364.335	348.69
364.562	320.69
364.788	337.69
365.015	353.69
365.241	342.69
365.468	332.69
365.694	344.69
365.92	366.69
366.147	347.69
366.373	338.69
366.599	340.69
366.826	342.69
367.052	323.69
367.278	334.69
367.505	346.69
367.731	345.69
367.957	349.69
368.184	356.69
368.41	355.69
368.636	346.69
368.862	338.69
369.089	325.69
369.315	337.69
369.541	338.69
369.767	332.69
369.993	330.69
370.219	329.69
370.445	352.69
370.672	330.69
370.898	334.69
371.124	320.69
371.35	324.69
371.576	318.69
371.802	313.69
372.028	333.69
372.254	342.69
372.48	321.69
372.706	336.69
372.932	322.69
373.158	330.69
373.384	325.69
373.61	358.69
373.835	328.69
374.061	339.69
374.287	350.69
374.513	334.69
374.739	326.69
374.965	329.69
375.191	334.69
375.416	350.69
375.642	325.69
375.868	341.69
376.094	349.69
376.319	328.69
376.545	334.69
376.771	337.69
376.997	342.69
377.222	325.69
377.448	327.69
377.674	315.69
377.899	325.69
378.125	322.69
378.35	309.69
378.576	340.69
378.802	316.69
379.027	319.69
379.253	342.69
379.478	314.69
379.704	334.69
379.929	330.69
380.155	327.69
380.38	332.69
380.606	330.69
380.831	339.69
381.057	335.69
381.282	341.69
381.507	327.69
381.733	343.69
381.958	319.69
382.184	323.69
382.409	336.69
382.634	343.69
382.86	338.69
383.085	337.69
383.31	341.69
383.535	346.69
383.761	346.69
383.986	341.69
384.211	359.69
384.436	359.69
384.662	354.69
384.887	342.69
385.112	346.69
385.337	364.69
385.562	369.69
385.787	347.69
386.013	359.69
386.238	381.69
386.463	385.69
386.688	375.69
386.913	358.69
387.138	354.69
387.363	359.69
387.588	333.69
387.813	348.69
388.038	348.69
388.263	360.69
388.488	380.69
388.713	351.69
388.938	347.69
389.163	368.69
389.387	354.69
389.612	353.69
389.837	363.69
390.062	352.69
390.287	356.69
390.512	352.69
390.736	353.69
390.961	359.69
391.186	361.69
391.411	381.69
391.636	362.69
391.86	360.69
392.085	373.69
392.31	350.69
392.534	358.69
392.759	355.69
392.984	343.69
393.208	354.69
393.433	379.69
393.658	364.69
393.882	356.69
394.107	370.69
394.331	353.69
394.556	355.69
394.78	370.69
395.005	345.69
395.229	353.69
395.454	375.69
395.678	387.69
395.903	382.69
396.127	406.69
396.352	396.69
396.576	380.69
396.801	395.69
397.025	395.69
397.249	375.69
397.474	364.69
397.698	382.69
397.922	393.69
398.147	390.69
398.371	403.69
398.595	405.69
398.82	406.69
399.044	404.69
399.268	428.69
399.492	437.69
399.717	449.69
399.941	472.69
400.165	476.69
400.389	506.69
400.613	467.69
400.837	443.69
401.062	408.69
401.286	423.69
401.51	414.69
401.734	402.69
401.958	397.69
402.182	415.69
402.406	419.69
402.63	411.69
402.854	400.69
403.078	424.69
403.302	413.69
403.526	427.69
403.75	428.69
403.974	422.69
404.198	417.69
404.422	423.69
404.645	435.69
404.869	450.69
405.093	456.69
405.317	492.69
405.541	489.69
405.765	458.69
405.988	417.69
406.212	455.69
406.436	474.69
406.66	488.69
406.883	453.69
407.107	475.69
407.331	517.69
407.555	547.69
407.778	540.69
408.002	487.69
408.226	457.69
408.449	457.69
408.673	479.69
408.896	483.69
409.12	521.69
409.344	497.69
409.567	441.69
409.791	426.69
410.014	420.69
410.238	421.69
410.461	430.69
410.685	437.69
410.908	431.69
411.132	462.69
411.355	470.69
411.578	460.69
411.802	433.69
412.025	433.69
412.249	439.69
412.472	461.69
412.695	468.69
412.919	474.69
413.142	410.69
413.365	423.69
413.589	407.69
413.812	412.69
414.035	413.69
414.258	408.69
414.482	408.69
414.705	403.69
414.928	398.69
415.151	393.69
415.374	385.69
415.597	422.69
415.821	411.69
416.044	389.69
416.267	389.69
416.49	392.69
416.713	402.69
416.936	378.69
417.159	403.69
417.382	401.69
417.605	385.69
417.828	405.69
418.051	426.69
418.274	407.69
418.497	417.69
418.72	419.69
418.943	386.69
419.166	425.69
419.389	415.69
419.611	429.69
419.834	402.69
420.057	422.69
420.28	412.69
420.503	403.69
420.726	417.69
420.948	421.69
421.171	452.69
421.394	474.69
421.617	431.69
421.839	435.69
422.062	442.69
422.285	422.69
422.507	468.69
422.73	525.69
422.953	505.69
423.175	442.69
423.398	462.69
423.621	424.69
423.843	457.69
424.066	437.69
424.288	436.69
424.511	453.69
424.733	524.69
424.956	581.69
425.178	546.69
425.401	540.69
425.623	547.69
425.846	506.69
426.068	433.69
426.291	457.69
426.513	451.69
426.735	458.69
426.958	525.69
427.18	574.69
427.402	661.69
427.625	748.69
427.847	645.69
428.069	536.69
428.292	486.69
428.514	465.69
428.736	441.69
428.958	445.69
429.181	427.69
429.403	433.69
429.625	433.69
429.847	449.69
430.069	526.69
430.292	493.69
430.514	430.69
430.736	424.69
430.958	419.69
431.18	410.69
431.402	420.69
431.624	377.69
431.846	385.69
432.068	388.69
432.29	399.69
432.512	407.69
432.734	397.69
432.956	406.69
433.178	405.69
433.4	409.69
433.622	401.69
433.844	389.69
434.066	395.69
434.287	405.69
434.509	397.69
434.731	401.69
434.953	409.69
435.175	431.69
435.397	441.69
435.618	460.69
435.84	484.69
436.062	550.69
436.284	600.69
436.505	501.69
436.727	470.69
436.949	447.69
437.17	446.69
437.392	423.69
437.614	441.69
437.835	467.69
438.057	546.69
438.278	630.69
438.5	605.69
438.721	656.69
438.943	634.69
439.165	484.69
439.386	487.69
439.608	460.69
439.829	458.69
440.05	488.69
440.272	521.69
440.493	487.69
440.715	442.69
440.936	434.69
441.158	437.69
441.379	435.69
441.6	445.69
441.822	446.69
442.043	493.69
442.264	576.69
442.486	597.69
442.707	533.69
442.928	484.69
443.149	474.69
443.371	482.69
443.592	535.69
443.813	588.69
444.034	610.69
444.255	540.69
444.476	475.69
444.698	454.69
444.919	450.69
445.14	533.69
445.361	494.69
445.582	482.69
445.803	552.69
446.024	607.69
446.245	620.69
446.466	575.69
446.687	488.69
446.908	462.69
447.129	437.69
447.35	437.69
447.571	434.69
447.792	407.69
448.013	409.69
448.234	437.69
448.455	493.69
448.675	556.69
448.896	656.69
449.117	559.69
449.338	543.69
449.559	626.69
449.779	689.69
450	563.69
450.221	476.69
450.442	421.69
450.662	417.69
450.883	452.69
451.104	453.69
451.324	430.69
451.545	412.69
451.766	410.69
451.986	380.69
452.207	381.69
452.428	381.69
452.648	382.69
452.869	369.69
453.089	378.69
453.31	388.69
453.53	383.69
453.751	404.69
453.971	404.69
454.192	412.69
454.412	383.69
454.633	367.69
454.853	372.69
455.073	373.69
455.294	402.69
455.514	463.69
455.734	439.69
455.955	395.69
456.175	369.69
456.395	377.69
456.616	358.69
456.836	360.69
457.056	352.69
457.276	349.69
457.497	361.69
457.717	372.69
457.937	377.69
458.157	377.69
458.377	374.69
458.598	385.69
458.818	437.69
459.038	497.69
459.258	515.69
459.478	434.69
459.698	423.69
459.918	397.69
460.138	387.69
460.358	407.69
460.578	410.69
460.798	393.69
461.018	400.69
461.238	436.69
461.458	402.69
461.678	411.69
461.898	391.69
462.118	397.69
462.338	403.69
462.558	418.69
462.777	412.69
462.997	438.69
463.217	424.69
463.437	407.69
463.657	415.69
463.876	447.69
464.096	423.69
464.316	415.69
464.536	442.69
464.755	437.69
464.975	435.69
465.195	471.69
465.414	549.69
465.634	489.69
465.854	452.69
466.073	409.69
466.293	421.69
466.512	394.69
466.732	407.69
466.951	393.69
467.171	399.69
467.391	388.69
467.61	404.69
467.829	414.69
468.049	411.69
468.268	406.69
468.488	394.69
468.707	385.69
468.927	383.69
469.146	365.69
469.365	381.69
469.585	390.69
469.804	391.69
470.023	403.69
470.243	404.69
470.462	429.69
470.681	412.69
470.901	415.69
471.12	369.69
471.339	383.69
471.558	387.69
471.777	390.69
471.997	392.69
472.216	397.69
472.435	434.69
472.654	416.69
472.873	389.69
473.092	401.69
473.311	398.69
473.53	414.69
473.749	411.69
473.968	455.69
474.187	515.69
474.406	530.69
474.625	462.69
474.844	437.69
475.063	411.69
475.282	399.69
475.501	419.69
475.72	403.69
475.939	424.69
476.158	395.69
476.377	397.69
476.596	396.69
476.814	399.69
477.033	423.69
477.252	418.69
477.471	413.69
477.69	421.69
477.908	439.69
478.127	406.69
478.346	442.69
478.564	443.69
478.783	410.69
479.002	451.69
479.22	457.69
479.439	472.69
479.658	474.69
479.876	483.69
480.095	478.69
480.313	504.69
480.532	494.69
480.751	497.69
480.969	497.69
481.188	533.69
481.406	581.69
481.624	527.69
481.843	488.69
482.061	476.69
482.28	456.69
482.498	459.69
482.717	470.69
482.935	469.69
483.153	477.69
483.372	470.69
483.59	478.69
483.808	468.69
484.027	465.69
484.245	462.69
484.463	486.69
484.681	499.69
484.9	468.69
485.118	476.69
485.336	480.69
485.554	486.69
485.772	483.69
485.99	495.69
486.209	495.69
486.427	502.69
486.645	503.69
486.863	522.69
487.081	503.69
487.299	478.69
487.517	517.69
487.735	499.69
487.953	490.69
488.171	515.69
488.389	505.69
488.607	505.69
488.825	501.69
489.043	478.69
489.261	491.69
489.479	505.69
489.696	515.69
489.914	511.69
490.132	519.69
490.35	521.69
490.568	509.69
490.786	531.69
491.003	537.69
491.221	545.69
491.439	562.69
491.657	562.69
491.874	562.69
492.092	590.69
492.31	585.69
492.527	561.69
492.745	583.69
492.963	582.69
493.18	575.69
493.398	586.69
493.615	565.69
493.833	577.69
494.05	582.69
494.268	581.69
494.485	586.69
494.703	597.69
494.92	557.69
495.138	573.69
495.355	586.69
495.573	576.69
495.79	574.69
496.008	583.69
496.225	595.69
496.442	604.69
496.66	579.69
496.877	605.69
497.094	603.69
497.312	597.69
497.529	612.69
497.746	612.69
497.963	608.69
498.181	636.69
498.398	633.69
498.615	636.69
498.832	685.69
499.049	647.69
499.267	663.69
499.484	693.69
499.701	684.69
499.918	703.69
500.135	724.69
500.352	760.69
500.569	760.69
500.786	770.69
501.003	735.69
501.22	743.69
501.437	735.69
501.654	726.69
501.871	711.69
502.088	681.69
