Data from 1965.PennyLincolnUp.Lamp.En5.5.200Scan.071719.P1._HRD10591_14-07-45-910.txt Node
Date: Thu Jul 18 14:07:45 EDT 2019
User: cochatt
Spectrometer: HR+D1059
Trigger mode: 1
Integration Time (sec): 1.000000E-1
Scans to average: 1
Electric dark correction enabled: true
Nonlinearity correction enabled: false
Boxcar width: 0
XAxis mode: Wavelengths
Number of Pixels in Spectrum: 2048
>>>>>Begin Spectral Data<<<<<
223.165	-10.06
223.4	-10.06
223.635	-10.06
223.869	-14.06
224.104	-17.06
224.338	-12.06
224.573	-25.06
224.808	-12.06
225.042	-9.06
225.277	-0.06
225.511	-5.06
225.746	17.94
225.98	-5.06
226.215	13.94
226.449	15.94
226.683	13.94
226.918	25.94
227.152	21.94
227.387	34.94
227.621	34.94
227.856	38.94
228.09	48.94
228.324	49.94
228.559	50.94
228.793	65.94
229.027	76.94
229.262	87.94
229.496	106.94
229.73	127.94
229.964	119.94
230.199	109.94
230.433	105.94
230.667	97.94
230.901	100.94
231.136	97.94
231.37	93.94
231.604	98.94
231.838	98.94
232.072	82.94
232.306	93.94
232.541	102.94
232.775	93.94
233.009	111.94
233.243	104.94
233.477	100.94
233.711	106.94
233.945	90.94
234.179	90.94
234.413	106.94
234.647	102.94
234.881	97.94
235.115	102.94
235.349	91.94
235.583	111.94
235.817	114.94
236.051	104.94
236.285	101.94
236.519	120.94
236.753	114.94
236.987	133.94
237.221	160.94
237.455	178.94
237.689	139.94
237.922	113.94
238.156	119.94
238.39	99.94
238.624	112.94
238.858	102.94
239.091	119.94
239.325	94.94
239.559	102.94
239.793	111.94
240.027	89.94
240.26	102.94
240.494	127.94
240.728	117.94
240.961	107.94
241.195	106.94
241.429	128.94
241.662	118.94
241.896	123.94
242.13	110.94
242.363	118.94
242.597	95.94
242.83	115.94
243.064	114.94
243.298	120.94
243.531	122.94
243.765	122.94
243.998	124.94
244.232	129.94
244.465	129.94
244.699	117.94
244.932	119.94
245.166	125.94
245.399	116.94
245.633	126.94
245.866	118.94
246.099	125.94
246.333	126.94
246.566	127.94
246.8	122.94
247.033	132.94
247.266	121.94
247.5	136.94
247.733	127.94
247.966	149.94
248.2	131.94
248.433	141.94
248.666	130.94
248.899	147.94
249.133	166.94
249.366	171.94
249.599	151.94
249.832	131.94
250.066	128.94
250.299	145.94
250.532	153.94
250.765	162.94
250.998	155.94
251.231	159.94
251.465	150.94
251.698	146.94
251.931	146.94
252.164	164.94
252.397	149.94
252.63	159.94
252.863	174.94
253.096	150.94
253.329	169.94
253.562	165.94
253.795	183.94
254.028	164.94
254.261	158.94
254.494	179.94
254.727	187.94
254.96	203.94
255.193	190.94
255.426	175.94
255.659	177.94
255.892	167.94
256.124	168.94
256.357	185.94
256.59	166.94
256.823	169.94
257.056	153.94
257.289	161.94
257.521	179.94
257.754	170.94
257.987	151.94
258.22	158.94
258.452	160.94
258.685	152.94
258.918	173.94
259.151	155.94
259.383	165.94
259.616	147.94
259.849	182.94
260.081	194.94
260.314	178.94
260.547	205.94
260.779	189.94
261.012	168.94
261.244	170.94
261.477	160.94
261.71	184.94
261.942	181.94
262.175	179.94
262.407	165.94
262.64	165.94
262.872	178.94
263.105	169.94
263.337	164.94
263.57	167.94
263.802	173.94
264.035	161.94
264.267	158.94
264.499	163.94
264.732	170.94
264.964	157.94
265.197	157.94
265.429	165.94
265.661	180.94
265.894	168.94
266.126	167.94
266.358	162.94
266.591	179.94
266.823	178.94
267.055	181.94
267.287	189.94
267.52	174.94
267.752	166.94
267.984	170.94
268.216	167.94
268.448	184.94
268.681	193.94
268.913	185.94
269.145	189.94
269.377	201.94
269.609	187.94
269.841	182.94
270.073	188.94
270.306	215.94
270.538	233.94
270.77	238.94
271.002	218.94
271.234	199.94
271.466	209.94
271.698	221.94
271.93	225.94
272.162	229.94
272.394	243.94
272.626	217.94
272.858	217.94
273.09	210.94
273.322	211.94
273.553	183.94
273.785	233.94
274.017	199.94
274.249	171.94
274.481	193.94
274.713	200.94
274.945	211.94
275.176	192.94
275.408	199.94
275.64	186.94
275.872	195.94
276.104	198.94
276.335	204.94
276.567	195.94
276.799	204.94
277.031	213.94
277.262	235.94
277.494	227.94
277.726	225.94
277.957	204.94
278.189	214.94
278.421	206.94
278.652	207.94
278.884	207.94
279.115	210.94
279.347	212.94
279.579	203.94
279.81	201.94
280.042	225.94
280.273	193.94
280.505	201.94
280.736	197.94
280.968	195.94
281.199	213.94
281.431	204.94
281.662	193.94
281.894	200.94
282.125	214.94
282.356	209.94
282.588	219.94
282.819	225.94
283.051	210.94
283.282	201.94
283.513	207.94
283.745	190.94
283.976	198.94
284.207	205.94
284.439	209.94
284.67	205.94
284.901	206.94
285.132	203.94
285.364	195.94
285.595	196.94
285.826	200.94
286.057	203.94
286.288	197.94
286.52	216.94
286.751	211.94
286.982	212.94
287.213	202.94
287.444	210.94
287.675	217.94
287.906	212.94
288.138	211.94
288.369	215.94
288.6	213.94
288.831	206.94
289.062	213.94
289.293	226.94
289.524	218.94
289.755	209.94
289.986	232.94
290.217	247.94
290.448	209.94
290.679	246.94
290.91	213.94
291.141	228.94
291.371	204.94
291.602	221.94
291.833	214.94
292.064	211.94
292.295	204.94
292.526	185.94
292.757	201.94
292.987	219.94
293.218	225.94
293.449	218.94
293.68	211.94
293.91	205.94
294.141	220.94
294.372	206.94
294.603	216.94
294.833	212.94
295.064	214.94
295.295	223.94
295.525	216.94
295.756	226.94
295.987	221.94
296.217	238.94
296.448	254.94
296.679	229.94
296.909	220.94
297.14	229.94
297.37	230.94
297.601	220.94
297.831	219.94
298.062	225.94
298.292	233.94
298.523	232.94
298.753	227.94
298.984	229.94
299.214	238.94
299.445	221.94
299.675	225.94
299.905	236.94
300.136	224.94
300.366	215.94
300.597	223.94
300.827	235.94
301.057	258.94
301.288	233.94
301.518	245.94
301.748	241.94
301.979	248.94
302.209	246.94
302.439	227.94
302.669	228.94
302.9	259.94
303.13	243.94
303.36	245.94
303.59	241.94
303.82	242.94
304.051	237.94
304.281	229.94
304.511	239.94
304.741	229.94
304.971	241.94
305.201	226.94
305.431	257.94
305.661	254.94
305.891	247.94
306.121	230.94
306.352	245.94
306.582	243.94
306.812	252.94
307.042	244.94
307.272	251.94
307.502	233.94
307.731	239.94
307.961	253.94
308.191	260.94
308.421	243.94
308.651	258.94
308.881	252.94
309.111	265.94
309.341	244.94
309.571	267.94
309.8	282.94
310.03	277.94
310.26	277.94
310.49	266.94
310.72	264.94
310.949	293.94
311.179	283.94
311.409	276.94
311.639	273.94
311.868	265.94
312.098	280.94
312.328	277.94
312.557	305.94
312.787	302.94
313.017	294.94
313.246	292.94
313.476	282.94
313.706	275.94
313.935	299.94
314.165	295.94
314.394	294.94
314.624	306.94
314.853	297.94
315.083	294.94
315.312	281.94
315.542	280.94
315.771	270.94
316.001	272.94
316.23	277.94
316.46	284.94
316.689	264.94
316.919	298.94
317.148	282.94
317.377	286.94
317.607	294.94
317.836	276.94
318.065	294.94
318.295	285.94
318.524	278.94
318.753	254.94
318.983	281.94
319.212	295.94
319.441	295.94
319.67	289.94
319.9	306.94
320.129	294.94
320.358	285.94
320.587	293.94
320.816	297.94
321.046	296.94
321.275	297.94
321.504	299.94
321.733	292.94
321.962	293.94
322.191	298.94
322.42	318.94
322.649	322.94
322.878	330.94
323.108	312.94
323.337	348.94
323.566	367.94
323.795	373.94
324.024	417.94
324.253	484.94
324.482	677.94
324.71	1063.94
324.939	1502.94
325.168	1239.94
325.397	664.94
325.626	462.94
325.855	382.94
326.084	380.94
326.313	357.94
326.542	361.94
326.77	397.94
326.999	455.94
327.228	650.94
327.457	950.94
327.686	1113.94
327.914	748.94
328.143	509.94
328.372	456.94
328.6	409.94
328.829	409.94
329.058	408.94
329.287	420.94
329.515	393.94
329.744	385.94
329.972	354.94
330.201	371.94
330.43	388.94
330.658	409.94
330.887	446.94
331.115	433.94
331.344	354.94
331.572	347.94
331.801	351.94
332.03	357.94
332.258	344.94
332.486	342.94
332.715	333.94
332.943	338.94
333.172	323.94
333.4	339.94
333.629	333.94
333.857	332.94
334.085	362.94
334.314	358.94
334.542	370.94
334.771	393.94
334.999	357.94
335.227	328.94
335.455	322.94
335.684	336.94
335.912	326.94
336.14	331.94
336.369	343.94
336.597	343.94
336.825	336.94
337.053	313.94
337.281	329.94
337.51	313.94
337.738	336.94
337.966	308.94
338.194	329.94
338.422	320.94
338.65	344.94
338.878	319.94
339.106	330.94
339.334	327.94
339.562	310.94
339.79	304.94
340.018	332.94
340.246	329.94
340.474	321.94
340.702	304.94
340.93	321.94
341.158	306.94
341.386	328.94
341.614	314.94
341.842	316.94
342.07	318.94
342.298	316.94
342.526	307.94
342.754	303.94
342.981	311.94
343.209	317.94
343.437	337.94
343.665	307.94
343.893	315.94
344.12	328.94
344.348	319.94
344.576	322.94
344.804	332.94
345.031	337.94
345.259	317.94
345.487	341.94
345.714	298.94
345.942	330.94
346.17	329.94
346.397	321.94
346.625	304.94
346.853	296.94
347.08	301.94
347.308	323.94
347.535	317.94
347.763	328.94
347.99	331.94
348.218	321.94
348.445	313.94
348.673	316.94
348.9	291.94
349.128	294.94
349.355	319.94
349.583	296.94
349.81	297.94
350.037	297.94
350.265	286.94
350.492	295.94
350.72	309.94
350.947	301.94
351.174	321.94
351.402	317.94
351.629	326.94
351.856	316.94
352.083	316.94
352.311	333.94
352.538	334.94
352.765	327.94
352.992	323.94
353.22	306.94
353.447	300.94
353.674	305.94
353.901	296.94
354.128	294.94
354.355	297.94
354.583	295.94
354.81	305.94
355.037	281.94
355.264	299.94
355.491	283.94
355.718	290.94
355.945	286.94
356.172	284.94
356.399	279.94
356.626	307.94
356.853	297.94
357.08	305.94
357.307	285.94
357.534	290.94
357.761	298.94
357.988	293.94
358.215	309.94
358.441	267.94
358.668	294.94
358.895	291.94
359.122	313.94
359.349	300.94
359.576	311.94
359.802	321.94
360.029	339.94
360.256	342.94
360.483	330.94
360.709	321.94
360.936	318.94
361.163	310.94
361.39	314.94
361.616	325.94
361.843	315.94
362.07	323.94
362.296	309.94
362.523	297.94
362.749	302.94
362.976	300.94
363.203	314.94
363.429	297.94
363.656	311.94
363.882	302.94
364.109	307.94
364.335	307.94
364.562	322.94
364.788	309.94
365.015	303.94
365.241	292.94
365.468	302.94
365.694	311.94
365.92	313.94
366.147	292.94
366.373	304.94
366.599	292.94
366.826	303.94
367.052	286.94
367.278	296.94
367.505	293.94
367.731	302.94
367.957	290.94
368.184	290.94
368.41	294.94
368.636	329.94
368.862	316.94
369.089	308.94
369.315	303.94
369.541	310.94
369.767	295.94
369.993	305.94
370.219	308.94
370.445	321.94
370.672	301.94
370.898	294.94
371.124	301.94
371.35	279.94
371.576	296.94
371.802	318.94
372.028	293.94
372.254	293.94
372.48	302.94
372.706	314.94
372.932	321.94
373.158	310.94
373.384	299.94
373.61	279.94
373.835	278.94
374.061	291.94
374.287	286.94
374.513	304.94
374.739	319.94
374.965	310.94
375.191	300.94
375.416	309.94
375.642	315.94
375.868	318.94
376.094	290.94
376.319	299.94
376.545	301.94
376.771	276.94
376.997	309.94
377.222	286.94
377.448	298.94
377.674	292.94
377.899	300.94
378.125	291.94
378.35	280.94
378.576	293.94
378.802	300.94
379.027	289.94
379.253	310.94
379.478	296.94
379.704	290.94
379.929	295.94
380.155	315.94
380.38	307.94
380.606	318.94
380.831	310.94
381.057	300.94
381.282	297.94
381.507	295.94
381.733	295.94
381.958	296.94
382.184	308.94
382.409	298.94
382.634	321.94
382.86	300.94
383.085	299.94
383.31	301.94
383.535	290.94
383.761	301.94
383.986	302.94
384.211	308.94
384.436	327.94
384.662	316.94
384.887	295.94
385.112	321.94
385.337	320.94
385.562	338.94
385.787	331.94
386.013	340.94
386.238	325.94
386.463	347.94
386.688	337.94
386.913	310.94
387.138	318.94
387.363	333.94
387.588	327.94
387.813	322.94
388.038	318.94
388.263	326.94
388.488	330.94
388.713	305.94
388.938	311.94
389.163	321.94
389.387	328.94
389.612	309.94
389.837	324.94
390.062	330.94
390.287	318.94
390.512	308.94
390.736	307.94
390.961	326.94
391.186	299.94
391.411	318.94
391.636	334.94
391.86	329.94
392.085	334.94
392.31	332.94
392.534	326.94
392.759	338.94
392.984	327.94
393.208	333.94
393.433	333.94
393.658	341.94
393.882	339.94
394.107	328.94
394.331	332.94
394.556	334.94
394.78	331.94
395.005	318.94
395.229	341.94
395.454	339.94
395.678	345.94
395.903	325.94
396.127	353.94
396.352	354.94
396.576	342.94
396.801	330.94
397.025	329.94
397.249	343.94
397.474	333.94
397.698	359.94
397.922	342.94
398.147	357.94
398.371	382.94
398.595	353.94
398.82	363.94
399.044	371.94
399.268	386.94
399.492	382.94
399.717	399.94
399.941	402.94
400.165	440.94
400.389	451.94
400.613	398.94
400.837	382.94
401.062	382.94
401.286	388.94
401.51	357.94
401.734	367.94
401.958	390.94
402.182	379.94
402.406	378.94
402.63	357.94
402.854	375.94
403.078	365.94
403.302	387.94
403.526	363.94
403.75	361.94
403.974	382.94
404.198	375.94
404.422	398.94
404.645	391.94
404.869	377.94
405.093	375.94
405.317	415.94
405.541	456.94
405.765	408.94
405.988	397.94
406.212	391.94
406.436	387.94
406.66	413.94
406.883	415.94
407.107	427.94
407.331	451.94
407.555	487.94
407.778	490.94
408.002	446.94
408.226	426.94
408.449	417.94
408.673	404.94
408.896	429.94
409.12	446.94
409.344	416.94
409.567	405.94
409.791	381.94
410.014	380.94
410.238	380.94
410.461	386.94
410.685	378.94
410.908	390.94
411.132	418.94
411.355	426.94
411.578	418.94
411.802	393.94
412.025	375.94
412.249	384.94
412.472	386.94
412.695	419.94
412.919	409.94
413.142	388.94
413.365	377.94
413.589	359.94
413.812	364.94
414.035	358.94
414.258	378.94
414.482	344.94
414.705	376.94
414.928	365.94
415.151	347.94
415.374	346.94
415.597	346.94
415.821	347.94
416.044	340.94
416.267	359.94
416.49	371.94
416.713	359.94
416.936	341.94
417.159	369.94
417.382	373.94
417.605	378.94
417.828	371.94
418.051	374.94
418.274	378.94
418.497	344.94
418.72	354.94
418.943	372.94
419.166	357.94
419.389	381.94
419.611	378.94
419.834	377.94
420.057	389.94
420.28	352.94
420.503	381.94
420.726	369.94
420.948	379.94
421.171	412.94
421.394	411.94
421.617	392.94
421.839	388.94
422.062	383.94
422.285	387.94
422.507	423.94
422.73	478.94
422.953	460.94
423.175	413.94
423.398	390.94
423.621	391.94
423.843	398.94
424.066	391.94
424.288	414.94
424.511	423.94
424.733	443.94
424.956	519.94
425.178	460.94
425.401	473.94
425.623	490.94
425.846	441.94
426.068	406.94
426.291	396.94
426.513	396.94
426.735	415.94
426.958	423.94
427.18	471.94
427.402	582.94
427.625	650.94
427.847	563.94
428.069	463.94
428.292	437.94
428.514	408.94
428.736	393.94
428.958	380.94
429.181	378.94
429.403	378.94
429.625	365.94
429.847	381.94
430.069	452.94
430.292	450.94
430.514	366.94
430.736	367.94
430.958	370.94
431.18	328.94
431.402	363.94
431.624	371.94
431.846	351.94
432.068	341.94
432.29	351.94
432.512	348.94
432.734	358.94
432.956	355.94
433.178	359.94
433.4	365.94
433.622	365.94
433.844	345.94
434.066	351.94
434.287	348.94
434.509	374.94
434.731	379.94
434.953	384.94
435.175	380.94
435.397	401.94
435.618	389.94
435.84	416.94
436.062	489.94
436.284	537.94
436.505	452.94
436.727	419.94
436.949	397.94
437.17	371.94
437.392	389.94
437.614	405.94
437.835	433.94
438.057	504.94
438.278	535.94
438.5	541.94
438.721	599.94
438.943	567.94
439.165	455.94
439.386	418.94
439.608	409.94
439.829	403.94
440.05	430.94
440.272	449.94
440.493	431.94
440.715	402.94
440.936	396.94
441.158	393.94
441.379	378.94
441.6	387.94
441.822	409.94
442.043	409.94
442.264	494.94
442.486	509.94
442.707	429.94
442.928	404.94
443.149	430.94
443.371	427.94
443.592	450.94
443.813	498.94
444.034	545.94
444.255	481.94
444.476	425.94
444.698	389.94
444.919	392.94
445.14	478.94
445.361	432.94
445.582	446.94
445.803	493.94
446.024	541.94
446.245	557.94
446.466	501.94
446.687	439.94
446.908	419.94
447.129	387.94
447.35	381.94
447.571	358.94
447.792	364.94
448.013	376.94
448.234	391.94
448.455	431.94
448.675	488.94
448.896	574.94
449.117	500.94
449.338	478.94
449.559	533.94
449.779	598.94
450	490.94
450.221	395.94
450.442	379.94
450.662	363.94
450.883	375.94
451.104	399.94
451.324	377.94
451.545	367.94
451.766	362.94
451.986	337.94
452.207	318.94
452.428	326.94
452.648	353.94
452.869	358.94
453.089	341.94
453.31	350.94
453.53	338.94
453.751	335.94
453.971	334.94
454.192	351.94
454.412	342.94
454.633	341.94
454.853	325.94
455.073	344.94
455.294	362.94
455.514	413.94
455.734	401.94
455.955	355.94
456.175	326.94
456.395	334.94
456.616	317.94
456.836	333.94
457.056	348.94
457.276	330.94
457.497	327.94
457.717	350.94
457.937	314.94
458.157	349.94
458.377	331.94
458.598	355.94
458.818	381.94
459.038	443.94
459.258	455.94
459.478	392.94
459.698	352.94
459.918	352.94
460.138	361.94
460.358	361.94
460.578	375.94
460.798	375.94
461.018	366.94
461.238	392.94
461.458	385.94
461.678	372.94
461.898	371.94
462.118	349.94
462.338	363.94
462.558	370.94
462.777	362.94
462.997	373.94
463.217	383.94
463.437	382.94
463.657	378.94
463.876	372.94
464.096	410.94
464.316	353.94
464.536	374.94
464.755	373.94
464.975	395.94
465.195	427.94
465.414	474.94
465.634	415.94
465.854	391.94
466.073	391.94
466.293	354.94
466.512	343.94
466.732	348.94
466.951	362.94
467.171	355.94
467.391	343.94
467.61	373.94
467.829	350.94
468.049	356.94
468.268	354.94
468.488	354.94
468.707	335.94
468.927	353.94
469.146	343.94
469.365	352.94
469.585	346.94
469.804	344.94
470.023	350.94
470.243	367.94
470.462	356.94
470.681	379.94
470.901	370.94
471.12	351.94
471.339	350.94
471.558	348.94
471.777	368.94
471.997	351.94
472.216	362.94
472.435	369.94
472.654	385.94
472.873	362.94
473.092	367.94
473.311	361.94
473.53	360.94
473.749	353.94
473.968	402.94
474.187	449.94
474.406	477.94
474.625	398.94
474.844	377.94
475.063	349.94
475.282	365.94
475.501	380.94
475.72	376.94
475.939	374.94
476.158	355.94
476.377	377.94
476.596	362.94
476.814	385.94
477.033	395.94
477.252	385.94
477.471	374.94
477.69	393.94
477.908	397.94
478.127	380.94
478.346	373.94
478.564	381.94
478.783	395.94
479.002	402.94
479.22	413.94
479.439	409.94
479.658	428.94
479.876	408.94
480.095	424.94
480.313	427.94
480.532	427.94
480.751	442.94
480.969	437.94
481.188	459.94
481.406	490.94
481.624	448.94
481.843	423.94
482.061	418.94
482.28	427.94
482.498	428.94
482.717	430.94
482.935	413.94
483.153	417.94
483.372	413.94
483.59	430.94
483.808	439.94
484.027	433.94
484.245	430.94
484.463	414.94
484.681	428.94
484.9	420.94
485.118	425.94
485.336	434.94
485.554	436.94
485.772	410.94
485.99	421.94
486.209	425.94
486.427	450.94
486.645	445.94
486.863	453.94
487.081	462.94
487.299	454.94
487.517	454.94
487.735	439.94
487.953	455.94
488.171	441.94
488.389	471.94
488.607	448.94
488.825	433.94
489.043	433.94
489.261	451.94
489.479	459.94
489.696	463.94
489.914	459.94
490.132	460.94
490.35	489.94
490.568	480.94
490.786	461.94
491.003	468.94
491.221	485.94
491.439	504.94
491.657	494.94
491.874	501.94
492.092	493.94
492.31	535.94
492.527	504.94
492.745	507.94
492.963	497.94
493.18	503.94
493.398	513.94
493.615	519.94
493.833	517.94
494.05	501.94
494.268	505.94
494.485	501.94
494.703	515.94
494.92	494.94
495.138	526.94
495.355	521.94
495.573	527.94
495.79	531.94
496.008	510.94
496.225	536.94
496.442	519.94
496.66	513.94
496.877	522.94
497.094	545.94
497.312	520.94
497.529	545.94
497.746	548.94
497.963	553.94
498.181	550.94
498.398	556.94
498.615	585.94
498.832	577.94
499.049	601.94
499.267	590.94
499.484	605.94
499.701	628.94
499.918	639.94
500.135	656.94
500.352	673.94
500.569	698.94
500.786	680.94
501.003	673.94
501.22	666.94
501.437	659.94
501.654	650.94
501.871	649.94
502.088	623.94
