Data from 1965.PennyLincolnUp.Lamp.En5.5.200Scan.071719.P1._HRD10591_14-10-03-912.txt Node
Date: Thu Jul 18 14:10:03 EDT 2019
User: cochatt
Spectrometer: HR+D1059
Trigger mode: 1
Integration Time (sec): 1.000000E-1
Scans to average: 1
Electric dark correction enabled: true
Nonlinearity correction enabled: false
Boxcar width: 0
XAxis mode: Wavelengths
Number of Pixels in Spectrum: 2048
>>>>>Begin Spectral Data<<<<<
223.165	-9.44
223.4	-9.44
223.635	-9.44
223.869	-20.44
224.104	-15.44
224.338	-7.44
224.573	-20.44
224.808	-19.44
225.042	-13.44
225.277	-6.44
225.511	1.56
225.746	5.56
225.98	7.56
226.215	5.56
226.449	3.56
226.683	21.56
226.918	30.56
227.152	36.56
227.387	36.56
227.621	36.56
227.856	23.56
228.09	52.56
228.324	44.56
228.559	65.56
228.793	64.56
229.027	106.56
229.262	114.56
229.496	93.56
229.73	136.56
229.964	134.56
230.199	118.56
230.433	112.56
230.667	119.56
230.901	105.56
231.136	109.56
231.37	95.56
231.604	111.56
231.838	116.56
232.072	119.56
232.306	112.56
232.541	97.56
232.775	101.56
233.009	103.56
233.243	110.56
233.477	99.56
233.711	120.56
233.945	106.56
234.179	128.56
234.413	116.56
234.647	118.56
234.881	112.56
235.115	106.56
235.349	122.56
235.583	111.56
235.817	121.56
236.051	126.56
236.285	112.56
236.519	130.56
236.753	129.56
236.987	150.56
237.221	187.56
237.455	210.56
237.689	177.56
237.922	132.56
238.156	125.56
238.39	135.56
238.624	113.56
238.858	132.56
239.091	104.56
239.325	116.56
239.559	118.56
239.793	125.56
240.027	123.56
240.26	133.56
240.494	158.56
240.728	143.56
240.961	154.56
241.195	137.56
241.429	128.56
241.662	136.56
241.896	124.56
242.13	134.56
242.363	118.56
242.597	133.56
242.83	121.56
243.064	131.56
243.298	134.56
243.531	130.56
243.765	136.56
243.998	116.56
244.232	126.56
244.465	142.56
244.699	142.56
244.932	134.56
245.166	138.56
245.399	134.56
245.633	146.56
245.866	123.56
246.099	134.56
246.333	125.56
246.566	129.56
246.8	143.56
247.033	134.56
247.266	154.56
247.5	165.56
247.733	157.56
247.966	138.56
248.2	148.56
248.433	156.56
248.666	156.56
248.899	179.56
249.133	193.56
249.366	194.56
249.599	204.56
249.832	173.56
250.066	164.56
250.299	170.56
250.532	192.56
250.765	198.56
250.998	216.56
251.231	230.56
251.465	191.56
251.698	202.56
251.931	168.56
252.164	188.56
252.397	180.56
252.63	185.56
252.863	204.56
253.096	208.56
253.329	192.56
253.562	202.56
253.795	198.56
254.028	198.56
254.261	213.56
254.494	203.56
254.727	238.56
254.96	253.56
255.193	250.56
255.426	237.56
255.659	209.56
255.892	220.56
256.124	231.56
256.357	216.56
256.59	216.56
256.823	203.56
257.056	204.56
257.289	206.56
257.521	201.56
257.754	205.56
257.987	201.56
258.22	198.56
258.452	184.56
258.685	183.56
258.918	186.56
259.151	191.56
259.383	215.56
259.616	209.56
259.849	200.56
260.081	207.56
260.314	255.56
260.547	234.56
260.779	245.56
261.012	236.56
261.244	215.56
261.477	220.56
261.71	206.56
261.942	216.56
262.175	214.56
262.407	221.56
262.64	187.56
262.872	206.56
263.105	196.56
263.337	200.56
263.57	200.56
263.802	193.56
264.035	189.56
264.267	198.56
264.499	190.56
264.732	189.56
264.964	198.56
265.197	194.56
265.429	203.56
265.661	206.56
265.894	197.56
266.126	205.56
266.358	216.56
266.591	212.56
266.823	219.56
267.055	207.56
267.287	224.56
267.52	224.56
267.752	221.56
267.984	197.56
268.216	202.56
268.448	218.56
268.681	228.56
268.913	218.56
269.145	229.56
269.377	253.56
269.609	256.56
269.841	252.56
270.073	249.56
270.306	271.56
270.538	293.56
270.77	261.56
271.002	283.56
271.234	279.56
271.466	267.56
271.698	288.56
271.93	288.56
272.162	305.56
272.394	305.56
272.626	286.56
272.858	252.56
273.09	261.56
273.322	248.56
273.553	268.56
273.785	252.56
274.017	239.56
274.249	250.56
274.481	249.56
274.713	237.56
274.945	239.56
275.176	236.56
275.408	240.56
275.64	237.56
275.872	230.56
276.104	244.56
276.335	231.56
276.567	240.56
276.799	262.56
277.031	273.56
277.262	278.56
277.494	294.56
277.726	278.56
277.957	272.56
278.189	246.56
278.421	232.56
278.652	237.56
278.884	233.56
279.115	242.56
279.347	244.56
279.579	237.56
279.81	249.56
280.042	238.56
280.273	252.56
280.505	239.56
280.736	252.56
280.968	235.56
281.199	236.56
281.431	250.56
281.662	236.56
281.894	236.56
282.125	241.56
282.356	271.56
282.588	273.56
282.819	281.56
283.051	265.56
283.282	246.56
283.513	251.56
283.745	245.56
283.976	251.56
284.207	246.56
284.439	262.56
284.67	258.56
284.901	244.56
285.132	261.56
285.364	246.56
285.595	240.56
285.826	251.56
286.057	268.56
286.288	256.56
286.52	259.56
286.751	274.56
286.982	267.56
287.213	246.56
287.444	248.56
287.675	259.56
287.906	265.56
288.138	272.56
288.369	272.56
288.6	258.56
288.831	266.56
289.062	275.56
289.293	262.56
289.524	269.56
289.755	256.56
289.986	258.56
290.217	253.56
290.448	239.56
290.679	259.56
290.91	262.56
291.141	252.56
291.371	244.56
291.602	249.56
291.833	260.56
292.064	249.56
292.295	259.56
292.526	266.56
292.757	253.56
292.987	253.56
293.218	241.56
293.449	272.56
293.68	257.56
293.91	250.56
294.141	254.56
294.372	248.56
294.603	250.56
294.833	262.56
295.064	265.56
295.295	257.56
295.525	248.56
295.756	281.56
295.987	283.56
296.217	304.56
296.448	282.56
296.679	281.56
296.909	285.56
297.14	266.56
297.37	256.56
297.601	274.56
297.831	263.56
298.062	247.56
298.292	270.56
298.523	264.56
298.753	269.56
298.984	271.56
299.214	257.56
299.445	279.56
299.675	280.56
299.905	268.56
300.136	286.56
300.366	289.56
300.597	279.56
300.827	288.56
301.057	288.56
301.288	294.56
301.518	301.56
301.748	261.56
301.979	268.56
302.209	294.56
302.439	275.56
302.669	301.56
302.9	304.56
303.13	297.56
303.36	290.56
303.59	313.56
303.82	318.56
304.051	307.56
304.281	280.56
304.511	298.56
304.741	298.56
304.971	288.56
305.201	292.56
305.431	301.56
305.661	293.56
305.891	282.56
306.121	292.56
306.352	303.56
306.582	315.56
306.812	292.56
307.042	307.56
307.272	306.56
307.502	289.56
307.731	280.56
307.961	300.56
308.191	312.56
308.421	284.56
308.651	294.56
308.881	301.56
309.111	316.56
309.341	326.56
309.571	324.56
309.8	327.56
310.03	347.56
310.26	327.56
310.49	349.56
310.72	338.56
310.949	352.56
311.179	360.56
311.409	333.56
311.639	347.56
311.868	355.56
312.098	327.56
312.328	351.56
312.557	392.56
312.787	383.56
313.017	387.56
313.246	350.56
313.476	352.56
313.706	347.56
313.935	341.56
314.165	357.56
314.394	357.56
314.624	367.56
314.853	369.56
315.083	348.56
315.312	333.56
315.542	332.56
315.771	334.56
316.001	338.56
316.23	330.56
316.46	340.56
316.689	334.56
316.919	348.56
317.148	367.56
317.377	354.56
317.607	349.56
317.836	354.56
318.065	337.56
318.295	333.56
318.524	348.56
318.753	340.56
318.983	327.56
319.212	352.56
319.441	352.56
319.67	382.56
319.9	332.56
320.129	354.56
320.358	350.56
320.587	354.56
320.816	351.56
321.046	377.56
321.275	370.56
321.504	369.56
321.733	381.56
321.962	382.56
322.191	374.56
322.42	398.56
322.649	436.56
322.878	435.56
323.108	440.56
323.337	459.56
323.566	474.56
323.795	523.56
324.024	563.56
324.253	711.56
324.482	1022.56
324.71	1592.56
324.939	2167.56
325.168	1782.56
325.397	950.56
325.626	647.56
325.855	530.56
326.084	516.56
326.313	501.56
326.542	492.56
326.77	538.56
326.999	650.56
327.228	911.56
327.457	1372.56
327.686	1601.56
327.914	1058.56
328.143	712.56
328.372	624.56
328.6	592.56
328.829	536.56
329.058	564.56
329.287	577.56
329.515	524.56
329.744	482.56
329.972	497.56
330.201	514.56
330.43	551.56
330.658	564.56
330.887	591.56
331.115	562.56
331.344	496.56
331.572	464.56
331.801	473.56
332.03	463.56
332.258	445.56
332.486	447.56
332.715	429.56
332.943	414.56
333.172	408.56
333.4	420.56
333.629	409.56
333.857	425.56
334.085	446.56
334.314	468.56
334.542	488.56
334.771	522.56
334.999	464.56
335.227	430.56
335.455	413.56
335.684	402.56
335.912	392.56
336.14	423.56
336.369	424.56
336.597	402.56
336.825	418.56
337.053	406.56
337.281	390.56
337.51	384.56
337.738	372.56
337.966	389.56
338.194	399.56
338.422	401.56
338.65	394.56
338.878	369.56
339.106	372.56
339.334	374.56
339.562	386.56
339.79	366.56
340.018	384.56
340.246	396.56
340.474	403.56
340.702	382.56
340.93	382.56
341.158	371.56
341.386	374.56
341.614	392.56
341.842	398.56
342.07	376.56
342.298	387.56
342.526	393.56
342.754	375.56
342.981	372.56
343.209	355.56
343.437	387.56
343.665	390.56
343.893	386.56
344.12	383.56
344.348	407.56
344.576	383.56
344.804	414.56
345.031	392.56
345.259	386.56
345.487	395.56
345.714	377.56
345.942	393.56
346.17	379.56
346.397	367.56
346.625	372.56
346.853	369.56
347.08	365.56
347.308	383.56
347.535	392.56
347.763	396.56
347.99	376.56
348.218	381.56
348.445	369.56
348.673	400.56
348.9	391.56
349.128	364.56
349.355	353.56
349.583	350.56
349.81	361.56
350.037	376.56
350.265	364.56
350.492	363.56
350.72	366.56
350.947	392.56
351.174	384.56
351.402	384.56
351.629	398.56
351.856	386.56
352.083	384.56
352.311	396.56
352.538	398.56
352.765	382.56
352.992	392.56
353.22	388.56
353.447	379.56
353.674	370.56
353.901	382.56
354.128	349.56
354.355	356.56
354.583	348.56
354.81	364.56
355.037	353.56
355.264	353.56
355.491	345.56
355.718	323.56
355.945	339.56
356.172	351.56
356.399	353.56
356.626	360.56
356.853	343.56
357.08	344.56
357.307	357.56
357.534	337.56
357.761	335.56
357.988	363.56
358.215	338.56
358.441	353.56
358.668	344.56
358.895	356.56
359.122	359.56
359.349	365.56
359.576	390.56
359.802	408.56
360.029	429.56
360.256	440.56
360.483	422.56
360.709	370.56
360.936	383.56
361.163	382.56
361.39	380.56
361.616	372.56
361.843	383.56
362.07	389.56
362.296	380.56
362.523	396.56
362.749	383.56
362.976	360.56
363.203	361.56
363.429	350.56
363.656	389.56
363.882	368.56
364.109	361.56
364.335	386.56
364.562	374.56
364.788	357.56
365.015	376.56
365.241	348.56
365.468	369.56
365.694	382.56
365.92	376.56
366.147	365.56
366.373	353.56
366.599	337.56
366.826	344.56
367.052	338.56
367.278	344.56
367.505	366.56
367.731	368.56
367.957	365.56
368.184	356.56
368.41	379.56
368.636	388.56
368.862	391.56
369.089	386.56
369.315	363.56
369.541	371.56
369.767	364.56
369.993	345.56
370.219	379.56
370.445	360.56
370.672	361.56
370.898	337.56
371.124	342.56
371.35	351.56
371.576	353.56
371.802	340.56
372.028	336.56
372.254	332.56
372.48	353.56
372.706	360.56
372.932	367.56
373.158	357.56
373.384	339.56
373.61	336.56
373.835	350.56
374.061	358.56
374.287	347.56
374.513	337.56
374.739	382.56
374.965	372.56
375.191	355.56
375.416	364.56
375.642	354.56
375.868	344.56
376.094	353.56
376.319	353.56
376.545	359.56
376.771	363.56
376.997	345.56
377.222	338.56
377.448	331.56
377.674	352.56
377.899	353.56
378.125	347.56
378.35	352.56
378.576	340.56
378.802	347.56
379.027	320.56
379.253	341.56
379.478	341.56
379.704	359.56
379.929	352.56
380.155	347.56
380.38	351.56
380.606	343.56
380.831	341.56
381.057	347.56
381.282	333.56
381.507	336.56
381.733	356.56
381.958	354.56
382.184	356.56
382.409	352.56
382.634	374.56
382.86	373.56
383.085	361.56
383.31	330.56
383.535	352.56
383.761	372.56
383.986	358.56
384.211	344.56
384.436	354.56
384.662	366.56
384.887	381.56
385.112	374.56
385.337	353.56
385.562	369.56
385.787	378.56
386.013	382.56
386.238	363.56
386.463	394.56
386.688	374.56
386.913	377.56
387.138	352.56
387.363	368.56
387.588	389.56
387.813	366.56
388.038	356.56
388.263	382.56
388.488	361.56
388.713	384.56
388.938	363.56
389.163	364.56
389.387	376.56
389.612	374.56
389.837	389.56
390.062	380.56
390.287	384.56
390.512	389.56
390.736	386.56
390.961	378.56
391.186	363.56
391.411	388.56
391.636	396.56
391.86	384.56
392.085	384.56
392.31	389.56
392.534	367.56
392.759	380.56
392.984	380.56
393.208	389.56
393.433	361.56
393.658	366.56
393.882	384.56
394.107	373.56
394.331	386.56
394.556	385.56
394.78	381.56
395.005	381.56
395.229	363.56
395.454	373.56
395.678	398.56
395.903	392.56
396.127	389.56
396.352	388.56
396.576	386.56
396.801	390.56
397.025	394.56
397.249	385.56
397.474	399.56
397.698	413.56
397.922	427.56
398.147	425.56
398.371	417.56
398.595	415.56
398.82	429.56
399.044	412.56
399.268	414.56
399.492	449.56
399.717	478.56
399.941	481.56
400.165	500.56
400.389	518.56
400.613	481.56
400.837	439.56
401.062	425.56
401.286	431.56
401.51	424.56
401.734	426.56
401.958	420.56
402.182	432.56
402.406	445.56
402.63	452.56
402.854	444.56
403.078	423.56
403.302	443.56
403.526	417.56
403.75	425.56
403.974	416.56
404.198	438.56
404.422	448.56
404.645	465.56
404.869	462.56
405.093	490.56
405.317	484.56
405.541	530.56
405.765	484.56
405.988	465.56
406.212	492.56
406.436	500.56
406.66	525.56
406.883	498.56
407.107	501.56
407.331	514.56
407.555	576.56
407.778	592.56
408.002	517.56
408.226	496.56
408.449	465.56
408.673	480.56
408.896	522.56
409.12	525.56
409.344	516.56
409.567	470.56
409.791	441.56
410.014	443.56
410.238	440.56
410.461	435.56
410.685	433.56
410.908	470.56
411.132	502.56
411.355	538.56
411.578	479.56
411.802	456.56
412.025	440.56
412.249	445.56
412.472	463.56
412.695	521.56
412.919	499.56
413.142	462.56
413.365	460.56
413.589	424.56
413.812	431.56
414.035	414.56
414.258	402.56
414.482	397.56
414.705	414.56
414.928	433.56
415.151	412.56
415.374	426.56
415.597	394.56
415.821	408.56
416.044	412.56
416.267	418.56
416.49	418.56
416.713	412.56
416.936	409.56
417.159	433.56
417.382	440.56
417.605	420.56
417.828	440.56
418.051	426.56
418.274	433.56
418.497	432.56
418.72	422.56
418.943	401.56
419.166	438.56
419.389	448.56
419.611	440.56
419.834	458.56
420.057	438.56
420.28	436.56
420.503	422.56
420.726	428.56
420.948	454.56
421.171	494.56
421.394	512.56
421.617	466.56
421.839	431.56
422.062	451.56
422.285	452.56
422.507	513.56
422.73	558.56
422.953	528.56
423.175	468.56
423.398	441.56
423.621	454.56
423.843	475.56
424.066	477.56
424.288	478.56
424.511	493.56
424.733	538.56
424.956	582.56
425.178	568.56
425.401	574.56
425.623	602.56
425.846	505.56
426.068	487.56
426.291	481.56
426.513	484.56
426.735	508.56
426.958	518.56
427.18	593.56
427.402	705.56
427.625	745.56
427.847	685.56
428.069	599.56
428.292	541.56
428.514	472.56
428.736	455.56
428.958	445.56
429.181	445.56
429.403	441.56
429.625	437.56
429.847	478.56
430.069	536.56
430.292	508.56
430.514	472.56
430.736	458.56
430.958	429.56
431.18	424.56
431.402	419.56
431.624	397.56
431.846	425.56
432.068	401.56
432.29	397.56
432.512	430.56
432.734	425.56
432.956	422.56
433.178	444.56
433.4	443.56
433.622	424.56
433.844	439.56
434.066	415.56
434.287	412.56
434.509	432.56
434.731	429.56
434.953	420.56
435.175	452.56
435.397	481.56
435.618	504.56
435.84	522.56
436.062	592.56
436.284	629.56
436.505	539.56
436.727	474.56
436.949	458.56
437.17	453.56
437.392	442.56
437.614	468.56
437.835	509.56
438.057	603.56
438.278	658.56
438.5	672.56
438.721	695.56
438.943	686.56
439.165	550.56
439.386	495.56
439.608	502.56
439.829	493.56
440.05	524.56
440.272	593.56
440.493	530.56
440.715	485.56
440.936	471.56
441.158	455.56
441.379	456.56
441.6	483.56
441.822	503.56
442.043	522.56
442.264	591.56
442.486	629.56
442.707	512.56
442.928	498.56
443.149	524.56
443.371	522.56
443.592	555.56
443.813	654.56
444.034	681.56
444.255	553.56
444.476	510.56
444.698	481.56
444.919	465.56
445.14	629.56
445.361	568.56
445.582	538.56
445.803	582.56
446.024	699.56
446.245	663.56
446.466	608.56
446.687	514.56
446.908	512.56
447.129	474.56
447.35	437.56
447.571	439.56
447.792	446.56
448.013	457.56
448.234	465.56
448.455	529.56
448.675	610.56
448.896	665.56
449.117	593.56
449.338	560.56
449.559	677.56
449.779	744.56
450	600.56
450.221	526.56
450.442	472.56
450.662	464.56
450.883	465.56
451.104	463.56
451.324	465.56
451.545	430.56
451.766	431.56
451.986	417.56
452.207	419.56
452.428	422.56
452.648	418.56
452.869	405.56
453.089	410.56
453.31	437.56
453.53	416.56
453.751	403.56
453.971	411.56
454.192	452.56
454.412	418.56
454.633	378.56
454.853	401.56
455.073	394.56
455.294	440.56
455.514	493.56
455.734	482.56
455.955	406.56
456.175	394.56
456.395	384.56
456.616	365.56
456.836	394.56
457.056	380.56
457.276	380.56
457.497	376.56
457.717	368.56
457.937	390.56
458.157	381.56
458.377	404.56
458.598	412.56
458.818	471.56
459.038	568.56
459.258	593.56
459.478	477.56
459.698	424.56
459.918	416.56
460.138	431.56
460.358	426.56
460.578	422.56
460.798	439.56
461.018	440.56
461.238	414.56
461.458	399.56
461.678	386.56
461.898	420.56
462.118	412.56
462.338	439.56
462.558	423.56
462.777	438.56
462.997	441.56
463.217	444.56
463.437	443.56
463.657	432.56
463.876	436.56
464.096	447.56
464.316	479.56
464.536	462.56
464.755	442.56
464.975	442.56
465.195	500.56
465.414	605.56
465.634	513.56
465.854	450.56
466.073	447.56
466.293	432.56
466.512	423.56
466.732	412.56
466.951	407.56
467.171	409.56
467.391	390.56
467.61	432.56
467.829	447.56
468.049	428.56
468.268	446.56
468.488	427.56
468.707	410.56
468.927	396.56
469.146	382.56
469.365	410.56
469.585	396.56
469.804	420.56
470.023	439.56
470.243	430.56
470.462	434.56
470.681	458.56
470.901	449.56
471.12	422.56
471.339	412.56
471.558	396.56
471.777	428.56
471.997	419.56
472.216	417.56
472.435	481.56
472.654	461.56
472.873	420.56
473.092	435.56
473.311	427.56
473.53	422.56
473.749	438.56
473.968	471.56
474.187	559.56
474.406	571.56
474.625	492.56
474.844	448.56
475.063	425.56
475.282	409.56
475.501	421.56
475.72	447.56
475.939	460.56
476.158	436.56
476.377	431.56
476.596	436.56
476.814	445.56
477.033	446.56
477.252	443.56
477.471	456.56
477.69	436.56
477.908	452.56
478.127	437.56
478.346	474.56
478.564	466.56
478.783	465.56
479.002	461.56
479.22	464.56
479.439	498.56
479.658	515.56
479.876	504.56
480.095	507.56
480.313	540.56
480.532	535.56
480.751	499.56
480.969	538.56
481.188	575.56
481.406	630.56
481.624	544.56
481.843	526.56
482.061	513.56
482.28	484.56
482.498	508.56
482.717	493.56
482.935	497.56
483.153	491.56
483.372	518.56
483.59	489.56
483.808	483.56
484.027	473.56
484.245	494.56
484.463	504.56
484.681	514.56
484.9	486.56
485.118	500.56
485.336	488.56
485.554	486.56
485.772	516.56
485.99	522.56
486.209	501.56
486.427	492.56
486.645	532.56
486.863	530.56
487.081	550.56
487.299	518.56
487.517	541.56
487.735	527.56
487.953	546.56
488.171	531.56
488.389	498.56
488.607	528.56
488.825	537.56
489.043	537.56
489.261	533.56
489.479	529.56
489.696	544.56
489.914	550.56
490.132	558.56
490.35	551.56
490.568	542.56
490.786	564.56
491.003	574.56
491.221	560.56
491.439	608.56
491.657	604.56
491.874	577.56
492.092	591.56
492.31	575.56
492.527	605.56
492.745	605.56
492.963	601.56
493.18	613.56
493.398	615.56
493.615	633.56
493.833	654.56
494.05	640.56
494.268	624.56
494.485	586.56
494.703	614.56
494.92	615.56
495.138	597.56
495.355	626.56
495.573	632.56
495.79	636.56
496.008	625.56
496.225	600.56
496.442	614.56
496.66	615.56
496.877	610.56
497.094	638.56
497.312	616.56
497.529	664.56
497.746	626.56
497.963	648.56
498.181	658.56
498.398	694.56
498.615	665.56
498.832	665.56
499.049	681.56
499.267	699.56
499.484	716.56
499.701	730.56
499.918	734.56
500.135	744.56
500.352	769.56
500.569	816.56
500.786	814.56
501.003	784.56
501.22	784.56
501.437	741.56
501.654	720.56
501.871	745.56
502.088	716.56
