Data from 1965.PennyLincolnUp.Lamp.En5.5.200Scan.071719.P1._HRD10591_14-09-33-912.txt Node
Date: Thu Jul 18 14:09:33 EDT 2019
User: cochatt
Spectrometer: HR+D1059
Trigger mode: 1
Integration Time (sec): 1.000000E-1
Scans to average: 1
Electric dark correction enabled: true
Nonlinearity correction enabled: false
Boxcar width: 0
XAxis mode: Wavelengths
Number of Pixels in Spectrum: 2048
>>>>>Begin Spectral Data<<<<<
223.165	-10.06
223.4	-10.06
223.635	-10.06
223.869	-31.06
224.104	-22.06
224.338	-17.06
224.573	-10.06
224.808	-0.06
225.042	-27.06
225.277	-5.06
225.511	-5.06
225.746	19.94
225.98	24.94
226.215	1.94
226.449	19.94
226.683	20.94
226.918	18.94
227.152	20.94
227.387	35.94
227.621	24.94
227.856	32.94
228.09	53.94
228.324	47.94
228.559	51.94
228.793	77.94
229.027	93.94
229.262	103.94
229.496	95.94
229.73	131.94
229.964	151.94
230.199	120.94
230.433	106.94
230.667	114.94
230.901	106.94
231.136	98.94
231.37	87.94
231.604	92.94
231.838	114.94
232.072	109.94
232.306	105.94
232.541	98.94
232.775	92.94
233.009	105.94
233.243	107.94
233.477	97.94
233.711	116.94
233.945	112.94
234.179	119.94
234.413	95.94
234.647	115.94
234.881	105.94
235.115	114.94
235.349	98.94
235.583	110.94
235.817	103.94
236.051	113.94
236.285	125.94
236.519	115.94
236.753	137.94
236.987	132.94
237.221	169.94
237.455	211.94
237.689	182.94
237.922	125.94
238.156	122.94
238.39	120.94
238.624	116.94
238.858	123.94
239.091	119.94
239.325	124.94
239.559	123.94
239.793	116.94
240.027	125.94
240.26	135.94
240.494	127.94
240.728	141.94
240.961	145.94
241.195	115.94
241.429	124.94
241.662	124.94
241.896	120.94
242.13	125.94
242.363	123.94
242.597	117.94
242.83	118.94
243.064	121.94
243.298	140.94
243.531	116.94
243.765	126.94
243.998	131.94
244.232	125.94
244.465	132.94
244.699	123.94
244.932	127.94
245.166	135.94
245.399	135.94
245.633	146.94
245.866	129.94
246.099	132.94
246.333	133.94
246.566	127.94
246.8	140.94
247.033	149.94
247.266	153.94
247.5	140.94
247.733	135.94
247.966	149.94
248.2	133.94
248.433	146.94
248.666	153.94
248.899	156.94
249.133	165.94
249.366	187.94
249.599	178.94
249.832	169.94
250.066	147.94
250.299	167.94
250.532	177.94
250.765	173.94
250.998	189.94
251.231	204.94
251.465	193.94
251.698	169.94
251.931	168.94
252.164	161.94
252.397	171.94
252.63	179.94
252.863	197.94
253.096	160.94
253.329	193.94
253.562	195.94
253.795	185.94
254.028	190.94
254.261	187.94
254.494	189.94
254.727	220.94
254.96	249.94
255.193	226.94
255.426	225.94
255.659	208.94
255.892	202.94
256.124	209.94
256.357	210.94
256.59	202.94
256.823	191.94
257.056	193.94
257.289	196.94
257.521	180.94
257.754	180.94
257.987	194.94
258.22	203.94
258.452	170.94
258.685	171.94
258.918	174.94
259.151	193.94
259.383	189.94
259.616	194.94
259.849	194.94
260.081	222.94
260.314	215.94
260.547	219.94
260.779	226.94
261.012	210.94
261.244	194.94
261.477	186.94
261.71	189.94
261.942	201.94
262.175	212.94
262.407	208.94
262.64	190.94
262.872	176.94
263.105	193.94
263.337	198.94
263.57	175.94
263.802	184.94
264.035	182.94
264.267	181.94
264.499	186.94
264.732	187.94
264.964	181.94
265.197	174.94
265.429	186.94
265.661	201.94
265.894	187.94
266.126	189.94
266.358	196.94
266.591	173.94
266.823	196.94
267.055	186.94
267.287	189.94
267.52	191.94
267.752	194.94
267.984	203.94
268.216	198.94
268.448	191.94
268.681	207.94
268.913	216.94
269.145	217.94
269.377	241.94
269.609	233.94
269.841	240.94
270.073	241.94
270.306	254.94
270.538	274.94
270.77	276.94
271.002	260.94
271.234	258.94
271.466	274.94
271.698	267.94
271.93	282.94
272.162	276.94
272.394	274.94
272.626	259.94
272.858	242.94
273.09	244.94
273.322	258.94
273.553	231.94
273.785	233.94
274.017	225.94
274.249	233.94
274.481	232.94
274.713	237.94
274.945	227.94
275.176	228.94
275.408	251.94
275.64	222.94
275.872	228.94
276.104	229.94
276.335	225.94
276.567	229.94
276.799	241.94
277.031	280.94
277.262	268.94
277.494	275.94
277.726	267.94
277.957	268.94
278.189	251.94
278.421	234.94
278.652	215.94
278.884	237.94
279.115	215.94
279.347	241.94
279.579	218.94
279.81	231.94
280.042	237.94
280.273	240.94
280.505	202.94
280.736	242.94
280.968	227.94
281.199	227.94
281.431	234.94
281.662	212.94
281.894	230.94
282.125	217.94
282.356	237.94
282.588	271.94
282.819	247.94
283.051	228.94
283.282	230.94
283.513	225.94
283.745	236.94
283.976	239.94
284.207	221.94
284.439	250.94
284.67	236.94
284.901	234.94
285.132	224.94
285.364	225.94
285.595	228.94
285.826	227.94
286.057	234.94
286.288	242.94
286.52	241.94
286.751	237.94
286.982	235.94
287.213	209.94
287.444	253.94
287.675	239.94
287.906	263.94
288.138	257.94
288.369	271.94
288.6	260.94
288.831	265.94
289.062	257.94
289.293	266.94
289.524	245.94
289.755	234.94
289.986	248.94
290.217	250.94
290.448	251.94
290.679	251.94
290.91	240.94
291.141	269.94
291.371	236.94
291.602	251.94
291.833	230.94
292.064	253.94
292.295	241.94
292.526	236.94
292.757	237.94
292.987	236.94
293.218	240.94
293.449	242.94
293.68	225.94
293.91	259.94
294.141	252.94
294.372	257.94
294.603	255.94
294.833	253.94
295.064	245.94
295.295	262.94
295.525	244.94
295.756	259.94
295.987	264.94
296.217	283.94
296.448	288.94
296.679	265.94
296.909	250.94
297.14	236.94
297.37	267.94
297.601	246.94
297.831	243.94
298.062	236.94
298.292	263.94
298.523	266.94
298.753	263.94
298.984	261.94
299.214	261.94
299.445	266.94
299.675	275.94
299.905	283.94
300.136	255.94
300.366	263.94
300.597	276.94
300.827	255.94
301.057	284.94
301.288	288.94
301.518	282.94
301.748	263.94
301.979	267.94
302.209	286.94
302.439	290.94
302.669	289.94
302.9	265.94
303.13	273.94
303.36	277.94
303.59	270.94
303.82	281.94
304.051	298.94
304.281	295.94
304.511	284.94
304.741	281.94
304.971	248.94
305.201	280.94
305.431	272.94
305.661	265.94
305.891	284.94
306.121	307.94
306.352	291.94
306.582	293.94
306.812	283.94
307.042	298.94
307.272	292.94
307.502	270.94
307.731	279.94
307.961	300.94
308.191	295.94
308.421	295.94
308.651	269.94
308.881	273.94
309.111	281.94
309.341	298.94
309.571	317.94
309.8	315.94
310.03	314.94
310.26	296.94
310.49	324.94
310.72	336.94
310.949	358.94
311.179	377.94
311.409	333.94
311.639	309.94
311.868	324.94
312.098	326.94
312.328	333.94
312.557	344.94
312.787	343.94
313.017	367.94
313.246	354.94
313.476	347.94
313.706	328.94
313.935	341.94
314.165	337.94
314.394	347.94
314.624	331.94
314.853	322.94
315.083	357.94
315.312	331.94
315.542	303.94
315.771	321.94
316.001	325.94
316.23	330.94
316.46	339.94
316.689	325.94
316.919	321.94
317.148	347.94
317.377	337.94
317.607	353.94
317.836	337.94
318.065	328.94
318.295	308.94
318.524	326.94
318.753	321.94
318.983	322.94
319.212	319.94
319.441	340.94
319.67	341.94
319.9	353.94
320.129	345.94
320.358	355.94
320.587	346.94
320.816	353.94
321.046	343.94
321.275	359.94
321.504	333.94
321.733	348.94
321.962	357.94
322.191	365.94
322.42	393.94
322.649	386.94
322.878	383.94
323.108	413.94
323.337	436.94
323.566	428.94
323.795	488.94
324.024	505.94
324.253	657.94
324.482	973.94
324.71	1480.94
324.939	2002.94
325.168	1658.94
325.397	901.94
325.626	625.94
325.855	513.94
326.084	483.94
326.313	454.94
326.542	444.94
326.77	541.94
326.999	602.94
327.228	845.94
327.457	1230.94
327.686	1479.94
327.914	1007.94
328.143	649.94
328.372	595.94
328.6	542.94
328.829	501.94
329.058	524.94
329.287	532.94
329.515	495.94
329.744	481.94
329.972	459.94
330.201	487.94
330.43	504.94
330.658	553.94
330.887	560.94
331.115	530.94
331.344	459.94
331.572	427.94
331.801	443.94
332.03	423.94
332.258	404.94
332.486	389.94
332.715	380.94
332.943	396.94
333.172	390.94
333.4	383.94
333.629	416.94
333.857	390.94
334.085	435.94
334.314	435.94
334.542	470.94
334.771	502.94
334.999	455.94
335.227	405.94
335.455	394.94
335.684	378.94
335.912	379.94
336.14	373.94
336.369	404.94
336.597	392.94
336.825	379.94
337.053	377.94
337.281	386.94
337.51	354.94
337.738	399.94
337.966	377.94
338.194	372.94
338.422	374.94
338.65	387.94
338.878	362.94
339.106	362.94
339.334	376.94
339.562	375.94
339.79	359.94
340.018	379.94
340.246	385.94
340.474	370.94
340.702	365.94
340.93	381.94
341.158	371.94
341.386	379.94
341.614	382.94
341.842	357.94
342.07	373.94
342.298	344.94
342.526	369.94
342.754	371.94
342.981	365.94
343.209	371.94
343.437	358.94
343.665	373.94
343.893	373.94
344.12	352.94
344.348	347.94
344.576	371.94
344.804	366.94
345.031	364.94
345.259	395.94
345.487	395.94
345.714	370.94
345.942	361.94
346.17	348.94
346.397	324.94
346.625	364.94
346.853	350.94
347.08	363.94
347.308	371.94
347.535	385.94
347.763	365.94
347.99	373.94
348.218	371.94
348.445	384.94
348.673	383.94
348.9	360.94
349.128	354.94
349.355	350.94
349.583	336.94
349.81	364.94
350.037	348.94
350.265	346.94
350.492	369.94
350.72	371.94
350.947	352.94
351.174	348.94
351.402	377.94
351.629	374.94
351.856	368.94
352.083	372.94
352.311	381.94
352.538	385.94
352.765	367.94
352.992	378.94
353.22	362.94
353.447	343.94
353.674	361.94
353.901	358.94
354.128	330.94
354.355	335.94
354.583	345.94
354.81	351.94
355.037	352.94
355.264	342.94
355.491	342.94
355.718	342.94
355.945	335.94
356.172	311.94
356.399	329.94
356.626	333.94
356.853	337.94
357.08	349.94
357.307	327.94
357.534	339.94
357.761	324.94
357.988	327.94
358.215	340.94
358.441	335.94
358.668	353.94
358.895	332.94
359.122	330.94
359.349	361.94
359.576	369.94
359.802	369.94
360.029	374.94
360.256	413.94
360.483	399.94
360.709	367.94
360.936	360.94
361.163	375.94
361.39	358.94
361.616	365.94
361.843	362.94
362.07	382.94
362.296	360.94
362.523	349.94
362.749	342.94
362.976	345.94
363.203	363.94
363.429	346.94
363.656	352.94
363.882	345.94
364.109	348.94
364.335	345.94
364.562	335.94
364.788	341.94
365.015	328.94
365.241	334.94
365.468	347.94
365.694	348.94
365.92	374.94
366.147	351.94
366.373	333.94
366.599	342.94
366.826	347.94
367.052	329.94
367.278	340.94
367.505	332.94
367.731	323.94
367.957	343.94
368.184	352.94
368.41	338.94
368.636	344.94
368.862	354.94
369.089	346.94
369.315	322.94
369.541	339.94
369.767	337.94
369.993	365.94
370.219	341.94
370.445	332.94
370.672	346.94
370.898	328.94
371.124	342.94
371.35	333.94
371.576	343.94
371.802	329.94
372.028	345.94
372.254	327.94
372.48	339.94
372.706	353.94
372.932	335.94
373.158	334.94
373.384	330.94
373.61	329.94
373.835	328.94
374.061	337.94
374.287	351.94
374.513	351.94
374.739	356.94
374.965	331.94
375.191	334.94
375.416	343.94
375.642	338.94
375.868	332.94
376.094	333.94
376.319	329.94
376.545	349.94
376.771	340.94
376.997	327.94
377.222	328.94
377.448	344.94
377.674	335.94
377.899	329.94
378.125	327.94
378.35	334.94
378.576	340.94
378.802	329.94
379.027	341.94
379.253	341.94
379.478	328.94
379.704	320.94
379.929	307.94
380.155	348.94
380.38	352.94
380.606	353.94
380.831	336.94
381.057	349.94
381.282	328.94
381.507	332.94
381.733	335.94
381.958	336.94
382.184	339.94
382.409	352.94
382.634	343.94
382.86	329.94
383.085	352.94
383.31	341.94
383.535	337.94
383.761	360.94
383.986	350.94
384.211	354.94
384.436	341.94
384.662	328.94
384.887	360.94
385.112	356.94
385.337	371.94
385.562	351.94
385.787	359.94
386.013	378.94
386.238	345.94
386.463	373.94
386.688	363.94
386.913	373.94
387.138	359.94
387.363	355.94
387.588	356.94
387.813	372.94
388.038	352.94
388.263	377.94
388.488	360.94
388.713	359.94
388.938	349.94
389.163	340.94
389.387	350.94
389.612	374.94
389.837	369.94
390.062	357.94
390.287	356.94
390.512	371.94
390.736	357.94
390.961	371.94
391.186	351.94
391.411	361.94
391.636	361.94
391.86	360.94
392.085	348.94
392.31	351.94
392.534	369.94
392.759	375.94
392.984	367.94
393.208	360.94
393.433	361.94
393.658	355.94
393.882	372.94
394.107	364.94
394.331	364.94
394.556	338.94
394.78	351.94
395.005	345.94
395.229	370.94
395.454	369.94
395.678	372.94
395.903	386.94
396.127	384.94
396.352	394.94
396.576	387.94
396.801	376.94
397.025	376.94
397.249	385.94
397.474	386.94
397.698	377.94
397.922	389.94
398.147	401.94
398.371	409.94
398.595	390.94
398.82	411.94
399.044	406.94
399.268	413.94
399.492	433.94
399.717	441.94
399.941	472.94
400.165	459.94
400.389	489.94
400.613	465.94
400.837	426.94
401.062	411.94
401.286	404.94
401.51	405.94
401.734	392.94
401.958	411.94
402.182	383.94
402.406	416.94
402.63	411.94
402.854	400.94
403.078	416.94
403.302	414.94
403.526	440.94
403.75	413.94
403.974	431.94
404.198	421.94
404.422	407.94
404.645	427.94
404.869	426.94
405.093	460.94
405.317	482.94
405.541	529.94
405.765	507.94
405.988	451.94
406.212	464.94
406.436	479.94
406.66	496.94
406.883	473.94
407.107	493.94
407.331	493.94
407.555	550.94
407.778	551.94
408.002	493.94
408.226	466.94
408.449	460.94
408.673	465.94
408.896	484.94
409.12	497.94
409.344	468.94
409.567	435.94
409.791	415.94
410.014	415.94
410.238	425.94
410.461	417.94
410.685	415.94
410.908	425.94
411.132	462.94
411.355	491.94
411.578	478.94
411.802	418.94
412.025	417.94
412.249	428.94
412.472	459.94
412.695	501.94
412.919	462.94
413.142	447.94
413.365	432.94
413.589	411.94
413.812	387.94
414.035	404.94
414.258	408.94
414.482	402.94
414.705	401.94
414.928	396.94
415.151	400.94
415.374	396.94
415.597	387.94
415.821	386.94
416.044	404.94
416.267	410.94
416.49	401.94
416.713	387.94
416.936	382.94
417.159	405.94
417.382	401.94
417.605	427.94
417.828	416.94
418.051	396.94
418.274	392.94
418.497	399.94
418.72	401.94
418.943	402.94
419.166	410.94
419.389	425.94
419.611	439.94
419.834	423.94
420.057	428.94
420.28	450.94
420.503	422.94
420.726	411.94
420.948	432.94
421.171	481.94
421.394	492.94
421.617	461.94
421.839	444.94
422.062	404.94
422.285	442.94
422.507	465.94
422.73	517.94
422.953	508.94
423.175	472.94
423.398	446.94
423.621	448.94
423.843	459.94
424.066	443.94
424.288	440.94
424.511	451.94
424.733	514.94
424.956	548.94
425.178	527.94
425.401	531.94
425.623	552.94
425.846	479.94
426.068	460.94
426.291	465.94
426.513	449.94
426.735	458.94
426.958	490.94
427.18	586.94
427.402	689.94
427.625	735.94
427.847	672.94
428.069	569.94
428.292	509.94
428.514	489.94
428.736	466.94
428.958	435.94
429.181	424.94
429.403	427.94
429.625	445.94
429.847	484.94
430.069	511.94
430.292	503.94
430.514	459.94
430.736	425.94
430.958	419.94
431.18	398.94
431.402	400.94
431.624	403.94
431.846	395.94
432.068	403.94
432.29	410.94
432.512	403.94
432.734	420.94
432.956	405.94
433.178	421.94
433.4	395.94
433.622	398.94
433.844	395.94
434.066	419.94
434.287	409.94
434.509	421.94
434.731	405.94
434.953	404.94
435.175	443.94
435.397	472.94
435.618	464.94
435.84	485.94
436.062	553.94
436.284	631.94
436.505	513.94
436.727	497.94
436.949	453.94
437.17	441.94
437.392	430.94
437.614	451.94
437.835	473.94
438.057	559.94
438.278	635.94
438.5	627.94
438.721	671.94
438.943	651.94
439.165	523.94
439.386	485.94
439.608	475.94
439.829	484.94
440.05	493.94
440.272	518.94
440.493	511.94
440.715	464.94
440.936	463.94
441.158	427.94
441.379	459.94
441.6	451.94
441.822	459.94
442.043	500.94
442.264	549.94
442.486	613.94
442.707	508.94
442.928	471.94
443.149	484.94
443.371	508.94
443.592	543.94
443.813	623.94
444.034	634.94
444.255	544.94
444.476	487.94
444.698	433.94
444.919	454.94
445.14	575.94
445.361	531.94
445.582	506.94
445.803	587.94
446.024	625.94
446.245	635.94
446.466	581.94
446.687	484.94
446.908	455.94
447.129	463.94
447.35	434.94
447.571	441.94
447.792	434.94
448.013	446.94
448.234	470.94
448.455	491.94
448.675	584.94
448.896	679.94
449.117	576.94
449.338	538.94
449.559	649.94
449.779	701.94
450	568.94
450.221	466.94
450.442	438.94
450.662	420.94
450.883	461.94
451.104	463.94
451.324	443.94
451.545	407.94
451.766	416.94
451.986	407.94
452.207	379.94
452.428	389.94
452.648	384.94
452.869	401.94
453.089	398.94
453.31	400.94
453.53	401.94
453.751	396.94
453.971	383.94
454.192	429.94
454.412	421.94
454.633	407.94
454.853	380.94
455.073	379.94
455.294	415.94
455.514	459.94
455.734	437.94
455.955	390.94
456.175	383.94
456.395	380.94
456.616	369.94
456.836	374.94
457.056	377.94
457.276	373.94
457.497	360.94
457.717	383.94
457.937	375.94
458.157	385.94
458.377	376.94
458.598	408.94
458.818	458.94
459.038	522.94
459.258	550.94
459.478	457.94
459.698	421.94
459.918	404.94
460.138	387.94
460.358	399.94
460.578	385.94
460.798	420.94
461.018	395.94
461.238	387.94
461.458	403.94
461.678	412.94
461.898	399.94
462.118	412.94
462.338	391.94
462.558	391.94
462.777	412.94
462.997	420.94
463.217	416.94
463.437	414.94
463.657	433.94
463.876	413.94
464.096	434.94
464.316	451.94
464.536	431.94
464.755	432.94
464.975	451.94
465.195	484.94
465.414	566.94
465.634	469.94
465.854	435.94
466.073	437.94
466.293	404.94
466.512	400.94
466.732	399.94
466.951	403.94
467.171	391.94
467.391	392.94
467.61	397.94
467.829	415.94
468.049	416.94
468.268	410.94
468.488	397.94
468.707	393.94
468.927	385.94
469.146	387.94
469.365	381.94
469.585	391.94
469.804	403.94
470.023	417.94
470.243	415.94
470.462	428.94
470.681	433.94
470.901	417.94
471.12	397.94
471.339	391.94
471.558	399.94
471.777	393.94
471.997	411.94
472.216	408.94
472.435	438.94
472.654	412.94
472.873	414.94
473.092	412.94
473.311	414.94
473.53	423.94
473.749	411.94
473.968	456.94
474.187	530.94
474.406	533.94
474.625	463.94
474.844	420.94
475.063	403.94
475.282	421.94
475.501	421.94
475.72	411.94
475.939	412.94
476.158	403.94
476.377	413.94
476.596	402.94
476.814	426.94
477.033	433.94
477.252	418.94
477.471	431.94
477.69	433.94
477.908	447.94
478.127	435.94
478.346	443.94
478.564	435.94
478.783	432.94
479.002	459.94
479.22	449.94
479.439	469.94
479.658	494.94
479.876	483.94
480.095	474.94
480.313	496.94
480.532	517.94
480.751	501.94
480.969	499.94
481.188	579.94
481.406	604.94
481.624	517.94
481.843	495.94
482.061	482.94
482.28	477.94
482.498	470.94
482.717	479.94
482.935	475.94
483.153	464.94
483.372	457.94
483.59	472.94
483.808	460.94
484.027	479.94
484.245	482.94
484.463	467.94
484.681	502.94
484.9	479.94
485.118	448.94
485.336	448.94
485.554	500.94
485.772	496.94
485.99	502.94
486.209	492.94
486.427	504.94
486.645	491.94
486.863	501.94
487.081	531.94
487.299	518.94
487.517	505.94
487.735	493.94
487.953	505.94
488.171	535.94
488.389	482.94
488.607	515.94
488.825	498.94
489.043	506.94
489.261	523.94
489.479	525.94
489.696	519.94
489.914	529.94
490.132	507.94
490.35	519.94
490.568	531.94
490.786	531.94
491.003	568.94
491.221	564.94
491.439	565.94
491.657	568.94
491.874	579.94
492.092	574.94
492.31	556.94
492.527	577.94
492.745	586.94
492.963	589.94
493.18	609.94
493.398	607.94
493.615	603.94
493.833	604.94
494.05	589.94
494.268	578.94
494.485	591.94
494.703	593.94
494.92	589.94
495.138	589.94
495.355	600.94
495.573	597.94
495.79	579.94
496.008	608.94
496.225	589.94
496.442	593.94
496.66	597.94
496.877	618.94
497.094	586.94
497.312	586.94
497.529	608.94
497.746	621.94
497.963	611.94
498.181	643.94
498.398	647.94
498.615	654.94
498.832	639.94
499.049	649.94
499.267	659.94
499.484	674.94
499.701	722.94
499.918	713.94
500.135	733.94
500.352	745.94
500.569	757.94
500.786	767.94
501.003	757.94
501.22	767.94
501.437	735.94
501.654	714.94
501.871	721.94
502.088	691.94
