Data from 1965.PennyLincolnUp.Lamp.En5.5.200Scan.071719.P1._HRD10591_14-09-14-911.txt Node
Date: Thu Jul 18 14:09:14 EDT 2019
User: cochatt
Spectrometer: HR+D1059
Trigger mode: 1
Integration Time (sec): 1.000000E-1
Scans to average: 1
Electric dark correction enabled: true
Nonlinearity correction enabled: false
Boxcar width: 0
XAxis mode: Wavelengths
Number of Pixels in Spectrum: 2048
>>>>>Begin Spectral Data<<<<<
223.165	-20.06
223.4	-20.06
223.635	-20.06
223.869	-15.06
224.104	-26.06
224.338	-12.06
224.573	-14.06
224.808	-9.06
225.042	-6.06
225.277	0.94
225.511	1.94
225.746	3.94
225.98	0.94
226.215	-5.06
226.449	17.94
226.683	14.94
226.918	27.94
227.152	38.94
227.387	28.94
227.621	35.94
227.856	41.94
228.09	43.94
228.324	35.94
228.559	57.94
228.793	75.94
229.027	93.94
229.262	87.94
229.496	109.94
229.73	117.94
229.964	148.94
230.199	123.94
230.433	123.94
230.667	113.94
230.901	105.94
231.136	88.94
231.37	99.94
231.604	102.94
231.838	94.94
232.072	104.94
232.306	110.94
232.541	114.94
232.775	112.94
233.009	101.94
233.243	112.94
233.477	115.94
233.711	112.94
233.945	110.94
234.179	109.94
234.413	106.94
234.647	108.94
234.881	114.94
235.115	113.94
235.349	112.94
235.583	101.94
235.817	107.94
236.051	128.94
236.285	129.94
236.519	118.94
236.753	116.94
236.987	120.94
237.221	180.94
237.455	201.94
237.689	170.94
237.922	132.94
238.156	122.94
238.39	125.94
238.624	124.94
238.858	112.94
239.091	124.94
239.325	125.94
239.559	118.94
239.793	133.94
240.027	121.94
240.26	135.94
240.494	139.94
240.728	134.94
240.961	125.94
241.195	126.94
241.429	136.94
241.662	133.94
241.896	100.94
242.13	112.94
242.363	109.94
242.597	137.94
242.83	124.94
243.064	121.94
243.298	134.94
243.531	116.94
243.765	127.94
243.998	128.94
244.232	125.94
244.465	135.94
244.699	147.94
244.932	117.94
245.166	135.94
245.399	127.94
245.633	128.94
245.866	132.94
246.099	125.94
246.333	128.94
246.566	144.94
246.8	146.94
247.033	153.94
247.266	150.94
247.5	121.94
247.733	151.94
247.966	141.94
248.2	150.94
248.433	138.94
248.666	150.94
248.899	165.94
249.133	163.94
249.366	180.94
249.599	183.94
249.832	172.94
250.066	160.94
250.299	176.94
250.532	195.94
250.765	175.94
250.998	182.94
251.231	208.94
251.465	194.94
251.698	169.94
251.931	202.94
252.164	177.94
252.397	184.94
252.63	181.94
252.863	183.94
253.096	176.94
253.329	194.94
253.562	199.94
253.795	190.94
254.028	193.94
254.261	195.94
254.494	226.94
254.727	233.94
254.96	238.94
255.193	235.94
255.426	198.94
255.659	208.94
255.892	209.94
256.124	213.94
256.357	202.94
256.59	216.94
256.823	192.94
257.056	182.94
257.289	171.94
257.521	187.94
257.754	189.94
257.987	180.94
258.22	180.94
258.452	193.94
258.685	188.94
258.918	172.94
259.151	195.94
259.383	190.94
259.616	196.94
259.849	194.94
260.081	201.94
260.314	224.94
260.547	219.94
260.779	201.94
261.012	198.94
261.244	200.94
261.477	200.94
261.71	196.94
261.942	199.94
262.175	210.94
262.407	201.94
262.64	193.94
262.872	196.94
263.105	198.94
263.337	194.94
263.57	190.94
263.802	186.94
264.035	186.94
264.267	172.94
264.499	195.94
264.732	184.94
264.964	184.94
265.197	181.94
265.429	173.94
265.661	185.94
265.894	202.94
266.126	190.94
266.358	184.94
266.591	192.94
266.823	183.94
267.055	194.94
267.287	186.94
267.52	189.94
267.752	215.94
267.984	183.94
268.216	197.94
268.448	201.94
268.681	207.94
268.913	205.94
269.145	231.94
269.377	233.94
269.609	247.94
269.841	250.94
270.073	245.94
270.306	265.94
270.538	257.94
270.77	265.94
271.002	245.94
271.234	250.94
271.466	264.94
271.698	261.94
271.93	287.94
272.162	289.94
272.394	274.94
272.626	276.94
272.858	236.94
273.09	240.94
273.322	246.94
273.553	241.94
273.785	235.94
274.017	219.94
274.249	241.94
274.481	236.94
274.713	235.94
274.945	244.94
275.176	242.94
275.408	241.94
275.64	211.94
275.872	220.94
276.104	224.94
276.335	233.94
276.567	235.94
276.799	249.94
277.031	268.94
277.262	277.94
277.494	256.94
277.726	252.94
277.957	261.94
278.189	255.94
278.421	247.94
278.652	226.94
278.884	238.94
279.115	231.94
279.347	225.94
279.579	228.94
279.81	235.94
280.042	231.94
280.273	233.94
280.505	212.94
280.736	230.94
280.968	216.94
281.199	224.94
281.431	240.94
281.662	229.94
281.894	223.94
282.125	242.94
282.356	266.94
282.588	272.94
282.819	256.94
283.051	241.94
283.282	238.94
283.513	226.94
283.745	232.94
283.976	242.94
284.207	242.94
284.439	248.94
284.67	231.94
284.901	237.94
285.132	225.94
285.364	245.94
285.595	230.94
285.826	241.94
286.057	259.94
286.288	247.94
286.52	241.94
286.751	237.94
286.982	247.94
287.213	242.94
287.444	225.94
287.675	238.94
287.906	253.94
288.138	256.94
288.369	260.94
288.6	256.94
288.831	236.94
289.062	268.94
289.293	256.94
289.524	256.94
289.755	248.94
289.986	237.94
290.217	256.94
290.448	246.94
290.679	250.94
290.91	259.94
291.141	252.94
291.371	242.94
291.602	258.94
291.833	256.94
292.064	247.94
292.295	243.94
292.526	246.94
292.757	253.94
292.987	238.94
293.218	245.94
293.449	243.94
293.68	246.94
293.91	258.94
294.141	250.94
294.372	240.94
294.603	252.94
294.833	238.94
295.064	256.94
295.295	268.94
295.525	245.94
295.756	235.94
295.987	282.94
296.217	282.94
296.448	300.94
296.679	252.94
296.909	253.94
297.14	244.94
297.37	247.94
297.601	259.94
297.831	262.94
298.062	270.94
298.292	246.94
298.523	261.94
298.753	257.94
298.984	263.94
299.214	259.94
299.445	269.94
299.675	257.94
299.905	269.94
300.136	274.94
300.366	278.94
300.597	266.94
300.827	277.94
301.057	262.94
301.288	288.94
301.518	276.94
301.748	279.94
301.979	267.94
302.209	284.94
302.439	268.94
302.669	283.94
302.9	269.94
303.13	290.94
303.36	289.94
303.59	278.94
303.82	297.94
304.051	290.94
304.281	292.94
304.511	272.94
304.741	280.94
304.971	278.94
305.201	274.94
305.431	281.94
305.661	288.94
305.891	289.94
306.121	270.94
306.352	295.94
306.582	284.94
306.812	290.94
307.042	284.94
307.272	295.94
307.502	288.94
307.731	281.94
307.961	281.94
308.191	283.94
308.421	285.94
308.651	282.94
308.881	296.94
309.111	295.94
309.341	290.94
309.571	312.94
309.8	326.94
310.03	317.94
310.26	313.94
310.49	323.94
310.72	321.94
310.949	363.94
311.179	357.94
311.409	321.94
311.639	313.94
311.868	341.94
312.098	324.94
312.328	344.94
312.557	348.94
312.787	358.94
313.017	353.94
313.246	334.94
313.476	325.94
313.706	311.94
313.935	346.94
314.165	328.94
314.394	348.94
314.624	360.94
314.853	354.94
315.083	339.94
315.312	330.94
315.542	323.94
315.771	333.94
316.001	322.94
316.23	333.94
316.46	316.94
316.689	324.94
316.919	314.94
317.148	346.94
317.377	353.94
317.607	334.94
317.836	322.94
318.065	335.94
318.295	337.94
318.524	337.94
318.753	309.94
318.983	321.94
319.212	314.94
319.441	330.94
319.67	342.94
319.9	344.94
320.129	325.94
320.358	334.94
320.587	329.94
320.816	315.94
321.046	340.94
321.275	369.94
321.504	346.94
321.733	359.94
321.962	362.94
322.191	373.94
322.42	402.94
322.649	390.94
322.878	413.94
323.108	423.94
323.337	444.94
323.566	464.94
323.795	498.94
324.024	524.94
324.253	653.94
324.482	940.94
324.71	1476.94
324.939	2052.94
325.168	1681.94
325.397	876.94
325.626	584.94
325.855	512.94
326.084	460.94
326.313	451.94
326.542	465.94
326.77	506.94
326.999	616.94
327.228	822.94
327.457	1261.94
327.686	1476.94
327.914	989.94
328.143	663.94
328.372	582.94
328.6	539.94
328.829	536.94
329.058	550.94
329.287	530.94
329.515	488.94
329.744	460.94
329.972	440.94
330.201	500.94
330.43	525.94
330.658	568.94
330.887	564.94
331.115	548.94
331.344	482.94
331.572	447.94
331.801	455.94
332.03	451.94
332.258	392.94
332.486	377.94
332.715	374.94
332.943	376.94
333.172	396.94
333.4	391.94
333.629	396.94
333.857	393.94
334.085	411.94
334.314	452.94
334.542	462.94
334.771	493.94
334.999	445.94
335.227	406.94
335.455	388.94
335.684	378.94
335.912	377.94
336.14	380.94
336.369	368.94
336.597	390.94
336.825	393.94
337.053	381.94
337.281	386.94
337.51	365.94
337.738	368.94
337.966	368.94
338.194	377.94
338.422	378.94
338.65	377.94
338.878	358.94
339.106	349.94
339.334	368.94
339.562	373.94
339.79	369.94
340.018	361.94
340.246	362.94
340.474	364.94
340.702	352.94
340.93	376.94
341.158	347.94
341.386	360.94
341.614	380.94
341.842	373.94
342.07	360.94
342.298	328.94
342.526	354.94
342.754	356.94
342.981	361.94
343.209	353.94
343.437	342.94
343.665	346.94
343.893	364.94
344.12	360.94
344.348	346.94
344.576	361.94
344.804	384.94
345.031	372.94
345.259	405.94
345.487	371.94
345.714	396.94
345.942	373.94
346.17	346.94
346.397	365.94
346.625	353.94
346.853	353.94
347.08	382.94
347.308	374.94
347.535	377.94
347.763	388.94
347.99	374.94
348.218	364.94
348.445	371.94
348.673	374.94
348.9	360.94
349.128	348.94
349.355	351.94
349.583	347.94
349.81	364.94
350.037	350.94
350.265	340.94
350.492	347.94
350.72	327.94
350.947	355.94
351.174	377.94
351.402	353.94
351.629	362.94
351.856	364.94
352.083	372.94
352.311	374.94
352.538	382.94
352.765	371.94
352.992	382.94
353.22	358.94
353.447	363.94
353.674	346.94
353.901	346.94
354.128	348.94
354.355	322.94
354.583	325.94
354.81	341.94
355.037	358.94
355.264	338.94
355.491	334.94
355.718	326.94
355.945	335.94
356.172	328.94
356.399	331.94
356.626	342.94
356.853	313.94
357.08	329.94
357.307	350.94
357.534	321.94
357.761	333.94
357.988	336.94
358.215	350.94
358.441	324.94
358.668	316.94
358.895	332.94
359.122	329.94
359.349	353.94
359.576	356.94
359.802	390.94
360.029	414.94
360.256	420.94
360.483	402.94
360.709	376.94
360.936	377.94
361.163	349.94
361.39	350.94
361.616	369.94
361.843	346.94
362.07	356.94
362.296	367.94
362.523	354.94
362.749	366.94
362.976	369.94
363.203	344.94
363.429	347.94
363.656	359.94
363.882	333.94
364.109	328.94
364.335	330.94
364.562	347.94
364.788	339.94
365.015	361.94
365.241	333.94
365.468	354.94
365.694	340.94
365.92	340.94
366.147	341.94
366.373	322.94
366.599	324.94
366.826	340.94
367.052	344.94
367.278	339.94
367.505	341.94
367.731	325.94
367.957	344.94
368.184	335.94
368.41	347.94
368.636	340.94
368.862	351.94
369.089	338.94
369.315	327.94
369.541	326.94
369.767	340.94
369.993	356.94
370.219	347.94
370.445	320.94
370.672	340.94
370.898	334.94
371.124	346.94
371.35	326.94
371.576	339.94
371.802	331.94
372.028	331.94
372.254	328.94
372.48	321.94
372.706	345.94
372.932	342.94
373.158	330.94
373.384	350.94
373.61	331.94
373.835	349.94
374.061	343.94
374.287	341.94
374.513	330.94
374.739	345.94
374.965	334.94
375.191	320.94
375.416	322.94
375.642	338.94
375.868	352.94
376.094	341.94
376.319	333.94
376.545	321.94
376.771	336.94
376.997	343.94
377.222	332.94
377.448	322.94
377.674	338.94
377.899	341.94
378.125	338.94
378.35	317.94
378.576	322.94
378.802	328.94
379.027	320.94
379.253	347.94
379.478	316.94
379.704	312.94
379.929	346.94
380.155	356.94
380.38	344.94
380.606	331.94
380.831	331.94
381.057	356.94
381.282	335.94
381.507	332.94
381.733	343.94
381.958	331.94
382.184	313.94
382.409	334.94
382.634	331.94
382.86	340.94
383.085	324.94
383.31	314.94
383.535	353.94
383.761	347.94
383.986	344.94
384.211	357.94
384.436	357.94
384.662	357.94
384.887	349.94
385.112	358.94
385.337	334.94
385.562	363.94
385.787	345.94
386.013	345.94
386.238	360.94
386.463	376.94
386.688	358.94
386.913	353.94
387.138	348.94
387.363	335.94
387.588	355.94
387.813	352.94
388.038	366.94
388.263	364.94
388.488	351.94
388.713	356.94
388.938	364.94
389.163	348.94
389.387	337.94
389.612	345.94
389.837	356.94
390.062	345.94
390.287	343.94
390.512	348.94
390.736	357.94
390.961	357.94
391.186	371.94
391.411	365.94
391.636	368.94
391.86	375.94
392.085	384.94
392.31	361.94
392.534	350.94
392.759	348.94
392.984	352.94
393.208	343.94
393.433	360.94
393.658	357.94
393.882	361.94
394.107	334.94
394.331	357.94
394.556	362.94
394.78	361.94
395.005	379.94
395.229	368.94
395.454	352.94
395.678	386.94
395.903	362.94
396.127	364.94
396.352	407.94
396.576	368.94
396.801	361.94
397.025	370.94
397.249	363.94
397.474	376.94
397.698	383.94
397.922	397.94
398.147	398.94
398.371	412.94
398.595	380.94
398.82	393.94
399.044	396.94
399.268	426.94
399.492	407.94
399.717	438.94
399.941	459.94
400.165	477.94
400.389	478.94
400.613	422.94
400.837	429.94
401.062	417.94
401.286	402.94
401.51	402.94
401.734	394.94
401.958	411.94
402.182	418.94
402.406	427.94
402.63	417.94
402.854	413.94
403.078	423.94
403.302	420.94
403.526	435.94
403.75	432.94
403.974	426.94
404.198	412.94
404.422	423.94
404.645	430.94
404.869	431.94
405.093	436.94
405.317	474.94
405.541	494.94
405.765	471.94
405.988	440.94
406.212	456.94
406.436	484.94
406.66	491.94
406.883	465.94
407.107	464.94
407.331	496.94
407.555	550.94
407.778	560.94
408.002	483.94
408.226	485.94
408.449	453.94
408.673	486.94
408.896	492.94
409.12	512.94
409.344	487.94
409.567	448.94
409.791	433.94
410.014	423.94
410.238	426.94
410.461	440.94
410.685	428.94
410.908	429.94
411.132	476.94
411.355	485.94
411.578	478.94
411.802	435.94
412.025	439.94
412.249	440.94
412.472	444.94
412.695	479.94
412.919	449.94
413.142	434.94
413.365	409.94
413.589	404.94
413.812	394.94
414.035	404.94
414.258	390.94
414.482	401.94
414.705	397.94
414.928	398.94
415.151	405.94
415.374	390.94
415.597	381.94
415.821	404.94
416.044	394.94
416.267	401.94
416.49	374.94
416.713	393.94
416.936	391.94
417.159	392.94
417.382	416.94
417.605	386.94
417.828	419.94
418.051	403.94
418.274	429.94
418.497	404.94
418.72	380.94
418.943	390.94
419.166	396.94
419.389	433.94
419.611	414.94
419.834	425.94
420.057	421.94
420.28	413.94
420.503	417.94
420.726	439.94
420.948	438.94
421.171	470.94
421.394	472.94
421.617	418.94
421.839	420.94
422.062	438.94
422.285	419.94
422.507	499.94
422.73	522.94
422.953	507.94
423.175	452.94
423.398	427.94
423.621	434.94
423.843	434.94
424.066	445.94
424.288	439.94
424.511	473.94
424.733	498.94
424.956	566.94
425.178	539.94
425.401	552.94
425.623	549.94
425.846	472.94
426.068	461.94
426.291	448.94
426.513	451.94
426.735	475.94
426.958	506.94
427.18	586.94
427.402	649.94
427.625	717.94
427.847	649.94
428.069	550.94
428.292	509.94
428.514	463.94
428.736	435.94
428.958	441.94
429.181	438.94
429.403	421.94
429.625	412.94
429.847	461.94
430.069	505.94
430.292	513.94
430.514	468.94
430.736	412.94
430.958	418.94
431.18	390.94
431.402	391.94
431.624	382.94
431.846	386.94
432.068	380.94
432.29	406.94
432.512	404.94
432.734	405.94
432.956	392.94
433.178	414.94
433.4	402.94
433.622	405.94
433.844	402.94
434.066	379.94
434.287	394.94
434.509	411.94
434.731	395.94
434.953	414.94
435.175	420.94
435.397	455.94
435.618	442.94
435.84	510.94
436.062	560.94
436.284	602.94
436.505	529.94
436.727	485.94
436.949	442.94
437.17	425.94
437.392	420.94
437.614	446.94
437.835	478.94
438.057	552.94
438.278	626.94
438.5	622.94
438.721	675.94
438.943	650.94
439.165	524.94
439.386	469.94
439.608	458.94
439.829	492.94
440.05	473.94
440.272	547.94
440.493	493.94
440.715	460.94
440.936	429.94
441.158	433.94
441.379	414.94
441.6	427.94
441.822	442.94
442.043	505.94
442.264	556.94
442.486	589.94
442.707	502.94
442.928	460.94
443.149	481.94
443.371	502.94
443.592	536.94
443.813	608.94
444.034	642.94
444.255	536.94
444.476	472.94
444.698	456.94
444.919	438.94
445.14	594.94
445.361	513.94
445.582	501.94
445.803	575.94
446.024	658.94
446.245	638.94
446.466	599.94
446.687	491.94
446.908	458.94
447.129	429.94
447.35	428.94
447.571	440.94
447.792	436.94
448.013	438.94
448.234	454.94
448.455	473.94
448.675	597.94
448.896	632.94
449.117	567.94
449.338	546.94
449.559	621.94
449.779	686.94
450	570.94
450.221	477.94
450.442	458.94
450.662	434.94
450.883	448.94
451.104	449.94
451.324	436.94
451.545	422.94
451.766	413.94
451.986	386.94
452.207	366.94
452.428	396.94
452.648	382.94
452.869	370.94
453.089	400.94
453.31	406.94
453.53	409.94
453.751	391.94
453.971	401.94
454.192	413.94
454.412	383.94
454.633	390.94
454.853	373.94
455.073	388.94
455.294	419.94
455.514	469.94
455.734	446.94
455.955	397.94
456.175	370.94
456.395	372.94
456.616	361.94
456.836	362.94
457.056	334.94
457.276	340.94
457.497	348.94
457.717	363.94
457.937	382.94
458.157	368.94
458.377	378.94
458.598	395.94
458.818	470.94
459.038	538.94
459.258	542.94
459.478	461.94
459.698	429.94
459.918	387.94
460.138	409.94
460.358	390.94
460.578	390.94
460.798	404.94
461.018	392.94
461.238	394.94
461.458	379.94
461.678	383.94
461.898	382.94
462.118	399.94
462.338	403.94
462.558	396.94
462.777	405.94
462.997	416.94
463.217	425.94
463.437	418.94
463.657	413.94
463.876	436.94
464.096	425.94
464.316	406.94
464.536	411.94
464.755	410.94
464.975	454.94
465.195	490.94
465.414	551.94
465.634	503.94
465.854	454.94
466.073	438.94
466.293	413.94
466.512	398.94
466.732	397.94
466.951	375.94
467.171	368.94
467.391	379.94
467.61	400.94
467.829	422.94
468.049	384.94
468.268	416.94
468.488	385.94
468.707	384.94
468.927	401.94
469.146	405.94
469.365	358.94
469.585	372.94
469.804	379.94
470.023	396.94
470.243	403.94
470.462	411.94
470.681	419.94
470.901	427.94
471.12	405.94
471.339	394.94
471.558	397.94
471.777	403.94
471.997	394.94
472.216	411.94
472.435	437.94
472.654	422.94
472.873	407.94
473.092	381.94
473.311	408.94
473.53	401.94
473.749	404.94
473.968	458.94
474.187	532.94
474.406	540.94
474.625	451.94
474.844	432.94
475.063	404.94
475.282	384.94
475.501	402.94
475.72	403.94
475.939	415.94
476.158	415.94
476.377	404.94
476.596	398.94
476.814	416.94
477.033	425.94
477.252	427.94
477.471	406.94
477.69	429.94
477.908	432.94
478.127	420.94
478.346	406.94
478.564	430.94
478.783	427.94
479.002	450.94
479.22	420.94
479.439	472.94
479.658	483.94
479.876	457.94
480.095	474.94
480.313	480.94
480.532	514.94
480.751	491.94
480.969	502.94
481.188	552.94
481.406	588.94
481.624	516.94
481.843	477.94
482.061	476.94
482.28	472.94
482.498	474.94
482.717	483.94
482.935	458.94
483.153	461.94
483.372	475.94
483.59	480.94
483.808	460.94
484.027	476.94
484.245	475.94
484.463	459.94
484.681	496.94
484.9	477.94
485.118	455.94
485.336	491.94
485.554	500.94
485.772	487.94
485.99	459.94
486.209	480.94
486.427	482.94
486.645	481.94
486.863	511.94
487.081	507.94
487.299	511.94
487.517	481.94
487.735	481.94
487.953	505.94
488.171	502.94
488.389	518.94
488.607	497.94
488.825	484.94
489.043	504.94
489.261	492.94
489.479	502.94
489.696	494.94
489.914	526.94
490.132	525.94
490.35	528.94
490.568	510.94
490.786	530.94
491.003	532.94
491.221	541.94
491.439	560.94
491.657	580.94
491.874	563.94
492.092	583.94
492.31	562.94
492.527	579.94
492.745	565.94
492.963	582.94
493.18	586.94
493.398	582.94
493.615	581.94
493.833	585.94
494.05	610.94
494.268	589.94
494.485	592.94
494.703	576.94
494.92	579.94
495.138	588.94
495.355	591.94
495.573	604.94
495.79	577.94
496.008	586.94
496.225	567.94
496.442	597.94
496.66	612.94
496.877	598.94
497.094	596.94
497.312	585.94
497.529	601.94
497.746	607.94
497.963	644.94
498.181	624.94
498.398	629.94
498.615	660.94
498.832	649.94
499.049	640.94
499.267	657.94
499.484	686.94
499.701	696.94
499.918	692.94
500.135	712.94
500.352	720.94
500.569	730.94
500.786	748.94
501.003	752.94
501.22	724.94
501.437	721.94
501.654	721.94
501.871	733.94
502.088	706.94
