Data from 1965.PennyLincolnUp.Lamp.En5.5.200Scan.071719.P1._HRD10591_14-09-02-911.txt Node
Date: Thu Jul 18 14:09:02 EDT 2019
User: cochatt
Spectrometer: HR+D1059
Trigger mode: 1
Integration Time (sec): 1.000000E-1
Scans to average: 1
Electric dark correction enabled: true
Nonlinearity correction enabled: false
Boxcar width: 0
XAxis mode: Wavelengths
Number of Pixels in Spectrum: 2048
>>>>>Begin Spectral Data<<<<<
223.165	-14.06
223.4	-14.06
223.635	-14.06
223.869	-24.06
224.104	-14.06
224.338	-26.06
224.573	-18.06
224.808	-19.06
225.042	-14.06
225.277	4.94
225.511	2.94
225.746	3.94
225.98	2.94
226.215	17.94
226.449	24.94
226.683	17.94
226.918	25.94
227.152	27.94
227.387	34.94
227.621	25.94
227.856	34.94
228.09	40.94
228.324	49.94
228.559	50.94
228.793	51.94
229.027	87.94
229.262	93.94
229.496	118.94
229.73	132.94
229.964	136.94
230.199	102.94
230.433	113.94
230.667	97.94
230.901	112.94
231.136	99.94
231.37	103.94
231.604	115.94
231.838	101.94
232.072	110.94
232.306	98.94
232.541	95.94
232.775	107.94
233.009	105.94
233.243	114.94
233.477	105.94
233.711	98.94
233.945	87.94
234.179	110.94
234.413	112.94
234.647	96.94
234.881	115.94
235.115	105.94
235.349	118.94
235.583	111.94
235.817	121.94
236.051	110.94
236.285	110.94
236.519	117.94
236.753	120.94
236.987	132.94
237.221	166.94
237.455	187.94
237.689	162.94
237.922	132.94
238.156	133.94
238.39	109.94
238.624	103.94
238.858	126.94
239.091	119.94
239.325	101.94
239.559	117.94
239.793	111.94
240.027	117.94
240.26	131.94
240.494	136.94
240.728	126.94
240.961	131.94
241.195	130.94
241.429	126.94
241.662	118.94
241.896	121.94
242.13	119.94
242.363	126.94
242.597	127.94
242.83	116.94
243.064	128.94
243.298	120.94
243.531	118.94
243.765	120.94
243.998	121.94
244.232	115.94
244.465	116.94
244.699	136.94
244.932	118.94
245.166	124.94
245.399	126.94
245.633	123.94
245.866	121.94
246.099	144.94
246.333	141.94
246.566	124.94
246.8	154.94
247.033	144.94
247.266	151.94
247.5	138.94
247.733	135.94
247.966	142.94
248.2	146.94
248.433	140.94
248.666	153.94
248.899	172.94
249.133	181.94
249.366	182.94
249.599	167.94
249.832	155.94
250.066	159.94
250.299	163.94
250.532	166.94
250.765	164.94
250.998	187.94
251.231	207.94
251.465	187.94
251.698	195.94
251.931	187.94
252.164	196.94
252.397	174.94
252.63	178.94
252.863	180.94
253.096	183.94
253.329	201.94
253.562	203.94
253.795	198.94
254.028	187.94
254.261	189.94
254.494	193.94
254.727	219.94
254.96	245.94
255.193	236.94
255.426	201.94
255.659	211.94
255.892	207.94
256.124	207.94
256.357	208.94
256.59	215.94
256.823	188.94
257.056	182.94
257.289	168.94
257.521	197.94
257.754	194.94
257.987	169.94
258.22	184.94
258.452	199.94
258.685	179.94
258.918	182.94
259.151	194.94
259.383	187.94
259.616	195.94
259.849	203.94
260.081	199.94
260.314	203.94
260.547	224.94
260.779	218.94
261.012	202.94
261.244	204.94
261.477	199.94
261.71	193.94
261.942	187.94
262.175	193.94
262.407	195.94
262.64	184.94
262.872	186.94
263.105	189.94
263.337	182.94
263.57	199.94
263.802	188.94
264.035	174.94
264.267	187.94
264.499	186.94
264.732	180.94
264.964	185.94
265.197	198.94
265.429	173.94
265.661	183.94
265.894	189.94
266.126	200.94
266.358	187.94
266.591	180.94
266.823	195.94
267.055	191.94
267.287	194.94
267.52	190.94
267.752	210.94
267.984	194.94
268.216	191.94
268.448	177.94
268.681	214.94
268.913	211.94
269.145	218.94
269.377	232.94
269.609	233.94
269.841	242.94
270.073	233.94
270.306	231.94
270.538	269.94
270.77	286.94
271.002	258.94
271.234	267.94
271.466	258.94
271.698	267.94
271.93	261.94
272.162	274.94
272.394	291.94
272.626	244.94
272.858	263.94
273.09	259.94
273.322	231.94
273.553	220.94
273.785	232.94
274.017	240.94
274.249	238.94
274.481	225.94
274.713	221.94
274.945	233.94
275.176	239.94
275.408	228.94
275.64	241.94
275.872	227.94
276.104	236.94
276.335	238.94
276.567	234.94
276.799	264.94
277.031	290.94
277.262	272.94
277.494	266.94
277.726	260.94
277.957	246.94
278.189	254.94
278.421	247.94
278.652	256.94
278.884	242.94
279.115	231.94
279.347	243.94
279.579	222.94
279.81	229.94
280.042	227.94
280.273	233.94
280.505	232.94
280.736	238.94
280.968	224.94
281.199	215.94
281.431	226.94
281.662	243.94
281.894	243.94
282.125	235.94
282.356	249.94
282.588	251.94
282.819	268.94
283.051	231.94
283.282	233.94
283.513	236.94
283.745	220.94
283.976	233.94
284.207	229.94
284.439	247.94
284.67	215.94
284.901	239.94
285.132	247.94
285.364	239.94
285.595	234.94
285.826	238.94
286.057	240.94
286.288	241.94
286.52	233.94
286.751	225.94
286.982	245.94
287.213	243.94
287.444	251.94
287.675	246.94
287.906	256.94
288.138	243.94
288.369	243.94
288.6	261.94
288.831	260.94
289.062	240.94
289.293	240.94
289.524	229.94
289.755	249.94
289.986	264.94
290.217	236.94
290.448	238.94
290.679	267.94
290.91	241.94
291.141	244.94
291.371	245.94
291.602	254.94
291.833	238.94
292.064	252.94
292.295	260.94
292.526	241.94
292.757	233.94
292.987	266.94
293.218	265.94
293.449	260.94
293.68	234.94
293.91	240.94
294.141	244.94
294.372	250.94
294.603	243.94
294.833	232.94
295.064	252.94
295.295	246.94
295.525	258.94
295.756	256.94
295.987	258.94
296.217	279.94
296.448	287.94
296.679	256.94
296.909	240.94
297.14	245.94
297.37	255.94
297.601	249.94
297.831	250.94
298.062	242.94
298.292	274.94
298.523	256.94
298.753	260.94
298.984	249.94
299.214	264.94
299.445	258.94
299.675	262.94
299.905	272.94
300.136	269.94
300.366	267.94
300.597	272.94
300.827	263.94
301.057	262.94
301.288	281.94
301.518	278.94
301.748	254.94
301.979	267.94
302.209	287.94
302.439	274.94
302.669	280.94
302.9	276.94
303.13	272.94
303.36	273.94
303.59	287.94
303.82	294.94
304.051	270.94
304.281	271.94
304.511	281.94
304.741	271.94
304.971	274.94
305.201	278.94
305.431	282.94
305.661	280.94
305.891	299.94
306.121	298.94
306.352	280.94
306.582	295.94
306.812	296.94
307.042	271.94
307.272	294.94
307.502	291.94
307.731	286.94
307.961	290.94
308.191	280.94
308.421	295.94
308.651	276.94
308.881	274.94
309.111	292.94
309.341	295.94
309.571	307.94
309.8	318.94
310.03	310.94
310.26	330.94
310.49	320.94
310.72	340.94
310.949	339.94
311.179	352.94
311.409	335.94
311.639	347.94
311.868	334.94
312.098	316.94
312.328	334.94
312.557	347.94
312.787	357.94
313.017	359.94
313.246	339.94
313.476	325.94
313.706	320.94
313.935	340.94
314.165	342.94
314.394	359.94
314.624	366.94
314.853	346.94
315.083	346.94
315.312	318.94
315.542	320.94
315.771	329.94
316.001	330.94
316.23	330.94
316.46	311.94
316.689	337.94
316.919	352.94
317.148	340.94
317.377	337.94
317.607	362.94
317.836	353.94
318.065	331.94
318.295	323.94
318.524	326.94
318.753	321.94
318.983	318.94
319.212	335.94
319.441	328.94
319.67	342.94
319.9	335.94
320.129	328.94
320.358	340.94
320.587	335.94
320.816	343.94
321.046	339.94
321.275	347.94
321.504	353.94
321.733	342.94
321.962	358.94
322.191	377.94
322.42	376.94
322.649	407.94
322.878	421.94
323.108	424.94
323.337	450.94
323.566	473.94
323.795	512.94
324.024	538.94
324.253	664.94
324.482	955.94
324.71	1517.94
324.939	2066.94
325.168	1726.94
325.397	917.94
325.626	601.94
325.855	507.94
326.084	482.94
326.313	457.94
326.542	472.94
326.77	512.94
326.999	629.94
327.228	883.94
327.457	1336.94
327.686	1528.94
327.914	991.94
328.143	679.94
328.372	590.94
328.6	544.94
328.829	502.94
329.058	536.94
329.287	549.94
329.515	514.94
329.744	463.94
329.972	484.94
330.201	484.94
330.43	531.94
330.658	565.94
330.887	552.94
331.115	570.94
331.344	478.94
331.572	438.94
331.801	420.94
332.03	431.94
332.258	412.94
332.486	404.94
332.715	390.94
332.943	390.94
333.172	399.94
333.4	387.94
333.629	411.94
333.857	392.94
334.085	417.94
334.314	431.94
334.542	481.94
334.771	488.94
334.999	432.94
335.227	405.94
335.455	381.94
335.684	386.94
335.912	400.94
336.14	388.94
336.369	386.94
336.597	374.94
336.825	374.94
337.053	376.94
337.281	350.94
337.51	384.94
337.738	381.94
337.966	374.94
338.194	390.94
338.422	390.94
338.65	370.94
338.878	382.94
339.106	353.94
339.334	371.94
339.562	370.94
339.79	383.94
340.018	372.94
340.246	349.94
340.474	384.94
340.702	376.94
340.93	340.94
341.158	366.94
341.386	376.94
341.614	386.94
341.842	346.94
342.07	354.94
342.298	364.94
342.526	364.94
342.754	356.94
342.981	351.94
343.209	337.94
343.437	349.94
343.665	357.94
343.893	357.94
344.12	361.94
344.348	376.94
344.576	363.94
344.804	380.94
345.031	378.94
345.259	403.94
345.487	394.94
345.714	357.94
345.942	356.94
346.17	345.94
346.397	339.94
346.625	367.94
346.853	352.94
347.08	364.94
347.308	347.94
347.535	362.94
347.763	371.94
347.99	366.94
348.218	372.94
348.445	378.94
348.673	374.94
348.9	357.94
349.128	359.94
349.355	365.94
349.583	363.94
349.81	350.94
350.037	361.94
350.265	349.94
350.492	350.94
350.72	362.94
350.947	343.94
351.174	378.94
351.402	366.94
351.629	356.94
351.856	346.94
352.083	370.94
352.311	364.94
352.538	366.94
352.765	382.94
352.992	370.94
353.22	363.94
353.447	358.94
353.674	351.94
353.901	350.94
354.128	354.94
354.355	346.94
354.583	334.94
354.81	332.94
355.037	312.94
355.264	317.94
355.491	322.94
355.718	342.94
355.945	318.94
356.172	343.94
356.399	344.94
356.626	314.94
356.853	319.94
357.08	328.94
357.307	299.94
357.534	338.94
357.761	332.94
357.988	311.94
358.215	318.94
358.441	328.94
358.668	328.94
358.895	333.94
359.122	349.94
359.349	340.94
359.576	352.94
359.802	374.94
360.029	417.94
360.256	431.94
360.483	411.94
360.709	362.94
360.936	375.94
361.163	388.94
361.39	367.94
361.616	368.94
361.843	364.94
362.07	342.94
362.296	366.94
362.523	351.94
362.749	339.94
362.976	368.94
363.203	356.94
363.429	336.94
363.656	338.94
363.882	317.94
364.109	336.94
364.335	334.94
364.562	335.94
364.788	358.94
365.015	359.94
365.241	343.94
365.468	348.94
365.694	341.94
365.92	325.94
366.147	346.94
366.373	347.94
366.599	355.94
366.826	348.94
367.052	350.94
367.278	338.94
367.505	350.94
367.731	341.94
367.957	355.94
368.184	345.94
368.41	342.94
368.636	352.94
368.862	353.94
369.089	360.94
369.315	336.94
369.541	336.94
369.767	343.94
369.993	328.94
370.219	340.94
370.445	340.94
370.672	332.94
370.898	325.94
371.124	318.94
371.35	344.94
371.576	339.94
371.802	329.94
372.028	310.94
372.254	316.94
372.48	325.94
372.706	324.94
372.932	326.94
373.158	327.94
373.384	352.94
373.61	356.94
373.835	358.94
374.061	338.94
374.287	343.94
374.513	333.94
374.739	337.94
374.965	316.94
375.191	327.94
375.416	347.94
375.642	342.94
375.868	344.94
376.094	341.94
376.319	316.94
376.545	331.94
376.771	332.94
376.997	322.94
377.222	328.94
377.448	331.94
377.674	345.94
377.899	351.94
378.125	330.94
378.35	334.94
378.576	331.94
378.802	336.94
379.027	344.94
379.253	337.94
379.478	336.94
379.704	334.94
379.929	332.94
380.155	335.94
380.38	344.94
380.606	335.94
380.831	329.94
381.057	336.94
381.282	351.94
381.507	339.94
381.733	316.94
381.958	332.94
382.184	313.94
382.409	320.94
382.634	339.94
382.86	355.94
383.085	352.94
383.31	336.94
383.535	336.94
383.761	334.94
383.986	355.94
384.211	356.94
384.436	345.94
384.662	359.94
384.887	364.94
385.112	355.94
385.337	365.94
385.562	355.94
385.787	338.94
386.013	357.94
386.238	373.94
386.463	352.94
386.688	354.94
386.913	334.94
387.138	346.94
387.363	370.94
387.588	350.94
387.813	338.94
388.038	361.94
388.263	355.94
388.488	360.94
388.713	359.94
388.938	363.94
389.163	360.94
389.387	364.94
389.612	350.94
389.837	341.94
390.062	359.94
390.287	370.94
390.512	355.94
390.736	358.94
390.961	358.94
391.186	359.94
391.411	363.94
391.636	359.94
391.86	388.94
392.085	374.94
392.31	352.94
392.534	355.94
392.759	359.94
392.984	363.94
393.208	369.94
393.433	346.94
393.658	382.94
393.882	346.94
394.107	372.94
394.331	356.94
394.556	352.94
394.78	353.94
395.005	376.94
395.229	382.94
395.454	366.94
395.678	352.94
395.903	379.94
396.127	380.94
396.352	391.94
396.576	373.94
396.801	378.94
397.025	369.94
397.249	377.94
397.474	404.94
397.698	390.94
397.922	395.94
398.147	395.94
398.371	400.94
398.595	392.94
398.82	405.94
399.044	390.94
399.268	423.94
399.492	423.94
399.717	459.94
399.941	471.94
400.165	476.94
400.389	484.94
400.613	443.94
400.837	416.94
401.062	416.94
401.286	419.94
401.51	407.94
401.734	394.94
401.958	404.94
402.182	400.94
402.406	414.94
402.63	423.94
402.854	417.94
403.078	405.94
403.302	428.94
403.526	417.94
403.75	427.94
403.974	420.94
404.198	405.94
404.422	414.94
404.645	430.94
404.869	442.94
405.093	466.94
405.317	486.94
405.541	519.94
405.765	483.94
405.988	436.94
406.212	456.94
406.436	481.94
406.66	490.94
406.883	452.94
407.107	486.94
407.331	507.94
407.555	560.94
407.778	537.94
408.002	512.94
408.226	484.94
408.449	478.94
408.673	472.94
408.896	480.94
409.12	517.94
409.344	494.94
409.567	438.94
409.791	442.94
410.014	426.94
410.238	422.94
410.461	428.94
410.685	418.94
410.908	439.94
411.132	460.94
411.355	488.94
411.578	456.94
411.802	435.94
412.025	426.94
412.249	444.94
412.472	444.94
412.695	468.94
412.919	455.94
413.142	425.94
413.365	424.94
413.589	403.94
413.812	408.94
414.035	393.94
414.258	400.94
414.482	413.94
414.705	395.94
414.928	390.94
415.151	385.94
415.374	394.94
415.597	398.94
415.821	396.94
416.044	406.94
416.267	403.94
416.49	376.94
416.713	394.94
416.936	398.94
417.159	385.94
417.382	382.94
417.605	400.94
417.828	401.94
418.051	426.94
418.274	414.94
418.497	395.94
418.72	390.94
418.943	403.94
419.166	408.94
419.389	434.94
419.611	411.94
419.834	409.94
420.057	427.94
420.28	436.94
420.503	430.94
420.726	419.94
420.948	436.94
421.171	460.94
421.394	479.94
421.617	433.94
421.839	412.94
422.062	421.94
422.285	451.94
422.507	496.94
422.73	542.94
422.953	494.94
423.175	460.94
423.398	448.94
423.621	443.94
423.843	426.94
424.066	449.94
424.288	447.94
424.511	461.94
424.733	503.94
424.956	596.94
425.178	592.94
425.401	545.94
425.623	570.94
425.846	482.94
426.068	467.94
426.291	441.94
426.513	444.94
426.735	448.94
426.958	510.94
427.18	551.94
427.402	675.94
427.625	719.94
427.847	646.94
428.069	558.94
428.292	518.94
428.514	455.94
428.736	442.94
428.958	447.94
429.181	424.94
429.403	420.94
429.625	468.94
429.847	471.94
430.069	511.94
430.292	514.94
430.514	447.94
430.736	438.94
430.958	409.94
431.18	396.94
431.402	405.94
431.624	395.94
431.846	394.94
432.068	400.94
432.29	408.94
432.512	408.94
432.734	404.94
432.956	404.94
433.178	387.94
433.4	424.94
433.622	407.94
433.844	409.94
434.066	389.94
434.287	416.94
434.509	393.94
434.731	405.94
434.953	412.94
435.175	431.94
435.397	451.94
435.618	467.94
435.84	516.94
436.062	581.94
436.284	611.94
436.505	496.94
436.727	472.94
436.949	455.94
437.17	427.94
437.392	407.94
437.614	427.94
437.835	474.94
438.057	559.94
438.278	640.94
438.5	628.94
438.721	684.94
438.943	663.94
439.165	531.94
439.386	498.94
439.608	485.94
439.829	468.94
440.05	507.94
440.272	538.94
440.493	492.94
440.715	453.94
440.936	470.94
441.158	414.94
441.379	432.94
441.6	438.94
441.822	451.94
442.043	494.94
442.264	563.94
442.486	601.94
442.707	480.94
442.928	494.94
443.149	481.94
443.371	486.94
443.592	516.94
443.813	604.94
444.034	640.94
444.255	528.94
444.476	472.94
444.698	447.94
444.919	461.94
445.14	546.94
445.361	500.94
445.582	497.94
445.803	553.94
446.024	659.94
446.245	658.94
446.466	580.94
446.687	506.94
446.908	468.94
447.129	452.94
447.35	451.94
447.571	422.94
447.792	430.94
448.013	442.94
448.234	464.94
448.455	494.94
448.675	582.94
448.896	664.94
449.117	596.94
449.338	572.94
449.559	631.94
449.779	694.94
450	572.94
450.221	466.94
450.442	443.94
450.662	434.94
450.883	437.94
451.104	456.94
451.324	463.94
451.545	419.94
451.766	400.94
451.986	380.94
452.207	388.94
452.428	383.94
452.648	386.94
452.869	388.94
453.089	410.94
453.31	382.94
453.53	392.94
453.751	375.94
453.971	393.94
454.192	406.94
454.412	406.94
454.633	384.94
454.853	399.94
455.073	389.94
455.294	410.94
455.514	438.94
455.734	444.94
455.955	387.94
456.175	364.94
456.395	360.94
456.616	374.94
456.836	368.94
457.056	359.94
457.276	355.94
457.497	356.94
457.717	349.94
457.937	340.94
458.157	379.94
458.377	376.94
458.598	392.94
458.818	476.94
459.038	548.94
459.258	543.94
459.478	450.94
459.698	409.94
459.918	375.94
460.138	410.94
460.358	383.94
460.578	417.94
460.798	418.94
461.018	391.94
461.238	404.94
461.458	393.94
461.678	390.94
461.898	408.94
462.118	404.94
462.338	404.94
462.558	420.94
462.777	407.94
462.997	425.94
463.217	426.94
463.437	422.94
463.657	421.94
463.876	414.94
464.096	422.94
464.316	421.94
464.536	427.94
464.755	451.94
464.975	440.94
465.195	492.94
465.414	597.94
465.634	500.94
465.854	440.94
466.073	414.94
466.293	408.94
466.512	375.94
466.732	395.94
466.951	378.94
467.171	380.94
467.391	398.94
467.61	400.94
467.829	379.94
468.049	406.94
468.268	407.94
468.488	394.94
468.707	386.94
468.927	390.94
469.146	376.94
469.365	396.94
469.585	393.94
469.804	390.94
470.023	412.94
470.243	400.94
470.462	400.94
470.681	417.94
470.901	411.94
471.12	413.94
471.339	398.94
471.558	408.94
471.777	402.94
471.997	418.94
472.216	395.94
472.435	454.94
472.654	438.94
472.873	426.94
473.092	411.94
473.311	412.94
473.53	376.94
473.749	428.94
473.968	447.94
474.187	530.94
474.406	567.94
474.625	447.94
474.844	406.94
475.063	405.94
475.282	392.94
475.501	404.94
475.72	402.94
475.939	401.94
476.158	392.94
476.377	406.94
476.596	414.94
476.814	444.94
477.033	438.94
477.252	434.94
477.471	434.94
477.69	445.94
477.908	420.94
478.127	426.94
478.346	432.94
478.564	423.94
478.783	432.94
479.002	439.94
479.22	452.94
479.439	443.94
479.658	484.94
479.876	472.94
480.095	481.94
480.313	520.94
480.532	487.94
480.751	479.94
480.969	497.94
481.188	570.94
481.406	589.94
481.624	544.94
481.843	518.94
482.061	479.94
482.28	462.94
482.498	460.94
482.717	476.94
482.935	451.94
483.153	478.94
483.372	460.94
483.59	489.94
483.808	460.94
484.027	462.94
484.245	474.94
484.463	467.94
484.681	475.94
484.9	467.94
485.118	487.94
485.336	483.94
485.554	484.94
485.772	480.94
485.99	488.94
486.209	474.94
486.427	482.94
486.645	479.94
486.863	534.94
487.081	506.94
487.299	509.94
487.517	521.94
487.735	508.94
487.953	481.94
488.171	519.94
488.389	505.94
488.607	521.94
488.825	500.94
489.043	494.94
489.261	525.94
489.479	503.94
489.696	530.94
489.914	518.94
490.132	522.94
490.35	549.94
490.568	532.94
490.786	542.94
491.003	544.94
491.221	578.94
491.439	572.94
491.657	569.94
491.874	588.94
492.092	584.94
492.31	561.94
492.527	572.94
492.745	583.94
492.963	575.94
493.18	578.94
493.398	599.94
493.615	582.94
493.833	595.94
494.05	617.94
494.268	605.94
494.485	587.94
494.703	595.94
494.92	576.94
495.138	601.94
495.355	589.94
495.573	592.94
495.79	606.94
496.008	613.94
496.225	598.94
496.442	593.94
496.66	607.94
496.877	612.94
497.094	619.94
497.312	615.94
497.529	592.94
497.746	614.94
497.963	607.94
498.181	622.94
498.398	624.94
498.615	644.94
498.832	666.94
499.049	630.94
499.267	676.94
499.484	667.94
499.701	689.94
499.918	725.94
500.135	724.94
500.352	762.94
500.569	752.94
500.786	735.94
501.003	770.94
501.22	755.94
501.437	729.94
501.654	735.94
501.871	739.94
502.088	704.94
