Data from 1965.PennyLincolnUp.Lamp.En5.5.200Scan.071719.P1._HRD10591_14-10-31-912.txt Node
Date: Thu Jul 18 14:10:31 EDT 2019
User: cochatt
Spectrometer: HR+D1059
Trigger mode: 1
Integration Time (sec): 1.000000E-1
Scans to average: 1
Electric dark correction enabled: true
Nonlinearity correction enabled: false
Boxcar width: 0
XAxis mode: Wavelengths
Number of Pixels in Spectrum: 2048
>>>>>Begin Spectral Data<<<<<
223.165	-19.94
223.4	-19.94
223.635	-19.94
223.869	-20.94
224.104	-23.94
224.338	-6.94
224.573	-13.94
224.808	-20.94
225.042	-9.94
225.277	-7.94
225.511	-1.94
225.746	6.06
225.98	5.06
226.215	16.06
226.449	12.06
226.683	24.06
226.918	24.06
227.152	39.06
227.387	33.06
227.621	37.06
227.856	52.06
228.09	53.06
228.324	54.06
228.559	54.06
228.793	58.06
229.027	94.06
229.262	104.06
229.496	113.06
229.73	118.06
229.964	156.06
230.199	126.06
230.433	113.06
230.667	101.06
230.901	108.06
231.136	105.06
231.37	103.06
231.604	108.06
231.838	104.06
232.072	111.06
232.306	114.06
232.541	99.06
232.775	106.06
233.009	111.06
233.243	117.06
233.477	107.06
233.711	118.06
233.945	110.06
234.179	112.06
234.413	112.06
234.647	119.06
234.881	117.06
235.115	109.06
235.349	116.06
235.583	109.06
235.817	115.06
236.051	113.06
236.285	114.06
236.519	120.06
236.753	122.06
236.987	137.06
237.221	181.06
237.455	223.06
237.689	208.06
237.922	135.06
238.156	118.06
238.39	112.06
238.624	112.06
238.858	119.06
239.091	118.06
239.325	120.06
239.559	111.06
239.793	124.06
240.027	131.06
240.26	135.06
240.494	145.06
240.728	151.06
240.961	134.06
241.195	136.06
241.429	133.06
241.662	124.06
241.896	134.06
242.13	136.06
242.363	126.06
242.597	129.06
242.83	125.06
243.064	129.06
243.298	137.06
243.531	127.06
243.765	128.06
243.998	136.06
244.232	127.06
244.465	123.06
244.699	139.06
244.932	142.06
245.166	145.06
245.399	141.06
245.633	114.06
245.866	120.06
246.099	142.06
246.333	154.06
246.566	140.06
246.8	142.06
247.033	150.06
247.266	141.06
247.5	150.06
247.733	143.06
247.966	158.06
248.2	169.06
248.433	153.06
248.666	168.06
248.899	166.06
249.133	169.06
249.366	193.06
249.599	185.06
249.832	184.06
250.066	176.06
250.299	177.06
250.532	184.06
250.765	198.06
250.998	209.06
251.231	201.06
251.465	198.06
251.698	207.06
251.931	184.06
252.164	198.06
252.397	174.06
252.63	185.06
252.863	199.06
253.096	215.06
253.329	201.06
253.562	197.06
253.795	209.06
254.028	193.06
254.261	213.06
254.494	202.06
254.727	235.06
254.96	246.06
255.193	265.06
255.426	214.06
255.659	217.06
255.892	218.06
256.124	210.06
256.357	212.06
256.59	207.06
256.823	198.06
257.056	205.06
257.289	208.06
257.521	195.06
257.754	198.06
257.987	206.06
258.22	187.06
258.452	192.06
258.685	180.06
258.918	189.06
259.151	196.06
259.383	213.06
259.616	202.06
259.849	206.06
260.081	214.06
260.314	218.06
260.547	233.06
260.779	226.06
261.012	221.06
261.244	217.06
261.477	215.06
261.71	226.06
261.942	215.06
262.175	225.06
262.407	216.06
262.64	204.06
262.872	202.06
263.105	214.06
263.337	199.06
263.57	188.06
263.802	169.06
264.035	180.06
264.267	192.06
264.499	197.06
264.732	189.06
264.964	199.06
265.197	199.06
265.429	194.06
265.661	204.06
265.894	196.06
266.126	199.06
266.358	197.06
266.591	202.06
266.823	197.06
267.055	211.06
267.287	206.06
267.52	208.06
267.752	205.06
267.984	208.06
268.216	209.06
268.448	207.06
268.681	229.06
268.913	221.06
269.145	230.06
269.377	243.06
269.609	229.06
269.841	259.06
270.073	258.06
270.306	278.06
270.538	285.06
270.77	285.06
271.002	273.06
271.234	270.06
271.466	264.06
271.698	289.06
271.93	291.06
272.162	281.06
272.394	290.06
272.626	280.06
272.858	266.06
273.09	237.06
273.322	246.06
273.553	237.06
273.785	240.06
274.017	257.06
274.249	229.06
274.481	220.06
274.713	259.06
274.945	246.06
275.176	240.06
275.408	236.06
275.64	237.06
275.872	249.06
276.104	241.06
276.335	255.06
276.567	241.06
276.799	272.06
277.031	302.06
277.262	292.06
277.494	310.06
277.726	281.06
277.957	280.06
278.189	237.06
278.421	238.06
278.652	233.06
278.884	266.06
279.115	254.06
279.347	237.06
279.579	236.06
279.81	229.06
280.042	234.06
280.273	254.06
280.505	235.06
280.736	235.06
280.968	235.06
281.199	228.06
281.431	250.06
281.662	250.06
281.894	254.06
282.125	248.06
282.356	251.06
282.588	273.06
282.819	268.06
283.051	260.06
283.282	234.06
283.513	239.06
283.745	257.06
283.976	245.06
284.207	251.06
284.439	258.06
284.67	245.06
284.901	253.06
285.132	220.06
285.364	256.06
285.595	249.06
285.826	242.06
286.057	246.06
286.288	244.06
286.52	254.06
286.751	257.06
286.982	240.06
287.213	253.06
287.444	244.06
287.675	267.06
287.906	268.06
288.138	276.06
288.369	278.06
288.6	267.06
288.831	264.06
289.062	260.06
289.293	260.06
289.524	247.06
289.755	260.06
289.986	264.06
290.217	257.06
290.448	253.06
290.679	264.06
290.91	265.06
291.141	248.06
291.371	252.06
291.602	237.06
291.833	249.06
292.064	252.06
292.295	245.06
292.526	250.06
292.757	251.06
292.987	256.06
293.218	245.06
293.449	248.06
293.68	245.06
293.91	247.06
294.141	255.06
294.372	247.06
294.603	268.06
294.833	260.06
295.064	258.06
295.295	268.06
295.525	264.06
295.756	253.06
295.987	253.06
296.217	282.06
296.448	313.06
296.679	276.06
296.909	260.06
297.14	267.06
297.37	271.06
297.601	267.06
297.831	282.06
298.062	246.06
298.292	245.06
298.523	258.06
298.753	260.06
298.984	276.06
299.214	286.06
299.445	273.06
299.675	270.06
299.905	262.06
300.136	280.06
300.366	272.06
300.597	282.06
300.827	281.06
301.057	287.06
301.288	286.06
301.518	293.06
301.748	289.06
301.979	282.06
302.209	294.06
302.439	295.06
302.669	289.06
302.9	294.06
303.13	278.06
303.36	302.06
303.59	301.06
303.82	296.06
304.051	310.06
304.281	286.06
304.511	289.06
304.741	296.06
304.971	272.06
305.201	319.06
305.431	283.06
305.661	285.06
305.891	304.06
306.121	291.06
306.352	295.06
306.582	305.06
306.812	296.06
307.042	300.06
307.272	312.06
307.502	282.06
307.731	313.06
307.961	305.06
308.191	300.06
308.421	292.06
308.651	285.06
308.881	303.06
309.111	304.06
309.341	311.06
309.571	332.06
309.8	330.06
310.03	337.06
310.26	335.06
310.49	345.06
310.72	356.06
310.949	367.06
311.179	360.06
311.409	352.06
311.639	324.06
311.868	336.06
312.098	338.06
312.328	369.06
312.557	349.06
312.787	371.06
313.017	379.06
313.246	355.06
313.476	352.06
313.706	356.06
313.935	352.06
314.165	373.06
314.394	368.06
314.624	355.06
314.853	359.06
315.083	352.06
315.312	355.06
315.542	330.06
315.771	343.06
316.001	329.06
316.23	330.06
316.46	337.06
316.689	338.06
316.919	358.06
317.148	361.06
317.377	362.06
317.607	363.06
317.836	340.06
318.065	359.06
318.295	350.06
318.524	337.06
318.753	343.06
318.983	373.06
319.212	349.06
319.441	348.06
319.67	363.06
319.9	344.06
320.129	361.06
320.358	366.06
320.587	353.06
320.816	358.06
321.046	374.06
321.275	382.06
321.504	355.06
321.733	362.06
321.962	376.06
322.191	380.06
322.42	406.06
322.649	427.06
322.878	432.06
323.108	433.06
323.337	461.06
323.566	490.06
323.795	515.06
324.024	571.06
324.253	717.06
324.482	1038.06
324.71	1569.06
324.939	2172.06
325.168	1897.06
325.397	955.06
325.626	652.06
325.855	552.06
326.084	487.06
326.313	477.06
326.542	474.06
326.77	571.06
326.999	648.06
327.228	938.06
327.457	1398.06
327.686	1635.06
327.914	1080.06
328.143	735.06
328.372	619.06
328.6	567.06
328.829	564.06
329.058	588.06
329.287	574.06
329.515	536.06
329.744	511.06
329.972	502.06
330.201	531.06
330.43	546.06
330.658	578.06
330.887	629.06
331.115	576.06
331.344	493.06
331.572	447.06
331.801	472.06
332.03	454.06
332.258	450.06
332.486	410.06
332.715	416.06
332.943	427.06
333.172	402.06
333.4	416.06
333.629	421.06
333.857	430.06
334.085	456.06
334.314	464.06
334.542	502.06
334.771	525.06
334.999	449.06
335.227	436.06
335.455	426.06
335.684	410.06
335.912	390.06
336.14	402.06
336.369	393.06
336.597	420.06
336.825	398.06
337.053	396.06
337.281	394.06
337.51	390.06
337.738	409.06
337.966	383.06
338.194	401.06
338.422	410.06
338.65	391.06
338.878	392.06
339.106	388.06
339.334	380.06
339.562	398.06
339.79	397.06
340.018	381.06
340.246	375.06
340.474	410.06
340.702	388.06
340.93	389.06
341.158	358.06
341.386	386.06
341.614	404.06
341.842	392.06
342.07	366.06
342.298	406.06
342.526	379.06
342.754	360.06
342.981	377.06
343.209	366.06
343.437	374.06
343.665	382.06
343.893	385.06
344.12	394.06
344.348	395.06
344.576	388.06
344.804	415.06
345.031	413.06
345.259	396.06
345.487	402.06
345.714	399.06
345.942	382.06
346.17	396.06
346.397	360.06
346.625	372.06
346.853	374.06
347.08	388.06
347.308	376.06
347.535	383.06
347.763	392.06
347.99	408.06
348.218	387.06
348.445	401.06
348.673	398.06
348.9	376.06
349.128	359.06
349.355	382.06
349.583	372.06
349.81	354.06
350.037	377.06
350.265	345.06
350.492	365.06
350.72	367.06
350.947	384.06
351.174	379.06
351.402	399.06
351.629	362.06
351.856	396.06
352.083	378.06
352.311	387.06
352.538	392.06
352.765	412.06
352.992	372.06
353.22	381.06
353.447	359.06
353.674	357.06
353.901	359.06
354.128	363.06
354.355	365.06
354.583	354.06
354.81	355.06
355.037	359.06
355.264	346.06
355.491	339.06
355.718	338.06
355.945	344.06
356.172	345.06
356.399	341.06
356.626	342.06
356.853	351.06
357.08	344.06
357.307	347.06
357.534	334.06
357.761	336.06
357.988	340.06
358.215	341.06
358.441	318.06
358.668	346.06
358.895	361.06
359.122	343.06
359.349	350.06
359.576	392.06
359.802	398.06
360.029	439.06
360.256	452.06
360.483	430.06
360.709	378.06
360.936	378.06
361.163	384.06
361.39	399.06
361.616	398.06
361.843	374.06
362.07	369.06
362.296	398.06
362.523	380.06
362.749	376.06
362.976	367.06
363.203	386.06
363.429	376.06
363.656	334.06
363.882	358.06
364.109	374.06
364.335	359.06
364.562	344.06
364.788	353.06
365.015	352.06
365.241	341.06
365.468	354.06
365.694	370.06
365.92	377.06
366.147	360.06
366.373	359.06
366.599	366.06
366.826	351.06
367.052	345.06
367.278	350.06
367.505	336.06
367.731	362.06
367.957	349.06
368.184	353.06
368.41	363.06
368.636	380.06
368.862	384.06
369.089	360.06
369.315	362.06
369.541	353.06
369.767	348.06
369.993	367.06
370.219	344.06
370.445	358.06
370.672	341.06
370.898	359.06
371.124	340.06
371.35	351.06
371.576	354.06
371.802	347.06
372.028	335.06
372.254	343.06
372.48	351.06
372.706	335.06
372.932	345.06
373.158	342.06
373.384	352.06
373.61	354.06
373.835	357.06
374.061	344.06
374.287	364.06
374.513	354.06
374.739	344.06
374.965	343.06
375.191	345.06
375.416	340.06
375.642	336.06
375.868	352.06
376.094	368.06
376.319	354.06
376.545	368.06
376.771	340.06
376.997	345.06
377.222	341.06
377.448	346.06
377.674	348.06
377.899	333.06
378.125	341.06
378.35	356.06
378.576	332.06
378.802	335.06
379.027	322.06
379.253	349.06
379.478	341.06
379.704	328.06
379.929	350.06
380.155	334.06
380.38	347.06
380.606	358.06
380.831	357.06
381.057	348.06
381.282	360.06
381.507	349.06
381.733	350.06
381.958	366.06
382.184	348.06
382.409	346.06
382.634	362.06
382.86	336.06
383.085	360.06
383.31	359.06
383.535	377.06
383.761	364.06
383.986	359.06
384.211	362.06
384.436	374.06
384.662	348.06
384.887	361.06
385.112	358.06
385.337	376.06
385.562	378.06
385.787	365.06
386.013	402.06
386.238	376.06
386.463	390.06
386.688	389.06
386.913	353.06
387.138	361.06
387.363	378.06
387.588	368.06
387.813	364.06
388.038	360.06
388.263	361.06
388.488	377.06
388.713	373.06
388.938	364.06
389.163	388.06
389.387	390.06
389.612	373.06
389.837	373.06
390.062	375.06
390.287	359.06
390.512	368.06
390.736	365.06
390.961	359.06
391.186	352.06
391.411	379.06
391.636	379.06
391.86	375.06
392.085	391.06
392.31	394.06
392.534	363.06
392.759	386.06
392.984	380.06
393.208	379.06
393.433	380.06
393.658	347.06
393.882	382.06
394.107	382.06
394.331	375.06
394.556	370.06
394.78	380.06
395.005	376.06
395.229	377.06
395.454	388.06
395.678	375.06
395.903	388.06
396.127	402.06
396.352	410.06
396.576	378.06
396.801	383.06
397.025	373.06
397.249	395.06
397.474	381.06
397.698	380.06
397.922	400.06
398.147	408.06
398.371	424.06
398.595	400.06
398.82	426.06
399.044	413.06
399.268	407.06
399.492	446.06
399.717	465.06
399.941	493.06
400.165	515.06
400.389	488.06
400.613	470.06
400.837	447.06
401.062	444.06
401.286	409.06
401.51	414.06
401.734	411.06
401.958	436.06
402.182	433.06
402.406	430.06
402.63	434.06
402.854	433.06
403.078	441.06
403.302	427.06
403.526	436.06
403.75	444.06
403.974	410.06
404.198	431.06
404.422	443.06
404.645	459.06
404.869	453.06
405.093	472.06
405.317	531.06
405.541	539.06
405.765	497.06
405.988	476.06
406.212	464.06
406.436	492.06
406.66	504.06
406.883	476.06
407.107	500.06
407.331	533.06
407.555	585.06
407.778	566.06
408.002	513.06
408.226	491.06
408.449	463.06
408.673	465.06
408.896	520.06
409.12	516.06
409.344	516.06
409.567	470.06
409.791	436.06
410.014	414.06
410.238	436.06
410.461	446.06
410.685	455.06
410.908	472.06
411.132	487.06
411.355	505.06
411.578	499.06
411.802	444.06
412.025	448.06
412.249	448.06
412.472	460.06
412.695	486.06
412.919	465.06
413.142	450.06
413.365	439.06
413.589	429.06
413.812	424.06
414.035	409.06
414.258	418.06
414.482	417.06
414.705	400.06
414.928	398.06
415.151	400.06
415.374	377.06
415.597	391.06
415.821	418.06
416.044	419.06
416.267	413.06
416.49	408.06
416.713	394.06
416.936	390.06
417.159	398.06
417.382	396.06
417.605	417.06
417.828	422.06
418.051	424.06
418.274	440.06
418.497	429.06
418.72	432.06
418.943	405.06
419.166	398.06
419.389	469.06
419.611	428.06
419.834	428.06
420.057	441.06
420.28	417.06
420.503	437.06
420.726	442.06
420.948	457.06
421.171	497.06
421.394	507.06
421.617	459.06
421.839	426.06
422.062	443.06
422.285	428.06
422.507	488.06
422.73	560.06
422.953	526.06
423.175	478.06
423.398	458.06
423.621	461.06
423.843	478.06
424.066	479.06
424.288	456.06
424.511	476.06
424.733	530.06
424.956	598.06
425.178	569.06
425.401	590.06
425.623	606.06
425.846	495.06
426.068	471.06
426.291	479.06
426.513	471.06
426.735	478.06
426.958	534.06
427.18	594.06
427.402	706.06
427.625	769.06
427.847	695.06
428.069	604.06
428.292	524.06
428.514	493.06
428.736	470.06
428.958	460.06
429.181	434.06
429.403	452.06
429.625	438.06
429.847	478.06
430.069	519.06
430.292	528.06
430.514	442.06
430.736	428.06
430.958	427.06
431.18	421.06
431.402	415.06
431.624	415.06
431.846	401.06
432.068	403.06
432.29	415.06
432.512	402.06
432.734	422.06
432.956	415.06
433.178	430.06
433.4	443.06
433.622	418.06
433.844	411.06
434.066	416.06
434.287	413.06
434.509	419.06
434.731	420.06
434.953	430.06
435.175	433.06
435.397	465.06
435.618	489.06
435.84	520.06
436.062	612.06
436.284	630.06
436.505	543.06
436.727	496.06
436.949	469.06
437.17	454.06
437.392	457.06
437.614	456.06
437.835	495.06
438.057	609.06
438.278	656.06
438.5	670.06
438.721	693.06
438.943	692.06
439.165	546.06
439.386	504.06
439.608	494.06
439.829	502.06
440.05	520.06
440.272	555.06
440.493	530.06
440.715	485.06
440.936	459.06
441.158	457.06
441.379	446.06
441.6	456.06
441.822	467.06
442.043	533.06
442.264	579.06
442.486	627.06
442.707	529.06
442.928	496.06
443.149	506.06
443.371	526.06
443.592	534.06
443.813	632.06
444.034	675.06
444.255	551.06
444.476	496.06
444.698	476.06
444.919	467.06
445.14	568.06
445.361	556.06
445.582	546.06
445.803	591.06
446.024	684.06
446.245	673.06
446.466	601.06
446.687	542.06
446.908	518.06
447.129	451.06
447.35	442.06
447.571	454.06
447.792	452.06
448.013	441.06
448.234	455.06
448.455	516.06
448.675	609.06
448.896	693.06
449.117	619.06
449.338	584.06
449.559	680.06
449.779	722.06
450	589.06
450.221	500.06
450.442	448.06
450.662	450.06
450.883	450.06
451.104	454.06
451.324	454.06
451.545	410.06
451.766	406.06
451.986	411.06
452.207	406.06
452.428	420.06
452.648	386.06
452.869	406.06
453.089	391.06
453.31	413.06
453.53	414.06
453.751	436.06
453.971	405.06
454.192	436.06
454.412	427.06
454.633	414.06
454.853	395.06
455.073	400.06
455.294	440.06
455.514	487.06
455.734	494.06
455.955	416.06
456.175	396.06
456.395	381.06
456.616	384.06
456.836	375.06
457.056	394.06
457.276	380.06
457.497	386.06
457.717	377.06
457.937	382.06
458.157	396.06
458.377	398.06
458.598	409.06
458.818	486.06
459.038	559.06
459.258	579.06
459.478	467.06
459.698	447.06
459.918	420.06
460.138	399.06
460.358	423.06
460.578	421.06
460.798	418.06
461.018	413.06
461.238	407.06
461.458	409.06
461.678	406.06
461.898	405.06
462.118	385.06
462.338	416.06
462.558	428.06
462.777	414.06
462.997	458.06
463.217	443.06
463.437	458.06
463.657	446.06
463.876	453.06
464.096	441.06
464.316	432.06
464.536	470.06
464.755	459.06
464.975	434.06
465.195	524.06
465.414	585.06
465.634	533.06
465.854	468.06
466.073	413.06
466.293	436.06
466.512	408.06
466.732	414.06
466.951	409.06
467.171	401.06
467.391	417.06
467.61	424.06
467.829	431.06
468.049	439.06
468.268	405.06
468.488	414.06
468.707	401.06
468.927	391.06
469.146	402.06
469.365	407.06
469.585	420.06
469.804	392.06
470.023	397.06
470.243	409.06
470.462	406.06
470.681	445.06
470.901	427.06
471.12	412.06
471.339	397.06
471.558	398.06
471.777	405.06
471.997	416.06
472.216	429.06
472.435	481.06
472.654	451.06
472.873	434.06
473.092	412.06
473.311	412.06
473.53	420.06
473.749	425.06
473.968	470.06
474.187	554.06
474.406	577.06
474.625	490.06
474.844	426.06
475.063	434.06
475.282	401.06
475.501	433.06
475.72	428.06
475.939	416.06
476.158	410.06
476.377	431.06
476.596	425.06
476.814	440.06
477.033	415.06
477.252	449.06
477.471	436.06
477.69	427.06
477.908	455.06
478.127	443.06
478.346	437.06
478.564	456.06
478.783	457.06
479.002	458.06
479.22	457.06
479.439	482.06
479.658	477.06
479.876	496.06
480.095	509.06
480.313	514.06
480.532	506.06
480.751	501.06
480.969	523.06
481.188	603.06
481.406	632.06
481.624	572.06
481.843	534.06
482.061	513.06
482.28	501.06
482.498	479.06
482.717	459.06
482.935	486.06
483.153	479.06
483.372	479.06
483.59	488.06
483.808	478.06
484.027	518.06
484.245	485.06
484.463	487.06
484.681	516.06
484.9	516.06
485.118	501.06
485.336	513.06
485.554	522.06
485.772	518.06
485.99	516.06
486.209	500.06
486.427	489.06
486.645	524.06
486.863	544.06
487.081	531.06
487.299	536.06
487.517	548.06
487.735	537.06
487.953	514.06
488.171	526.06
488.389	514.06
488.607	535.06
488.825	544.06
489.043	534.06
489.261	532.06
489.479	526.06
489.696	518.06
489.914	534.06
490.132	541.06
490.35	549.06
490.568	542.06
490.786	552.06
491.003	572.06
491.221	563.06
491.439	585.06
491.657	596.06
491.874	600.06
492.092	593.06
492.31	596.06
492.527	616.06
492.745	637.06
492.963	591.06
493.18	602.06
493.398	634.06
493.615	614.06
493.833	630.06
494.05	634.06
494.268	624.06
494.485	621.06
494.703	625.06
494.92	633.06
495.138	613.06
495.355	612.06
495.573	618.06
495.79	632.06
496.008	644.06
496.225	615.06
496.442	634.06
496.66	638.06
496.877	642.06
497.094	644.06
497.312	661.06
497.529	643.06
497.746	629.06
497.963	666.06
498.181	705.06
498.398	672.06
498.615	663.06
498.832	671.06
499.049	673.06
499.267	682.06
499.484	685.06
499.701	729.06
499.918	714.06
500.135	724.06
500.352	767.06
500.569	770.06
500.786	775.06
501.003	784.06
501.22	763.06
501.437	738.06
501.654	754.06
501.871	773.06
