Data from 1965.PennyLincolnUp.Lamp.En5.5.200Scan.071719.P1._HRD10591_14-08-25-911.txt Node
Date: Thu Jul 18 14:08:25 EDT 2019
User: cochatt
Spectrometer: HR+D1059
Trigger mode: 1
Integration Time (sec): 1.000000E-1
Scans to average: 1
Electric dark correction enabled: true
Nonlinearity correction enabled: false
Boxcar width: 0
XAxis mode: Wavelengths
Number of Pixels in Spectrum: 2048
>>>>>Begin Spectral Data<<<<<
223.165	-11.25
223.4	-11.25
223.635	-11.25
223.869	-11.25
224.104	-22.25
224.338	-8.25
224.573	-12.25
224.808	-18.25
225.042	-19.25
225.277	-3.25
225.511	-1.25
225.746	2.75
225.98	-3.25
226.215	5.75
226.449	10.75
226.683	17.75
226.918	44.75
227.152	28.75
227.387	26.75
227.621	53.75
227.856	65.75
228.09	43.75
228.324	54.75
228.559	58.75
228.793	70.75
229.027	91.75
229.262	108.75
229.496	99.75
229.73	119.75
229.964	135.75
230.199	111.75
230.433	95.75
230.667	109.75
230.901	100.75
231.136	113.75
231.37	104.75
231.604	108.75
231.838	104.75
232.072	104.75
232.306	85.75
232.541	110.75
232.775	90.75
233.009	86.75
233.243	104.75
233.477	107.75
233.711	101.75
233.945	110.75
234.179	91.75
234.413	95.75
234.647	116.75
234.881	93.75
235.115	122.75
235.349	113.75
235.583	95.75
235.817	120.75
236.051	109.75
236.285	127.75
236.519	97.75
236.753	117.75
236.987	136.75
237.221	166.75
237.455	201.75
237.689	163.75
237.922	127.75
238.156	114.75
238.39	115.75
238.624	115.75
238.858	105.75
239.091	108.75
239.325	120.75
239.559	108.75
239.793	112.75
240.027	125.75
240.26	137.75
240.494	147.75
240.728	132.75
240.961	123.75
241.195	131.75
241.429	126.75
241.662	120.75
241.896	116.75
242.13	110.75
242.363	118.75
242.597	106.75
242.83	113.75
243.064	137.75
243.298	128.75
243.531	118.75
243.765	125.75
243.998	130.75
244.232	117.75
244.465	142.75
244.699	121.75
244.932	127.75
245.166	122.75
245.399	128.75
245.633	133.75
245.866	123.75
246.099	121.75
246.333	133.75
246.566	127.75
246.8	129.75
247.033	134.75
247.266	129.75
247.5	131.75
247.733	146.75
247.966	142.75
248.2	148.75
248.433	156.75
248.666	162.75
248.899	169.75
249.133	167.75
249.366	165.75
249.599	164.75
249.832	158.75
250.066	161.75
250.299	143.75
250.532	169.75
250.765	182.75
250.998	191.75
251.231	189.75
251.465	182.75
251.698	179.75
251.931	173.75
252.164	164.75
252.397	164.75
252.63	169.75
252.863	170.75
253.096	202.75
253.329	177.75
253.562	188.75
253.795	177.75
254.028	178.75
254.261	183.75
254.494	209.75
254.727	211.75
254.96	221.75
255.193	217.75
255.426	211.75
255.659	191.75
255.892	186.75
256.124	195.75
256.357	197.75
256.59	199.75
256.823	184.75
257.056	182.75
257.289	183.75
257.521	164.75
257.754	193.75
257.987	192.75
258.22	174.75
258.452	185.75
258.685	169.75
258.918	186.75
259.151	173.75
259.383	193.75
259.616	191.75
259.849	195.75
260.081	204.75
260.314	211.75
260.547	205.75
260.779	207.75
261.012	196.75
261.244	230.75
261.477	199.75
261.71	197.75
261.942	189.75
262.175	181.75
262.407	194.75
262.64	187.75
262.872	199.75
263.105	180.75
263.337	201.75
263.57	186.75
263.802	192.75
264.035	185.75
264.267	201.75
264.499	186.75
264.732	193.75
264.964	192.75
265.197	181.75
265.429	200.75
265.661	193.75
265.894	200.75
266.126	191.75
266.358	178.75
266.591	193.75
266.823	188.75
267.055	199.75
267.287	195.75
267.52	192.75
267.752	177.75
267.984	191.75
268.216	175.75
268.448	201.75
268.681	215.75
268.913	202.75
269.145	208.75
269.377	243.75
269.609	231.75
269.841	221.75
270.073	224.75
270.306	236.75
270.538	257.75
270.77	245.75
271.002	261.75
271.234	259.75
271.466	267.75
271.698	238.75
271.93	266.75
272.162	259.75
272.394	265.75
272.626	251.75
272.858	238.75
273.09	222.75
273.322	232.75
273.553	216.75
273.785	211.75
274.017	237.75
274.249	236.75
274.481	232.75
274.713	219.75
274.945	242.75
275.176	241.75
275.408	232.75
275.64	232.75
275.872	213.75
276.104	235.75
276.335	234.75
276.567	237.75
276.799	238.75
277.031	278.75
277.262	273.75
277.494	261.75
277.726	234.75
277.957	241.75
278.189	222.75
278.421	246.75
278.652	231.75
278.884	231.75
279.115	228.75
279.347	234.75
279.579	237.75
279.81	217.75
280.042	220.75
280.273	247.75
280.505	229.75
280.736	228.75
280.968	218.75
281.199	234.75
281.431	228.75
281.662	229.75
281.894	221.75
282.125	235.75
282.356	250.75
282.588	271.75
282.819	256.75
283.051	229.75
283.282	234.75
283.513	241.75
283.745	231.75
283.976	246.75
284.207	233.75
284.439	233.75
284.67	227.75
284.901	225.75
285.132	229.75
285.364	219.75
285.595	227.75
285.826	239.75
286.057	241.75
286.288	234.75
286.52	230.75
286.751	239.75
286.982	231.75
287.213	233.75
287.444	237.75
287.675	229.75
287.906	242.75
288.138	242.75
288.369	251.75
288.6	258.75
288.831	236.75
289.062	250.75
289.293	241.75
289.524	250.75
289.755	235.75
289.986	228.75
290.217	233.75
290.448	243.75
290.679	244.75
290.91	244.75
291.141	223.75
291.371	231.75
291.602	249.75
291.833	231.75
292.064	234.75
292.295	238.75
292.526	236.75
292.757	232.75
292.987	225.75
293.218	232.75
293.449	245.75
293.68	221.75
293.91	254.75
294.141	246.75
294.372	241.75
294.603	249.75
294.833	241.75
295.064	258.75
295.295	273.75
295.525	240.75
295.756	260.75
295.987	260.75
296.217	287.75
296.448	284.75
296.679	263.75
296.909	241.75
297.14	245.75
297.37	252.75
297.601	252.75
297.831	260.75
298.062	247.75
298.292	247.75
298.523	239.75
298.753	260.75
298.984	254.75
299.214	244.75
299.445	256.75
299.675	275.75
299.905	268.75
300.136	265.75
300.366	255.75
300.597	259.75
300.827	263.75
301.057	269.75
301.288	247.75
301.518	257.75
301.748	254.75
301.979	267.75
302.209	277.75
302.439	277.75
302.669	274.75
302.9	264.75
303.13	264.75
303.36	257.75
303.59	265.75
303.82	275.75
304.051	281.75
304.281	283.75
304.511	280.75
304.741	272.75
304.971	264.75
305.201	271.75
305.431	270.75
305.661	269.75
305.891	290.75
306.121	283.75
306.352	270.75
306.582	286.75
306.812	291.75
307.042	285.75
307.272	264.75
307.502	264.75
307.731	287.75
307.961	285.75
308.191	283.75
308.421	266.75
308.651	299.75
308.881	294.75
309.111	309.75
309.341	284.75
309.571	315.75
309.8	303.75
310.03	307.75
310.26	323.75
310.49	326.75
310.72	316.75
310.949	339.75
311.179	319.75
311.409	318.75
311.639	319.75
311.868	346.75
312.098	315.75
312.328	332.75
312.557	332.75
312.787	344.75
313.017	340.75
313.246	333.75
313.476	333.75
313.706	324.75
313.935	326.75
314.165	306.75
314.394	343.75
314.624	337.75
314.853	321.75
315.083	318.75
315.312	321.75
315.542	308.75
315.771	309.75
316.001	302.75
316.23	311.75
316.46	305.75
316.689	313.75
316.919	321.75
317.148	326.75
317.377	315.75
317.607	340.75
317.836	345.75
318.065	326.75
318.295	324.75
318.524	316.75
318.753	299.75
318.983	302.75
319.212	301.75
319.441	320.75
319.67	315.75
319.9	333.75
320.129	301.75
320.358	331.75
320.587	329.75
320.816	334.75
321.046	334.75
321.275	352.75
321.504	345.75
321.733	360.75
321.962	344.75
322.191	370.75
322.42	371.75
322.649	380.75
322.878	401.75
323.108	395.75
323.337	413.75
323.566	428.75
323.795	465.75
324.024	517.75
324.253	622.75
324.482	890.75
324.71	1372.75
324.939	1858.75
325.168	1572.75
325.397	829.75
325.626	572.75
325.855	486.75
326.084	442.75
326.313	440.75
326.542	456.75
326.77	490.75
326.999	581.75
327.228	790.75
327.457	1161.75
327.686	1378.75
327.914	947.75
328.143	639.75
328.372	566.75
328.6	518.75
328.829	531.75
329.058	523.75
329.287	482.75
329.515	468.75
329.744	446.75
329.972	461.75
330.201	460.75
330.43	506.75
330.658	529.75
330.887	526.75
331.115	500.75
331.344	445.75
331.572	440.75
331.801	421.75
332.03	423.75
332.258	409.75
332.486	378.75
332.715	402.75
332.943	377.75
333.172	380.75
333.4	399.75
333.629	388.75
333.857	407.75
334.085	430.75
334.314	415.75
334.542	461.75
334.771	463.75
334.999	402.75
335.227	392.75
335.455	360.75
335.684	383.75
335.912	362.75
336.14	368.75
336.369	378.75
336.597	381.75
336.825	371.75
337.053	361.75
337.281	371.75
337.51	358.75
337.738	369.75
337.966	373.75
338.194	383.75
338.422	377.75
338.65	364.75
338.878	368.75
339.106	353.75
339.334	361.75
339.562	363.75
339.79	364.75
340.018	366.75
340.246	354.75
340.474	371.75
340.702	352.75
340.93	360.75
341.158	357.75
341.386	360.75
341.614	381.75
341.842	340.75
342.07	340.75
342.298	350.75
342.526	331.75
342.754	350.75
342.981	348.75
343.209	357.75
343.437	353.75
343.665	365.75
343.893	348.75
344.12	370.75
344.348	354.75
344.576	371.75
344.804	361.75
345.031	379.75
345.259	381.75
345.487	361.75
345.714	371.75
345.942	355.75
346.17	359.75
346.397	345.75
346.625	348.75
346.853	338.75
347.08	354.75
347.308	348.75
347.535	362.75
347.763	370.75
347.99	365.75
348.218	357.75
348.445	359.75
348.673	379.75
348.9	359.75
349.128	338.75
349.355	337.75
349.583	335.75
349.81	345.75
350.037	339.75
350.265	337.75
350.492	355.75
350.72	348.75
350.947	329.75
351.174	370.75
351.402	365.75
351.629	367.75
351.856	361.75
352.083	369.75
352.311	382.75
352.538	388.75
352.765	363.75
352.992	360.75
353.22	356.75
353.447	355.75
353.674	357.75
353.901	333.75
354.128	325.75
354.355	310.75
354.583	322.75
354.81	325.75
355.037	355.75
355.264	347.75
355.491	327.75
355.718	332.75
355.945	318.75
356.172	321.75
356.399	322.75
356.626	328.75
356.853	318.75
357.08	321.75
357.307	340.75
357.534	322.75
357.761	329.75
357.988	334.75
358.215	339.75
358.441	317.75
358.668	334.75
358.895	340.75
359.122	345.75
359.349	346.75
359.576	352.75
359.802	371.75
360.029	399.75
360.256	413.75
360.483	391.75
360.709	358.75
360.936	359.75
361.163	355.75
361.39	336.75
361.616	364.75
361.843	349.75
362.07	351.75
362.296	361.75
362.523	365.75
362.749	366.75
362.976	357.75
363.203	344.75
363.429	362.75
363.656	339.75
363.882	331.75
364.109	339.75
364.335	334.75
364.562	335.75
364.788	315.75
365.015	352.75
365.241	345.75
365.468	342.75
365.694	334.75
365.92	340.75
366.147	359.75
366.373	328.75
366.599	332.75
366.826	326.75
367.052	323.75
367.278	334.75
367.505	328.75
367.731	336.75
367.957	348.75
368.184	342.75
368.41	350.75
368.636	336.75
368.862	352.75
369.089	362.75
369.315	348.75
369.541	337.75
369.767	346.75
369.993	340.75
370.219	333.75
370.445	337.75
370.672	347.75
370.898	320.75
371.124	331.75
371.35	326.75
371.576	309.75
371.802	330.75
372.028	337.75
372.254	334.75
372.48	333.75
372.706	335.75
372.932	347.75
373.158	321.75
373.384	347.75
373.61	339.75
373.835	325.75
374.061	327.75
374.287	353.75
374.513	331.75
374.739	335.75
374.965	331.75
375.191	327.75
375.416	349.75
375.642	324.75
375.868	341.75
376.094	351.75
376.319	332.75
376.545	327.75
376.771	327.75
376.997	349.75
377.222	337.75
377.448	327.75
377.674	321.75
377.899	334.75
378.125	319.75
378.35	327.75
378.576	333.75
378.802	330.75
379.027	316.75
379.253	332.75
379.478	337.75
379.704	327.75
379.929	325.75
380.155	322.75
380.38	342.75
380.606	333.75
380.831	327.75
381.057	333.75
381.282	338.75
381.507	326.75
381.733	322.75
381.958	334.75
382.184	339.75
382.409	334.75
382.634	323.75
382.86	355.75
383.085	333.75
383.31	321.75
383.535	345.75
383.761	348.75
383.986	354.75
384.211	351.75
384.436	330.75
384.662	347.75
384.887	343.75
385.112	362.75
385.337	361.75
385.562	333.75
385.787	334.75
386.013	350.75
386.238	365.75
386.463	343.75
386.688	363.75
386.913	354.75
387.138	378.75
387.363	353.75
387.588	364.75
387.813	357.75
388.038	365.75
388.263	353.75
388.488	343.75
388.713	364.75
388.938	361.75
389.163	371.75
389.387	358.75
389.612	356.75
389.837	357.75
390.062	355.75
390.287	345.75
390.512	360.75
390.736	346.75
390.961	347.75
391.186	358.75
391.411	352.75
391.636	354.75
391.86	356.75
392.085	365.75
392.31	348.75
392.534	348.75
392.759	351.75
392.984	387.75
393.208	375.75
393.433	360.75
393.658	357.75
393.882	348.75
394.107	339.75
394.331	373.75
394.556	345.75
394.78	348.75
395.005	374.75
395.229	364.75
395.454	377.75
395.678	364.75
395.903	369.75
396.127	379.75
396.352	391.75
396.576	385.75
396.801	379.75
397.025	372.75
397.249	369.75
397.474	378.75
397.698	387.75
397.922	370.75
398.147	400.75
398.371	400.75
398.595	403.75
398.82	402.75
399.044	386.75
399.268	407.75
399.492	421.75
399.717	434.75
399.941	465.75
400.165	491.75
400.389	501.75
400.613	437.75
400.837	431.75
401.062	424.75
401.286	418.75
401.51	418.75
401.734	400.75
401.958	390.75
402.182	413.75
402.406	408.75
402.63	425.75
402.854	391.75
403.078	431.75
403.302	397.75
403.526	421.75
403.75	422.75
403.974	412.75
404.198	411.75
404.422	428.75
404.645	425.75
404.869	413.75
405.093	443.75
405.317	460.75
405.541	502.75
405.765	459.75
405.988	459.75
406.212	460.75
406.436	487.75
406.66	479.75
406.883	457.75
407.107	456.75
407.331	489.75
407.555	547.75
407.778	570.75
408.002	494.75
408.226	460.75
408.449	455.75
408.673	463.75
408.896	459.75
409.12	513.75
409.344	474.75
409.567	431.75
409.791	453.75
410.014	424.75
410.238	408.75
410.461	399.75
410.685	423.75
410.908	423.75
411.132	485.75
411.355	496.75
411.578	462.75
411.802	413.75
412.025	383.75
412.249	427.75
412.472	447.75
412.695	473.75
412.919	472.75
413.142	443.75
413.365	401.75
413.589	429.75
413.812	421.75
414.035	419.75
414.258	394.75
414.482	385.75
414.705	387.75
414.928	379.75
415.151	387.75
415.374	380.75
415.597	403.75
415.821	391.75
416.044	398.75
416.267	397.75
416.49	364.75
416.713	371.75
416.936	405.75
417.159	396.75
417.382	394.75
417.605	383.75
417.828	409.75
418.051	407.75
418.274	416.75
418.497	387.75
418.72	391.75
418.943	388.75
419.166	404.75
419.389	423.75
419.611	408.75
419.834	377.75
420.057	417.75
420.28	414.75
420.503	399.75
420.726	401.75
420.948	450.75
421.171	427.75
421.394	482.75
421.617	413.75
421.839	405.75
422.062	430.75
422.285	415.75
422.507	457.75
422.73	545.75
422.953	496.75
423.175	447.75
423.398	439.75
423.621	433.75
423.843	453.75
424.066	454.75
424.288	428.75
424.511	439.75
424.733	499.75
424.956	552.75
425.178	540.75
425.401	527.75
425.623	540.75
425.846	462.75
426.068	446.75
426.291	464.75
426.513	452.75
426.735	427.75
426.958	480.75
427.18	551.75
427.402	646.75
427.625	714.75
427.847	631.75
428.069	567.75
428.292	519.75
428.514	462.75
428.736	435.75
428.958	444.75
429.181	433.75
429.403	416.75
429.625	415.75
429.847	470.75
430.069	521.75
430.292	512.75
430.514	444.75
430.736	429.75
430.958	409.75
431.18	393.75
431.402	409.75
431.624	387.75
431.846	362.75
432.068	381.75
432.29	397.75
432.512	379.75
432.734	384.75
432.956	400.75
433.178	393.75
433.4	385.75
433.622	395.75
433.844	399.75
434.066	391.75
434.287	387.75
434.509	402.75
434.731	418.75
434.953	394.75
435.175	440.75
435.397	446.75
435.618	441.75
435.84	482.75
436.062	569.75
436.284	619.75
436.505	507.75
436.727	463.75
436.949	445.75
437.17	408.75
437.392	446.75
437.614	424.75
437.835	470.75
438.057	549.75
438.278	616.75
438.5	614.75
438.721	641.75
438.943	634.75
439.165	494.75
439.386	456.75
439.608	470.75
439.829	476.75
440.05	489.75
440.272	511.75
440.493	492.75
440.715	441.75
440.936	443.75
441.158	427.75
441.379	427.75
441.6	437.75
441.822	436.75
442.043	483.75
442.264	563.75
442.486	576.75
442.707	487.75
442.928	468.75
443.149	484.75
443.371	485.75
443.592	533.75
443.813	577.75
444.034	635.75
444.255	521.75
444.476	467.75
444.698	453.75
444.919	465.75
445.14	540.75
445.361	500.75
445.582	490.75
445.803	528.75
446.024	623.75
446.245	627.75
446.466	574.75
446.687	471.75
446.908	473.75
447.129	447.75
447.35	414.75
447.571	399.75
447.792	417.75
448.013	433.75
448.234	419.75
448.455	489.75
448.675	577.75
448.896	657.75
449.117	550.75
449.338	542.75
449.559	614.75
449.779	675.75
450	561.75
450.221	467.75
450.442	424.75
450.662	425.75
450.883	423.75
451.104	446.75
451.324	426.75
451.545	418.75
451.766	397.75
451.986	382.75
452.207	376.75
452.428	410.75
452.648	375.75
452.869	365.75
453.089	396.75
453.31	397.75
453.53	405.75
453.751	387.75
453.971	397.75
454.192	410.75
454.412	411.75
454.633	390.75
454.853	356.75
455.073	374.75
455.294	429.75
455.514	451.75
455.734	449.75
455.955	381.75
456.175	354.75
456.395	347.75
456.616	350.75
456.836	372.75
457.056	358.75
457.276	339.75
457.497	351.75
457.717	359.75
457.937	350.75
458.157	361.75
458.377	377.75
458.598	409.75
458.818	476.75
459.038	514.75
459.258	523.75
459.478	437.75
459.698	387.75
459.918	405.75
460.138	392.75
460.358	378.75
460.578	403.75
460.798	408.75
461.018	395.75
461.238	413.75
461.458	388.75
461.678	382.75
461.898	382.75
462.118	406.75
462.338	403.75
462.558	396.75
462.777	420.75
462.997	416.75
463.217	437.75
463.437	424.75
463.657	411.75
463.876	413.75
464.096	426.75
464.316	409.75
464.536	439.75
464.755	428.75
464.975	410.75
465.195	485.75
465.414	569.75
465.634	493.75
465.854	449.75
466.073	421.75
466.293	411.75
466.512	385.75
466.732	399.75
466.951	393.75
467.171	396.75
467.391	383.75
467.61	433.75
467.829	417.75
468.049	412.75
468.268	411.75
468.488	392.75
468.707	368.75
468.927	385.75
469.146	381.75
469.365	354.75
469.585	379.75
469.804	376.75
470.023	391.75
470.243	413.75
470.462	393.75
470.681	403.75
470.901	421.75
471.12	396.75
471.339	383.75
471.558	409.75
471.777	397.75
471.997	399.75
472.216	391.75
472.435	418.75
472.654	410.75
472.873	395.75
473.092	398.75
473.311	377.75
473.53	394.75
473.749	399.75
473.968	429.75
474.187	517.75
474.406	518.75
474.625	451.75
474.844	406.75
475.063	387.75
475.282	394.75
475.501	383.75
475.72	406.75
475.939	383.75
476.158	377.75
476.377	422.75
476.596	408.75
476.814	413.75
477.033	419.75
477.252	411.75
477.471	408.75
477.69	425.75
477.908	412.75
478.127	443.75
478.346	434.75
478.564	414.75
478.783	439.75
479.002	457.75
479.22	463.75
479.439	467.75
479.658	476.75
479.876	489.75
480.095	482.75
480.313	493.75
480.532	467.75
480.751	461.75
480.969	473.75
481.188	541.75
481.406	577.75
481.624	500.75
481.843	486.75
482.061	465.75
482.28	476.75
482.498	459.75
482.717	466.75
482.935	465.75
483.153	481.75
483.372	474.75
483.59	459.75
483.808	465.75
484.027	469.75
484.245	468.75
484.463	474.75
484.681	494.75
484.9	476.75
485.118	437.75
485.336	461.75
485.554	462.75
485.772	485.75
485.99	486.75
486.209	475.75
486.427	502.75
486.645	501.75
486.863	509.75
487.081	491.75
487.299	505.75
487.517	506.75
487.735	500.75
487.953	483.75
488.171	492.75
488.389	478.75
488.607	493.75
488.825	506.75
489.043	501.75
489.261	493.75
489.479	502.75
489.696	517.75
489.914	492.75
490.132	502.75
490.35	505.75
490.568	513.75
490.786	533.75
491.003	542.75
491.221	529.75
491.439	559.75
491.657	554.75
491.874	572.75
492.092	579.75
492.31	577.75
492.527	544.75
492.745	539.75
492.963	570.75
493.18	593.75
493.398	576.75
493.615	595.75
493.833	593.75
494.05	585.75
494.268	582.75
494.485	580.75
494.703	564.75
494.92	549.75
495.138	571.75
495.355	585.75
495.573	592.75
495.79	593.75
496.008	594.75
496.225	566.75
496.442	572.75
496.66	574.75
496.877	589.75
497.094	592.75
497.312	609.75
497.529	588.75
497.746	609.75
497.963	626.75
498.181	615.75
498.398	623.75
498.615	620.75
498.832	643.75
499.049	664.75
499.267	665.75
499.484	685.75
499.701	676.75
499.918	718.75
500.135	727.75
500.352	746.75
500.569	741.75
500.786	738.75
501.003	767.75
501.22	738.75
501.437	714.75
501.654	749.75
501.871	704.75
502.088	715.75
