Data from 1965.PennyLincolnUp.Lamp.En5.5.200Scan.071719.P1._HRD10591_14-08-37-912.txt Node
Date: Thu Jul 18 14:08:37 EDT 2019
User: cochatt
Spectrometer: HR+D1059
Trigger mode: 1
Integration Time (sec): 1.000000E-1
Scans to average: 1
Electric dark correction enabled: true
Nonlinearity correction enabled: false
Boxcar width: 0
XAxis mode: Wavelengths
Number of Pixels in Spectrum: 2048
>>>>>Begin Spectral Data<<<<<
223.165	0.75
223.4	0.75
223.635	0.75
223.869	-22.25
224.104	-27.25
224.338	-6.25
224.573	-1.25
224.808	0.75
225.042	-8.25
225.277	-12.25
225.511	2.75
225.746	-7.25
225.98	7.75
226.215	14.75
226.449	0.75
226.683	8.75
226.918	18.75
227.152	29.75
227.387	34.75
227.621	38.75
227.856	49.75
228.09	60.75
228.324	54.75
228.559	58.75
228.793	50.75
229.027	98.75
229.262	94.75
229.496	95.75
229.73	122.75
229.964	150.75
230.199	128.75
230.433	107.75
230.667	96.75
230.901	107.75
231.136	102.75
231.37	99.75
231.604	111.75
231.838	104.75
232.072	110.75
232.306	122.75
232.541	119.75
232.775	101.75
233.009	93.75
233.243	106.75
233.477	104.75
233.711	118.75
233.945	106.75
234.179	106.75
234.413	110.75
234.647	109.75
234.881	94.75
235.115	117.75
235.349	110.75
235.583	120.75
235.817	110.75
236.051	118.75
236.285	138.75
236.519	124.75
236.753	114.75
236.987	131.75
237.221	151.75
237.455	192.75
237.689	158.75
237.922	126.75
238.156	121.75
238.39	124.75
238.624	126.75
238.858	103.75
239.091	121.75
239.325	122.75
239.559	115.75
239.793	114.75
240.027	106.75
240.26	130.75
240.494	131.75
240.728	136.75
240.961	133.75
241.195	134.75
241.429	143.75
241.662	124.75
241.896	119.75
242.13	124.75
242.363	109.75
242.597	120.75
242.83	134.75
243.064	128.75
243.298	133.75
243.531	126.75
243.765	139.75
243.998	122.75
244.232	130.75
244.465	130.75
244.699	130.75
244.932	127.75
245.166	120.75
245.399	121.75
245.633	128.75
245.866	126.75
246.099	130.75
246.333	134.75
246.566	136.75
246.8	126.75
247.033	136.75
247.266	132.75
247.5	136.75
247.733	160.75
247.966	167.75
248.2	163.75
248.433	149.75
248.666	147.75
248.899	156.75
249.133	181.75
249.366	178.75
249.599	180.75
249.832	163.75
250.066	158.75
250.299	158.75
250.532	167.75
250.765	188.75
250.998	180.75
251.231	200.75
251.465	187.75
251.698	172.75
251.931	204.75
252.164	180.75
252.397	169.75
252.63	185.75
252.863	185.75
253.096	188.75
253.329	189.75
253.562	176.75
253.795	186.75
254.028	195.75
254.261	199.75
254.494	207.75
254.727	204.75
254.96	230.75
255.193	228.75
255.426	223.75
255.659	211.75
255.892	218.75
256.124	190.75
256.357	204.75
256.59	194.75
256.823	187.75
257.056	175.75
257.289	197.75
257.521	175.75
257.754	186.75
257.987	171.75
258.22	190.75
258.452	175.75
258.685	188.75
258.918	174.75
259.151	174.75
259.383	189.75
259.616	207.75
259.849	194.75
260.081	200.75
260.314	218.75
260.547	229.75
260.779	211.75
261.012	218.75
261.244	201.75
261.477	198.75
261.71	192.75
261.942	190.75
262.175	199.75
262.407	220.75
262.64	180.75
262.872	187.75
263.105	186.75
263.337	183.75
263.57	180.75
263.802	188.75
264.035	184.75
264.267	192.75
264.499	178.75
264.732	188.75
264.964	171.75
265.197	182.75
265.429	182.75
265.661	180.75
265.894	182.75
266.126	189.75
266.358	197.75
266.591	176.75
266.823	197.75
267.055	200.75
267.287	203.75
267.52	188.75
267.752	213.75
267.984	202.75
268.216	209.75
268.448	196.75
268.681	202.75
268.913	215.75
269.145	208.75
269.377	227.75
269.609	232.75
269.841	233.75
270.073	246.75
270.306	242.75
270.538	267.75
270.77	245.75
271.002	253.75
271.234	243.75
271.466	243.75
271.698	267.75
271.93	262.75
272.162	249.75
272.394	290.75
272.626	246.75
272.858	246.75
273.09	238.75
273.322	234.75
273.553	227.75
273.785	231.75
274.017	218.75
274.249	206.75
274.481	233.75
274.713	217.75
274.945	233.75
275.176	227.75
275.408	236.75
275.64	222.75
275.872	234.75
276.104	235.75
276.335	224.75
276.567	256.75
276.799	248.75
277.031	264.75
277.262	263.75
277.494	259.75
277.726	255.75
277.957	238.75
278.189	248.75
278.421	253.75
278.652	222.75
278.884	240.75
279.115	228.75
279.347	228.75
279.579	228.75
279.81	251.75
280.042	220.75
280.273	232.75
280.505	230.75
280.736	223.75
280.968	231.75
281.199	241.75
281.431	228.75
281.662	230.75
281.894	224.75
282.125	230.75
282.356	247.75
282.588	258.75
282.819	269.75
283.051	230.75
283.282	227.75
283.513	235.75
283.745	242.75
283.976	238.75
284.207	239.75
284.439	229.75
284.67	244.75
284.901	250.75
285.132	237.75
285.364	228.75
285.595	245.75
285.826	229.75
286.057	242.75
286.288	238.75
286.52	242.75
286.751	238.75
286.982	222.75
287.213	247.75
287.444	244.75
287.675	246.75
287.906	262.75
288.138	261.75
288.369	228.75
288.6	232.75
288.831	249.75
289.062	255.75
289.293	259.75
289.524	242.75
289.755	251.75
289.986	242.75
290.217	254.75
290.448	251.75
290.679	225.75
290.91	239.75
291.141	255.75
291.371	250.75
291.602	256.75
291.833	236.75
292.064	243.75
292.295	234.75
292.526	234.75
292.757	233.75
292.987	250.75
293.218	246.75
293.449	239.75
293.68	248.75
293.91	256.75
294.141	258.75
294.372	248.75
294.603	238.75
294.833	248.75
295.064	234.75
295.295	261.75
295.525	245.75
295.756	278.75
295.987	258.75
296.217	285.75
296.448	268.75
296.679	288.75
296.909	255.75
297.14	261.75
297.37	244.75
297.601	248.75
297.831	244.75
298.062	257.75
298.292	267.75
298.523	252.75
298.753	230.75
298.984	246.75
299.214	233.75
299.445	249.75
299.675	257.75
299.905	268.75
300.136	270.75
300.366	274.75
300.597	261.75
300.827	264.75
301.057	272.75
301.288	280.75
301.518	268.75
301.748	279.75
301.979	277.75
302.209	268.75
302.439	299.75
302.669	267.75
302.9	309.75
303.13	253.75
303.36	275.75
303.59	278.75
303.82	294.75
304.051	297.75
304.281	290.75
304.511	264.75
304.741	271.75
304.971	270.75
305.201	270.75
305.431	269.75
305.661	283.75
305.891	272.75
306.121	281.75
306.352	285.75
306.582	282.75
306.812	264.75
307.042	260.75
307.272	281.75
307.502	290.75
307.731	282.75
307.961	284.75
308.191	275.75
308.421	272.75
308.651	302.75
308.881	288.75
309.111	288.75
309.341	284.75
309.571	301.75
309.8	294.75
310.03	307.75
310.26	322.75
310.49	326.75
310.72	322.75
310.949	329.75
311.179	339.75
311.409	337.75
311.639	335.75
311.868	347.75
312.098	331.75
312.328	326.75
312.557	342.75
312.787	361.75
313.017	345.75
313.246	320.75
313.476	328.75
313.706	325.75
313.935	336.75
314.165	334.75
314.394	338.75
314.624	340.75
314.853	349.75
315.083	330.75
315.312	324.75
315.542	303.75
315.771	308.75
316.001	335.75
316.23	308.75
316.46	317.75
316.689	318.75
316.919	324.75
317.148	325.75
317.377	316.75
317.607	318.75
317.836	319.75
318.065	331.75
318.295	335.75
318.524	334.75
318.753	330.75
318.983	316.75
319.212	330.75
319.441	331.75
319.67	341.75
319.9	330.75
320.129	336.75
320.358	315.75
320.587	327.75
320.816	326.75
321.046	350.75
321.275	350.75
321.504	354.75
321.733	346.75
321.962	376.75
322.191	352.75
322.42	376.75
322.649	376.75
322.878	380.75
323.108	406.75
323.337	418.75
323.566	431.75
323.795	455.75
324.024	541.75
324.253	636.75
324.482	939.75
324.71	1382.75
324.939	1923.75
325.168	1612.75
325.397	847.75
325.626	575.75
325.855	480.75
326.084	472.75
326.313	437.75
326.542	446.75
326.77	476.75
326.999	594.75
327.228	843.75
327.457	1200.75
327.686	1388.75
327.914	930.75
328.143	654.75
328.372	575.75
328.6	518.75
328.829	492.75
329.058	507.75
329.287	506.75
329.515	463.75
329.744	444.75
329.972	463.75
330.201	462.75
330.43	484.75
330.658	526.75
330.887	554.75
331.115	527.75
331.344	458.75
331.572	427.75
331.801	428.75
332.03	425.75
332.258	414.75
332.486	402.75
332.715	392.75
332.943	384.75
333.172	379.75
333.4	395.75
333.629	402.75
333.857	392.75
334.085	404.75
334.314	430.75
334.542	457.75
334.771	461.75
334.999	406.75
335.227	395.75
335.455	387.75
335.684	355.75
335.912	370.75
336.14	366.75
336.369	370.75
336.597	389.75
336.825	389.75
337.053	382.75
337.281	376.75
337.51	357.75
337.738	365.75
337.966	358.75
338.194	376.75
338.422	404.75
338.65	389.75
338.878	366.75
339.106	348.75
339.334	357.75
339.562	351.75
339.79	369.75
340.018	360.75
340.246	356.75
340.474	389.75
340.702	380.75
340.93	341.75
341.158	352.75
341.386	385.75
341.614	374.75
341.842	380.75
342.07	359.75
342.298	369.75
342.526	350.75
342.754	367.75
342.981	349.75
343.209	370.75
343.437	375.75
343.665	364.75
343.893	363.75
344.12	367.75
344.348	365.75
344.576	371.75
344.804	397.75
345.031	370.75
345.259	380.75
345.487	407.75
345.714	398.75
345.942	351.75
346.17	366.75
346.397	356.75
346.625	355.75
346.853	358.75
347.08	354.75
347.308	363.75
347.535	366.75
347.763	374.75
347.99	343.75
348.218	377.75
348.445	363.75
348.673	354.75
348.9	354.75
349.128	350.75
349.355	355.75
349.583	344.75
349.81	344.75
350.037	347.75
350.265	325.75
350.492	340.75
350.72	346.75
350.947	363.75
351.174	359.75
351.402	361.75
351.629	350.75
351.856	367.75
352.083	386.75
352.311	378.75
352.538	359.75
352.765	388.75
352.992	380.75
353.22	381.75
353.447	362.75
353.674	353.75
353.901	343.75
354.128	346.75
354.355	331.75
354.583	346.75
354.81	336.75
355.037	329.75
355.264	332.75
355.491	340.75
355.718	334.75
355.945	317.75
356.172	319.75
356.399	333.75
356.626	317.75
356.853	330.75
357.08	336.75
357.307	334.75
357.534	346.75
357.761	312.75
357.988	314.75
358.215	331.75
358.441	312.75
358.668	346.75
358.895	341.75
359.122	350.75
359.349	344.75
359.576	358.75
359.802	388.75
360.029	423.75
360.256	397.75
360.483	406.75
360.709	363.75
360.936	354.75
361.163	365.75
361.39	350.75
361.616	344.75
361.843	341.75
362.07	343.75
362.296	355.75
362.523	364.75
362.749	351.75
362.976	344.75
363.203	346.75
363.429	339.75
363.656	362.75
363.882	343.75
364.109	340.75
364.335	333.75
364.562	346.75
364.788	338.75
365.015	334.75
365.241	334.75
365.468	341.75
365.694	339.75
365.92	337.75
366.147	336.75
366.373	340.75
366.599	351.75
366.826	341.75
367.052	328.75
367.278	335.75
367.505	348.75
367.731	363.75
367.957	342.75
368.184	334.75
368.41	362.75
368.636	356.75
368.862	348.75
369.089	348.75
369.315	341.75
369.541	335.75
369.767	335.75
369.993	343.75
370.219	356.75
370.445	350.75
370.672	331.75
370.898	325.75
371.124	329.75
371.35	327.75
371.576	362.75
371.802	318.75
372.028	313.75
372.254	326.75
372.48	338.75
372.706	340.75
372.932	336.75
373.158	351.75
373.384	342.75
373.61	334.75
373.835	340.75
374.061	332.75
374.287	356.75
374.513	328.75
374.739	326.75
374.965	343.75
375.191	343.75
375.416	341.75
375.642	335.75
375.868	339.75
376.094	339.75
376.319	333.75
376.545	331.75
376.771	343.75
376.997	311.75
377.222	329.75
377.448	329.75
377.674	325.75
377.899	340.75
378.125	324.75
378.35	319.75
378.576	326.75
378.802	333.75
379.027	316.75
379.253	335.75
379.478	336.75
379.704	350.75
379.929	337.75
380.155	335.75
380.38	319.75
380.606	341.75
380.831	334.75
381.057	338.75
381.282	328.75
381.507	343.75
381.733	322.75
381.958	318.75
382.184	330.75
382.409	327.75
382.634	341.75
382.86	353.75
383.085	355.75
383.31	331.75
383.535	354.75
383.761	335.75
383.986	345.75
384.211	353.75
384.436	339.75
384.662	355.75
384.887	346.75
385.112	338.75
385.337	357.75
385.562	357.75
385.787	355.75
386.013	362.75
386.238	357.75
386.463	387.75
386.688	356.75
386.913	370.75
387.138	354.75
387.363	353.75
387.588	355.75
387.813	342.75
388.038	365.75
388.263	340.75
388.488	335.75
388.713	359.75
388.938	357.75
389.163	371.75
389.387	372.75
389.612	343.75
389.837	364.75
390.062	376.75
390.287	343.75
390.512	354.75
390.736	359.75
390.961	356.75
391.186	358.75
391.411	352.75
391.636	371.75
391.86	358.75
392.085	376.75
392.31	377.75
392.534	363.75
392.759	359.75
392.984	348.75
393.208	368.75
393.433	380.75
393.658	360.75
393.882	370.75
394.107	356.75
394.331	373.75
394.556	358.75
394.78	363.75
395.005	365.75
395.229	373.75
395.454	392.75
395.678	381.75
395.903	412.75
396.127	378.75
396.352	406.75
396.576	372.75
396.801	374.75
397.025	372.75
397.249	371.75
397.474	381.75
397.698	365.75
397.922	398.75
398.147	400.75
398.371	401.75
398.595	404.75
398.82	408.75
399.044	409.75
399.268	423.75
399.492	437.75
399.717	436.75
399.941	452.75
400.165	476.75
400.389	486.75
400.613	472.75
400.837	401.75
401.062	429.75
401.286	407.75
401.51	425.75
401.734	422.75
401.958	405.75
402.182	411.75
402.406	422.75
402.63	440.75
402.854	414.75
403.078	415.75
403.302	426.75
403.526	414.75
403.75	410.75
403.974	437.75
404.198	401.75
404.422	400.75
404.645	424.75
404.869	423.75
405.093	432.75
405.317	483.75
405.541	483.75
405.765	458.75
405.988	439.75
406.212	458.75
406.436	462.75
406.66	489.75
406.883	470.75
407.107	469.75
407.331	499.75
407.555	520.75
407.778	536.75
408.002	498.75
408.226	462.75
408.449	471.75
408.673	455.75
408.896	492.75
409.12	530.75
409.344	470.75
409.567	425.75
409.791	418.75
410.014	406.75
410.238	420.75
410.461	415.75
410.685	441.75
410.908	427.75
411.132	460.75
411.355	472.75
411.578	461.75
411.802	439.75
412.025	427.75
412.249	438.75
412.472	459.75
412.695	470.75
412.919	462.75
413.142	430.75
413.365	431.75
413.589	405.75
413.812	400.75
414.035	404.75
414.258	395.75
414.482	390.75
414.705	399.75
414.928	404.75
415.151	396.75
415.374	381.75
415.597	393.75
415.821	383.75
416.044	395.75
416.267	404.75
416.49	378.75
416.713	382.75
416.936	403.75
417.159	388.75
417.382	375.75
417.605	418.75
417.828	405.75
418.051	406.75
418.274	419.75
418.497	384.75
418.72	397.75
418.943	367.75
419.166	397.75
419.389	450.75
419.611	427.75
419.834	419.75
420.057	413.75
420.28	400.75
420.503	405.75
420.726	411.75
420.948	430.75
421.171	462.75
421.394	486.75
421.617	427.75
421.839	434.75
422.062	406.75
422.285	428.75
422.507	476.75
422.73	539.75
422.953	515.75
423.175	468.75
423.398	422.75
423.621	425.75
423.843	459.75
424.066	466.75
424.288	457.75
424.511	454.75
424.733	511.75
424.956	566.75
425.178	549.75
425.401	551.75
425.623	543.75
425.846	472.75
426.068	448.75
426.291	458.75
426.513	446.75
426.735	463.75
426.958	500.75
427.18	573.75
427.402	656.75
427.625	726.75
427.847	622.75
428.069	556.75
428.292	507.75
428.514	454.75
428.736	434.75
428.958	444.75
429.181	429.75
429.403	424.75
429.625	416.75
429.847	458.75
430.069	522.75
430.292	500.75
430.514	436.75
430.736	443.75
430.958	409.75
431.18	399.75
431.402	382.75
431.624	390.75
431.846	380.75
432.068	396.75
432.29	392.75
432.512	403.75
432.734	422.75
432.956	417.75
433.178	430.75
433.4	415.75
433.622	399.75
433.844	409.75
434.066	400.75
434.287	388.75
434.509	421.75
434.731	407.75
434.953	405.75
435.175	412.75
435.397	430.75
435.618	433.75
435.84	463.75
436.062	564.75
436.284	611.75
436.505	520.75
436.727	464.75
436.949	430.75
437.17	438.75
437.392	430.75
437.614	436.75
437.835	475.75
438.057	553.75
438.278	636.75
438.5	627.75
438.721	659.75
438.943	604.75
439.165	514.75
439.386	470.75
439.608	462.75
439.829	482.75
440.05	485.75
440.272	495.75
440.493	496.75
440.715	445.75
440.936	456.75
441.158	426.75
441.379	429.75
441.6	439.75
441.822	466.75
442.043	492.75
442.264	542.75
442.486	595.75
442.707	504.75
442.928	471.75
443.149	467.75
443.371	503.75
443.592	520.75
443.813	582.75
444.034	621.75
444.255	525.75
444.476	467.75
444.698	459.75
444.919	456.75
445.14	546.75
445.361	505.75
445.582	484.75
445.803	550.75
446.024	628.75
446.245	642.75
446.466	572.75
446.687	474.75
446.908	468.75
447.129	457.75
447.35	438.75
447.571	439.75
447.792	427.75
448.013	417.75
448.234	455.75
448.455	489.75
448.675	570.75
448.896	630.75
449.117	552.75
449.338	530.75
449.559	593.75
449.779	691.75
450	547.75
450.221	471.75
450.442	452.75
450.662	420.75
450.883	431.75
451.104	424.75
451.324	429.75
451.545	408.75
451.766	399.75
451.986	396.75
452.207	391.75
452.428	375.75
452.648	399.75
452.869	401.75
453.089	377.75
453.31	393.75
453.53	393.75
453.751	373.75
453.971	381.75
454.192	407.75
454.412	370.75
454.633	394.75
454.853	383.75
455.073	376.75
455.294	416.75
455.514	452.75
455.734	440.75
455.955	389.75
456.175	378.75
456.395	368.75
456.616	352.75
456.836	359.75
457.056	368.75
457.276	363.75
457.497	353.75
457.717	373.75
457.937	364.75
458.157	380.75
458.377	381.75
458.598	405.75
458.818	439.75
459.038	518.75
459.258	529.75
459.478	436.75
459.698	412.75
459.918	419.75
460.138	400.75
460.358	380.75
460.578	417.75
460.798	400.75
461.018	405.75
461.238	410.75
461.458	409.75
461.678	398.75
461.898	386.75
462.118	378.75
462.338	399.75
462.558	404.75
462.777	412.75
462.997	416.75
463.217	428.75
463.437	422.75
463.657	420.75
463.876	414.75
464.096	440.75
464.316	426.75
464.536	429.75
464.755	438.75
464.975	434.75
465.195	478.75
465.414	544.75
465.634	479.75
465.854	436.75
466.073	430.75
466.293	424.75
466.512	409.75
466.732	390.75
466.951	386.75
467.171	383.75
467.391	408.75
467.61	399.75
467.829	394.75
468.049	392.75
468.268	428.75
468.488	395.75
468.707	394.75
468.927	386.75
469.146	387.75
469.365	383.75
469.585	360.75
469.804	401.75
470.023	394.75
470.243	404.75
470.462	412.75
470.681	437.75
470.901	419.75
471.12	415.75
471.339	379.75
471.558	410.75
471.777	410.75
471.997	387.75
472.216	402.75
472.435	455.75
472.654	447.75
472.873	411.75
473.092	386.75
473.311	401.75
473.53	412.75
473.749	420.75
473.968	452.75
474.187	541.75
474.406	538.75
474.625	446.75
474.844	421.75
475.063	425.75
475.282	399.75
475.501	393.75
475.72	414.75
475.939	404.75
476.158	409.75
476.377	412.75
476.596	418.75
476.814	418.75
477.033	436.75
477.252	418.75
477.471	423.75
477.69	434.75
477.908	423.75
478.127	426.75
478.346	436.75
478.564	442.75
478.783	452.75
479.002	457.75
479.22	430.75
479.439	470.75
479.658	469.75
479.876	489.75
480.095	512.75
480.313	500.75
480.532	473.75
480.751	477.75
480.969	519.75
481.188	544.75
481.406	593.75
481.624	528.75
481.843	494.75
482.061	482.75
482.28	457.75
482.498	476.75
482.717	459.75
482.935	459.75
483.153	470.75
483.372	470.75
483.59	471.75
483.808	469.75
484.027	466.75
484.245	472.75
484.463	467.75
484.681	487.75
484.9	475.75
485.118	477.75
485.336	482.75
485.554	485.75
485.772	483.75
485.99	494.75
486.209	491.75
486.427	489.75
486.645	493.75
486.863	526.75
487.081	525.75
487.299	493.75
487.517	504.75
487.735	508.75
487.953	507.75
488.171	492.75
488.389	514.75
488.607	476.75
488.825	485.75
489.043	522.75
489.261	531.75
489.479	487.75
489.696	516.75
489.914	524.75
490.132	509.75
490.35	518.75
490.568	514.75
490.786	526.75
491.003	558.75
491.221	569.75
491.439	569.75
491.657	569.75
491.874	576.75
492.092	582.75
492.31	571.75
492.527	567.75
492.745	550.75
492.963	584.75
493.18	579.75
493.398	574.75
493.615	601.75
493.833	596.75
494.05	579.75
494.268	579.75
494.485	584.75
494.703	576.75
494.92	569.75
495.138	582.75
495.355	591.75
495.573	568.75
495.79	597.75
496.008	622.75
496.225	591.75
496.442	584.75
496.66	594.75
496.877	565.75
497.094	596.75
497.312	591.75
497.529	595.75
497.746	591.75
497.963	616.75
498.181	644.75
498.398	644.75
498.615	641.75
498.832	633.75
499.049	654.75
499.267	648.75
499.484	684.75
499.701	704.75
499.918	711.75
500.135	727.75
500.352	749.75
500.569	744.75
500.786	790.75
501.003	768.75
501.22	721.75
501.437	710.75
501.654	710.75
501.871	723.75
502.088	698.75
