Data from 1965.PennyLincolnUp.Lamp.En5.5.200Scan.071719.P1._HRD10591_14-09-42-912.txt Node
Date: Thu Jul 18 14:09:42 EDT 2019
User: cochatt
Spectrometer: HR+D1059
Trigger mode: 1
Integration Time (sec): 1.000000E-1
Scans to average: 1
Electric dark correction enabled: true
Nonlinearity correction enabled: false
Boxcar width: 0
XAxis mode: Wavelengths
Number of Pixels in Spectrum: 2048
>>>>>Begin Spectral Data<<<<<
223.165	-13.5
223.4	-13.5
223.635	-13.5
223.869	-15.5
224.104	-22.5
224.338	-0.5
224.573	-15.5
224.808	-2.5
225.042	-14.5
225.277	-5.5
225.511	1.5
225.746	-3.5
225.98	11.5
226.215	11.5
226.449	11.5
226.683	12.5
226.918	21.5
227.152	23.5
227.387	32.5
227.621	33.5
227.856	36.5
228.09	44.5
228.324	59.5
228.559	59.5
228.793	66.5
229.027	91.5
229.262	101.5
229.496	113.5
229.73	133.5
229.964	129.5
230.199	111.5
230.433	95.5
230.667	109.5
230.901	96.5
231.136	101.5
231.37	121.5
231.604	98.5
231.838	102.5
232.072	100.5
232.306	109.5
232.541	91.5
232.775	102.5
233.009	121.5
233.243	89.5
233.477	101.5
233.711	113.5
233.945	110.5
234.179	105.5
234.413	107.5
234.647	115.5
234.881	111.5
235.115	108.5
235.349	110.5
235.583	121.5
235.817	119.5
236.051	120.5
236.285	113.5
236.519	105.5
236.753	114.5
236.987	128.5
237.221	170.5
237.455	214.5
237.689	169.5
237.922	124.5
238.156	120.5
238.39	128.5
238.624	109.5
238.858	115.5
239.091	113.5
239.325	118.5
239.559	120.5
239.793	135.5
240.027	121.5
240.26	133.5
240.494	150.5
240.728	145.5
240.961	126.5
241.195	139.5
241.429	126.5
241.662	142.5
241.896	119.5
242.13	121.5
242.363	126.5
242.597	131.5
242.83	136.5
243.064	121.5
243.298	127.5
243.531	124.5
243.765	115.5
243.998	128.5
244.232	139.5
244.465	126.5
244.699	122.5
244.932	132.5
245.166	134.5
245.399	130.5
245.633	132.5
245.866	138.5
246.099	139.5
246.333	135.5
246.566	137.5
246.8	140.5
247.033	147.5
247.266	145.5
247.5	140.5
247.733	159.5
247.966	165.5
248.2	148.5
248.433	163.5
248.666	154.5
248.899	157.5
249.133	174.5
249.366	195.5
249.599	185.5
249.832	167.5
250.066	184.5
250.299	179.5
250.532	171.5
250.765	179.5
250.998	194.5
251.231	200.5
251.465	205.5
251.698	180.5
251.931	185.5
252.164	177.5
252.397	181.5
252.63	194.5
252.863	187.5
253.096	220.5
253.329	218.5
253.562	215.5
253.795	190.5
254.028	189.5
254.261	193.5
254.494	231.5
254.727	238.5
254.96	254.5
255.193	246.5
255.426	214.5
255.659	214.5
255.892	204.5
256.124	222.5
256.357	209.5
256.59	201.5
256.823	193.5
257.056	188.5
257.289	207.5
257.521	194.5
257.754	190.5
257.987	184.5
258.22	173.5
258.452	185.5
258.685	191.5
258.918	186.5
259.151	189.5
259.383	197.5
259.616	205.5
259.849	199.5
260.081	214.5
260.314	229.5
260.547	228.5
260.779	226.5
261.012	214.5
261.244	212.5
261.477	212.5
261.71	204.5
261.942	211.5
262.175	221.5
262.407	198.5
262.64	208.5
262.872	187.5
263.105	201.5
263.337	196.5
263.57	189.5
263.802	197.5
264.035	187.5
264.267	193.5
264.499	205.5
264.732	186.5
264.964	185.5
265.197	189.5
265.429	194.5
265.661	193.5
265.894	179.5
266.126	194.5
266.358	194.5
266.591	197.5
266.823	199.5
267.055	191.5
267.287	201.5
267.52	197.5
267.752	220.5
267.984	199.5
268.216	207.5
268.448	212.5
268.681	206.5
268.913	220.5
269.145	231.5
269.377	255.5
269.609	241.5
269.841	224.5
270.073	245.5
270.306	275.5
270.538	275.5
270.77	291.5
271.002	269.5
271.234	277.5
271.466	245.5
271.698	286.5
271.93	281.5
272.162	302.5
272.394	291.5
272.626	268.5
272.858	251.5
273.09	244.5
273.322	265.5
273.553	234.5
273.785	237.5
274.017	240.5
274.249	241.5
274.481	244.5
274.713	257.5
274.945	245.5
275.176	235.5
275.408	253.5
275.64	231.5
275.872	249.5
276.104	237.5
276.335	243.5
276.567	253.5
276.799	253.5
277.031	280.5
277.262	294.5
277.494	283.5
277.726	269.5
277.957	245.5
278.189	245.5
278.421	246.5
278.652	231.5
278.884	247.5
279.115	234.5
279.347	241.5
279.579	243.5
279.81	224.5
280.042	227.5
280.273	228.5
280.505	249.5
280.736	207.5
280.968	235.5
281.199	208.5
281.431	234.5
281.662	245.5
281.894	236.5
282.125	267.5
282.356	279.5
282.588	270.5
282.819	280.5
283.051	230.5
283.282	235.5
283.513	246.5
283.745	234.5
283.976	235.5
284.207	242.5
284.439	237.5
284.67	238.5
284.901	261.5
285.132	239.5
285.364	231.5
285.595	241.5
285.826	228.5
286.057	263.5
286.288	247.5
286.52	219.5
286.751	262.5
286.982	234.5
287.213	256.5
287.444	255.5
287.675	260.5
287.906	259.5
288.138	280.5
288.369	272.5
288.6	261.5
288.831	264.5
289.062	252.5
289.293	262.5
289.524	275.5
289.755	249.5
289.986	234.5
290.217	253.5
290.448	257.5
290.679	259.5
290.91	249.5
291.141	252.5
291.371	259.5
291.602	262.5
291.833	232.5
292.064	239.5
292.295	240.5
292.526	250.5
292.757	260.5
292.987	247.5
293.218	243.5
293.449	259.5
293.68	247.5
293.91	264.5
294.141	242.5
294.372	255.5
294.603	259.5
294.833	250.5
295.064	249.5
295.295	243.5
295.525	238.5
295.756	252.5
295.987	272.5
296.217	295.5
296.448	302.5
296.679	281.5
296.909	244.5
297.14	262.5
297.37	260.5
297.601	261.5
297.831	269.5
298.062	251.5
298.292	254.5
298.523	257.5
298.753	259.5
298.984	287.5
299.214	279.5
299.445	262.5
299.675	271.5
299.905	280.5
300.136	275.5
300.366	266.5
300.597	261.5
300.827	285.5
301.057	260.5
301.288	286.5
301.518	273.5
301.748	290.5
301.979	275.5
302.209	291.5
302.439	293.5
302.669	290.5
302.9	285.5
303.13	285.5
303.36	292.5
303.59	291.5
303.82	300.5
304.051	289.5
304.281	270.5
304.511	297.5
304.741	277.5
304.971	293.5
305.201	285.5
305.431	285.5
305.661	295.5
305.891	261.5
306.121	274.5
306.352	301.5
306.582	287.5
306.812	283.5
307.042	307.5
307.272	297.5
307.502	294.5
307.731	295.5
307.961	283.5
308.191	287.5
308.421	293.5
308.651	310.5
308.881	315.5
309.111	292.5
309.341	309.5
309.571	313.5
309.8	306.5
310.03	312.5
310.26	349.5
310.49	357.5
310.72	352.5
310.949	349.5
311.179	373.5
311.409	338.5
311.639	345.5
311.868	337.5
312.098	347.5
312.328	351.5
312.557	377.5
312.787	369.5
313.017	379.5
313.246	353.5
313.476	325.5
313.706	332.5
313.935	350.5
314.165	356.5
314.394	351.5
314.624	357.5
314.853	355.5
315.083	342.5
315.312	336.5
315.542	321.5
315.771	315.5
316.001	326.5
316.23	334.5
316.46	323.5
316.689	327.5
316.919	335.5
317.148	358.5
317.377	367.5
317.607	339.5
317.836	346.5
318.065	332.5
318.295	347.5
318.524	335.5
318.753	337.5
318.983	343.5
319.212	334.5
319.441	379.5
319.67	351.5
319.9	360.5
320.129	337.5
320.358	331.5
320.587	361.5
320.816	356.5
321.046	367.5
321.275	364.5
321.504	353.5
321.733	378.5
321.962	365.5
322.191	387.5
322.42	389.5
322.649	407.5
322.878	431.5
323.108	439.5
323.337	462.5
323.566	473.5
323.795	515.5
324.024	566.5
324.253	715.5
324.482	1035.5
324.71	1581.5
324.939	2187.5
325.168	1817.5
325.397	937.5
325.626	627.5
325.855	537.5
326.084	483.5
326.313	473.5
326.542	474.5
326.77	538.5
326.999	658.5
327.228	918.5
327.457	1349.5
327.686	1544.5
327.914	1070.5
328.143	687.5
328.372	617.5
328.6	582.5
328.829	544.5
329.058	564.5
329.287	540.5
329.515	517.5
329.744	487.5
329.972	478.5
330.201	526.5
330.43	557.5
330.658	565.5
330.887	577.5
331.115	549.5
331.344	499.5
331.572	465.5
331.801	464.5
332.03	451.5
332.258	437.5
332.486	420.5
332.715	387.5
332.943	414.5
333.172	399.5
333.4	409.5
333.629	423.5
333.857	423.5
334.085	441.5
334.314	473.5
334.542	487.5
334.771	492.5
334.999	448.5
335.227	422.5
335.455	396.5
335.684	404.5
335.912	410.5
336.14	384.5
336.369	383.5
336.597	398.5
336.825	398.5
337.053	390.5
337.281	387.5
337.51	398.5
337.738	387.5
337.966	391.5
338.194	410.5
338.422	389.5
338.65	385.5
338.878	369.5
339.106	369.5
339.334	382.5
339.562	363.5
339.79	371.5
340.018	381.5
340.246	378.5
340.474	382.5
340.702	390.5
340.93	383.5
341.158	383.5
341.386	374.5
341.614	385.5
341.842	378.5
342.07	383.5
342.298	377.5
342.526	371.5
342.754	375.5
342.981	382.5
343.209	372.5
343.437	382.5
343.665	356.5
343.893	361.5
344.12	363.5
344.348	389.5
344.576	390.5
344.804	388.5
345.031	376.5
345.259	409.5
345.487	395.5
345.714	366.5
345.942	367.5
346.17	383.5
346.397	359.5
346.625	364.5
346.853	360.5
347.08	367.5
347.308	381.5
347.535	401.5
347.763	399.5
347.99	380.5
348.218	408.5
348.445	387.5
348.673	385.5
348.9	392.5
349.128	361.5
349.355	363.5
349.583	358.5
349.81	344.5
350.037	339.5
350.265	347.5
350.492	361.5
350.72	358.5
350.947	371.5
351.174	372.5
351.402	383.5
351.629	407.5
351.856	398.5
352.083	387.5
352.311	389.5
352.538	400.5
352.765	400.5
352.992	380.5
353.22	390.5
353.447	380.5
353.674	355.5
353.901	373.5
354.128	365.5
354.355	350.5
354.583	351.5
354.81	365.5
355.037	359.5
355.264	327.5
355.491	328.5
355.718	342.5
355.945	345.5
356.172	357.5
356.399	326.5
356.626	337.5
356.853	328.5
357.08	319.5
357.307	325.5
357.534	331.5
357.761	332.5
357.988	335.5
358.215	357.5
358.441	347.5
358.668	362.5
358.895	340.5
359.122	353.5
359.349	361.5
359.576	388.5
359.802	403.5
360.029	442.5
360.256	434.5
360.483	405.5
360.709	376.5
360.936	349.5
361.163	369.5
361.39	371.5
361.616	361.5
361.843	374.5
362.07	367.5
362.296	392.5
362.523	364.5
362.749	356.5
362.976	369.5
363.203	351.5
363.429	359.5
363.656	345.5
363.882	335.5
364.109	342.5
364.335	347.5
364.562	376.5
364.788	343.5
365.015	355.5
365.241	365.5
365.468	372.5
365.694	349.5
365.92	375.5
366.147	349.5
366.373	342.5
366.599	352.5
366.826	335.5
367.052	333.5
367.278	337.5
367.505	344.5
367.731	353.5
367.957	339.5
368.184	334.5
368.41	354.5
368.636	360.5
368.862	379.5
369.089	355.5
369.315	360.5
369.541	361.5
369.767	358.5
369.993	339.5
370.219	351.5
370.445	350.5
370.672	341.5
370.898	341.5
371.124	354.5
371.35	350.5
371.576	339.5
371.802	356.5
372.028	333.5
372.254	353.5
372.48	346.5
372.706	332.5
372.932	345.5
373.158	338.5
373.384	360.5
373.61	346.5
373.835	351.5
374.061	328.5
374.287	344.5
374.513	338.5
374.739	362.5
374.965	346.5
375.191	340.5
375.416	339.5
375.642	342.5
375.868	324.5
376.094	347.5
376.319	331.5
376.545	344.5
376.771	341.5
376.997	320.5
377.222	331.5
377.448	334.5
377.674	322.5
377.899	338.5
378.125	322.5
378.35	318.5
378.576	340.5
378.802	347.5
379.027	338.5
379.253	347.5
379.478	340.5
379.704	339.5
379.929	323.5
380.155	340.5
380.38	333.5
380.606	330.5
380.831	335.5
381.057	342.5
381.282	337.5
381.507	330.5
381.733	334.5
381.958	351.5
382.184	350.5
382.409	349.5
382.634	352.5
382.86	347.5
383.085	339.5
383.31	377.5
383.535	341.5
383.761	345.5
383.986	349.5
384.211	349.5
384.436	347.5
384.662	358.5
384.887	363.5
385.112	369.5
385.337	357.5
385.562	365.5
385.787	356.5
386.013	381.5
386.238	381.5
386.463	372.5
386.688	363.5
386.913	373.5
387.138	365.5
387.363	363.5
387.588	385.5
387.813	369.5
388.038	368.5
388.263	350.5
388.488	369.5
388.713	360.5
388.938	345.5
389.163	362.5
389.387	369.5
389.612	379.5
389.837	354.5
390.062	363.5
390.287	372.5
390.512	359.5
390.736	351.5
390.961	377.5
391.186	363.5
391.411	371.5
391.636	370.5
391.86	361.5
392.085	361.5
392.31	373.5
392.534	364.5
392.759	385.5
392.984	362.5
393.208	362.5
393.433	374.5
393.658	376.5
393.882	366.5
394.107	372.5
394.331	374.5
394.556	380.5
394.78	358.5
395.005	347.5
395.229	379.5
395.454	385.5
395.678	371.5
395.903	373.5
396.127	381.5
396.352	398.5
396.576	381.5
396.801	390.5
397.025	385.5
397.249	395.5
397.474	388.5
397.698	392.5
397.922	391.5
398.147	413.5
398.371	413.5
398.595	430.5
398.82	415.5
399.044	421.5
399.268	424.5
399.492	429.5
399.717	446.5
399.941	478.5
400.165	499.5
400.389	512.5
400.613	466.5
400.837	451.5
401.062	431.5
401.286	420.5
401.51	417.5
401.734	421.5
401.958	411.5
402.182	426.5
402.406	415.5
402.63	438.5
402.854	423.5
403.078	422.5
403.302	427.5
403.526	430.5
403.75	423.5
403.974	427.5
404.198	405.5
404.422	421.5
404.645	436.5
404.869	437.5
405.093	457.5
405.317	515.5
405.541	545.5
405.765	502.5
405.988	472.5
406.212	467.5
406.436	503.5
406.66	507.5
406.883	467.5
407.107	490.5
407.331	533.5
407.555	577.5
407.778	590.5
408.002	525.5
408.226	479.5
408.449	474.5
408.673	456.5
408.896	506.5
409.12	537.5
409.344	495.5
409.567	446.5
409.791	449.5
410.014	443.5
410.238	435.5
410.461	437.5
410.685	435.5
410.908	453.5
411.132	470.5
411.355	499.5
411.578	494.5
411.802	436.5
412.025	423.5
412.249	459.5
412.472	444.5
412.695	469.5
412.919	471.5
413.142	453.5
413.365	437.5
413.589	417.5
413.812	421.5
414.035	421.5
414.258	398.5
414.482	416.5
414.705	416.5
414.928	386.5
415.151	399.5
415.374	421.5
415.597	405.5
415.821	399.5
416.044	415.5
416.267	399.5
416.49	388.5
416.713	397.5
416.936	403.5
417.159	395.5
417.382	406.5
417.605	395.5
417.828	425.5
418.051	421.5
418.274	418.5
418.497	422.5
418.72	418.5
418.943	411.5
419.166	428.5
419.389	461.5
419.611	470.5
419.834	438.5
420.057	456.5
420.28	421.5
420.503	430.5
420.726	428.5
420.948	434.5
421.171	463.5
421.394	505.5
421.617	455.5
421.839	430.5
422.062	441.5
422.285	453.5
422.507	486.5
422.73	549.5
422.953	492.5
423.175	492.5
423.398	456.5
423.621	444.5
423.843	457.5
424.066	468.5
424.288	469.5
424.511	475.5
424.733	525.5
424.956	602.5
425.178	550.5
425.401	551.5
425.623	589.5
425.846	519.5
426.068	471.5
426.291	466.5
426.513	465.5
426.735	434.5
426.958	500.5
427.18	586.5
427.402	705.5
427.625	759.5
427.847	695.5
428.069	600.5
428.292	517.5
428.514	483.5
428.736	467.5
428.958	471.5
429.181	430.5
429.403	430.5
429.625	439.5
429.847	478.5
430.069	534.5
430.292	519.5
430.514	437.5
430.736	435.5
430.958	429.5
431.18	411.5
431.402	417.5
431.624	402.5
431.846	417.5
432.068	400.5
432.29	419.5
432.512	415.5
432.734	423.5
432.956	402.5
433.178	415.5
433.4	409.5
433.622	428.5
433.844	411.5
434.066	407.5
434.287	389.5
434.509	419.5
434.731	424.5
434.953	455.5
435.175	469.5
435.397	462.5
435.618	478.5
435.84	486.5
436.062	587.5
436.284	640.5
436.505	516.5
436.727	492.5
436.949	459.5
437.17	441.5
437.392	443.5
437.614	481.5
437.835	510.5
438.057	581.5
438.278	663.5
438.5	652.5
438.721	670.5
438.943	656.5
439.165	526.5
439.386	492.5
439.608	504.5
439.829	479.5
440.05	503.5
440.272	551.5
440.493	515.5
440.715	468.5
440.936	450.5
441.158	459.5
441.379	465.5
441.6	441.5
441.822	472.5
442.043	503.5
442.264	565.5
442.486	613.5
442.707	519.5
442.928	492.5
443.149	517.5
443.371	496.5
443.592	530.5
443.813	617.5
444.034	653.5
444.255	582.5
444.476	490.5
444.698	477.5
444.919	467.5
445.14	596.5
445.361	546.5
445.582	540.5
445.803	586.5
446.024	649.5
446.245	663.5
446.466	613.5
446.687	532.5
446.908	487.5
447.129	461.5
447.35	432.5
447.571	462.5
447.792	458.5
448.013	434.5
448.234	440.5
448.455	530.5
448.675	621.5
448.896	667.5
449.117	595.5
449.338	578.5
449.559	647.5
449.779	733.5
450	597.5
450.221	483.5
450.442	445.5
450.662	413.5
450.883	452.5
451.104	463.5
451.324	457.5
451.545	430.5
451.766	412.5
451.986	400.5
452.207	409.5
452.428	398.5
452.648	399.5
452.869	394.5
453.089	401.5
453.31	405.5
453.53	406.5
453.751	404.5
453.971	396.5
454.192	441.5
454.412	399.5
454.633	407.5
454.853	407.5
455.073	397.5
455.294	425.5
455.514	483.5
455.734	475.5
455.955	392.5
456.175	379.5
456.395	373.5
456.616	351.5
456.836	374.5
457.056	379.5
457.276	356.5
457.497	381.5
457.717	363.5
457.937	375.5
458.157	385.5
458.377	395.5
458.598	405.5
458.818	469.5
459.038	539.5
459.258	555.5
459.478	475.5
459.698	415.5
459.918	407.5
460.138	408.5
460.358	422.5
460.578	410.5
460.798	411.5
461.018	418.5
461.238	401.5
461.458	394.5
461.678	383.5
461.898	403.5
462.118	411.5
462.338	413.5
462.558	418.5
462.777	422.5
462.997	426.5
463.217	442.5
463.437	443.5
463.657	431.5
463.876	423.5
464.096	427.5
464.316	429.5
464.536	435.5
464.755	470.5
464.975	452.5
465.195	506.5
465.414	587.5
465.634	488.5
465.854	462.5
466.073	430.5
466.293	415.5
466.512	420.5
466.732	399.5
466.951	405.5
467.171	393.5
467.391	400.5
467.61	410.5
467.829	422.5
468.049	407.5
468.268	425.5
468.488	402.5
468.707	407.5
468.927	405.5
469.146	393.5
469.365	383.5
469.585	396.5
469.804	414.5
470.023	423.5
470.243	414.5
470.462	433.5
470.681	437.5
470.901	413.5
471.12	415.5
471.339	412.5
471.558	419.5
471.777	415.5
471.997	392.5
472.216	418.5
472.435	446.5
472.654	445.5
472.873	437.5
473.092	410.5
473.311	419.5
473.53	397.5
473.749	443.5
473.968	449.5
474.187	565.5
474.406	571.5
474.625	448.5
474.844	413.5
475.063	401.5
475.282	406.5
475.501	410.5
475.72	429.5
475.939	448.5
476.158	419.5
476.377	414.5
476.596	413.5
476.814	440.5
477.033	436.5
477.252	451.5
477.471	416.5
477.69	446.5
477.908	445.5
478.127	436.5
478.346	438.5
478.564	431.5
478.783	444.5
479.002	459.5
479.22	451.5
479.439	472.5
479.658	506.5
479.876	501.5
480.095	518.5
480.313	517.5
480.532	511.5
480.751	525.5
480.969	504.5
481.188	608.5
481.406	637.5
481.624	544.5
481.843	511.5
482.061	493.5
482.28	503.5
482.498	467.5
482.717	473.5
482.935	483.5
483.153	478.5
483.372	482.5
483.59	473.5
483.808	468.5
484.027	486.5
484.245	477.5
484.463	478.5
484.681	510.5
484.9	502.5
485.118	488.5
485.336	498.5
485.554	493.5
485.772	523.5
485.99	487.5
486.209	493.5
486.427	513.5
486.645	511.5
486.863	522.5
487.081	527.5
487.299	526.5
487.517	504.5
487.735	489.5
487.953	517.5
488.171	530.5
488.389	518.5
488.607	526.5
488.825	515.5
489.043	518.5
489.261	499.5
489.479	522.5
489.696	543.5
489.914	519.5
490.132	544.5
490.35	546.5
490.568	554.5
490.786	557.5
491.003	548.5
491.221	569.5
491.439	571.5
491.657	579.5
491.874	600.5
492.092	563.5
492.31	623.5
492.527	604.5
492.745	596.5
492.963	582.5
493.18	606.5
493.398	620.5
493.615	635.5
493.833	614.5
494.05	613.5
494.268	613.5
494.485	603.5
494.703	596.5
494.92	610.5
495.138	620.5
495.355	595.5
495.573	609.5
495.79	606.5
496.008	645.5
496.225	588.5
496.442	603.5
496.66	626.5
496.877	627.5
497.094	614.5
497.312	595.5
497.529	608.5
497.746	638.5
497.963	637.5
498.181	641.5
498.398	680.5
498.615	671.5
498.832	673.5
499.049	673.5
499.267	685.5
499.484	686.5
499.701	731.5
499.918	716.5
500.135	734.5
500.352	782.5
500.569	775.5
500.786	779.5
501.003	770.5
501.22	746.5
501.437	745.5
501.654	736.5
501.871	734.5
502.088	732.5
502.305	697.5
502.522	681.5
502.739	683.5
502.956	642.5
503.172	649.5
503.389	641.5
503.606	654.5
503.823	628.5
504.04	626.5
504.256	613.5
504.473	598.5
504.69	603.5
504.907	601.5
505.123	595.5
505.34	598.5
505.557	608.5
505.773	598.5
505.99	577.5
506.207	583.5
506.423	597.5
506.64	614.5
506.856	578.5
507.073	574.5
507.289	581.5
507.506	583.5
507.722	615.5
507.939	617.5
508.155	587.5
508.372	574.5
508.588	563.5
508.805	579.5
509.021	573.5
509.238	550.5
509.454	588.5
509.67	580.5
509.887	573.5
510.103	572.5
510.319	583.5
510.536	672.5
510.752	1233.5
510.968	965.5
511.184	618.5
511.401	548.5
511.617	566.5
511.833	561.5
512.049	561.5
512.265	531.5
512.481	536.5
512.698	543.5
512.914	566.5
513.13	538.5
513.346	538.5
513.562	540.5
513.778	533.5
513.994	550.5
514.21	568.5
514.426	595.5
514.642	637.5
514.858	638.5
515.074	723.5
515.29	893.5
515.506	1415.5
515.721	1112.5
515.937	693.5
516.153	639.5
516.369	580.5
516.585	581.5
516.801	578.5
517.016	564.5
517.232	562.5
517.448	547.5
517.664	533.5
517.879	564.5
518.095	546.5
518.311	574.5
518.527	547.5
518.742	568.5
518.958	536.5
519.173	547.5
519.389	538.5
519.605	535.5
519.82	539.5
