Data from 1965.PennyLincolnUp.Lamp.En5.5.200Scan.071719.P1._HRD10591_14-07-58-910.txt Node
Date: Thu Jul 18 14:07:58 EDT 2019
User: cochatt
Spectrometer: HR+D1059
Trigger mode: 1
Integration Time (sec): 1.000000E-1
Scans to average: 1
Electric dark correction enabled: true
Nonlinearity correction enabled: false
Boxcar width: 0
XAxis mode: Wavelengths
Number of Pixels in Spectrum: 2048
>>>>>Begin Spectral Data<<<<<
223.165	-21.81
223.4	-21.81
223.635	-21.81
223.869	-19.81
224.104	-11.81
224.338	-7.81
224.573	-4.81
224.808	-13.81
225.042	-10.81
225.277	-18.81
225.511	-5.81
225.746	4.19
225.98	6.19
226.215	5.19
226.449	9.19
226.683	32.19
226.918	21.19
227.152	37.19
227.387	29.19
227.621	28.19
227.856	46.19
228.09	41.19
228.324	51.19
228.559	62.19
228.793	62.19
229.027	86.19
229.262	79.19
229.496	86.19
229.73	103.19
229.964	125.19
230.199	101.19
230.433	107.19
230.667	115.19
230.901	100.19
231.136	95.19
231.37	114.19
231.604	106.19
231.838	111.19
232.072	88.19
232.306	87.19
232.541	104.19
232.775	97.19
233.009	106.19
233.243	101.19
233.477	102.19
233.711	89.19
233.945	103.19
234.179	116.19
234.413	93.19
234.647	91.19
234.881	90.19
235.115	100.19
235.349	104.19
235.583	116.19
235.817	105.19
236.051	109.19
236.285	102.19
236.519	106.19
236.753	124.19
236.987	133.19
237.221	145.19
237.455	190.19
237.689	138.19
237.922	118.19
238.156	115.19
238.39	104.19
238.624	95.19
238.858	99.19
239.091	108.19
239.325	107.19
239.559	104.19
239.793	99.19
240.027	112.19
240.26	119.19
240.494	133.19
240.728	136.19
240.961	134.19
241.195	116.19
241.429	120.19
241.662	106.19
241.896	111.19
242.13	117.19
242.363	123.19
242.597	119.19
242.83	119.19
243.064	109.19
243.298	108.19
243.531	102.19
243.765	104.19
243.998	107.19
244.232	111.19
244.465	129.19
244.699	124.19
244.932	120.19
245.166	120.19
245.399	133.19
245.633	131.19
245.866	122.19
246.099	124.19
246.333	130.19
246.566	130.19
246.8	129.19
247.033	122.19
247.266	126.19
247.5	126.19
247.733	137.19
247.966	153.19
248.2	158.19
248.433	150.19
248.666	156.19
248.899	159.19
249.133	156.19
249.366	156.19
249.599	155.19
249.832	155.19
250.066	147.19
250.299	162.19
250.532	154.19
250.765	163.19
250.998	163.19
251.231	170.19
251.465	164.19
251.698	157.19
251.931	171.19
252.164	151.19
252.397	154.19
252.63	172.19
252.863	158.19
253.096	173.19
253.329	154.19
253.562	169.19
253.795	162.19
254.028	167.19
254.261	186.19
254.494	184.19
254.727	191.19
254.96	203.19
255.193	217.19
255.426	197.19
255.659	193.19
255.892	178.19
256.124	182.19
256.357	191.19
256.59	176.19
256.823	187.19
257.056	174.19
257.289	178.19
257.521	175.19
257.754	157.19
257.987	152.19
258.22	172.19
258.452	167.19
258.685	185.19
258.918	169.19
259.151	164.19
259.383	179.19
259.616	158.19
259.849	170.19
260.081	168.19
260.314	195.19
260.547	201.19
260.779	199.19
261.012	191.19
261.244	184.19
261.477	192.19
261.71	184.19
261.942	198.19
262.175	194.19
262.407	186.19
262.64	188.19
262.872	170.19
263.105	168.19
263.337	182.19
263.57	166.19
263.802	186.19
264.035	172.19
264.267	171.19
264.499	179.19
264.732	184.19
264.964	172.19
265.197	169.19
265.429	170.19
265.661	169.19
265.894	174.19
266.126	172.19
266.358	165.19
266.591	182.19
266.823	185.19
267.055	194.19
267.287	170.19
267.52	180.19
267.752	183.19
267.984	171.19
268.216	186.19
268.448	174.19
268.681	194.19
268.913	185.19
269.145	187.19
269.377	214.19
269.609	203.19
269.841	222.19
270.073	210.19
270.306	219.19
270.538	246.19
270.77	220.19
271.002	218.19
271.234	209.19
271.466	211.19
271.698	254.19
271.93	248.19
272.162	250.19
272.394	226.19
272.626	219.19
272.858	231.19
273.09	207.19
273.322	220.19
273.553	208.19
273.785	203.19
274.017	211.19
274.249	193.19
274.481	215.19
274.713	195.19
274.945	223.19
275.176	206.19
275.408	224.19
275.64	203.19
275.872	195.19
276.104	197.19
276.335	208.19
276.567	216.19
276.799	230.19
277.031	230.19
277.262	252.19
277.494	247.19
277.726	219.19
277.957	217.19
278.189	208.19
278.421	204.19
278.652	218.19
278.884	206.19
279.115	218.19
279.347	206.19
279.579	207.19
279.81	210.19
280.042	213.19
280.273	201.19
280.505	208.19
280.736	217.19
280.968	214.19
281.199	217.19
281.431	203.19
281.662	215.19
281.894	206.19
282.125	215.19
282.356	228.19
282.588	230.19
282.819	221.19
283.051	223.19
283.282	216.19
283.513	220.19
283.745	209.19
283.976	219.19
284.207	212.19
284.439	217.19
284.67	228.19
284.901	221.19
285.132	208.19
285.364	234.19
285.595	207.19
285.826	213.19
286.057	219.19
286.288	221.19
286.52	231.19
286.751	237.19
286.982	215.19
287.213	214.19
287.444	202.19
287.675	229.19
287.906	218.19
288.138	227.19
288.369	223.19
288.6	230.19
288.831	235.19
289.062	220.19
289.293	214.19
289.524	235.19
289.755	223.19
289.986	226.19
290.217	233.19
290.448	229.19
290.679	221.19
290.91	219.19
291.141	222.19
291.371	222.19
291.602	235.19
291.833	230.19
292.064	207.19
292.295	239.19
292.526	228.19
292.757	231.19
292.987	226.19
293.218	220.19
293.449	217.19
293.68	230.19
293.91	231.19
294.141	229.19
294.372	207.19
294.603	226.19
294.833	244.19
295.064	224.19
295.295	227.19
295.525	221.19
295.756	228.19
295.987	242.19
296.217	257.19
296.448	263.19
296.679	244.19
296.909	232.19
297.14	238.19
297.37	257.19
297.601	219.19
297.831	224.19
298.062	245.19
298.292	239.19
298.523	232.19
298.753	223.19
298.984	220.19
299.214	238.19
299.445	244.19
299.675	254.19
299.905	246.19
300.136	255.19
300.366	254.19
300.597	255.19
300.827	236.19
301.057	236.19
301.288	265.19
301.518	250.19
301.748	253.19
301.979	258.19
302.209	249.19
302.439	248.19
302.669	249.19
302.9	252.19
303.13	262.19
303.36	256.19
303.59	265.19
303.82	262.19
304.051	258.19
304.281	270.19
304.511	248.19
304.741	239.19
304.971	256.19
305.201	261.19
305.431	256.19
305.661	247.19
305.891	252.19
306.121	262.19
306.352	261.19
306.582	270.19
306.812	259.19
307.042	262.19
307.272	250.19
307.502	270.19
307.731	244.19
307.961	252.19
308.191	264.19
308.421	262.19
308.651	278.19
308.881	244.19
309.111	262.19
309.341	268.19
309.571	283.19
309.8	276.19
310.03	304.19
310.26	271.19
310.49	310.19
310.72	300.19
310.949	317.19
311.179	306.19
311.409	291.19
311.639	280.19
311.868	301.19
312.098	296.19
312.328	311.19
312.557	302.19
312.787	332.19
313.017	315.19
313.246	299.19
313.476	295.19
313.706	292.19
313.935	277.19
314.165	284.19
314.394	306.19
314.624	322.19
314.853	290.19
315.083	299.19
315.312	296.19
315.542	302.19
315.771	284.19
316.001	286.19
316.23	286.19
316.46	301.19
316.689	272.19
316.919	296.19
317.148	321.19
317.377	283.19
317.607	301.19
317.836	276.19
318.065	279.19
318.295	291.19
318.524	283.19
318.753	292.19
318.983	290.19
319.212	275.19
319.441	314.19
319.67	318.19
319.9	296.19
320.129	280.19
320.358	307.19
320.587	301.19
320.816	325.19
321.046	312.19
321.275	322.19
321.504	298.19
321.733	311.19
321.962	321.19
322.191	330.19
322.42	342.19
322.649	360.19
322.878	349.19
323.108	363.19
323.337	366.19
323.566	376.19
323.795	404.19
324.024	450.19
324.253	532.19
324.482	771.19
324.71	1154.19
324.939	1612.19
325.168	1341.19
325.397	722.19
325.626	470.19
325.855	424.19
326.084	374.19
326.313	377.19
326.542	391.19
326.77	411.19
326.999	505.19
327.228	710.19
327.457	1005.19
327.686	1220.19
327.914	798.19
328.143	523.19
328.372	485.19
328.6	478.19
328.829	432.19
329.058	427.19
329.287	444.19
329.515	424.19
329.744	418.19
329.972	395.19
330.201	404.19
330.43	422.19
330.658	463.19
330.887	460.19
331.115	452.19
331.344	394.19
331.572	383.19
331.801	384.19
332.03	381.19
332.258	371.19
332.486	358.19
332.715	342.19
332.943	356.19
333.172	350.19
333.4	346.19
333.629	354.19
333.857	352.19
334.085	374.19
334.314	374.19
334.542	387.19
334.771	396.19
334.999	381.19
335.227	354.19
335.455	359.19
335.684	340.19
335.912	346.19
336.14	349.19
336.369	343.19
336.597	357.19
336.825	358.19
337.053	329.19
337.281	347.19
337.51	323.19
337.738	337.19
337.966	357.19
338.194	346.19
338.422	323.19
338.65	328.19
338.878	340.19
339.106	329.19
339.334	340.19
339.562	327.19
339.79	324.19
340.018	325.19
340.246	324.19
340.474	333.19
340.702	334.19
340.93	329.19
341.158	328.19
341.386	341.19
341.614	347.19
341.842	330.19
342.07	340.19
342.298	333.19
342.526	323.19
342.754	316.19
342.981	326.19
343.209	331.19
343.437	310.19
343.665	342.19
343.893	344.19
344.12	326.19
344.348	330.19
344.576	357.19
344.804	345.19
345.031	341.19
345.259	354.19
345.487	341.19
345.714	356.19
345.942	319.19
346.17	294.19
346.397	326.19
346.625	324.19
346.853	315.19
347.08	324.19
347.308	324.19
347.535	338.19
347.763	331.19
347.99	343.19
348.218	320.19
348.445	341.19
348.673	342.19
348.9	315.19
349.128	320.19
349.355	313.19
349.583	329.19
349.81	317.19
350.037	308.19
350.265	297.19
350.492	310.19
350.72	306.19
350.947	317.19
351.174	324.19
351.402	335.19
351.629	326.19
351.856	331.19
352.083	328.19
352.311	335.19
352.538	331.19
352.765	328.19
352.992	335.19
353.22	302.19
353.447	318.19
353.674	315.19
353.901	323.19
354.128	297.19
354.355	300.19
354.583	302.19
354.81	309.19
355.037	331.19
355.264	314.19
355.491	298.19
355.718	299.19
355.945	310.19
356.172	310.19
356.399	305.19
356.626	301.19
356.853	290.19
357.08	298.19
357.307	298.19
357.534	302.19
357.761	310.19
357.988	303.19
358.215	317.19
358.441	306.19
358.668	296.19
358.895	298.19
359.122	317.19
359.349	318.19
359.576	342.19
359.802	342.19
360.029	340.19
360.256	375.19
360.483	358.19
360.709	338.19
360.936	319.19
361.163	326.19
361.39	310.19
361.616	325.19
361.843	330.19
362.07	330.19
362.296	331.19
362.523	322.19
362.749	319.19
362.976	327.19
363.203	328.19
363.429	319.19
363.656	339.19
363.882	334.19
364.109	300.19
364.335	327.19
364.562	324.19
364.788	312.19
365.015	303.19
365.241	319.19
365.468	319.19
365.694	312.19
365.92	306.19
366.147	310.19
366.373	304.19
366.599	322.19
366.826	314.19
367.052	306.19
367.278	303.19
367.505	317.19
367.731	313.19
367.957	314.19
368.184	323.19
368.41	320.19
368.636	326.19
368.862	320.19
369.089	321.19
369.315	326.19
369.541	303.19
369.767	325.19
369.993	319.19
370.219	310.19
370.445	309.19
370.672	318.19
370.898	299.19
371.124	306.19
371.35	311.19
371.576	325.19
371.802	312.19
372.028	310.19
372.254	312.19
372.48	324.19
372.706	305.19
372.932	310.19
373.158	307.19
373.384	331.19
373.61	305.19
373.835	304.19
374.061	314.19
374.287	303.19
374.513	324.19
374.739	314.19
374.965	306.19
375.191	317.19
375.416	328.19
375.642	301.19
375.868	322.19
376.094	334.19
376.319	297.19
376.545	312.19
376.771	317.19
376.997	298.19
377.222	319.19
377.448	302.19
377.674	315.19
377.899	310.19
378.125	280.19
378.35	290.19
378.576	309.19
378.802	319.19
379.027	313.19
379.253	316.19
379.478	322.19
379.704	310.19
379.929	320.19
380.155	300.19
380.38	310.19
380.606	327.19
380.831	310.19
381.057	299.19
381.282	308.19
381.507	301.19
381.733	310.19
381.958	324.19
382.184	312.19
382.409	308.19
382.634	321.19
382.86	302.19
383.085	337.19
383.31	312.19
383.535	316.19
383.761	321.19
383.986	330.19
384.211	322.19
384.436	336.19
384.662	314.19
384.887	326.19
385.112	327.19
385.337	315.19
385.562	332.19
385.787	336.19
386.013	348.19
386.238	345.19
386.463	340.19
386.688	341.19
386.913	331.19
387.138	337.19
387.363	345.19
387.588	322.19
387.813	337.19
388.038	333.19
388.263	344.19
388.488	325.19
388.713	336.19
388.938	329.19
389.163	336.19
389.387	344.19
389.612	317.19
389.837	331.19
390.062	338.19
390.287	336.19
390.512	336.19
390.736	336.19
390.961	339.19
391.186	343.19
391.411	343.19
391.636	337.19
391.86	335.19
392.085	338.19
392.31	346.19
392.534	362.19
392.759	323.19
392.984	345.19
393.208	360.19
393.433	347.19
393.658	321.19
393.882	341.19
394.107	349.19
394.331	329.19
394.556	339.19
394.78	308.19
395.005	318.19
395.229	331.19
395.454	344.19
395.678	343.19
395.903	356.19
396.127	364.19
396.352	371.19
396.576	354.19
396.801	346.19
397.025	340.19
397.249	367.19
397.474	357.19
397.698	357.19
397.922	371.19
398.147	380.19
398.371	370.19
398.595	384.19
398.82	387.19
399.044	381.19
399.268	372.19
399.492	386.19
399.717	413.19
399.941	445.19
400.165	440.19
400.389	450.19
400.613	440.19
400.837	400.19
401.062	384.19
401.286	374.19
401.51	387.19
401.734	377.19
401.958	388.19
402.182	403.19
402.406	381.19
402.63	402.19
402.854	394.19
403.078	391.19
403.302	382.19
403.526	396.19
403.75	390.19
403.974	389.19
404.198	382.19
404.422	398.19
404.645	381.19
404.869	397.19
405.093	420.19
405.317	444.19
405.541	446.19
405.765	419.19
405.988	406.19
406.212	430.19
406.436	419.19
406.66	440.19
406.883	420.19
407.107	436.19
407.331	454.19
407.555	512.19
407.778	512.19
408.002	440.19
408.226	414.19
408.449	440.19
408.673	412.19
408.896	441.19
409.12	468.19
409.344	438.19
409.567	416.19
409.791	409.19
410.014	411.19
410.238	405.19
410.461	378.19
410.685	387.19
410.908	422.19
411.132	438.19
411.355	460.19
411.578	420.19
411.802	387.19
412.025	375.19
412.249	392.19
412.472	411.19
412.695	439.19
412.919	402.19
413.142	384.19
413.365	382.19
413.589	366.19
413.812	387.19
414.035	374.19
414.258	392.19
414.482	371.19
414.705	374.19
414.928	382.19
415.151	380.19
415.374	389.19
415.597	362.19
415.821	376.19
416.044	351.19
416.267	377.19
416.49	365.19
416.713	372.19
416.936	373.19
417.159	363.19
417.382	359.19
417.605	382.19
417.828	386.19
418.051	365.19
418.274	394.19
418.497	354.19
418.72	371.19
418.943	382.19
419.166	386.19
419.389	386.19
419.611	374.19
419.834	388.19
420.057	400.19
420.28	386.19
420.503	387.19
420.726	381.19
420.948	404.19
421.171	431.19
421.394	456.19
421.617	397.19
421.839	379.19
422.062	384.19
422.285	403.19
422.507	432.19
422.73	489.19
422.953	461.19
423.175	400.19
423.398	390.19
423.621	392.19
423.843	415.19
424.066	406.19
424.288	417.19
424.511	416.19
424.733	463.19
424.956	532.19
425.178	499.19
425.401	509.19
425.623	509.19
425.846	440.19
426.068	406.19
426.291	415.19
426.513	416.19
426.735	417.19
426.958	453.19
427.18	518.19
427.402	588.19
427.625	664.19
427.847	600.19
428.069	499.19
428.292	434.19
428.514	390.19
428.736	404.19
428.958	389.19
429.181	406.19
429.403	382.19
429.625	392.19
429.847	424.19
430.069	443.19
430.292	454.19
430.514	406.19
430.736	411.19
430.958	396.19
431.18	387.19
431.402	380.19
431.624	360.19
431.846	362.19
432.068	371.19
432.29	364.19
432.512	375.19
432.734	394.19
432.956	363.19
433.178	388.19
433.4	382.19
433.622	377.19
433.844	366.19
434.066	379.19
434.287	366.19
434.509	386.19
434.731	384.19
434.953	392.19
435.175	396.19
435.397	411.19
435.618	416.19
435.84	449.19
436.062	518.19
436.284	568.19
436.505	469.19
436.727	428.19
436.949	385.19
437.17	384.19
437.392	382.19
437.614	395.19
437.835	436.19
438.057	490.19
438.278	572.19
438.5	560.19
438.721	629.19
438.943	578.19
439.165	479.19
439.386	422.19
439.608	402.19
439.829	426.19
440.05	440.19
440.272	471.19
440.493	441.19
440.715	420.19
440.936	392.19
441.158	395.19
441.379	402.19
441.6	416.19
441.822	400.19
442.043	463.19
442.264	526.19
442.486	512.19
442.707	467.19
442.928	450.19
443.149	423.19
443.371	432.19
443.592	475.19
443.813	539.19
444.034	599.19
444.255	502.19
444.476	423.19
444.698	406.19
444.919	425.19
445.14	492.19
445.361	468.19
445.582	439.19
445.803	514.19
446.024	580.19
446.245	558.19
446.466	522.19
446.687	438.19
446.908	430.19
447.129	412.19
447.35	384.19
447.571	387.19
447.792	382.19
448.013	403.19
448.234	395.19
448.455	455.19
448.675	534.19
448.896	598.19
449.117	515.19
449.338	482.19
449.559	556.19
449.779	613.19
450	499.19
450.221	422.19
450.442	410.19
450.662	373.19
450.883	382.19
451.104	424.19
451.324	411.19
451.545	371.19
451.766	347.19
451.986	367.19
452.207	349.19
452.428	357.19
452.648	355.19
452.869	342.19
453.089	357.19
453.31	358.19
453.53	350.19
453.751	353.19
453.971	351.19
454.192	396.19
454.412	356.19
454.633	355.19
454.853	347.19
455.073	328.19
455.294	371.19
455.514	431.19
455.734	394.19
455.955	362.19
456.175	337.19
456.395	335.19
456.616	347.19
456.836	320.19
457.056	343.19
457.276	344.19
457.497	338.19
457.717	348.19
457.937	343.19
458.157	364.19
458.377	347.19
458.598	370.19
458.818	407.19
459.038	466.19
459.258	484.19
459.478	411.19
459.698	360.19
459.918	386.19
460.138	372.19
460.358	374.19
460.578	380.19
460.798	362.19
461.018	384.19
461.238	365.19
461.458	357.19
461.678	379.19
461.898	372.19
462.118	379.19
462.338	383.19
462.558	389.19
462.777	380.19
462.997	389.19
463.217	386.19
463.437	381.19
463.657	407.19
463.876	371.19
464.096	389.19
464.316	396.19
464.536	392.19
464.755	402.19
464.975	411.19
465.195	428.19
465.414	504.19
465.634	431.19
465.854	404.19
466.073	388.19
466.293	387.19
466.512	375.19
466.732	373.19
466.951	388.19
467.171	373.19
467.391	349.19
467.61	365.19
467.829	382.19
468.049	366.19
468.268	358.19
468.488	384.19
468.707	347.19
468.927	334.19
469.146	355.19
469.365	368.19
469.585	345.19
469.804	348.19
470.023	371.19
470.243	371.19
470.462	359.19
470.681	387.19
470.901	388.19
471.12	376.19
471.339	372.19
471.558	368.19
471.777	350.19
471.997	356.19
472.216	377.19
472.435	382.19
472.654	348.19
472.873	378.19
473.092	376.19
473.311	358.19
473.53	367.19
473.749	367.19
473.968	407.19
474.187	489.19
474.406	477.19
474.625	410.19
474.844	375.19
475.063	349.19
475.282	366.19
475.501	390.19
475.72	372.19
475.939	376.19
476.158	387.19
476.377	376.19
476.596	375.19
476.814	397.19
477.033	408.19
477.252	418.19
477.471	396.19
477.69	400.19
477.908	385.19
478.127	404.19
478.346	392.19
478.564	398.19
478.783	406.19
479.002	414.19
479.22	411.19
479.439	458.19
479.658	434.19
479.876	439.19
480.095	436.19
480.313	456.19
480.532	446.19
480.751	455.19
480.969	470.19
481.188	495.19
481.406	513.19
481.624	456.19
481.843	421.19
482.061	438.19
482.28	412.19
482.498	413.19
482.717	431.19
482.935	429.19
483.153	425.19
483.372	420.19
483.59	433.19
483.808	424.19
484.027	438.19
484.245	434.19
484.463	424.19
484.681	449.19
484.9	422.19
485.118	425.19
485.336	438.19
485.554	448.19
485.772	453.19
485.99	449.19
486.209	454.19
486.427	446.19
486.645	447.19
486.863	470.19
487.081	477.19
487.299	478.19
487.517	471.19
487.735	438.19
487.953	474.19
488.171	464.19
488.389	443.19
488.607	465.19
488.825	456.19
489.043	463.19
489.261	483.19
489.479	470.19
489.696	466.19
489.914	470.19
490.132	456.19
490.35	463.19
490.568	473.19
490.786	455.19
491.003	500.19
491.221	511.19
491.439	505.19
491.657	506.19
491.874	518.19
492.092	505.19
492.31	507.19
492.527	508.19
492.745	501.19
492.963	526.19
493.18	515.19
493.398	515.19
493.615	528.19
493.833	535.19
494.05	528.19
494.268	546.19
494.485	528.19
494.703	539.19
494.92	536.19
495.138	548.19
495.355	549.19
495.573	527.19
495.79	533.19
496.008	549.19
496.225	540.19
496.442	536.19
496.66	551.19
496.877	534.19
497.094	554.19
497.312	547.19
497.529	561.19
497.746	562.19
497.963	564.19
498.181	582.19
498.398	560.19
498.615	597.19
498.832	601.19
499.049	612.19
499.267	614.19
499.484	630.19
499.701	630.19
499.918	662.19
500.135	680.19
500.352	668.19
500.569	692.19
500.786	684.19
501.003	687.19
501.22	676.19
501.437	673.19
501.654	646.19
501.871	677.19
502.088	652.19
