Data from 1965.PennyLincolnUp.Lamp.En5.5.200Scan.071719.P1._HRD10591_14-08-47-911.txt Node
Date: Thu Jul 18 14:08:47 EDT 2019
User: cochatt
Spectrometer: HR+D1059
Trigger mode: 1
Integration Time (sec): 1.000000E-1
Scans to average: 1
Electric dark correction enabled: true
Nonlinearity correction enabled: false
Boxcar width: 0
XAxis mode: Wavelengths
Number of Pixels in Spectrum: 2048
>>>>>Begin Spectral Data<<<<<
223.165	-15.69
223.4	-15.69
223.635	-15.69
223.869	-11.69
224.104	-22.69
224.338	-9.69
224.573	-23.69
224.808	-11.69
225.042	-9.69
225.277	4.31
225.511	-6.69
225.746	-5.69
225.98	4.31
226.215	6.31
226.449	22.31
226.683	12.31
226.918	27.31
227.152	40.31
227.387	23.31
227.621	45.31
227.856	44.31
228.09	44.31
228.324	53.31
228.559	47.31
228.793	55.31
229.027	100.31
229.262	105.31
229.496	111.31
229.73	113.31
229.964	141.31
230.199	122.31
230.433	115.31
230.667	119.31
230.901	106.31
231.136	102.31
231.37	105.31
231.604	111.31
231.838	114.31
232.072	104.31
232.306	109.31
232.541	108.31
232.775	96.31
233.009	121.31
233.243	107.31
233.477	109.31
233.711	107.31
233.945	108.31
234.179	117.31
234.413	107.31
234.647	111.31
234.881	121.31
235.115	124.31
235.349	124.31
235.583	126.31
235.817	111.31
236.051	108.31
236.285	108.31
236.519	115.31
236.753	129.31
236.987	137.31
237.221	179.31
237.455	212.31
237.689	166.31
237.922	117.31
238.156	109.31
238.39	117.31
238.624	120.31
238.858	110.31
239.091	109.31
239.325	112.31
239.559	116.31
239.793	119.31
240.027	128.31
240.26	132.31
240.494	142.31
240.728	136.31
240.961	147.31
241.195	131.31
241.429	135.31
241.662	126.31
241.896	110.31
242.13	126.31
242.363	128.31
242.597	131.31
242.83	123.31
243.064	125.31
243.298	108.31
243.531	144.31
243.765	117.31
243.998	124.31
244.232	133.31
244.465	134.31
244.699	125.31
244.932	106.31
245.166	121.31
245.399	131.31
245.633	121.31
245.866	141.31
246.099	132.31
246.333	125.31
246.566	123.31
246.8	140.31
247.033	147.31
247.266	143.31
247.5	134.31
247.733	148.31
247.966	151.31
248.2	148.31
248.433	160.31
248.666	144.31
248.899	161.31
249.133	191.31
249.366	182.31
249.599	178.31
249.832	175.31
250.066	154.31
250.299	171.31
250.532	174.31
250.765	151.31
250.998	191.31
251.231	202.31
251.465	183.31
251.698	169.31
251.931	171.31
252.164	175.31
252.397	178.31
252.63	171.31
252.863	192.31
253.096	191.31
253.329	184.31
253.562	201.31
253.795	193.31
254.028	169.31
254.261	185.31
254.494	187.31
254.727	206.31
254.96	255.31
255.193	218.31
255.426	225.31
255.659	202.31
255.892	195.31
256.124	206.31
256.357	204.31
256.59	199.31
256.823	178.31
257.056	198.31
257.289	199.31
257.521	182.31
257.754	193.31
257.987	177.31
258.22	178.31
258.452	188.31
258.685	193.31
258.918	187.31
259.151	187.31
259.383	186.31
259.616	199.31
259.849	188.31
260.081	214.31
260.314	212.31
260.547	218.31
260.779	214.31
261.012	212.31
261.244	191.31
261.477	176.31
261.71	187.31
261.942	198.31
262.175	207.31
262.407	215.31
262.64	181.31
262.872	171.31
263.105	185.31
263.337	177.31
263.57	179.31
263.802	176.31
264.035	183.31
264.267	200.31
264.499	181.31
264.732	168.31
264.964	179.31
265.197	182.31
265.429	179.31
265.661	200.31
265.894	176.31
266.126	191.31
266.358	179.31
266.591	175.31
266.823	193.31
267.055	191.31
267.287	198.31
267.52	189.31
267.752	197.31
267.984	185.31
268.216	204.31
268.448	198.31
268.681	208.31
268.913	224.31
269.145	219.31
269.377	247.31
269.609	221.31
269.841	229.31
270.073	229.31
270.306	232.31
270.538	264.31
270.77	266.31
271.002	277.31
271.234	267.31
271.466	262.31
271.698	267.31
271.93	261.31
272.162	283.31
272.394	299.31
272.626	244.31
272.858	256.31
273.09	250.31
273.322	230.31
273.553	228.31
273.785	238.31
274.017	212.31
274.249	230.31
274.481	221.31
274.713	219.31
274.945	225.31
275.176	231.31
275.408	227.31
275.64	209.31
275.872	223.31
276.104	239.31
276.335	228.31
276.567	245.31
276.799	256.31
277.031	260.31
277.262	272.31
277.494	270.31
277.726	273.31
277.957	248.31
278.189	230.31
278.421	237.31
278.652	220.31
278.884	233.31
279.115	226.31
279.347	213.31
279.579	217.31
279.81	214.31
280.042	221.31
280.273	215.31
280.505	239.31
280.736	216.31
280.968	222.31
281.199	224.31
281.431	228.31
281.662	226.31
281.894	209.31
282.125	227.31
282.356	245.31
282.588	267.31
282.819	274.31
283.051	245.31
283.282	238.31
283.513	248.31
283.745	234.31
283.976	246.31
284.207	245.31
284.439	234.31
284.67	217.31
284.901	231.31
285.132	228.31
285.364	220.31
285.595	234.31
285.826	220.31
286.057	220.31
286.288	228.31
286.52	247.31
286.751	253.31
286.982	246.31
287.213	221.31
287.444	243.31
287.675	244.31
287.906	239.31
288.138	265.31
288.369	258.31
288.6	254.31
288.831	228.31
289.062	232.31
289.293	264.31
289.524	257.31
289.755	263.31
289.986	225.31
290.217	259.31
290.448	225.31
290.679	243.31
290.91	239.31
291.141	224.31
291.371	252.31
291.602	269.31
291.833	234.31
292.064	230.31
292.295	246.31
292.526	230.31
292.757	243.31
292.987	232.31
293.218	236.31
293.449	246.31
293.68	237.31
293.91	256.31
294.141	243.31
294.372	229.31
294.603	237.31
294.833	248.31
295.064	221.31
295.295	232.31
295.525	273.31
295.756	245.31
295.987	267.31
296.217	275.31
296.448	276.31
296.679	270.31
296.909	270.31
297.14	252.31
297.37	248.31
297.601	269.31
297.831	247.31
298.062	263.31
298.292	247.31
298.523	265.31
298.753	247.31
298.984	272.31
299.214	262.31
299.445	260.31
299.675	273.31
299.905	254.31
300.136	275.31
300.366	269.31
300.597	261.31
300.827	264.31
301.057	270.31
301.288	304.31
301.518	262.31
301.748	259.31
301.979	264.31
302.209	286.31
302.439	281.31
302.669	272.31
302.9	262.31
303.13	286.31
303.36	275.31
303.59	283.31
303.82	287.31
304.051	284.31
304.281	270.31
304.511	281.31
304.741	268.31
304.971	283.31
305.201	291.31
305.431	268.31
305.661	282.31
305.891	278.31
306.121	283.31
306.352	287.31
306.582	291.31
306.812	291.31
307.042	269.31
307.272	276.31
307.502	276.31
307.731	283.31
307.961	280.31
308.191	273.31
308.421	278.31
308.651	304.31
308.881	274.31
309.111	301.31
309.341	304.31
309.571	319.31
309.8	313.31
310.03	310.31
310.26	327.31
310.49	319.31
310.72	317.31
310.949	321.31
311.179	348.31
311.409	319.31
311.639	335.31
311.868	313.31
312.098	325.31
312.328	337.31
312.557	358.31
312.787	352.31
313.017	366.31
313.246	341.31
313.476	324.31
313.706	308.31
313.935	345.31
314.165	339.31
314.394	342.31
314.624	343.31
314.853	331.31
315.083	317.31
315.312	321.31
315.542	305.31
315.771	312.31
316.001	317.31
316.23	307.31
316.46	316.31
316.689	323.31
316.919	325.31
317.148	348.31
317.377	346.31
317.607	320.31
317.836	337.31
318.065	314.31
318.295	317.31
318.524	324.31
318.753	335.31
318.983	346.31
319.212	315.31
319.441	340.31
319.67	340.31
319.9	349.31
320.129	340.31
320.358	326.31
320.587	335.31
320.816	339.31
321.046	347.31
321.275	328.31
321.504	334.31
321.733	349.31
321.962	344.31
322.191	347.31
322.42	392.31
322.649	395.31
322.878	390.31
323.108	387.31
323.337	408.31
323.566	433.31
323.795	479.31
324.024	517.31
324.253	617.31
324.482	895.31
324.71	1416.31
324.939	1903.31
325.168	1552.31
325.397	864.31
325.626	588.31
325.855	483.31
326.084	483.31
326.313	460.31
326.542	442.31
326.77	505.31
326.999	580.31
327.228	793.31
327.457	1190.31
327.686	1367.31
327.914	953.31
328.143	639.31
328.372	553.31
328.6	534.31
328.829	499.31
329.058	503.31
329.287	495.31
329.515	460.31
329.744	441.31
329.972	447.31
330.201	449.31
330.43	489.31
330.658	518.31
330.887	535.31
331.115	506.31
331.344	443.31
331.572	412.31
331.801	423.31
332.03	405.31
332.258	397.31
332.486	390.31
332.715	395.31
332.943	383.31
333.172	364.31
333.4	365.31
333.629	397.31
333.857	416.31
334.085	427.31
334.314	424.31
334.542	459.31
334.771	477.31
334.999	419.31
335.227	407.31
335.455	393.31
335.684	374.31
335.912	371.31
336.14	359.31
336.369	349.31
336.597	372.31
336.825	363.31
337.053	376.31
337.281	373.31
337.51	356.31
337.738	387.31
337.966	367.31
338.194	383.31
338.422	357.31
338.65	347.31
338.878	347.31
339.106	353.31
339.334	355.31
339.562	341.31
339.79	373.31
340.018	355.31
340.246	349.31
340.474	374.31
340.702	362.31
340.93	348.31
341.158	361.31
341.386	350.31
341.614	355.31
341.842	363.31
342.07	363.31
342.298	362.31
342.526	363.31
342.754	343.31
342.981	353.31
343.209	343.31
343.437	347.31
343.665	355.31
343.893	343.31
344.12	356.31
344.348	359.31
344.576	364.31
344.804	373.31
345.031	379.31
345.259	403.31
345.487	360.31
345.714	361.31
345.942	358.31
346.17	358.31
346.397	342.31
346.625	338.31
346.853	362.31
347.08	342.31
347.308	361.31
347.535	349.31
347.763	364.31
347.99	352.31
348.218	371.31
348.445	359.31
348.673	381.31
348.9	349.31
349.128	355.31
349.355	330.31
349.583	350.31
349.81	330.31
350.037	334.31
350.265	329.31
350.492	345.31
350.72	350.31
350.947	342.31
351.174	360.31
351.402	352.31
351.629	365.31
351.856	344.31
352.083	363.31
352.311	375.31
352.538	363.31
352.765	373.31
352.992	356.31
353.22	360.31
353.447	359.31
353.674	355.31
353.901	344.31
354.128	331.31
354.355	321.31
354.583	330.31
354.81	305.31
355.037	340.31
355.264	333.31
355.491	318.31
355.718	328.31
355.945	340.31
356.172	319.31
356.399	306.31
356.626	328.31
356.853	328.31
357.08	309.31
357.307	325.31
357.534	335.31
357.761	301.31
357.988	343.31
358.215	332.31
358.441	323.31
358.668	335.31
358.895	318.31
359.122	334.31
359.349	341.31
359.576	359.31
359.802	380.31
360.029	377.31
360.256	405.31
360.483	411.31
360.709	371.31
360.936	370.31
361.163	361.31
361.39	352.31
361.616	351.31
361.843	352.31
362.07	368.31
362.296	366.31
362.523	352.31
362.749	345.31
362.976	339.31
363.203	348.31
363.429	360.31
363.656	340.31
363.882	319.31
364.109	331.31
364.335	369.31
364.562	337.31
364.788	349.31
365.015	346.31
365.241	354.31
365.468	343.31
365.694	334.31
365.92	357.31
366.147	336.31
366.373	349.31
366.599	336.31
366.826	343.31
367.052	330.31
367.278	303.31
367.505	339.31
367.731	349.31
367.957	338.31
368.184	336.31
368.41	339.31
368.636	361.31
368.862	362.31
369.089	359.31
369.315	341.31
369.541	339.31
369.767	336.31
369.993	341.31
370.219	325.31
370.445	339.31
370.672	331.31
370.898	345.31
371.124	334.31
371.35	325.31
371.576	325.31
371.802	316.31
372.028	335.31
372.254	345.31
372.48	331.31
372.706	332.31
372.932	342.31
373.158	343.31
373.384	325.31
373.61	336.31
373.835	327.31
374.061	307.31
374.287	337.31
374.513	324.31
374.739	339.31
374.965	335.31
375.191	346.31
375.416	354.31
375.642	331.31
375.868	339.31
376.094	326.31
376.319	326.31
376.545	329.31
376.771	336.31
376.997	337.31
377.222	324.31
377.448	343.31
377.674	338.31
377.899	336.31
378.125	322.31
378.35	335.31
378.576	325.31
378.802	309.31
379.027	335.31
379.253	339.31
379.478	337.31
379.704	332.31
379.929	338.31
380.155	323.31
380.38	326.31
380.606	337.31
380.831	334.31
381.057	335.31
381.282	333.31
381.507	339.31
381.733	324.31
381.958	332.31
382.184	342.31
382.409	327.31
382.634	349.31
382.86	338.31
383.085	335.31
383.31	334.31
383.535	339.31
383.761	349.31
383.986	356.31
384.211	347.31
384.436	345.31
384.662	364.31
384.887	356.31
385.112	346.31
385.337	339.31
385.562	349.31
385.787	363.31
386.013	360.31
386.238	380.31
386.463	359.31
386.688	364.31
386.913	345.31
387.138	373.31
387.363	348.31
387.588	353.31
387.813	351.31
388.038	327.31
388.263	354.31
388.488	380.31
388.713	354.31
388.938	340.31
389.163	348.31
389.387	357.31
389.612	342.31
389.837	361.31
390.062	360.31
390.287	344.31
390.512	331.31
390.736	349.31
390.961	363.31
391.186	372.31
391.411	364.31
391.636	353.31
391.86	359.31
392.085	363.31
392.31	351.31
392.534	358.31
392.759	355.31
392.984	358.31
393.208	355.31
393.433	359.31
393.658	364.31
393.882	359.31
394.107	352.31
394.331	356.31
394.556	349.31
394.78	346.31
395.005	359.31
395.229	377.31
395.454	361.31
395.678	343.31
395.903	395.31
396.127	369.31
396.352	385.31
396.576	379.31
396.801	361.31
397.025	356.31
397.249	366.31
397.474	382.31
397.698	371.31
397.922	391.31
398.147	392.31
398.371	397.31
398.595	404.31
398.82	402.31
399.044	419.31
399.268	405.31
399.492	415.31
399.717	465.31
399.941	469.31
400.165	463.31
400.389	487.31
400.613	450.31
400.837	428.31
401.062	416.31
401.286	397.31
401.51	382.31
401.734	405.31
401.958	402.31
402.182	392.31
402.406	400.31
402.63	418.31
402.854	429.31
403.078	433.31
403.302	410.31
403.526	408.31
403.75	410.31
403.974	409.31
404.198	407.31
404.422	423.31
404.645	399.31
404.869	413.31
405.093	430.31
405.317	491.31
405.541	496.31
405.765	444.31
405.988	465.31
406.212	453.31
406.436	490.31
406.66	465.31
406.883	469.31
407.107	478.31
407.331	508.31
407.555	539.31
407.778	555.31
408.002	513.31
408.226	475.31
408.449	460.31
408.673	465.31
408.896	458.31
409.12	514.31
409.344	491.31
409.567	426.31
409.791	442.31
410.014	433.31
410.238	399.31
410.461	426.31
410.685	409.31
410.908	441.31
411.132	447.31
411.355	490.31
411.578	464.31
411.802	419.31
412.025	408.31
412.249	428.31
412.472	452.31
412.695	471.31
412.919	464.31
413.142	427.31
413.365	419.31
413.589	415.31
413.812	395.31
414.035	408.31
414.258	407.31
414.482	399.31
414.705	398.31
414.928	408.31
415.151	387.31
415.374	389.31
415.597	386.31
415.821	384.31
416.044	383.31
416.267	411.31
416.49	395.31
416.713	396.31
416.936	390.31
417.159	385.31
417.382	391.31
417.605	411.31
417.828	396.31
418.051	415.31
418.274	411.31
418.497	385.31
418.72	380.31
418.943	387.31
419.166	413.31
419.389	418.31
419.611	431.31
419.834	394.31
420.057	399.31
420.28	402.31
420.503	427.31
420.726	398.31
420.948	421.31
421.171	457.31
421.394	493.31
421.617	443.31
421.839	411.31
422.062	429.31
422.285	416.31
422.507	451.31
422.73	523.31
422.953	503.31
423.175	446.31
423.398	449.31
423.621	427.31
423.843	451.31
424.066	440.31
424.288	440.31
424.511	472.31
424.733	509.31
424.956	559.31
425.178	540.31
425.401	523.31
425.623	539.31
425.846	479.31
426.068	465.31
426.291	461.31
426.513	471.31
426.735	465.31
426.958	467.31
427.18	556.31
427.402	641.31
427.625	698.31
427.847	674.31
428.069	540.31
428.292	486.31
428.514	447.31
428.736	429.31
428.958	440.31
429.181	428.31
429.403	425.31
429.625	431.31
429.847	448.31
430.069	471.31
430.292	480.31
430.514	409.31
430.736	423.31
430.958	402.31
431.18	417.31
431.402	399.31
431.624	400.31
431.846	388.31
432.068	386.31
432.29	395.31
432.512	388.31
432.734	407.31
432.956	392.31
433.178	400.31
433.4	416.31
433.622	407.31
433.844	392.31
434.066	401.31
434.287	414.31
434.509	411.31
434.731	396.31
434.953	400.31
435.175	427.31
435.397	432.31
435.618	454.31
435.84	499.31
436.062	551.31
436.284	618.31
436.505	492.31
436.727	457.31
436.949	419.31
437.17	429.31
437.392	431.31
437.614	417.31
437.835	462.31
438.057	569.31
438.278	635.31
438.5	619.31
438.721	666.31
438.943	639.31
439.165	515.31
439.386	474.31
439.608	492.31
439.829	467.31
440.05	496.31
440.272	529.31
440.493	500.31
440.715	438.31
440.936	423.31
441.158	432.31
441.379	416.31
441.6	431.31
441.822	452.31
442.043	488.31
442.264	568.31
442.486	574.31
442.707	505.31
442.928	457.31
443.149	486.31
443.371	479.31
443.592	513.31
443.813	621.31
444.034	643.31
444.255	530.31
444.476	467.31
444.698	453.31
444.919	463.31
445.14	529.31
445.361	475.31
445.582	487.31
445.803	559.31
446.024	634.31
446.245	619.31
446.466	576.31
446.687	479.31
446.908	470.31
447.129	452.31
447.35	429.31
447.571	446.31
447.792	411.31
448.013	428.31
448.234	445.31
448.455	485.31
448.675	584.31
448.896	663.31
449.117	553.31
449.338	548.31
449.559	611.31
449.779	696.31
450	545.31
450.221	463.31
450.442	435.31
450.662	437.31
450.883	436.31
451.104	456.31
451.324	445.31
451.545	418.31
451.766	405.31
451.986	376.31
452.207	381.31
452.428	391.31
452.648	373.31
452.869	372.31
453.089	398.31
453.31	404.31
453.53	381.31
453.751	404.31
453.971	406.31
454.192	412.31
454.412	394.31
454.633	369.31
454.853	392.31
455.073	373.31
455.294	392.31
455.514	459.31
455.734	467.31
455.955	389.31
456.175	357.31
456.395	367.31
456.616	353.31
456.836	367.31
457.056	364.31
457.276	353.31
457.497	368.31
457.717	339.31
457.937	374.31
458.157	357.31
458.377	392.31
458.598	389.31
458.818	453.31
459.038	505.31
459.258	497.31
459.478	446.31
459.698	405.31
459.918	396.31
460.138	397.31
460.358	402.31
460.578	399.31
460.798	405.31
461.018	391.31
461.238	404.31
461.458	399.31
461.678	391.31
461.898	409.31
462.118	404.31
462.338	386.31
462.558	420.31
462.777	434.31
462.997	427.31
463.217	419.31
463.437	425.31
463.657	407.31
463.876	400.31
464.096	409.31
464.316	416.31
464.536	440.31
464.755	426.31
464.975	457.31
465.195	476.31
465.414	548.31
465.634	476.31
465.854	431.31
466.073	405.31
466.293	413.31
466.512	396.31
466.732	397.31
466.951	415.31
467.171	376.31
467.391	406.31
467.61	410.31
467.829	442.31
468.049	394.31
468.268	402.31
468.488	400.31
468.707	380.31
468.927	373.31
469.146	398.31
469.365	413.31
469.585	379.31
469.804	388.31
470.023	397.31
470.243	369.31
470.462	386.31
470.681	437.31
470.901	418.31
471.12	398.31
471.339	412.31
471.558	391.31
471.777	393.31
471.997	395.31
472.216	389.31
472.435	438.31
472.654	407.31
472.873	383.31
473.092	385.31
473.311	398.31
473.53	398.31
473.749	404.31
473.968	447.31
474.187	529.31
474.406	521.31
474.625	454.31
474.844	396.31
475.063	373.31
475.282	402.31
475.501	398.31
475.72	399.31
475.939	393.31
476.158	406.31
476.377	389.31
476.596	405.31
476.814	407.31
477.033	409.31
477.252	429.31
477.471	416.31
477.69	418.31
477.908	419.31
478.127	423.31
478.346	424.31
478.564	424.31
478.783	430.31
479.002	443.31
479.22	460.31
479.439	468.31
479.658	471.31
479.876	445.31
480.095	485.31
480.313	506.31
480.532	487.31
480.751	475.31
480.969	482.31
481.188	526.31
481.406	598.31
481.624	523.31
481.843	495.31
482.061	471.31
482.28	471.31
482.498	459.31
482.717	470.31
482.935	458.31
483.153	442.31
483.372	474.31
483.59	464.31
483.808	476.31
484.027	451.31
484.245	449.31
484.463	471.31
484.681	459.31
484.9	463.31
485.118	488.31
485.336	478.31
485.554	492.31
485.772	467.31
485.99	488.31
486.209	496.31
486.427	479.31
486.645	478.31
486.863	521.31
487.081	488.31
487.299	512.31
487.517	516.31
487.735	482.31
487.953	500.31
488.171	500.31
488.389	482.31
488.607	475.31
488.825	518.31
489.043	493.31
489.261	477.31
489.479	493.31
489.696	513.31
489.914	485.31
490.132	531.31
490.35	510.31
490.568	521.31
490.786	528.31
491.003	523.31
491.221	563.31
491.439	547.31
491.657	541.31
491.874	567.31
492.092	529.31
492.31	569.31
492.527	547.31
492.745	568.31
492.963	573.31
493.18	577.31
493.398	600.31
493.615	576.31
493.833	580.31
494.05	582.31
494.268	570.31
494.485	560.31
494.703	589.31
494.92	589.31
495.138	583.31
495.355	584.31
495.573	588.31
495.79	584.31
496.008	589.31
496.225	592.31
496.442	581.31
496.66	601.31
496.877	584.31
497.094	608.31
497.312	592.31
497.529	593.31
497.746	629.31
497.963	578.31
498.181	635.31
498.398	641.31
498.615	651.31
498.832	638.31
499.049	647.31
499.267	643.31
499.484	649.31
499.701	696.31
499.918	701.31
500.135	740.31
500.352	744.31
500.569	713.31
500.786	748.31
501.003	724.31
501.22	741.31
501.437	714.31
501.654	723.31
501.871	707.31
