Data from 1965.PennyLincolnUp.Lamp.En5.5.200Scan.071719.P1._HRD10591_14-07-59-910.txt Node
Date: Thu Jul 18 14:07:59 EDT 2019
User: cochatt
Spectrometer: HR+D1059
Trigger mode: 1
Integration Time (sec): 1.000000E-1
Scans to average: 1
Electric dark correction enabled: true
Nonlinearity correction enabled: false
Boxcar width: 0
XAxis mode: Wavelengths
Number of Pixels in Spectrum: 2048
>>>>>Begin Spectral Data<<<<<
223.165	-13.38
223.4	-13.38
223.635	-13.38
223.869	-18.38
224.104	-15.38
224.338	-4.38
224.573	-9.38
224.808	-1.38
225.042	-5.38
225.277	9.62
225.511	-4.38
225.746	-10.38
225.98	4.62
226.215	6.62
226.449	4.62
226.683	20.62
226.918	18.62
227.152	17.62
227.387	35.62
227.621	30.62
227.856	35.62
228.09	47.62
228.324	42.62
228.559	61.62
228.793	65.62
229.027	82.62
229.262	96.62
229.496	100.62
229.73	114.62
229.964	128.62
230.199	132.62
230.433	104.62
230.667	115.62
230.901	104.62
231.136	90.62
231.37	107.62
231.604	120.62
231.838	112.62
232.072	98.62
232.306	125.62
232.541	106.62
232.775	109.62
233.009	98.62
233.243	109.62
233.477	95.62
233.711	87.62
233.945	110.62
234.179	105.62
234.413	109.62
234.647	110.62
234.881	95.62
235.115	111.62
235.349	111.62
235.583	110.62
235.817	109.62
236.051	104.62
236.285	115.62
236.519	108.62
236.753	114.62
236.987	128.62
237.221	156.62
237.455	186.62
237.689	150.62
237.922	107.62
238.156	98.62
238.39	119.62
238.624	117.62
238.858	117.62
239.091	114.62
239.325	112.62
239.559	97.62
239.793	113.62
240.027	126.62
240.26	133.62
240.494	130.62
240.728	128.62
240.961	129.62
241.195	121.62
241.429	119.62
241.662	114.62
241.896	103.62
242.13	116.62
242.363	120.62
242.597	114.62
242.83	122.62
243.064	114.62
243.298	114.62
243.531	119.62
243.765	123.62
243.998	128.62
244.232	127.62
244.465	123.62
244.699	127.62
244.932	117.62
245.166	122.62
245.399	126.62
245.633	119.62
245.866	118.62
246.099	126.62
246.333	140.62
246.566	131.62
246.8	149.62
247.033	128.62
247.266	143.62
247.5	143.62
247.733	153.62
247.966	155.62
248.2	148.62
248.433	145.62
248.666	143.62
248.899	148.62
249.133	158.62
249.366	171.62
249.599	166.62
249.832	160.62
250.066	155.62
250.299	147.62
250.532	151.62
250.765	154.62
250.998	176.62
251.231	170.62
251.465	169.62
251.698	169.62
251.931	157.62
252.164	148.62
252.397	172.62
252.63	160.62
252.863	165.62
253.096	183.62
253.329	180.62
253.562	186.62
253.795	176.62
254.028	171.62
254.261	167.62
254.494	194.62
254.727	212.62
254.96	221.62
255.193	207.62
255.426	202.62
255.659	188.62
255.892	194.62
256.124	174.62
256.357	180.62
256.59	183.62
256.823	184.62
257.056	187.62
257.289	163.62
257.521	163.62
257.754	196.62
257.987	182.62
258.22	195.62
258.452	159.62
258.685	180.62
258.918	166.62
259.151	181.62
259.383	167.62
259.616	180.62
259.849	190.62
260.081	203.62
260.314	200.62
260.547	197.62
260.779	182.62
261.012	196.62
261.244	180.62
261.477	185.62
261.71	167.62
261.942	183.62
262.175	195.62
262.407	182.62
262.64	170.62
262.872	166.62
263.105	177.62
263.337	159.62
263.57	163.62
263.802	176.62
264.035	175.62
264.267	175.62
264.499	166.62
264.732	188.62
264.964	188.62
265.197	165.62
265.429	184.62
265.661	175.62
265.894	188.62
266.126	180.62
266.358	185.62
266.591	168.62
266.823	204.62
267.055	196.62
267.287	194.62
267.52	180.62
267.752	191.62
267.984	183.62
268.216	185.62
268.448	188.62
268.681	182.62
268.913	198.62
269.145	208.62
269.377	206.62
269.609	220.62
269.841	223.62
270.073	221.62
270.306	220.62
270.538	233.62
270.77	260.62
271.002	229.62
271.234	221.62
271.466	258.62
271.698	221.62
271.93	249.62
272.162	265.62
272.394	259.62
272.626	249.62
272.858	222.62
273.09	234.62
273.322	220.62
273.553	206.62
273.785	208.62
274.017	215.62
274.249	215.62
274.481	215.62
274.713	195.62
274.945	226.62
275.176	213.62
275.408	217.62
275.64	203.62
275.872	211.62
276.104	228.62
276.335	195.62
276.567	237.62
276.799	218.62
277.031	238.62
277.262	260.62
277.494	249.62
277.726	258.62
277.957	217.62
278.189	228.62
278.421	208.62
278.652	200.62
278.884	208.62
279.115	208.62
279.347	224.62
279.579	206.62
279.81	216.62
280.042	207.62
280.273	222.62
280.505	216.62
280.736	213.62
280.968	204.62
281.199	219.62
281.431	233.62
281.662	220.62
281.894	211.62
282.125	216.62
282.356	234.62
282.588	224.62
282.819	260.62
283.051	231.62
283.282	210.62
283.513	216.62
283.745	227.62
283.976	225.62
284.207	226.62
284.439	224.62
284.67	228.62
284.901	229.62
285.132	212.62
285.364	187.62
285.595	234.62
285.826	204.62
286.057	208.62
286.288	223.62
286.52	226.62
286.751	226.62
286.982	219.62
287.213	228.62
287.444	235.62
287.675	244.62
287.906	226.62
288.138	237.62
288.369	229.62
288.6	245.62
288.831	228.62
289.062	243.62
289.293	237.62
289.524	235.62
289.755	223.62
289.986	226.62
290.217	226.62
290.448	220.62
290.679	225.62
290.91	236.62
291.141	208.62
291.371	224.62
291.602	240.62
291.833	226.62
292.064	236.62
292.295	231.62
292.526	216.62
292.757	224.62
292.987	223.62
293.218	209.62
293.449	250.62
293.68	224.62
293.91	216.62
294.141	233.62
294.372	232.62
294.603	239.62
294.833	243.62
295.064	239.62
295.295	234.62
295.525	246.62
295.756	237.62
295.987	242.62
296.217	268.62
296.448	247.62
296.679	236.62
296.909	224.62
297.14	222.62
297.37	236.62
297.601	235.62
297.831	239.62
298.062	232.62
298.292	244.62
298.523	230.62
298.753	222.62
298.984	244.62
299.214	229.62
299.445	253.62
299.675	222.62
299.905	248.62
300.136	258.62
300.366	260.62
300.597	241.62
300.827	255.62
301.057	245.62
301.288	260.62
301.518	264.62
301.748	236.62
301.979	258.62
302.209	258.62
302.439	251.62
302.669	251.62
302.9	238.62
303.13	276.62
303.36	244.62
303.59	250.62
303.82	263.62
304.051	266.62
304.281	241.62
304.511	254.62
304.741	256.62
304.971	258.62
305.201	270.62
305.431	263.62
305.661	258.62
305.891	250.62
306.121	258.62
306.352	272.62
306.582	262.62
306.812	267.62
307.042	252.62
307.272	283.62
307.502	260.62
307.731	253.62
307.961	274.62
308.191	269.62
308.421	258.62
308.651	260.62
308.881	274.62
309.111	283.62
309.341	270.62
309.571	297.62
309.8	301.62
310.03	299.62
310.26	296.62
310.49	301.62
310.72	310.62
310.949	281.62
311.179	296.62
311.409	289.62
311.639	308.62
311.868	298.62
312.098	304.62
312.328	307.62
312.557	313.62
312.787	311.62
313.017	322.62
313.246	312.62
313.476	280.62
313.706	296.62
313.935	306.62
314.165	322.62
314.394	327.62
314.624	330.62
314.853	310.62
315.083	306.62
315.312	299.62
315.542	312.62
315.771	294.62
316.001	309.62
316.23	304.62
316.46	283.62
316.689	310.62
316.919	292.62
317.148	302.62
317.377	302.62
317.607	317.62
317.836	309.62
318.065	326.62
318.295	301.62
318.524	283.62
318.753	287.62
318.983	294.62
319.212	296.62
319.441	288.62
319.67	319.62
319.9	296.62
320.129	295.62
320.358	298.62
320.587	281.62
320.816	322.62
321.046	322.62
321.275	309.62
321.504	328.62
321.733	331.62
321.962	345.62
322.191	328.62
322.42	344.62
322.649	347.62
322.878	360.62
323.108	348.62
323.337	371.62
323.566	392.62
323.795	414.62
324.024	440.62
324.253	556.62
324.482	795.62
324.71	1178.62
324.939	1661.62
325.168	1409.62
325.397	721.62
325.626	504.62
325.855	430.62
326.084	420.62
326.313	384.62
326.542	403.62
326.77	423.62
326.999	533.62
327.228	703.62
327.457	983.62
327.686	1206.62
327.914	829.62
328.143	550.62
328.372	490.62
328.6	452.62
328.829	444.62
329.058	446.62
329.287	473.62
329.515	425.62
329.744	414.62
329.972	408.62
330.201	403.62
330.43	424.62
330.658	455.62
330.887	470.62
331.115	477.62
331.344	404.62
331.572	390.62
331.801	372.62
332.03	392.62
332.258	362.62
332.486	346.62
332.715	360.62
332.943	358.62
333.172	328.62
333.4	348.62
333.629	351.62
333.857	358.62
334.085	360.62
334.314	385.62
334.542	397.62
334.771	408.62
334.999	368.62
335.227	379.62
335.455	354.62
335.684	353.62
335.912	351.62
336.14	356.62
336.369	329.62
336.597	347.62
336.825	374.62
337.053	364.62
337.281	338.62
337.51	352.62
337.738	356.62
337.966	360.62
338.194	351.62
338.422	354.62
338.65	357.62
338.878	355.62
339.106	330.62
339.334	345.62
339.562	341.62
339.79	340.62
340.018	334.62
340.246	330.62
340.474	373.62
340.702	355.62
340.93	344.62
341.158	342.62
341.386	348.62
341.614	344.62
341.842	348.62
342.07	350.62
342.298	326.62
342.526	338.62
342.754	326.62
342.981	346.62
343.209	322.62
343.437	330.62
343.665	339.62
343.893	348.62
344.12	350.62
344.348	347.62
344.576	335.62
344.804	353.62
345.031	347.62
345.259	347.62
345.487	347.62
345.714	343.62
345.942	341.62
346.17	334.62
346.397	326.62
346.625	342.62
346.853	334.62
347.08	335.62
347.308	331.62
347.535	343.62
347.763	340.62
347.99	347.62
348.218	347.62
348.445	322.62
348.673	343.62
348.9	333.62
349.128	323.62
349.355	309.62
349.583	316.62
349.81	325.62
350.037	322.62
350.265	337.62
350.492	306.62
350.72	315.62
350.947	335.62
351.174	330.62
351.402	328.62
351.629	344.62
351.856	326.62
352.083	334.62
352.311	359.62
352.538	356.62
352.765	360.62
352.992	346.62
353.22	337.62
353.447	318.62
353.674	335.62
353.901	303.62
354.128	315.62
354.355	303.62
354.583	311.62
354.81	309.62
355.037	309.62
355.264	304.62
355.491	315.62
355.718	312.62
355.945	299.62
356.172	297.62
356.399	334.62
356.626	310.62
356.853	296.62
357.08	310.62
357.307	302.62
357.534	314.62
357.761	302.62
357.988	316.62
358.215	306.62
358.441	301.62
358.668	301.62
358.895	314.62
359.122	331.62
359.349	306.62
359.576	332.62
359.802	334.62
360.029	367.62
360.256	382.62
360.483	373.62
360.709	312.62
360.936	349.62
361.163	328.62
361.39	332.62
361.616	335.62
361.843	339.62
362.07	335.62
362.296	341.62
362.523	336.62
362.749	326.62
362.976	320.62
363.203	311.62
363.429	300.62
363.656	340.62
363.882	333.62
364.109	324.62
364.335	322.62
364.562	305.62
364.788	309.62
365.015	322.62
365.241	314.62
365.468	319.62
365.694	324.62
365.92	348.62
366.147	318.62
366.373	310.62
366.599	326.62
366.826	319.62
367.052	310.62
367.278	296.62
367.505	320.62
367.731	325.62
367.957	308.62
368.184	314.62
368.41	333.62
368.636	355.62
368.862	344.62
369.089	328.62
369.315	324.62
369.541	313.62
369.767	324.62
369.993	331.62
370.219	316.62
370.445	328.62
370.672	312.62
370.898	329.62
371.124	314.62
371.35	324.62
371.576	311.62
371.802	333.62
372.028	327.62
372.254	296.62
372.48	322.62
372.706	324.62
372.932	317.62
373.158	335.62
373.384	313.62
373.61	304.62
373.835	329.62
374.061	326.62
374.287	333.62
374.513	316.62
374.739	338.62
374.965	323.62
375.191	347.62
375.416	316.62
375.642	324.62
375.868	307.62
376.094	330.62
376.319	314.62
376.545	325.62
376.771	348.62
376.997	310.62
377.222	325.62
377.448	315.62
377.674	324.62
377.899	304.62
378.125	314.62
378.35	308.62
378.576	309.62
378.802	308.62
379.027	303.62
379.253	315.62
379.478	310.62
379.704	321.62
379.929	299.62
380.155	312.62
380.38	310.62
380.606	328.62
380.831	324.62
381.057	342.62
381.282	308.62
381.507	326.62
381.733	321.62
381.958	325.62
382.184	317.62
382.409	325.62
382.634	328.62
382.86	311.62
383.085	333.62
383.31	322.62
383.535	332.62
383.761	310.62
383.986	331.62
384.211	318.62
384.436	323.62
384.662	323.62
384.887	325.62
385.112	326.62
385.337	315.62
385.562	342.62
385.787	350.62
386.013	349.62
386.238	347.62
386.463	357.62
386.688	339.62
386.913	345.62
387.138	336.62
387.363	333.62
387.588	331.62
387.813	329.62
388.038	350.62
388.263	354.62
388.488	328.62
388.713	339.62
388.938	346.62
389.163	351.62
389.387	331.62
389.612	342.62
389.837	346.62
390.062	336.62
390.287	356.62
390.512	326.62
390.736	319.62
390.961	323.62
391.186	322.62
391.411	345.62
391.636	343.62
391.86	350.62
392.085	369.62
392.31	342.62
392.534	331.62
392.759	359.62
392.984	351.62
393.208	346.62
393.433	339.62
393.658	336.62
393.882	337.62
394.107	348.62
394.331	341.62
394.556	343.62
394.78	345.62
395.005	352.62
395.229	344.62
395.454	342.62
395.678	364.62
395.903	355.62
396.127	386.62
396.352	380.62
396.576	362.62
396.801	358.62
397.025	347.62
397.249	346.62
397.474	361.62
397.698	364.62
397.922	378.62
398.147	382.62
398.371	394.62
398.595	384.62
398.82	387.62
399.044	397.62
399.268	378.62
399.492	397.62
399.717	428.62
399.941	447.62
400.165	457.62
400.389	473.62
400.613	438.62
400.837	378.62
401.062	400.62
401.286	389.62
401.51	382.62
401.734	394.62
401.958	386.62
402.182	380.62
402.406	391.62
402.63	396.62
402.854	377.62
403.078	400.62
403.302	404.62
403.526	416.62
403.75	413.62
403.974	398.62
404.198	415.62
404.422	408.62
404.645	406.62
404.869	416.62
405.093	424.62
405.317	448.62
405.541	496.62
405.765	428.62
405.988	416.62
406.212	446.62
406.436	456.62
406.66	464.62
406.883	427.62
407.107	447.62
407.331	466.62
407.555	541.62
407.778	508.62
408.002	461.62
408.226	444.62
408.449	442.62
408.673	443.62
408.896	476.62
409.12	493.62
409.344	463.62
409.567	399.62
409.791	423.62
410.014	411.62
410.238	391.62
410.461	380.62
410.685	426.62
410.908	402.62
411.132	427.62
411.355	442.62
411.578	426.62
411.802	408.62
412.025	404.62
412.249	390.62
412.472	424.62
412.695	430.62
412.919	419.62
413.142	386.62
413.365	400.62
413.589	374.62
413.812	394.62
414.035	399.62
414.258	390.62
414.482	372.62
414.705	374.62
414.928	368.62
415.151	376.62
415.374	387.62
415.597	363.62
415.821	371.62
416.044	377.62
416.267	370.62
416.49	362.62
416.713	367.62
416.936	355.62
417.159	376.62
417.382	390.62
417.605	374.62
417.828	384.62
418.051	380.62
418.274	370.62
418.497	374.62
418.72	386.62
418.943	375.62
419.166	376.62
419.389	417.62
419.611	399.62
419.834	407.62
420.057	382.62
420.28	379.62
420.503	390.62
420.726	392.62
420.948	396.62
421.171	452.62
421.394	446.62
421.617	412.62
421.839	377.62
422.062	385.62
422.285	402.62
422.507	436.62
422.73	494.62
422.953	470.62
423.175	422.62
423.398	389.62
423.621	421.62
423.843	412.62
424.066	412.62
424.288	411.62
424.511	439.62
424.733	469.62
424.956	520.62
425.178	502.62
425.401	504.62
425.623	519.62
425.846	459.62
426.068	434.62
426.291	422.62
426.513	412.62
426.735	436.62
426.958	466.62
427.18	526.62
427.402	597.62
427.625	674.62
427.847	586.62
428.069	532.62
428.292	445.62
428.514	420.62
428.736	423.62
428.958	400.62
429.181	392.62
429.403	391.62
429.625	398.62
429.847	416.62
430.069	460.62
430.292	465.62
430.514	399.62
430.736	397.62
430.958	390.62
431.18	382.62
431.402	381.62
431.624	371.62
431.846	358.62
432.068	375.62
432.29	392.62
432.512	389.62
432.734	378.62
432.956	367.62
433.178	384.62
433.4	390.62
433.622	363.62
433.844	378.62
434.066	372.62
434.287	388.62
434.509	402.62
434.731	392.62
434.953	412.62
435.175	407.62
435.397	412.62
435.618	431.62
435.84	448.62
436.062	558.62
436.284	559.62
436.505	474.62
436.727	420.62
436.949	399.62
437.17	406.62
437.392	414.62
437.614	390.62
437.835	445.62
438.057	504.62
438.278	559.62
438.5	543.62
438.721	594.62
438.943	594.62
439.165	482.62
439.386	431.62
439.608	424.62
439.829	435.62
440.05	454.62
440.272	478.62
440.493	435.62
440.715	442.62
440.936	416.62
441.158	379.62
441.379	411.62
441.6	412.62
441.822	430.62
442.043	443.62
442.264	508.62
442.486	532.62
442.707	463.62
442.928	420.62
443.149	431.62
443.371	458.62
443.592	484.62
443.813	583.62
444.034	586.62
444.255	478.62
444.476	456.62
444.698	440.62
444.919	410.62
445.14	515.62
445.361	479.62
445.582	474.62
445.803	503.62
446.024	566.62
446.245	582.62
446.466	534.62
446.687	467.62
446.908	414.62
447.129	422.62
447.35	408.62
447.571	388.62
447.792	407.62
448.013	386.62
448.234	400.62
448.455	474.62
448.675	537.62
448.896	609.62
449.117	524.62
449.338	518.62
449.559	569.62
449.779	639.62
450	518.62
450.221	468.62
450.442	418.62
450.662	390.62
450.883	406.62
451.104	442.62
451.324	406.62
451.545	389.62
451.766	361.62
451.986	375.62
452.207	351.62
452.428	357.62
452.648	357.62
452.869	367.62
453.089	354.62
453.31	381.62
453.53	375.62
453.751	372.62
453.971	368.62
454.192	386.62
454.412	365.62
454.633	363.62
454.853	363.62
455.073	337.62
455.294	374.62
455.514	420.62
455.734	414.62
455.955	367.62
456.175	360.62
456.395	344.62
456.616	331.62
456.836	333.62
457.056	340.62
457.276	342.62
457.497	339.62
457.717	327.62
457.937	356.62
458.157	352.62
458.377	372.62
458.598	378.62
458.818	418.62
459.038	475.62
459.258	470.62
459.478	400.62
459.698	395.62
459.918	383.62
460.138	382.62
460.358	384.62
460.578	394.62
460.798	404.62
461.018	396.62
461.238	398.62
461.458	388.62
461.678	391.62
461.898	378.62
462.118	382.62
462.338	389.62
462.558	394.62
462.777	399.62
462.997	400.62
463.217	394.62
463.437	425.62
463.657	405.62
463.876	396.62
464.096	397.62
464.316	394.62
464.536	396.62
464.755	402.62
464.975	406.62
465.195	446.62
465.414	500.62
465.634	451.62
465.854	427.62
466.073	393.62
466.293	370.62
466.512	383.62
466.732	395.62
466.951	382.62
467.171	376.62
467.391	372.62
467.61	374.62
467.829	373.62
468.049	386.62
468.268	369.62
468.488	363.62
468.707	366.62
468.927	364.62
469.146	359.62
469.365	378.62
469.585	351.62
469.804	365.62
470.023	359.62
470.243	385.62
470.462	400.62
470.681	379.62
470.901	383.62
471.12	371.62
471.339	366.62
471.558	377.62
471.777	376.62
471.997	367.62
472.216	372.62
472.435	427.62
472.654	390.62
472.873	364.62
473.092	359.62
473.311	359.62
473.53	382.62
473.749	394.62
473.968	403.62
474.187	456.62
474.406	500.62
474.625	452.62
474.844	392.62
475.063	385.62
475.282	384.62
475.501	382.62
475.72	384.62
475.939	394.62
476.158	388.62
476.377	389.62
476.596	383.62
476.814	405.62
477.033	406.62
477.252	405.62
477.471	398.62
477.69	408.62
477.908	422.62
478.127	422.62
478.346	418.62
478.564	412.62
478.783	405.62
479.002	405.62
479.22	431.62
479.439	450.62
479.658	433.62
479.876	454.62
480.095	455.62
480.313	468.62
480.532	456.62
480.751	456.62
480.969	482.62
481.188	500.62
481.406	530.62
481.624	484.62
481.843	453.62
482.061	462.62
482.28	437.62
482.498	439.62
482.717	432.62
482.935	444.62
483.153	425.62
483.372	421.62
483.59	439.62
483.808	454.62
484.027	437.62
484.245	461.62
484.463	446.62
484.681	468.62
484.9	448.62
485.118	470.62
485.336	429.62
485.554	455.62
485.772	459.62
485.99	437.62
486.209	456.62
486.427	473.62
486.645	456.62
486.863	464.62
487.081	476.62
487.299	462.62
487.517	481.62
487.735	467.62
487.953	459.62
488.171	465.62
488.389	466.62
488.607	464.62
488.825	472.62
489.043	470.62
489.261	494.62
489.479	460.62
489.696	464.62
489.914	473.62
490.132	477.62
490.35	486.62
490.568	470.62
490.786	468.62
491.003	525.62
491.221	522.62
491.439	504.62
491.657	535.62
491.874	516.62
492.092	547.62
492.31	534.62
492.527	540.62
492.745	531.62
492.963	526.62
493.18	520.62
493.398	541.62
493.615	540.62
493.833	550.62
494.05	548.62
494.268	535.62
494.485	538.62
494.703	506.62
494.92	541.62
495.138	546.62
495.355	562.62
495.573	552.62
495.79	533.62
496.008	546.62
496.225	539.62
496.442	567.62
496.66	555.62
496.877	546.62
497.094	544.62
497.312	576.62
497.529	586.62
497.746	589.62
497.963	582.62
498.181	573.62
498.398	597.62
498.615	609.62
498.832	621.62
499.049	584.62
499.267	634.62
499.484	642.62
499.701	651.62
499.918	680.62
500.135	689.62
500.352	712.62
500.569	722.62
500.786	716.62
501.003	727.62
501.22	726.62
501.437	702.62
501.654	677.62
501.871	682.62
502.088	668.62
