Data from 1965.PennyLincolnUp.Lamp.En5.5.200Scan.071719.P1._HRD10591_14-10-00-911.txt Node
Date: Thu Jul 18 14:10:00 EDT 2019
User: cochatt
Spectrometer: HR+D1059
Trigger mode: 1
Integration Time (sec): 1.000000E-1
Scans to average: 1
Electric dark correction enabled: true
Nonlinearity correction enabled: false
Boxcar width: 0
XAxis mode: Wavelengths
Number of Pixels in Spectrum: 2048
>>>>>Begin Spectral Data<<<<<
223.165	-20.56
223.4	-20.56
223.635	-20.56
223.869	-2.56
224.104	-22.56
224.338	7.44
224.573	-10.56
224.808	-24.56
225.042	-19.56
225.277	-7.56
225.511	-8.56
225.746	4.44
225.98	18.44
226.215	22.44
226.449	15.44
226.683	22.44
226.918	3.44
227.152	22.44
227.387	38.44
227.621	38.44
227.856	40.44
228.09	32.44
228.324	40.44
228.559	46.44
228.793	60.44
229.027	84.44
229.262	107.44
229.496	122.44
229.73	129.44
229.964	143.44
230.199	143.44
230.433	122.44
230.667	110.44
230.901	105.44
231.136	96.44
231.37	100.44
231.604	110.44
231.838	114.44
232.072	103.44
232.306	111.44
232.541	105.44
232.775	100.44
233.009	103.44
233.243	108.44
233.477	109.44
233.711	91.44
233.945	109.44
234.179	102.44
234.413	117.44
234.647	110.44
234.881	113.44
235.115	118.44
235.349	109.44
235.583	103.44
235.817	121.44
236.051	117.44
236.285	125.44
236.519	115.44
236.753	126.44
236.987	134.44
237.221	179.44
237.455	215.44
237.689	174.44
237.922	117.44
238.156	134.44
238.39	124.44
238.624	118.44
238.858	110.44
239.091	109.44
239.325	113.44
239.559	121.44
239.793	114.44
240.027	129.44
240.26	143.44
240.494	153.44
240.728	133.44
240.961	145.44
241.195	147.44
241.429	123.44
241.662	126.44
241.896	120.44
242.13	115.44
242.363	132.44
242.597	140.44
242.83	135.44
243.064	134.44
243.298	128.44
243.531	126.44
243.765	127.44
243.998	129.44
244.232	123.44
244.465	135.44
244.699	143.44
244.932	134.44
245.166	141.44
245.399	143.44
245.633	142.44
245.866	150.44
246.099	138.44
246.333	134.44
246.566	148.44
246.8	133.44
247.033	136.44
247.266	155.44
247.5	139.44
247.733	141.44
247.966	147.44
248.2	144.44
248.433	166.44
248.666	163.44
248.899	181.44
249.133	187.44
249.366	190.44
249.599	170.44
249.832	174.44
250.066	166.44
250.299	171.44
250.532	185.44
250.765	181.44
250.998	201.44
251.231	197.44
251.465	197.44
251.698	186.44
251.931	166.44
252.164	195.44
252.397	191.44
252.63	193.44
252.863	183.44
253.096	205.44
253.329	206.44
253.562	187.44
253.795	199.44
254.028	223.44
254.261	213.44
254.494	218.44
254.727	225.44
254.96	247.44
255.193	243.44
255.426	229.44
255.659	210.44
255.892	235.44
256.124	222.44
256.357	213.44
256.59	204.44
256.823	188.44
257.056	197.44
257.289	180.44
257.521	209.44
257.754	185.44
257.987	191.44
258.22	195.44
258.452	187.44
258.685	189.44
258.918	196.44
259.151	202.44
259.383	201.44
259.616	208.44
259.849	206.44
260.081	198.44
260.314	196.44
260.547	234.44
260.779	205.44
261.012	206.44
261.244	198.44
261.477	206.44
261.71	193.44
261.942	203.44
262.175	225.44
262.407	200.44
262.64	217.44
262.872	197.44
263.105	196.44
263.337	188.44
263.57	191.44
263.802	200.44
264.035	194.44
264.267	208.44
264.499	177.44
264.732	198.44
264.964	191.44
265.197	192.44
265.429	191.44
265.661	183.44
265.894	199.44
266.126	214.44
266.358	198.44
266.591	188.44
266.823	190.44
267.055	201.44
267.287	205.44
267.52	199.44
267.752	188.44
267.984	217.44
268.216	196.44
268.448	197.44
268.681	221.44
268.913	210.44
269.145	235.44
269.377	251.44
269.609	233.44
269.841	234.44
270.073	257.44
270.306	268.44
270.538	294.44
270.77	272.44
271.002	291.44
271.234	275.44
271.466	285.44
271.698	277.44
271.93	279.44
272.162	303.44
272.394	282.44
272.626	294.44
272.858	257.44
273.09	257.44
273.322	238.44
273.553	242.44
273.785	246.44
274.017	247.44
274.249	252.44
274.481	254.44
274.713	243.44
274.945	252.44
275.176	243.44
275.408	233.44
275.64	241.44
275.872	225.44
276.104	241.44
276.335	250.44
276.567	241.44
276.799	277.44
277.031	286.44
277.262	270.44
277.494	287.44
277.726	288.44
277.957	263.44
278.189	252.44
278.421	249.44
278.652	253.44
278.884	236.44
279.115	242.44
279.347	239.44
279.579	243.44
279.81	242.44
280.042	247.44
280.273	241.44
280.505	243.44
280.736	262.44
280.968	230.44
281.199	247.44
281.431	237.44
281.662	242.44
281.894	235.44
282.125	231.44
282.356	255.44
282.588	265.44
282.819	271.44
283.051	257.44
283.282	246.44
283.513	230.44
283.745	247.44
283.976	238.44
284.207	240.44
284.439	241.44
284.67	228.44
284.901	243.44
285.132	247.44
285.364	250.44
285.595	233.44
285.826	254.44
286.057	231.44
286.288	238.44
286.52	242.44
286.751	261.44
286.982	264.44
287.213	249.44
287.444	258.44
287.675	266.44
287.906	272.44
288.138	263.44
288.369	270.44
288.6	269.44
288.831	278.44
289.062	256.44
289.293	275.44
289.524	259.44
289.755	253.44
289.986	262.44
290.217	267.44
290.448	265.44
290.679	253.44
290.91	263.44
291.141	274.44
291.371	253.44
291.602	255.44
291.833	251.44
292.064	251.44
292.295	250.44
292.526	248.44
292.757	265.44
292.987	232.44
293.218	245.44
293.449	275.44
293.68	271.44
293.91	261.44
294.141	257.44
294.372	259.44
294.603	275.44
294.833	237.44
295.064	259.44
295.295	255.44
295.525	262.44
295.756	269.44
295.987	281.44
296.217	292.44
296.448	308.44
296.679	277.44
296.909	262.44
297.14	263.44
297.37	276.44
297.601	267.44
297.831	256.44
298.062	275.44
298.292	280.44
298.523	281.44
298.753	266.44
298.984	274.44
299.214	270.44
299.445	241.44
299.675	260.44
299.905	271.44
300.136	290.44
300.366	277.44
300.597	273.44
300.827	311.44
301.057	287.44
301.288	305.44
301.518	281.44
301.748	289.44
301.979	277.44
302.209	290.44
302.439	291.44
302.669	302.44
302.9	299.44
303.13	284.44
303.36	292.44
303.59	314.44
303.82	295.44
304.051	298.44
304.281	291.44
304.511	285.44
304.741	297.44
304.971	296.44
305.201	292.44
305.431	298.44
305.661	295.44
305.891	284.44
306.121	286.44
306.352	299.44
306.582	311.44
306.812	292.44
307.042	297.44
307.272	291.44
307.502	305.44
307.731	299.44
307.961	298.44
308.191	289.44
308.421	299.44
308.651	297.44
308.881	294.44
309.111	300.44
309.341	284.44
309.571	322.44
309.8	336.44
310.03	337.44
310.26	342.44
310.49	340.44
310.72	343.44
310.949	362.44
311.179	345.44
311.409	335.44
311.639	346.44
311.868	336.44
312.098	334.44
312.328	359.44
312.557	375.44
312.787	370.44
313.017	375.44
313.246	339.44
313.476	334.44
313.706	349.44
313.935	357.44
314.165	359.44
314.394	360.44
314.624	373.44
314.853	353.44
315.083	341.44
315.312	332.44
315.542	324.44
315.771	363.44
316.001	336.44
316.23	335.44
316.46	317.44
316.689	333.44
316.919	335.44
317.148	334.44
317.377	354.44
317.607	358.44
317.836	335.44
318.065	330.44
318.295	344.44
318.524	338.44
318.753	318.44
318.983	344.44
319.212	351.44
319.441	339.44
319.67	359.44
319.9	326.44
320.129	346.44
320.358	373.44
320.587	357.44
320.816	370.44
321.046	372.44
321.275	380.44
321.504	376.44
321.733	346.44
321.962	362.44
322.191	395.44
322.42	417.44
322.649	422.44
322.878	452.44
323.108	427.44
323.337	445.44
323.566	469.44
323.795	481.44
324.024	582.44
324.253	705.44
324.482	1034.44
324.71	1566.44
324.939	2174.44
325.168	1802.44
325.397	975.44
325.626	647.44
325.855	511.44
326.084	497.44
326.313	467.44
326.542	480.44
326.77	527.44
326.999	641.44
327.228	926.44
327.457	1390.44
327.686	1573.44
327.914	1075.44
328.143	729.44
328.372	627.44
328.6	577.44
328.829	539.44
329.058	583.44
329.287	582.44
329.515	536.44
329.744	502.44
329.972	489.44
330.201	497.44
330.43	523.44
330.658	581.44
330.887	612.44
331.115	560.44
331.344	503.44
331.572	451.44
331.801	465.44
332.03	455.44
332.258	439.44
332.486	398.44
332.715	412.44
332.943	411.44
333.172	421.44
333.4	407.44
333.629	407.44
333.857	432.44
334.085	445.44
334.314	449.44
334.542	490.44
334.771	515.44
334.999	459.44
335.227	433.44
335.455	421.44
335.684	420.44
335.912	412.44
336.14	402.44
336.369	403.44
336.597	397.44
336.825	419.44
337.053	380.44
337.281	396.44
337.51	381.44
337.738	394.44
337.966	394.44
338.194	387.44
338.422	405.44
338.65	396.44
338.878	383.44
339.106	378.44
339.334	392.44
339.562	366.44
339.79	365.44
340.018	386.44
340.246	364.44
340.474	390.44
340.702	395.44
340.93	405.44
341.158	394.44
341.386	395.44
341.614	413.44
341.842	369.44
342.07	389.44
342.298	379.44
342.526	359.44
342.754	343.44
342.981	358.44
343.209	366.44
343.437	379.44
343.665	390.44
343.893	369.44
344.12	376.44
344.348	385.44
344.576	391.44
344.804	403.44
345.031	410.44
345.259	415.44
345.487	417.44
345.714	419.44
345.942	380.44
346.17	389.44
346.397	383.44
346.625	379.44
346.853	376.44
347.08	376.44
347.308	382.44
347.535	393.44
347.763	401.44
347.99	391.44
348.218	387.44
348.445	394.44
348.673	379.44
348.9	388.44
349.128	358.44
349.355	361.44
349.583	364.44
349.81	359.44
350.037	374.44
350.265	377.44
350.492	364.44
350.72	367.44
350.947	371.44
351.174	403.44
351.402	402.44
351.629	366.44
351.856	369.44
352.083	393.44
352.311	381.44
352.538	404.44
352.765	405.44
352.992	380.44
353.22	381.44
353.447	379.44
353.674	368.44
353.901	367.44
354.128	352.44
354.355	345.44
354.583	344.44
354.81	347.44
355.037	343.44
355.264	355.44
355.491	336.44
355.718	337.44
355.945	348.44
356.172	341.44
356.399	344.44
356.626	345.44
356.853	354.44
357.08	335.44
357.307	354.44
357.534	343.44
357.761	347.44
357.988	327.44
358.215	353.44
358.441	330.44
358.668	337.44
358.895	383.44
359.122	346.44
359.349	371.44
359.576	380.44
359.802	414.44
360.029	456.44
360.256	446.44
360.483	414.44
360.709	383.44
360.936	384.44
361.163	380.44
361.39	400.44
361.616	388.44
361.843	381.44
362.07	378.44
362.296	381.44
362.523	371.44
362.749	389.44
362.976	372.44
363.203	360.44
363.429	361.44
363.656	370.44
363.882	345.44
364.109	367.44
364.335	349.44
364.562	379.44
364.788	361.44
365.015	373.44
365.241	349.44
365.468	353.44
365.694	361.44
365.92	375.44
366.147	371.44
366.373	341.44
366.599	332.44
366.826	342.44
367.052	333.44
367.278	348.44
367.505	350.44
367.731	357.44
367.957	358.44
368.184	336.44
368.41	366.44
368.636	368.44
368.862	363.44
369.089	381.44
369.315	361.44
369.541	335.44
369.767	332.44
369.993	353.44
370.219	348.44
370.445	374.44
370.672	358.44
370.898	345.44
371.124	356.44
371.35	357.44
371.576	364.44
371.802	339.44
372.028	351.44
372.254	358.44
372.48	350.44
372.706	356.44
372.932	363.44
373.158	356.44
373.384	332.44
373.61	363.44
373.835	365.44
374.061	354.44
374.287	361.44
374.513	356.44
374.739	357.44
374.965	364.44
375.191	336.44
375.416	366.44
375.642	357.44
375.868	370.44
376.094	327.44
376.319	351.44
376.545	332.44
376.771	334.44
376.997	355.44
377.222	354.44
377.448	341.44
377.674	330.44
377.899	348.44
378.125	357.44
378.35	357.44
378.576	337.44
378.802	330.44
379.027	353.44
379.253	325.44
379.478	343.44
379.704	361.44
379.929	337.44
380.155	346.44
380.38	344.44
380.606	355.44
380.831	350.44
381.057	351.44
381.282	374.44
381.507	347.44
381.733	350.44
381.958	355.44
382.184	365.44
382.409	355.44
382.634	347.44
382.86	359.44
383.085	360.44
383.31	381.44
383.535	354.44
383.761	351.44
383.986	355.44
384.211	366.44
384.436	350.44
384.662	363.44
384.887	361.44
385.112	355.44
385.337	374.44
385.562	377.44
385.787	363.44
386.013	371.44
386.238	389.44
386.463	363.44
386.688	380.44
386.913	373.44
387.138	384.44
387.363	365.44
387.588	373.44
387.813	377.44
388.038	375.44
388.263	371.44
388.488	379.44
388.713	371.44
388.938	366.44
389.163	383.44
389.387	383.44
389.612	367.44
389.837	393.44
390.062	371.44
390.287	389.44
390.512	381.44
390.736	373.44
390.961	366.44
391.186	373.44
391.411	367.44
391.636	369.44
391.86	379.44
392.085	358.44
392.31	364.44
392.534	378.44
392.759	374.44
392.984	383.44
393.208	375.44
393.433	402.44
393.658	381.44
393.882	365.44
394.107	371.44
394.331	381.44
394.556	375.44
394.78	382.44
395.005	372.44
395.229	353.44
395.454	387.44
395.678	401.44
395.903	384.44
396.127	427.44
396.352	418.44
396.576	385.44
396.801	385.44
397.025	395.44
397.249	379.44
397.474	366.44
397.698	383.44
397.922	385.44
398.147	422.44
398.371	410.44
398.595	423.44
398.82	417.44
399.044	418.44
399.268	422.44
399.492	452.44
399.717	474.44
399.941	494.44
400.165	528.44
400.389	529.44
400.613	461.44
400.837	419.44
401.062	433.44
401.286	444.44
401.51	443.44
401.734	430.44
401.958	425.44
402.182	423.44
402.406	441.44
402.63	443.44
402.854	438.44
403.078	421.44
403.302	437.44
403.526	451.44
403.75	461.44
403.974	415.44
404.198	415.44
404.422	446.44
404.645	441.44
404.869	448.44
405.093	481.44
405.317	513.44
405.541	536.44
405.765	491.44
405.988	460.44
406.212	476.44
406.436	503.44
406.66	525.44
406.883	495.44
407.107	486.44
407.331	553.44
407.555	564.44
407.778	556.44
408.002	521.44
408.226	470.44
408.449	471.44
408.673	480.44
408.896	517.44
409.12	548.44
409.344	523.44
409.567	450.44
409.791	461.44
410.014	443.44
410.238	443.44
410.461	469.44
410.685	443.44
410.908	461.44
411.132	490.44
411.355	517.44
411.578	471.44
411.802	431.44
412.025	431.44
412.249	451.44
412.472	462.44
412.695	494.44
412.919	489.44
413.142	472.44
413.365	428.44
413.589	436.44
413.812	433.44
414.035	409.44
414.258	423.44
414.482	431.44
414.705	410.44
414.928	425.44
415.151	398.44
415.374	419.44
415.597	418.44
415.821	410.44
416.044	427.44
416.267	397.44
416.49	404.44
416.713	420.44
416.936	420.44
417.159	407.44
417.382	437.44
417.605	427.44
417.828	420.44
418.051	433.44
418.274	434.44
418.497	407.44
418.72	404.44
418.943	424.44
419.166	421.44
419.389	464.44
419.611	453.44
419.834	430.44
420.057	439.44
420.28	441.44
420.503	407.44
420.726	442.44
420.948	443.44
421.171	487.44
421.394	523.44
421.617	459.44
421.839	421.44
422.062	441.44
422.285	437.44
422.507	500.44
422.73	568.44
422.953	563.44
423.175	503.44
423.398	444.44
423.621	447.44
423.843	461.44
424.066	470.44
424.288	453.44
424.511	502.44
424.733	544.44
424.956	597.44
425.178	573.44
425.401	569.44
425.623	578.44
425.846	515.44
426.068	478.44
426.291	484.44
426.513	477.44
426.735	467.44
426.958	524.44
427.18	597.44
427.402	680.44
427.625	749.44
427.847	700.44
428.069	602.44
428.292	534.44
428.514	482.44
428.736	462.44
428.958	474.44
429.181	445.44
429.403	445.44
429.625	446.44
429.847	484.44
430.069	538.44
430.292	527.44
430.514	471.44
430.736	452.44
430.958	420.44
431.18	414.44
431.402	409.44
431.624	425.44
431.846	408.44
432.068	403.44
432.29	403.44
432.512	411.44
432.734	424.44
432.956	424.44
433.178	432.44
433.4	431.44
433.622	409.44
433.844	426.44
434.066	412.44
434.287	409.44
434.509	403.44
434.731	429.44
434.953	426.44
435.175	449.44
435.397	462.44
435.618	485.44
435.84	510.44
436.062	580.44
436.284	655.44
436.505	522.44
436.727	505.44
436.949	455.44
437.17	463.44
437.392	455.44
437.614	464.44
437.835	515.44
438.057	595.44
438.278	659.44
438.5	648.44
438.721	719.44
438.943	655.44
439.165	537.44
439.386	510.44
439.608	514.44
439.829	502.44
440.05	534.44
440.272	548.44
440.493	526.44
440.715	453.44
440.936	467.44
441.158	452.44
441.379	470.44
441.6	449.44
441.822	493.44
442.043	515.44
442.264	578.44
442.486	633.44
442.707	540.44
442.928	479.44
443.149	485.44
443.371	533.44
443.592	585.44
443.813	632.44
444.034	649.44
444.255	556.44
444.476	507.44
444.698	481.44
444.919	474.44
445.14	613.44
445.361	547.44
445.582	545.44
445.803	575.44
446.024	637.44
446.245	648.44
446.466	605.44
446.687	523.44
446.908	497.44
447.129	458.44
447.35	458.44
447.571	450.44
447.792	431.44
448.013	438.44
448.234	459.44
448.455	513.44
448.675	601.44
448.896	691.44
449.117	595.44
449.338	571.44
449.559	663.44
449.779	725.44
450	571.44
450.221	504.44
450.442	481.44
450.662	440.44
450.883	440.44
451.104	487.44
451.324	456.44
451.545	453.44
451.766	408.44
451.986	417.44
452.207	400.44
452.428	389.44
452.648	413.44
452.869	413.44
453.089	415.44
453.31	422.44
453.53	415.44
453.751	420.44
453.971	427.44
454.192	433.44
454.412	437.44
454.633	420.44
454.853	410.44
455.073	379.44
455.294	414.44
455.514	494.44
455.734	478.44
455.955	415.44
456.175	386.44
456.395	380.44
456.616	374.44
456.836	373.44
457.056	377.44
457.276	353.44
457.497	379.44
457.717	374.44
457.937	367.44
458.157	381.44
458.377	385.44
458.598	426.44
458.818	486.44
459.038	581.44
459.258	543.44
459.478	469.44
459.698	419.44
459.918	403.44
460.138	415.44
460.358	402.44
460.578	414.44
460.798	425.44
461.018	429.44
461.238	428.44
461.458	404.44
461.678	402.44
461.898	429.44
462.118	409.44
462.338	433.44
462.558	452.44
462.777	428.44
462.997	430.44
463.217	451.44
463.437	452.44
463.657	415.44
463.876	449.44
464.096	439.44
464.316	443.44
464.536	470.44
464.755	452.44
464.975	447.44
465.195	503.44
465.414	590.44
465.634	527.44
465.854	466.44
466.073	465.44
466.293	412.44
466.512	441.44
466.732	391.44
466.951	399.44
467.171	415.44
467.391	407.44
467.61	439.44
467.829	438.44
468.049	417.44
468.268	417.44
468.488	392.44
468.707	385.44
468.927	384.44
469.146	409.44
469.365	394.44
469.585	404.44
469.804	391.44
470.023	417.44
470.243	414.44
470.462	425.44
470.681	443.44
470.901	441.44
471.12	414.44
471.339	427.44
471.558	431.44
471.777	417.44
471.997	426.44
472.216	431.44
472.435	467.44
472.654	432.44
472.873	419.44
473.092	399.44
473.311	432.44
473.53	429.44
473.749	437.44
473.968	461.44
474.187	555.44
474.406	537.44
474.625	469.44
474.844	447.44
475.063	415.44
475.282	426.44
475.501	430.44
475.72	429.44
475.939	441.44
476.158	438.44
476.377	443.44
476.596	423.44
476.814	428.44
477.033	441.44
477.252	461.44
477.471	443.44
477.69	461.44
477.908	447.44
478.127	435.44
478.346	421.44
478.564	446.44
478.783	440.44
479.002	462.44
479.22	456.44
479.439	475.44
479.658	499.44
479.876	483.44
480.095	509.44
480.313	499.44
480.532	500.44
480.751	506.44
480.969	522.44
481.188	599.44
481.406	637.44
481.624	530.44
481.843	509.44
482.061	515.44
482.28	489.44
482.498	502.44
482.717	505.44
482.935	505.44
483.153	475.44
483.372	472.44
483.59	477.44
483.808	465.44
484.027	499.44
484.245	490.44
484.463	478.44
484.681	504.44
484.9	473.44
485.118	490.44
485.336	497.44
485.554	511.44
485.772	505.44
485.99	495.44
486.209	527.44
486.427	493.44
486.645	507.44
486.863	533.44
487.081	536.44
487.299	519.44
487.517	519.44
487.735	517.44
487.953	522.44
488.171	525.44
488.389	532.44
488.607	508.44
488.825	534.44
489.043	526.44
489.261	545.44
489.479	542.44
489.696	535.44
489.914	562.44
490.132	556.44
490.35	543.44
490.568	545.44
490.786	575.44
491.003	562.44
491.221	565.44
491.439	571.44
491.657	609.44
491.874	605.44
492.092	587.44
492.31	588.44
492.527	611.44
492.745	609.44
492.963	617.44
493.18	622.44
493.398	617.44
493.615	623.44
493.833	603.44
494.05	603.44
494.268	625.44
494.485	623.44
494.703	605.44
494.92	620.44
495.138	594.44
495.355	621.44
495.573	625.44
495.79	597.44
496.008	635.44
496.225	583.44
496.442	612.44
496.66	633.44
496.877	637.44
497.094	648.44
497.312	633.44
497.529	673.44
497.746	636.44
497.963	649.44
498.181	674.44
498.398	653.44
498.615	674.44
498.832	669.44
499.049	681.44
499.267	691.44
499.484	722.44
499.701	714.44
499.918	737.44
500.135	773.44
500.352	796.44
500.569	791.44
500.786	779.44
501.003	791.44
501.22	755.44
501.437	769.44
501.654	771.44
501.871	745.44
