Data from 1965.PennyLincolnUp.Lamp.En5.5.200Scan.071719.P1._HRD10591_14-10-49-912.txt Node
Date: Thu Jul 18 14:10:49 EDT 2019
User: cochatt
Spectrometer: HR+D1059
Trigger mode: 1
Integration Time (sec): 1.000000E-1
Scans to average: 1
Electric dark correction enabled: true
Nonlinearity correction enabled: false
Boxcar width: 0
XAxis mode: Wavelengths
Number of Pixels in Spectrum: 2048
>>>>>Begin Spectral Data<<<<<
223.165	-11.75
223.4	-11.75
223.635	-11.75
223.869	-18.75
224.104	-22.75
224.338	-16.75
224.573	-6.75
224.808	-10.75
225.042	1.25
225.277	-6.75
225.511	-11.75
225.746	0.25
225.98	8.25
226.215	17.25
226.449	16.25
226.683	13.25
226.918	17.25
227.152	32.25
227.387	37.25
227.621	38.25
227.856	41.25
228.09	39.25
228.324	42.25
228.559	55.25
228.793	74.25
229.027	94.25
229.262	103.25
229.496	115.25
229.73	141.25
229.964	142.25
230.199	133.25
230.433	108.25
230.667	127.25
230.901	118.25
231.136	97.25
231.37	90.25
231.604	109.25
231.838	112.25
232.072	122.25
232.306	108.25
232.541	110.25
232.775	106.25
233.009	128.25
233.243	104.25
233.477	113.25
233.711	113.25
233.945	116.25
234.179	113.25
234.413	104.25
234.647	125.25
234.881	104.25
235.115	110.25
235.349	112.25
235.583	108.25
235.817	125.25
236.051	119.25
236.285	106.25
236.519	130.25
236.753	134.25
236.987	143.25
237.221	165.25
237.455	217.25
237.689	180.25
237.922	127.25
238.156	122.25
238.39	116.25
238.624	136.25
238.858	111.25
239.091	114.25
239.325	129.25
239.559	128.25
239.793	118.25
240.027	135.25
240.26	131.25
240.494	141.25
240.728	138.25
240.961	140.25
241.195	148.25
241.429	142.25
241.662	120.25
241.896	121.25
242.13	128.25
242.363	134.25
242.597	134.25
242.83	139.25
243.064	139.25
243.298	129.25
243.531	115.25
243.765	134.25
243.998	128.25
244.232	130.25
244.465	126.25
244.699	124.25
244.932	123.25
245.166	132.25
245.399	141.25
245.633	155.25
245.866	129.25
246.099	142.25
246.333	146.25
246.566	134.25
246.8	133.25
247.033	127.25
247.266	151.25
247.5	152.25
247.733	144.25
247.966	140.25
248.2	148.25
248.433	156.25
248.666	160.25
248.899	167.25
249.133	161.25
249.366	177.25
249.599	185.25
249.832	169.25
250.066	185.25
250.299	174.25
250.532	184.25
250.765	170.25
250.998	199.25
251.231	217.25
251.465	206.25
251.698	186.25
251.931	178.25
252.164	176.25
252.397	183.25
252.63	181.25
252.863	166.25
253.096	191.25
253.329	200.25
253.562	202.25
253.795	205.25
254.028	205.25
254.261	197.25
254.494	214.25
254.727	238.25
254.96	260.25
255.193	242.25
255.426	223.25
255.659	204.25
255.892	216.25
256.124	214.25
256.357	218.25
256.59	201.25
256.823	203.25
257.056	203.25
257.289	204.25
257.521	197.25
257.754	178.25
257.987	185.25
258.22	196.25
258.452	193.25
258.685	187.25
258.918	207.25
259.151	180.25
259.383	185.25
259.616	202.25
259.849	201.25
260.081	210.25
260.314	234.25
260.547	242.25
260.779	225.25
261.012	218.25
261.244	214.25
261.477	223.25
261.71	212.25
261.942	209.25
262.175	209.25
262.407	223.25
262.64	200.25
262.872	194.25
263.105	188.25
263.337	209.25
263.57	186.25
263.802	198.25
264.035	189.25
264.267	184.25
264.499	202.25
264.732	203.25
264.964	176.25
265.197	174.25
265.429	177.25
265.661	190.25
265.894	204.25
266.126	205.25
266.358	195.25
266.591	207.25
266.823	200.25
267.055	198.25
267.287	207.25
267.52	191.25
267.752	196.25
267.984	194.25
268.216	207.25
268.448	216.25
268.681	205.25
268.913	203.25
269.145	246.25
269.377	256.25
269.609	235.25
269.841	233.25
270.073	249.25
270.306	268.25
270.538	289.25
270.77	297.25
271.002	270.25
271.234	269.25
271.466	250.25
271.698	267.25
271.93	290.25
272.162	272.25
272.394	280.25
272.626	282.25
272.858	257.25
273.09	250.25
273.322	247.25
273.553	243.25
273.785	258.25
274.017	254.25
274.249	232.25
274.481	254.25
274.713	250.25
274.945	259.25
275.176	246.25
275.408	239.25
275.64	233.25
275.872	218.25
276.104	238.25
276.335	246.25
276.567	250.25
276.799	260.25
277.031	281.25
277.262	280.25
277.494	306.25
277.726	255.25
277.957	265.25
278.189	250.25
278.421	239.25
278.652	248.25
278.884	250.25
279.115	237.25
279.347	247.25
279.579	248.25
279.81	248.25
280.042	234.25
280.273	231.25
280.505	240.25
280.736	242.25
280.968	249.25
281.199	237.25
281.431	262.25
281.662	229.25
281.894	252.25
282.125	228.25
282.356	253.25
282.588	288.25
282.819	279.25
283.051	273.25
283.282	253.25
283.513	248.25
283.745	253.25
283.976	242.25
284.207	242.25
284.439	269.25
284.67	234.25
284.901	241.25
285.132	253.25
285.364	229.25
285.595	251.25
285.826	248.25
286.057	249.25
286.288	236.25
286.52	242.25
286.751	249.25
286.982	243.25
287.213	240.25
287.444	240.25
287.675	237.25
287.906	245.25
288.138	261.25
288.369	267.25
288.6	264.25
288.831	254.25
289.062	268.25
289.293	262.25
289.524	256.25
289.755	244.25
289.986	258.25
290.217	256.25
290.448	260.25
290.679	269.25
290.91	251.25
291.141	249.25
291.371	249.25
291.602	249.25
291.833	247.25
292.064	240.25
292.295	245.25
292.526	248.25
292.757	240.25
292.987	245.25
293.218	270.25
293.449	262.25
293.68	250.25
293.91	247.25
294.141	261.25
294.372	252.25
294.603	242.25
294.833	262.25
295.064	259.25
295.295	250.25
295.525	263.25
295.756	262.25
295.987	287.25
296.217	290.25
296.448	292.25
296.679	272.25
296.909	262.25
297.14	253.25
297.37	270.25
297.601	270.25
297.831	252.25
298.062	268.25
298.292	264.25
298.523	281.25
298.753	280.25
298.984	287.25
299.214	264.25
299.445	266.25
299.675	262.25
299.905	279.25
300.136	274.25
300.366	284.25
300.597	271.25
300.827	266.25
301.057	280.25
301.288	296.25
301.518	293.25
301.748	275.25
301.979	279.25
302.209	276.25
302.439	281.25
302.669	270.25
302.9	297.25
303.13	281.25
303.36	268.25
303.59	284.25
303.82	290.25
304.051	308.25
304.281	297.25
304.511	284.25
304.741	280.25
304.971	266.25
305.201	279.25
305.431	280.25
305.661	274.25
305.891	276.25
306.121	272.25
306.352	295.25
306.582	301.25
306.812	279.25
307.042	293.25
307.272	287.25
307.502	308.25
307.731	295.25
307.961	283.25
308.191	283.25
308.421	294.25
308.651	293.25
308.881	325.25
309.111	294.25
309.341	304.25
309.571	314.25
309.8	324.25
310.03	344.25
310.26	329.25
310.49	324.25
310.72	355.25
310.949	372.25
311.179	352.25
311.409	364.25
311.639	344.25
311.868	348.25
312.098	367.25
312.328	351.25
312.557	349.25
312.787	381.25
313.017	371.25
313.246	365.25
313.476	339.25
313.706	343.25
313.935	346.25
314.165	350.25
314.394	386.25
314.624	354.25
314.853	348.25
315.083	353.25
315.312	342.25
315.542	331.25
315.771	333.25
316.001	317.25
316.23	325.25
316.46	332.25
316.689	333.25
316.919	344.25
317.148	344.25
317.377	349.25
317.607	343.25
317.836	332.25
318.065	322.25
318.295	340.25
318.524	339.25
318.753	349.25
318.983	349.25
319.212	334.25
319.441	352.25
319.67	353.25
319.9	342.25
320.129	356.25
320.358	336.25
320.587	373.25
320.816	354.25
321.046	372.25
321.275	361.25
321.504	375.25
321.733	360.25
321.962	390.25
322.191	397.25
322.42	407.25
322.649	407.25
322.878	412.25
323.108	441.25
323.337	454.25
323.566	486.25
323.795	504.25
324.024	569.25
324.253	721.25
324.482	1032.25
324.71	1611.25
324.939	2168.25
325.168	1782.25
325.397	958.25
325.626	644.25
325.855	531.25
326.084	491.25
326.313	485.25
326.542	509.25
326.77	529.25
326.999	688.25
327.228	883.25
327.457	1362.25
327.686	1598.25
327.914	1078.25
328.143	692.25
328.372	603.25
328.6	585.25
328.829	556.25
329.058	570.25
329.287	577.25
329.515	526.25
329.744	502.25
329.972	492.25
330.201	519.25
330.43	569.25
330.658	564.25
330.887	609.25
331.115	548.25
331.344	525.25
331.572	439.25
331.801	445.25
332.03	441.25
332.258	416.25
332.486	415.25
332.715	392.25
332.943	395.25
333.172	406.25
333.4	406.25
333.629	410.25
333.857	443.25
334.085	431.25
334.314	450.25
334.542	488.25
334.771	488.25
334.999	451.25
335.227	421.25
335.455	412.25
335.684	392.25
335.912	416.25
336.14	385.25
336.369	381.25
336.597	397.25
336.825	396.25
337.053	387.25
337.281	391.25
337.51	366.25
337.738	377.25
337.966	399.25
338.194	383.25
338.422	389.25
338.65	390.25
338.878	367.25
339.106	382.25
339.334	371.25
339.562	374.25
339.79	369.25
340.018	370.25
340.246	382.25
340.474	382.25
340.702	376.25
340.93	380.25
341.158	378.25
341.386	381.25
341.614	392.25
341.842	397.25
342.07	388.25
342.298	409.25
342.526	378.25
342.754	372.25
342.981	350.25
343.209	356.25
343.437	381.25
343.665	370.25
343.893	384.25
344.12	380.25
344.348	365.25
344.576	388.25
344.804	378.25
345.031	392.25
345.259	414.25
345.487	396.25
345.714	382.25
345.942	377.25
346.17	362.25
346.397	382.25
346.625	390.25
346.853	361.25
347.08	369.25
347.308	393.25
347.535	396.25
347.763	375.25
347.99	392.25
348.218	385.25
348.445	388.25
348.673	383.25
348.9	362.25
349.128	388.25
349.355	362.25
349.583	392.25
349.81	366.25
350.037	372.25
350.265	340.25
350.492	366.25
350.72	363.25
350.947	340.25
351.174	367.25
351.402	382.25
351.629	403.25
351.856	390.25
352.083	386.25
352.311	385.25
352.538	414.25
352.765	400.25
352.992	395.25
353.22	362.25
353.447	385.25
353.674	345.25
353.901	374.25
354.128	358.25
354.355	348.25
354.583	356.25
354.81	331.25
355.037	337.25
355.264	358.25
355.491	335.25
355.718	334.25
355.945	339.25
356.172	343.25
356.399	334.25
356.626	342.25
356.853	335.25
357.08	351.25
357.307	356.25
357.534	342.25
357.761	346.25
357.988	338.25
358.215	319.25
358.441	340.25
358.668	344.25
358.895	344.25
359.122	349.25
359.349	349.25
359.576	377.25
359.802	398.25
360.029	429.25
360.256	449.25
360.483	419.25
360.709	393.25
360.936	376.25
361.163	361.25
361.39	382.25
361.616	383.25
361.843	369.25
362.07	374.25
362.296	370.25
362.523	361.25
362.749	379.25
362.976	346.25
363.203	358.25
363.429	356.25
363.656	353.25
363.882	348.25
364.109	353.25
364.335	355.25
364.562	360.25
364.788	360.25
365.015	347.25
365.241	346.25
365.468	349.25
365.694	374.25
365.92	361.25
366.147	335.25
366.373	350.25
366.599	336.25
366.826	348.25
367.052	347.25
367.278	358.25
367.505	341.25
367.731	352.25
367.957	362.25
368.184	338.25
368.41	341.25
368.636	362.25
368.862	365.25
369.089	342.25
369.315	362.25
369.541	345.25
369.767	332.25
369.993	354.25
370.219	351.25
370.445	361.25
370.672	358.25
370.898	332.25
371.124	335.25
371.35	353.25
371.576	332.25
371.802	337.25
372.028	341.25
372.254	340.25
372.48	346.25
372.706	338.25
372.932	352.25
373.158	352.25
373.384	343.25
373.61	346.25
373.835	343.25
374.061	327.25
374.287	354.25
374.513	353.25
374.739	336.25
374.965	363.25
375.191	332.25
375.416	326.25
375.642	333.25
375.868	358.25
376.094	353.25
376.319	348.25
376.545	344.25
376.771	338.25
376.997	334.25
377.222	337.25
377.448	338.25
377.674	343.25
377.899	335.25
378.125	331.25
378.35	325.25
378.576	332.25
378.802	347.25
379.027	357.25
379.253	327.25
379.478	329.25
379.704	328.25
379.929	338.25
380.155	334.25
380.38	351.25
380.606	338.25
380.831	340.25
381.057	326.25
381.282	344.25
381.507	341.25
381.733	333.25
381.958	345.25
382.184	336.25
382.409	342.25
382.634	343.25
382.86	354.25
383.085	329.25
383.31	350.25
383.535	334.25
383.761	345.25
383.986	342.25
384.211	349.25
384.436	344.25
384.662	361.25
384.887	344.25
385.112	348.25
385.337	358.25
385.562	362.25
385.787	364.25
386.013	378.25
386.238	372.25
386.463	364.25
386.688	380.25
386.913	360.25
387.138	352.25
387.363	367.25
387.588	349.25
387.813	362.25
388.038	354.25
388.263	367.25
388.488	353.25
388.713	350.25
388.938	369.25
389.163	365.25
389.387	373.25
389.612	356.25
389.837	364.25
390.062	354.25
390.287	352.25
390.512	367.25
390.736	363.25
390.961	340.25
391.186	373.25
391.411	370.25
391.636	377.25
391.86	383.25
392.085	384.25
392.31	378.25
392.534	354.25
392.759	365.25
392.984	346.25
393.208	353.25
393.433	375.25
393.658	357.25
393.882	366.25
394.107	365.25
394.331	368.25
394.556	358.25
394.78	367.25
395.005	382.25
395.229	376.25
395.454	362.25
395.678	400.25
395.903	394.25
396.127	386.25
396.352	381.25
396.576	384.25
396.801	383.25
397.025	391.25
397.249	374.25
397.474	385.25
397.698	413.25
397.922	400.25
398.147	411.25
398.371	409.25
398.595	422.25
398.82	421.25
399.044	410.25
399.268	428.25
399.492	433.25
399.717	447.25
399.941	456.25
400.165	486.25
400.389	514.25
400.613	470.25
400.837	428.25
401.062	421.25
401.286	416.25
401.51	408.25
401.734	384.25
401.958	407.25
402.182	439.25
402.406	419.25
402.63	433.25
402.854	424.25
403.078	408.25
403.302	408.25
403.526	424.25
403.75	421.25
403.974	423.25
404.198	409.25
404.422	431.25
404.645	459.25
404.869	445.25
405.093	466.25
405.317	474.25
405.541	525.25
405.765	486.25
405.988	466.25
406.212	472.25
406.436	491.25
406.66	503.25
406.883	466.25
407.107	471.25
407.331	493.25
407.555	560.25
407.778	560.25
408.002	524.25
408.226	478.25
408.449	461.25
408.673	467.25
408.896	497.25
409.12	498.25
409.344	485.25
409.567	460.25
409.791	453.25
410.014	424.25
410.238	438.25
410.461	438.25
410.685	417.25
410.908	452.25
411.132	473.25
411.355	516.25
411.578	474.25
411.802	436.25
412.025	430.25
412.249	438.25
412.472	454.25
412.695	481.25
412.919	493.25
413.142	442.25
413.365	417.25
413.589	422.25
413.812	414.25
414.035	412.25
414.258	422.25
414.482	415.25
414.705	401.25
414.928	406.25
415.151	378.25
415.374	384.25
415.597	396.25
415.821	401.25
416.044	395.25
416.267	404.25
416.49	389.25
416.713	401.25
416.936	388.25
417.159	400.25
417.382	414.25
417.605	417.25
417.828	423.25
418.051	434.25
418.274	410.25
418.497	402.25
418.72	397.25
418.943	398.25
419.166	403.25
419.389	414.25
419.611	416.25
419.834	420.25
420.057	431.25
420.28	433.25
420.503	427.25
420.726	413.25
420.948	431.25
421.171	478.25
421.394	494.25
421.617	428.25
421.839	417.25
422.062	430.25
422.285	450.25
422.507	477.25
422.73	542.25
422.953	523.25
423.175	465.25
423.398	469.25
423.621	444.25
423.843	452.25
424.066	450.25
424.288	449.25
424.511	489.25
424.733	522.25
424.956	589.25
425.178	578.25
425.401	592.25
425.623	566.25
425.846	490.25
426.068	440.25
426.291	481.25
426.513	477.25
426.735	467.25
426.958	506.25
427.18	586.25
427.402	680.25
427.625	761.25
427.847	693.25
428.069	601.25
428.292	533.25
428.514	480.25
428.736	458.25
428.958	458.25
429.181	437.25
429.403	430.25
429.625	452.25
429.847	472.25
430.069	530.25
430.292	510.25
430.514	465.25
430.736	423.25
430.958	425.25
431.18	412.25
431.402	410.25
431.624	418.25
431.846	398.25
432.068	394.25
432.29	418.25
432.512	406.25
432.734	420.25
432.956	409.25
433.178	424.25
433.4	424.25
433.622	398.25
433.844	414.25
434.066	395.25
434.287	412.25
434.509	405.25
434.731	412.25
434.953	414.25
435.175	428.25
435.397	433.25
435.618	465.25
435.84	505.25
436.062	578.25
436.284	623.25
436.505	529.25
436.727	468.25
436.949	434.25
437.17	436.25
437.392	450.25
437.614	429.25
437.835	490.25
438.057	574.25
438.278	638.25
438.5	665.25
438.721	697.25
438.943	669.25
439.165	554.25
439.386	480.25
439.608	476.25
439.829	483.25
440.05	501.25
440.272	572.25
440.493	495.25
440.715	469.25
440.936	470.25
441.158	444.25
441.379	439.25
441.6	449.25
441.822	486.25
442.043	495.25
442.264	570.25
442.486	593.25
442.707	517.25
442.928	501.25
443.149	500.25
443.371	527.25
443.592	555.25
443.813	638.25
444.034	665.25
444.255	545.25
444.476	488.25
444.698	459.25
444.919	455.25
445.14	562.25
445.361	520.25
445.582	508.25
445.803	564.25
446.024	664.25
446.245	660.25
446.466	620.25
446.687	524.25
446.908	462.25
447.129	466.25
447.35	461.25
447.571	450.25
447.792	429.25
448.013	420.25
448.234	469.25
448.455	516.25
448.675	615.25
448.896	676.25
449.117	581.25
449.338	569.25
449.559	649.25
449.779	689.25
450	575.25
450.221	492.25
450.442	454.25
450.662	437.25
450.883	438.25
451.104	475.25
451.324	436.25
451.545	416.25
451.766	403.25
451.986	409.25
452.207	411.25
452.428	405.25
452.648	390.25
452.869	408.25
453.089	398.25
453.31	420.25
453.53	413.25
453.751	392.25
453.971	396.25
454.192	432.25
454.412	436.25
454.633	396.25
454.853	407.25
455.073	400.25
455.294	410.25
455.514	480.25
455.734	462.25
455.955	414.25
456.175	384.25
456.395	382.25
456.616	368.25
456.836	388.25
457.056	357.25
457.276	328.25
457.497	365.25
457.717	370.25
457.937	387.25
458.157	392.25
458.377	389.25
458.598	408.25
458.818	452.25
459.038	553.25
459.258	544.25
459.478	469.25
459.698	409.25
459.918	411.25
460.138	416.25
460.358	418.25
460.578	406.25
460.798	416.25
461.018	421.25
461.238	413.25
461.458	401.25
461.678	389.25
461.898	418.25
462.118	420.25
462.338	418.25
462.558	416.25
462.777	425.25
462.997	419.25
463.217	418.25
463.437	423.25
463.657	398.25
463.876	426.25
464.096	438.25
464.316	430.25
464.536	437.25
464.755	434.25
464.975	441.25
465.195	501.25
465.414	567.25
465.634	529.25
465.854	464.25
466.073	425.25
466.293	418.25
466.512	417.25
466.732	400.25
466.951	432.25
467.171	388.25
467.391	398.25
467.61	420.25
467.829	412.25
468.049	407.25
468.268	424.25
468.488	406.25
468.707	409.25
468.927	396.25
469.146	385.25
469.365	409.25
469.585	392.25
469.804	390.25
470.023	394.25
470.243	390.25
470.462	401.25
470.681	422.25
470.901	432.25
471.12	399.25
471.339	425.25
471.558	412.25
471.777	413.25
471.997	382.25
472.216	424.25
472.435	454.25
472.654	455.25
472.873	411.25
473.092	394.25
473.311	423.25
473.53	418.25
473.749	415.25
473.968	457.25
474.187	554.25
474.406	568.25
474.625	458.25
474.844	420.25
475.063	421.25
475.282	401.25
475.501	388.25
475.72	399.25
475.939	407.25
476.158	410.25
476.377	421.25
476.596	421.25
476.814	446.25
477.033	430.25
477.252	441.25
477.471	450.25
477.69	443.25
477.908	432.25
478.127	430.25
478.346	422.25
478.564	439.25
478.783	431.25
479.002	447.25
479.22	454.25
479.439	478.25
479.658	484.25
479.876	505.25
480.095	489.25
480.313	524.25
480.532	505.25
480.751	505.25
480.969	530.25
481.188	576.25
481.406	667.25
481.624	538.25
481.843	514.25
482.061	514.25
482.28	466.25
482.498	492.25
482.717	473.25
482.935	489.25
483.153	484.25
483.372	461.25
483.59	480.25
483.808	482.25
484.027	479.25
484.245	461.25
484.463	468.25
484.681	494.25
484.9	484.25
485.118	483.25
485.336	502.25
485.554	512.25
485.772	491.25
485.99	502.25
486.209	490.25
486.427	501.25
486.645	501.25
486.863	513.25
487.081	545.25
487.299	522.25
487.517	512.25
487.735	522.25
487.953	494.25
488.171	529.25
488.389	515.25
488.607	525.25
488.825	513.25
489.043	511.25
489.261	532.25
489.479	520.25
489.696	542.25
489.914	534.25
490.132	536.25
490.35	536.25
490.568	530.25
490.786	536.25
491.003	541.25
491.221	551.25
491.439	572.25
491.657	584.25
491.874	607.25
492.092	596.25
492.31	578.25
492.527	596.25
492.745	583.25
492.963	601.25
493.18	613.25
493.398	598.25
493.615	598.25
493.833	598.25
494.05	596.25
494.268	587.25
494.485	594.25
494.703	588.25
494.92	594.25
495.138	612.25
495.355	598.25
495.573	638.25
495.79	587.25
496.008	612.25
496.225	620.25
496.442	624.25
496.66	615.25
496.877	603.25
497.094	629.25
497.312	580.25
497.529	610.25
497.746	637.25
497.963	612.25
498.181	654.25
498.398	637.25
498.615	638.25
498.832	649.25
499.049	673.25
499.267	678.25
499.484	677.25
499.701	704.25
499.918	724.25
500.135	737.25
500.352	736.25
500.569	745.25
500.786	776.25
501.003	719.25
501.22	768.25
501.437	756.25
501.654	728.25
501.871	710.25
