Data from 1965.PennyLincolnUp.Lamp.En5.5.200Scan.071719.P1._HRD10591_14-08-50-911.txt Node
Date: Thu Jul 18 14:08:50 EDT 2019
User: cochatt
Spectrometer: HR+D1059
Trigger mode: 1
Integration Time (sec): 1.000000E-1
Scans to average: 1
Electric dark correction enabled: true
Nonlinearity correction enabled: false
Boxcar width: 0
XAxis mode: Wavelengths
Number of Pixels in Spectrum: 2048
>>>>>Begin Spectral Data<<<<<
223.165	-10.38
223.4	-10.38
223.635	-10.38
223.869	-23.38
224.104	-5.38
224.338	-16.38
224.573	-4.38
224.808	-7.38
225.042	-11.38
225.277	-9.38
225.511	-11.38
225.746	5.62
225.98	5.62
226.215	16.62
226.449	10.62
226.683	21.62
226.918	14.62
227.152	24.62
227.387	39.62
227.621	30.62
227.856	42.62
228.09	42.62
228.324	43.62
228.559	61.62
228.793	71.62
229.027	89.62
229.262	101.62
229.496	88.62
229.73	127.62
229.964	132.62
230.199	105.62
230.433	111.62
230.667	120.62
230.901	99.62
231.136	118.62
231.37	114.62
231.604	101.62
231.838	87.62
232.072	99.62
232.306	100.62
232.541	99.62
232.775	104.62
233.009	116.62
233.243	102.62
233.477	96.62
233.711	97.62
233.945	110.62
234.179	118.62
234.413	103.62
234.647	118.62
234.881	104.62
235.115	107.62
235.349	115.62
235.583	110.62
235.817	111.62
236.051	121.62
236.285	115.62
236.519	119.62
236.753	120.62
236.987	123.62
237.221	160.62
237.455	197.62
237.689	164.62
237.922	131.62
238.156	144.62
238.39	135.62
238.624	122.62
238.858	132.62
239.091	107.62
239.325	112.62
239.559	119.62
239.793	119.62
240.027	112.62
240.26	139.62
240.494	150.62
240.728	128.62
240.961	132.62
241.195	143.62
241.429	135.62
241.662	110.62
241.896	130.62
242.13	124.62
242.363	124.62
242.597	122.62
242.83	110.62
243.064	122.62
243.298	127.62
243.531	126.62
243.765	126.62
243.998	131.62
244.232	114.62
244.465	134.62
244.699	141.62
244.932	131.62
245.166	142.62
245.399	139.62
245.633	123.62
245.866	122.62
246.099	127.62
246.333	129.62
246.566	152.62
246.8	132.62
247.033	137.62
247.266	134.62
247.5	139.62
247.733	136.62
247.966	142.62
248.2	146.62
248.433	159.62
248.666	149.62
248.899	158.62
249.133	180.62
249.366	187.62
249.599	187.62
249.832	160.62
250.066	167.62
250.299	168.62
250.532	176.62
250.765	171.62
250.998	191.62
251.231	184.62
251.465	181.62
251.698	179.62
251.931	174.62
252.164	148.62
252.397	175.62
252.63	186.62
252.863	186.62
253.096	192.62
253.329	192.62
253.562	191.62
253.795	186.62
254.028	202.62
254.261	193.62
254.494	206.62
254.727	206.62
254.96	232.62
255.193	227.62
255.426	201.62
255.659	198.62
255.892	192.62
256.124	208.62
256.357	191.62
256.59	201.62
256.823	190.62
257.056	191.62
257.289	179.62
257.521	180.62
257.754	186.62
257.987	180.62
258.22	192.62
258.452	179.62
258.685	173.62
258.918	175.62
259.151	199.62
259.383	185.62
259.616	203.62
259.849	207.62
260.081	185.62
260.314	202.62
260.547	221.62
260.779	219.62
261.012	211.62
261.244	205.62
261.477	190.62
261.71	209.62
261.942	204.62
262.175	208.62
262.407	205.62
262.64	199.62
262.872	194.62
263.105	195.62
263.337	195.62
263.57	205.62
263.802	204.62
264.035	195.62
264.267	190.62
264.499	180.62
264.732	186.62
264.964	180.62
265.197	188.62
265.429	184.62
265.661	178.62
265.894	199.62
266.126	189.62
266.358	198.62
266.591	181.62
266.823	201.62
267.055	197.62
267.287	214.62
267.52	192.62
267.752	187.62
267.984	194.62
268.216	190.62
268.448	179.62
268.681	195.62
268.913	198.62
269.145	224.62
269.377	218.62
269.609	215.62
269.841	220.62
270.073	230.62
270.306	250.62
270.538	270.62
270.77	261.62
271.002	260.62
271.234	242.62
271.466	259.62
271.698	252.62
271.93	295.62
272.162	278.62
272.394	270.62
272.626	247.62
272.858	263.62
273.09	246.62
273.322	268.62
273.553	242.62
273.785	210.62
274.017	233.62
274.249	204.62
274.481	237.62
274.713	239.62
274.945	223.62
275.176	237.62
275.408	235.62
275.64	242.62
275.872	236.62
276.104	224.62
276.335	221.62
276.567	234.62
276.799	263.62
277.031	270.62
277.262	266.62
277.494	283.62
277.726	265.62
277.957	259.62
278.189	213.62
278.421	236.62
278.652	243.62
278.884	222.62
279.115	227.62
279.347	224.62
279.579	225.62
279.81	224.62
280.042	233.62
280.273	228.62
280.505	225.62
280.736	218.62
280.968	227.62
281.199	219.62
281.431	229.62
281.662	221.62
281.894	234.62
282.125	250.62
282.356	242.62
282.588	263.62
282.819	276.62
283.051	236.62
283.282	244.62
283.513	246.62
283.745	246.62
283.976	237.62
284.207	234.62
284.439	234.62
284.67	244.62
284.901	232.62
285.132	241.62
285.364	234.62
285.595	223.62
285.826	238.62
286.057	230.62
286.288	248.62
286.52	243.62
286.751	238.62
286.982	230.62
287.213	244.62
287.444	260.62
287.675	252.62
287.906	243.62
288.138	256.62
288.369	251.62
288.6	247.62
288.831	244.62
289.062	274.62
289.293	264.62
289.524	254.62
289.755	245.62
289.986	243.62
290.217	254.62
290.448	267.62
290.679	239.62
290.91	215.62
291.141	236.62
291.371	234.62
291.602	247.62
291.833	239.62
292.064	248.62
292.295	260.62
292.526	244.62
292.757	243.62
292.987	251.62
293.218	246.62
293.449	266.62
293.68	242.62
293.91	255.62
294.141	251.62
294.372	252.62
294.603	257.62
294.833	238.62
295.064	263.62
295.295	262.62
295.525	256.62
295.756	264.62
295.987	245.62
296.217	268.62
296.448	297.62
296.679	266.62
296.909	247.62
297.14	246.62
297.37	258.62
297.601	239.62
297.831	244.62
298.062	252.62
298.292	265.62
298.523	273.62
298.753	258.62
298.984	256.62
299.214	264.62
299.445	265.62
299.675	263.62
299.905	254.62
300.136	271.62
300.366	253.62
300.597	284.62
300.827	243.62
301.057	269.62
301.288	271.62
301.518	279.62
301.748	272.62
301.979	277.62
302.209	273.62
302.439	283.62
302.669	263.62
302.9	267.62
303.13	277.62
303.36	287.62
303.59	284.62
303.82	279.62
304.051	290.62
304.281	282.62
304.511	266.62
304.741	262.62
304.971	284.62
305.201	296.62
305.431	271.62
305.661	259.62
305.891	254.62
306.121	266.62
306.352	284.62
306.582	288.62
306.812	296.62
307.042	292.62
307.272	283.62
307.502	281.62
307.731	292.62
307.961	289.62
308.191	297.62
308.421	272.62
308.651	269.62
308.881	282.62
309.111	288.62
309.341	281.62
309.571	295.62
309.8	296.62
310.03	314.62
310.26	319.62
310.49	322.62
310.72	344.62
310.949	324.62
311.179	334.62
311.409	331.62
311.639	320.62
311.868	313.62
312.098	329.62
312.328	338.62
312.557	354.62
312.787	363.62
313.017	345.62
313.246	334.62
313.476	320.62
313.706	314.62
313.935	348.62
314.165	356.62
314.394	341.62
314.624	333.62
314.853	324.62
315.083	325.62
315.312	327.62
315.542	324.62
315.771	332.62
316.001	311.62
316.23	317.62
316.46	322.62
316.689	318.62
316.919	315.62
317.148	296.62
317.377	352.62
317.607	328.62
317.836	324.62
318.065	330.62
318.295	333.62
318.524	317.62
318.753	333.62
318.983	324.62
319.212	326.62
319.441	359.62
319.67	358.62
319.9	318.62
320.129	325.62
320.358	326.62
320.587	322.62
320.816	331.62
321.046	352.62
321.275	363.62
321.504	366.62
321.733	341.62
321.962	334.62
322.191	361.62
322.42	368.62
322.649	394.62
322.878	402.62
323.108	423.62
323.337	421.62
323.566	457.62
323.795	459.62
324.024	526.62
324.253	636.62
324.482	919.62
324.71	1418.62
324.939	1909.62
325.168	1586.62
325.397	859.62
325.626	583.62
325.855	507.62
326.084	469.62
326.313	459.62
326.542	470.62
326.77	490.62
326.999	591.62
327.228	811.62
327.457	1193.62
327.686	1438.62
327.914	956.62
328.143	654.62
328.372	554.62
328.6	540.62
328.829	485.62
329.058	504.62
329.287	508.62
329.515	491.62
329.744	459.62
329.972	460.62
330.201	480.62
330.43	488.62
330.658	524.62
330.887	527.62
331.115	543.62
331.344	470.62
331.572	446.62
331.801	437.62
332.03	417.62
332.258	428.62
332.486	396.62
332.715	393.62
332.943	375.62
333.172	378.62
333.4	368.62
333.629	388.62
333.857	404.62
334.085	405.62
334.314	440.62
334.542	470.62
334.771	480.62
334.999	414.62
335.227	412.62
335.455	385.62
335.684	379.62
335.912	377.62
336.14	385.62
336.369	384.62
336.597	381.62
336.825	380.62
337.053	384.62
337.281	354.62
337.51	363.62
337.738	365.62
337.966	386.62
338.194	377.62
338.422	371.62
338.65	381.62
338.878	358.62
339.106	358.62
339.334	357.62
339.562	361.62
339.79	361.62
340.018	374.62
340.246	364.62
340.474	372.62
340.702	344.62
340.93	363.62
341.158	376.62
341.386	351.62
341.614	367.62
341.842	362.62
342.07	356.62
342.298	365.62
342.526	347.62
342.754	342.62
342.981	356.62
343.209	354.62
343.437	348.62
343.665	359.62
343.893	364.62
344.12	379.62
344.348	370.62
344.576	365.62
344.804	362.62
345.031	387.62
345.259	381.62
345.487	370.62
345.714	378.62
345.942	374.62
346.17	361.62
346.397	358.62
346.625	341.62
346.853	368.62
347.08	354.62
347.308	370.62
347.535	382.62
347.763	389.62
347.99	383.62
348.218	366.62
348.445	377.62
348.673	383.62
348.9	384.62
349.128	368.62
349.355	360.62
349.583	332.62
349.81	358.62
350.037	334.62
350.265	343.62
350.492	341.62
350.72	348.62
350.947	356.62
351.174	365.62
351.402	374.62
351.629	364.62
351.856	363.62
352.083	351.62
352.311	371.62
352.538	388.62
352.765	373.62
352.992	356.62
353.22	357.62
353.447	365.62
353.674	346.62
353.901	326.62
354.128	328.62
354.355	323.62
354.583	338.62
354.81	366.62
355.037	331.62
355.264	348.62
355.491	317.62
355.718	330.62
355.945	334.62
356.172	336.62
356.399	337.62
356.626	327.62
356.853	320.62
357.08	331.62
357.307	343.62
357.534	314.62
357.761	334.62
357.988	328.62
358.215	341.62
358.441	339.62
358.668	326.62
358.895	323.62
359.122	326.62
359.349	346.62
359.576	352.62
359.802	364.62
360.029	380.62
360.256	386.62
360.483	380.62
360.709	377.62
360.936	360.62
361.163	376.62
361.39	374.62
361.616	374.62
361.843	348.62
362.07	368.62
362.296	363.62
362.523	354.62
362.749	348.62
362.976	331.62
363.203	347.62
363.429	336.62
363.656	324.62
363.882	359.62
364.109	338.62
364.335	337.62
364.562	344.62
364.788	323.62
365.015	340.62
365.241	348.62
365.468	344.62
365.694	363.62
365.92	354.62
366.147	335.62
366.373	341.62
366.599	328.62
366.826	328.62
367.052	346.62
367.278	332.62
367.505	326.62
367.731	324.62
367.957	352.62
368.184	324.62
368.41	353.62
368.636	357.62
368.862	360.62
369.089	326.62
369.315	342.62
369.541	354.62
369.767	338.62
369.993	342.62
370.219	325.62
370.445	316.62
370.672	325.62
370.898	336.62
371.124	349.62
371.35	342.62
371.576	329.62
371.802	319.62
372.028	346.62
372.254	327.62
372.48	330.62
372.706	323.62
372.932	329.62
373.158	352.62
373.384	330.62
373.61	343.62
373.835	344.62
374.061	328.62
374.287	348.62
374.513	341.62
374.739	351.62
374.965	352.62
375.191	318.62
375.416	332.62
375.642	336.62
375.868	335.62
376.094	344.62
376.319	320.62
376.545	336.62
376.771	335.62
376.997	327.62
377.222	335.62
377.448	334.62
377.674	348.62
377.899	319.62
378.125	336.62
378.35	322.62
378.576	316.62
378.802	319.62
379.027	331.62
379.253	336.62
379.478	348.62
379.704	326.62
379.929	353.62
380.155	327.62
380.38	340.62
380.606	325.62
380.831	334.62
381.057	336.62
381.282	338.62
381.507	341.62
381.733	328.62
381.958	328.62
382.184	328.62
382.409	348.62
382.634	337.62
382.86	340.62
383.085	341.62
383.31	338.62
383.535	342.62
383.761	347.62
383.986	339.62
384.211	363.62
384.436	338.62
384.662	342.62
384.887	342.62
385.112	325.62
385.337	341.62
385.562	371.62
385.787	367.62
386.013	376.62
386.238	365.62
386.463	355.62
386.688	362.62
386.913	366.62
387.138	341.62
387.363	349.62
387.588	350.62
387.813	358.62
388.038	356.62
388.263	349.62
388.488	362.62
388.713	360.62
388.938	353.62
389.163	344.62
389.387	353.62
389.612	362.62
389.837	376.62
390.062	362.62
390.287	360.62
390.512	359.62
390.736	347.62
390.961	375.62
391.186	357.62
391.411	371.62
391.636	348.62
391.86	364.62
392.085	362.62
392.31	364.62
392.534	359.62
392.759	344.62
392.984	331.62
393.208	363.62
393.433	356.62
393.658	356.62
393.882	332.62
394.107	367.62
394.331	355.62
394.556	352.62
394.78	365.62
395.005	365.62
395.229	343.62
395.454	360.62
395.678	386.62
395.903	365.62
396.127	370.62
396.352	400.62
396.576	375.62
396.801	357.62
397.025	374.62
397.249	372.62
397.474	382.62
397.698	399.62
397.922	382.62
398.147	392.62
398.371	406.62
398.595	394.62
398.82	410.62
399.044	396.62
399.268	408.62
399.492	405.62
399.717	451.62
399.941	463.62
400.165	479.62
400.389	526.62
400.613	464.62
400.837	436.62
401.062	397.62
401.286	420.62
401.51	393.62
401.734	423.62
401.958	402.62
402.182	408.62
402.406	412.62
402.63	421.62
402.854	424.62
403.078	414.62
403.302	404.62
403.526	402.62
403.75	407.62
403.974	422.62
404.198	415.62
404.422	414.62
404.645	404.62
404.869	419.62
405.093	446.62
405.317	463.62
405.541	491.62
405.765	483.62
405.988	449.62
406.212	451.62
406.436	486.62
406.66	477.62
406.883	461.62
407.107	475.62
407.331	487.62
407.555	572.62
407.778	556.62
408.002	491.62
408.226	465.62
408.449	452.62
408.673	460.62
408.896	491.62
409.12	492.62
409.344	485.62
409.567	439.62
409.791	438.62
410.014	430.62
410.238	412.62
410.461	419.62
410.685	412.62
410.908	426.62
411.132	456.62
411.355	474.62
411.578	458.62
411.802	434.62
412.025	429.62
412.249	433.62
412.472	440.62
412.695	465.62
412.919	462.62
413.142	434.62
413.365	409.62
413.589	414.62
413.812	416.62
414.035	416.62
414.258	414.62
414.482	378.62
414.705	389.62
414.928	386.62
415.151	395.62
415.374	401.62
415.597	381.62
415.821	384.62
416.044	409.62
416.267	409.62
416.49	386.62
416.713	399.62
416.936	390.62
417.159	405.62
417.382	374.62
417.605	408.62
417.828	396.62
418.051	418.62
418.274	415.62
418.497	390.62
418.72	408.62
418.943	387.62
419.166	407.62
419.389	419.62
419.611	422.62
419.834	408.62
420.057	413.62
420.28	420.62
420.503	402.62
420.726	413.62
420.948	446.62
421.171	470.62
421.394	490.62
421.617	422.62
421.839	436.62
422.062	428.62
422.285	426.62
422.507	474.62
422.73	513.62
422.953	511.62
423.175	444.62
423.398	426.62
423.621	429.62
423.843	434.62
424.066	462.62
424.288	454.62
424.511	464.62
424.733	501.62
424.956	560.62
425.178	521.62
425.401	546.62
425.623	556.62
425.846	486.62
426.068	464.62
426.291	460.62
426.513	439.62
426.735	467.62
426.958	492.62
427.18	543.62
427.402	648.62
427.625	722.62
427.847	653.62
428.069	549.62
428.292	506.62
428.514	447.62
428.736	441.62
428.958	442.62
429.181	424.62
429.403	412.62
429.625	429.62
429.847	448.62
430.069	504.62
430.292	485.62
430.514	429.62
430.736	435.62
430.958	404.62
431.18	397.62
431.402	389.62
431.624	406.62
431.846	398.62
432.068	396.62
432.29	398.62
432.512	396.62
432.734	412.62
432.956	414.62
433.178	425.62
433.4	425.62
433.622	387.62
433.844	397.62
434.066	394.62
434.287	387.62
434.509	398.62
434.731	408.62
434.953	408.62
435.175	423.62
435.397	432.62
435.618	466.62
435.84	491.62
436.062	579.62
436.284	605.62
436.505	497.62
436.727	470.62
436.949	431.62
437.17	421.62
437.392	432.62
437.614	431.62
437.835	471.62
438.057	544.62
438.278	630.62
438.5	643.62
438.721	657.62
438.943	634.62
439.165	538.62
439.386	468.62
439.608	461.62
439.829	491.62
440.05	512.62
440.272	526.62
440.493	477.62
440.715	454.62
440.936	436.62
441.158	444.62
441.379	422.62
441.6	447.62
441.822	462.62
442.043	489.62
442.264	557.62
442.486	570.62
442.707	468.62
442.928	464.62
443.149	471.62
443.371	495.62
443.592	531.62
443.813	570.62
444.034	618.62
444.255	533.62
444.476	464.62
444.698	465.62
444.919	442.62
445.14	536.62
445.361	514.62
445.582	462.62
445.803	548.62
446.024	605.62
446.245	617.62
446.466	567.62
446.687	503.62
446.908	455.62
447.129	438.62
447.35	410.62
447.571	446.62
447.792	396.62
448.013	440.62
448.234	438.62
448.455	486.62
448.675	575.62
448.896	654.62
449.117	574.62
449.338	528.62
449.559	634.62
449.779	692.62
450	555.62
450.221	480.62
450.442	426.62
450.662	436.62
450.883	426.62
451.104	452.62
451.324	427.62
451.545	392.62
451.766	392.62
451.986	374.62
452.207	383.62
452.428	392.62
452.648	387.62
452.869	380.62
453.089	399.62
453.31	399.62
453.53	385.62
453.751	379.62
453.971	380.62
454.192	406.62
454.412	392.62
454.633	396.62
454.853	382.62
455.073	373.62
455.294	426.62
455.514	428.62
455.734	437.62
455.955	375.62
456.175	372.62
456.395	373.62
456.616	336.62
456.836	348.62
457.056	355.62
457.276	344.62
457.497	351.62
457.717	357.62
457.937	364.62
458.157	389.62
458.377	378.62
458.598	385.62
458.818	462.62
459.038	539.62
459.258	513.62
459.478	452.62
459.698	405.62
459.918	379.62
460.138	393.62
460.358	383.62
460.578	383.62
460.798	395.62
461.018	407.62
461.238	404.62
461.458	394.62
461.678	407.62
461.898	427.62
462.118	407.62
462.338	388.62
462.558	410.62
462.777	406.62
462.997	423.62
463.217	410.62
463.437	416.62
463.657	400.62
463.876	412.62
464.096	423.62
464.316	413.62
464.536	421.62
464.755	428.62
464.975	440.62
465.195	495.62
465.414	556.62
465.634	461.62
465.854	440.62
466.073	421.62
466.293	418.62
466.512	403.62
466.732	396.62
466.951	386.62
467.171	367.62
467.391	380.62
467.61	406.62
467.829	405.62
468.049	402.62
468.268	400.62
468.488	399.62
468.707	379.62
468.927	385.62
469.146	362.62
469.365	364.62
469.585	379.62
469.804	394.62
470.023	413.62
470.243	400.62
470.462	398.62
470.681	407.62
470.901	393.62
471.12	395.62
471.339	398.62
471.558	407.62
471.777	398.62
471.997	397.62
472.216	396.62
472.435	430.62
472.654	417.62
472.873	402.62
473.092	405.62
473.311	417.62
473.53	398.62
473.749	415.62
473.968	442.62
474.187	534.62
474.406	526.62
474.625	468.62
474.844	414.62
475.063	396.62
475.282	384.62
475.501	370.62
475.72	422.62
475.939	414.62
476.158	419.62
476.377	405.62
476.596	412.62
476.814	417.62
477.033	418.62
477.252	403.62
477.471	421.62
477.69	431.62
477.908	427.62
478.127	419.62
478.346	430.62
478.564	424.62
478.783	441.62
479.002	461.62
479.22	447.62
479.439	435.62
479.658	486.62
479.876	488.62
480.095	500.62
480.313	504.62
480.532	475.62
480.751	486.62
480.969	485.62
481.188	532.62
481.406	589.62
481.624	518.62
481.843	470.62
482.061	483.62
482.28	463.62
482.498	464.62
482.717	464.62
482.935	460.62
483.153	458.62
483.372	457.62
483.59	467.62
483.808	453.62
484.027	460.62
484.245	431.62
484.463	456.62
484.681	453.62
484.9	444.62
485.118	496.62
485.336	479.62
485.554	475.62
485.772	466.62
485.99	509.62
486.209	478.62
486.427	477.62
486.645	501.62
486.863	504.62
487.081	503.62
487.299	507.62
487.517	493.62
487.735	513.62
487.953	502.62
488.171	480.62
488.389	511.62
488.607	502.62
488.825	494.62
489.043	507.62
489.261	509.62
489.479	491.62
489.696	524.62
489.914	514.62
490.132	512.62
490.35	520.62
490.568	509.62
490.786	524.62
491.003	546.62
491.221	557.62
491.439	548.62
491.657	564.62
491.874	574.62
492.092	551.62
492.31	551.62
492.527	582.62
492.745	582.62
492.963	578.62
493.18	605.62
493.398	588.62
493.615	598.62
493.833	564.62
494.05	584.62
494.268	582.62
494.485	581.62
494.703	567.62
494.92	601.62
495.138	562.62
495.355	569.62
495.573	570.62
495.79	598.62
496.008	587.62
496.225	596.62
496.442	583.62
496.66	579.62
496.877	598.62
497.094	611.62
497.312	597.62
497.529	596.62
497.746	615.62
497.963	609.62
498.181	614.62
498.398	615.62
498.615	620.62
498.832	660.62
499.049	657.62
499.267	630.62
499.484	678.62
499.701	711.62
499.918	710.62
500.135	725.62
500.352	729.62
500.569	757.62
500.786	758.62
501.003	741.62
501.22	736.62
501.437	720.62
501.654	720.62
501.871	720.62
502.088	707.62
