Data from 1965.PennyLincolnUp.Lamp.En5.5.200Scan.071719.P1._HRD10591_14-10-24-912.txt Node
Date: Thu Jul 18 14:10:24 EDT 2019
User: cochatt
Spectrometer: HR+D1059
Trigger mode: 1
Integration Time (sec): 1.000000E-1
Scans to average: 1
Electric dark correction enabled: true
Nonlinearity correction enabled: false
Boxcar width: 0
XAxis mode: Wavelengths
Number of Pixels in Spectrum: 2048
>>>>>Begin Spectral Data<<<<<
223.165	-10.56
223.4	-10.56
223.635	-10.56
223.869	-19.56
224.104	-36.56
224.338	-7.56
224.573	-20.56
224.808	-14.56
225.042	-5.56
225.277	4.44
225.511	-14.56
225.746	1.44
225.98	-0.56
226.215	14.44
226.449	27.44
226.683	31.44
226.918	24.44
227.152	26.44
227.387	40.44
227.621	43.44
227.856	48.44
228.09	44.44
228.324	50.44
228.559	61.44
228.793	73.44
229.027	103.44
229.262	113.44
229.496	112.44
229.73	128.44
229.964	153.44
230.199	131.44
230.433	113.44
230.667	115.44
230.901	116.44
231.136	124.44
231.37	116.44
231.604	108.44
231.838	111.44
232.072	111.44
232.306	120.44
232.541	104.44
232.775	111.44
233.009	114.44
233.243	107.44
233.477	122.44
233.711	108.44
233.945	123.44
234.179	113.44
234.413	123.44
234.647	116.44
234.881	106.44
235.115	114.44
235.349	112.44
235.583	121.44
235.817	133.44
236.051	114.44
236.285	139.44
236.519	129.44
236.753	148.44
236.987	135.44
237.221	183.44
237.455	231.44
237.689	173.44
237.922	150.44
238.156	131.44
238.39	123.44
238.624	127.44
238.858	123.44
239.091	128.44
239.325	108.44
239.559	119.44
239.793	141.44
240.027	139.44
240.26	141.44
240.494	138.44
240.728	142.44
240.961	149.44
241.195	140.44
241.429	133.44
241.662	136.44
241.896	128.44
242.13	145.44
242.363	127.44
242.597	127.44
242.83	112.44
243.064	121.44
243.298	141.44
243.531	125.44
243.765	138.44
243.998	135.44
244.232	137.44
244.465	151.44
244.699	141.44
244.932	139.44
245.166	136.44
245.399	153.44
245.633	136.44
245.866	144.44
246.099	133.44
246.333	159.44
246.566	157.44
246.8	149.44
247.033	154.44
247.266	155.44
247.5	141.44
247.733	161.44
247.966	169.44
248.2	164.44
248.433	164.44
248.666	156.44
248.899	186.44
249.133	201.44
249.366	189.44
249.599	188.44
249.832	159.44
250.066	177.44
250.299	174.44
250.532	186.44
250.765	196.44
250.998	198.44
251.231	211.44
251.465	197.44
251.698	204.44
251.931	189.44
252.164	188.44
252.397	184.44
252.63	191.44
252.863	187.44
253.096	199.44
253.329	209.44
253.562	211.44
253.795	216.44
254.028	193.44
254.261	183.44
254.494	218.44
254.727	227.44
254.96	260.44
255.193	266.44
255.426	226.44
255.659	215.44
255.892	212.44
256.124	223.44
256.357	215.44
256.59	213.44
256.823	203.44
257.056	203.44
257.289	205.44
257.521	200.44
257.754	194.44
257.987	193.44
258.22	213.44
258.452	180.44
258.685	189.44
258.918	187.44
259.151	190.44
259.383	220.44
259.616	200.44
259.849	216.44
260.081	222.44
260.314	249.44
260.547	235.44
260.779	225.44
261.012	227.44
261.244	204.44
261.477	197.44
261.71	216.44
261.942	222.44
262.175	214.44
262.407	231.44
262.64	206.44
262.872	205.44
263.105	211.44
263.337	201.44
263.57	202.44
263.802	220.44
264.035	202.44
264.267	197.44
264.499	196.44
264.732	186.44
264.964	212.44
265.197	201.44
265.429	187.44
265.661	197.44
265.894	201.44
266.126	211.44
266.358	177.44
266.591	199.44
266.823	199.44
267.055	208.44
267.287	221.44
267.52	213.44
267.752	222.44
267.984	218.44
268.216	213.44
268.448	217.44
268.681	213.44
268.913	210.44
269.145	243.44
269.377	233.44
269.609	241.44
269.841	270.44
270.073	251.44
270.306	281.44
270.538	289.44
270.77	288.44
271.002	284.44
271.234	278.44
271.466	284.44
271.698	281.44
271.93	309.44
272.162	297.44
272.394	298.44
272.626	300.44
272.858	270.44
273.09	269.44
273.322	261.44
273.553	236.44
273.785	258.44
274.017	231.44
274.249	242.44
274.481	261.44
274.713	241.44
274.945	256.44
275.176	264.44
275.408	263.44
275.64	243.44
275.872	243.44
276.104	257.44
276.335	267.44
276.567	240.44
276.799	263.44
277.031	277.44
277.262	287.44
277.494	291.44
277.726	298.44
277.957	271.44
278.189	256.44
278.421	274.44
278.652	244.44
278.884	263.44
279.115	247.44
279.347	241.44
279.579	252.44
279.81	249.44
280.042	234.44
280.273	248.44
280.505	263.44
280.736	248.44
280.968	237.44
281.199	241.44
281.431	236.44
281.662	252.44
281.894	252.44
282.125	257.44
282.356	256.44
282.588	288.44
282.819	289.44
283.051	263.44
283.282	260.44
283.513	253.44
283.745	259.44
283.976	247.44
284.207	250.44
284.439	256.44
284.67	247.44
284.901	271.44
285.132	251.44
285.364	255.44
285.595	250.44
285.826	244.44
286.057	271.44
286.288	256.44
286.52	272.44
286.751	251.44
286.982	265.44
287.213	263.44
287.444	244.44
287.675	265.44
287.906	271.44
288.138	269.44
288.369	276.44
288.6	285.44
288.831	277.44
289.062	271.44
289.293	265.44
289.524	255.44
289.755	258.44
289.986	269.44
290.217	270.44
290.448	249.44
290.679	256.44
290.91	258.44
291.141	252.44
291.371	270.44
291.602	281.44
291.833	256.44
292.064	253.44
292.295	271.44
292.526	263.44
292.757	242.44
292.987	282.44
293.218	267.44
293.449	273.44
293.68	274.44
293.91	280.44
294.141	261.44
294.372	265.44
294.603	267.44
294.833	266.44
295.064	251.44
295.295	244.44
295.525	268.44
295.756	268.44
295.987	303.44
296.217	310.44
296.448	308.44
296.679	291.44
296.909	265.44
297.14	268.44
297.37	282.44
297.601	271.44
297.831	287.44
298.062	258.44
298.292	274.44
298.523	275.44
298.753	288.44
298.984	296.44
299.214	271.44
299.445	293.44
299.675	287.44
299.905	281.44
300.136	288.44
300.366	302.44
300.597	276.44
300.827	275.44
301.057	291.44
301.288	306.44
301.518	295.44
301.748	297.44
301.979	306.44
302.209	304.44
302.439	285.44
302.669	283.44
302.9	302.44
303.13	286.44
303.36	290.44
303.59	307.44
303.82	321.44
304.051	315.44
304.281	298.44
304.511	282.44
304.741	303.44
304.971	295.44
305.201	304.44
305.431	291.44
305.661	301.44
305.891	297.44
306.121	306.44
306.352	296.44
306.582	302.44
306.812	300.44
307.042	288.44
307.272	320.44
307.502	292.44
307.731	301.44
307.961	303.44
308.191	303.44
308.421	306.44
308.651	300.44
308.881	305.44
309.111	300.44
309.341	321.44
309.571	319.44
309.8	331.44
310.03	357.44
310.26	355.44
310.49	357.44
310.72	332.44
310.949	359.44
311.179	368.44
311.409	343.44
311.639	355.44
311.868	352.44
312.098	335.44
312.328	379.44
312.557	371.44
312.787	387.44
313.017	376.44
313.246	365.44
313.476	323.44
313.706	334.44
313.935	369.44
314.165	361.44
314.394	372.44
314.624	364.44
314.853	359.44
315.083	360.44
315.312	347.44
315.542	346.44
315.771	324.44
316.001	341.44
316.23	347.44
316.46	339.44
316.689	343.44
316.919	349.44
317.148	352.44
317.377	365.44
317.607	362.44
317.836	350.44
318.065	338.44
318.295	352.44
318.524	350.44
318.753	334.44
318.983	336.44
319.212	357.44
319.441	378.44
319.67	352.44
319.9	363.44
320.129	358.44
320.358	359.44
320.587	373.44
320.816	349.44
321.046	378.44
321.275	375.44
321.504	389.44
321.733	385.44
321.962	381.44
322.191	419.44
322.42	396.44
322.649	414.44
322.878	436.44
323.108	442.44
323.337	466.44
323.566	490.44
323.795	514.44
324.024	591.44
324.253	703.44
324.482	1066.44
324.71	1625.44
324.939	2219.44
325.168	1849.44
325.397	966.44
325.626	650.44
325.855	535.44
326.084	495.44
326.313	480.44
326.542	483.44
326.77	529.44
326.999	673.44
327.228	936.44
327.457	1392.44
327.686	1631.44
327.914	1099.44
328.143	723.44
328.372	648.44
328.6	585.44
328.829	556.44
329.058	571.44
329.287	573.44
329.515	533.44
329.744	511.44
329.972	512.44
330.201	520.44
330.43	560.44
330.658	579.44
330.887	625.44
331.115	577.44
331.344	503.44
331.572	444.44
331.801	464.44
332.03	468.44
332.258	453.44
332.486	418.44
332.715	426.44
332.943	423.44
333.172	415.44
333.4	414.44
333.629	406.44
333.857	432.44
334.085	458.44
334.314	465.44
334.542	491.44
334.771	511.44
334.999	479.44
335.227	412.44
335.455	419.44
335.684	410.44
335.912	394.44
336.14	411.44
336.369	410.44
336.597	410.44
336.825	410.44
337.053	418.44
337.281	385.44
337.51	412.44
337.738	409.44
337.966	387.44
338.194	405.44
338.422	404.44
338.65	408.44
338.878	385.44
339.106	390.44
339.334	392.44
339.562	391.44
339.79	384.44
340.018	385.44
340.246	401.44
340.474	396.44
340.702	407.44
340.93	385.44
341.158	386.44
341.386	395.44
341.614	404.44
341.842	398.44
342.07	400.44
342.298	378.44
342.526	387.44
342.754	365.44
342.981	364.44
343.209	385.44
343.437	390.44
343.665	369.44
343.893	362.44
344.12	380.44
344.348	396.44
344.576	409.44
344.804	397.44
345.031	405.44
345.259	405.44
345.487	410.44
345.714	395.44
345.942	377.44
346.17	366.44
346.397	381.44
346.625	405.44
346.853	387.44
347.08	381.44
347.308	385.44
347.535	409.44
347.763	399.44
347.99	390.44
348.218	399.44
348.445	404.44
348.673	402.44
348.9	372.44
349.128	368.44
349.355	368.44
349.583	377.44
349.81	349.44
350.037	360.44
350.265	381.44
350.492	369.44
350.72	362.44
350.947	371.44
351.174	375.44
351.402	398.44
351.629	388.44
351.856	408.44
352.083	400.44
352.311	396.44
352.538	417.44
352.765	406.44
352.992	383.44
353.22	387.44
353.447	371.44
353.674	374.44
353.901	368.44
354.128	362.44
354.355	351.44
354.583	356.44
354.81	348.44
355.037	369.44
355.264	345.44
355.491	364.44
355.718	356.44
355.945	350.44
356.172	349.44
356.399	337.44
356.626	363.44
356.853	350.44
357.08	352.44
357.307	352.44
357.534	359.44
357.761	357.44
357.988	334.44
358.215	339.44
358.441	352.44
358.668	360.44
358.895	359.44
359.122	360.44
359.349	377.44
359.576	383.44
359.802	407.44
360.029	451.44
360.256	447.44
360.483	417.44
360.709	408.44
360.936	385.44
361.163	382.44
361.39	378.44
361.616	385.44
361.843	377.44
362.07	378.44
362.296	388.44
362.523	400.44
362.749	387.44
362.976	395.44
363.203	386.44
363.429	371.44
363.656	359.44
363.882	352.44
364.109	373.44
364.335	353.44
364.562	372.44
364.788	360.44
365.015	376.44
365.241	364.44
365.468	382.44
365.694	379.44
365.92	367.44
366.147	363.44
366.373	360.44
366.599	359.44
366.826	364.44
367.052	370.44
367.278	359.44
367.505	369.44
367.731	371.44
367.957	359.44
368.184	360.44
368.41	362.44
368.636	388.44
368.862	365.44
369.089	365.44
369.315	362.44
369.541	351.44
369.767	350.44
369.993	360.44
370.219	377.44
370.445	364.44
370.672	347.44
370.898	356.44
371.124	336.44
371.35	368.44
371.576	361.44
371.802	332.44
372.028	338.44
372.254	361.44
372.48	350.44
372.706	354.44
372.932	369.44
373.158	359.44
373.384	348.44
373.61	333.44
373.835	358.44
374.061	371.44
374.287	355.44
374.513	364.44
374.739	355.44
374.965	372.44
375.191	357.44
375.416	351.44
375.642	344.44
375.868	360.44
376.094	352.44
376.319	346.44
376.545	353.44
376.771	373.44
376.997	356.44
377.222	354.44
377.448	350.44
377.674	354.44
377.899	339.44
378.125	347.44
378.35	362.44
378.576	349.44
378.802	343.44
379.027	340.44
379.253	353.44
379.478	360.44
379.704	347.44
379.929	366.44
380.155	337.44
380.38	363.44
380.606	345.44
380.831	364.44
381.057	351.44
381.282	351.44
381.507	379.44
381.733	364.44
381.958	353.44
382.184	353.44
382.409	340.44
382.634	381.44
382.86	365.44
383.085	376.44
383.31	372.44
383.535	351.44
383.761	356.44
383.986	363.44
384.211	363.44
384.436	367.44
384.662	359.44
384.887	360.44
385.112	360.44
385.337	383.44
385.562	357.44
385.787	367.44
386.013	391.44
386.238	395.44
386.463	378.44
386.688	364.44
386.913	381.44
387.138	378.44
387.363	376.44
387.588	372.44
387.813	380.44
388.038	375.44
388.263	393.44
388.488	378.44
388.713	394.44
388.938	395.44
389.163	382.44
389.387	391.44
389.612	369.44
389.837	395.44
390.062	385.44
390.287	389.44
390.512	379.44
390.736	385.44
390.961	383.44
391.186	384.44
391.411	404.44
391.636	382.44
391.86	380.44
392.085	380.44
392.31	394.44
392.534	368.44
392.759	385.44
392.984	371.44
393.208	370.44
393.433	355.44
393.658	391.44
393.882	375.44
394.107	371.44
394.331	376.44
394.556	381.44
394.78	381.44
395.005	377.44
395.229	403.44
395.454	381.44
395.678	392.44
395.903	412.44
396.127	406.44
396.352	418.44
396.576	387.44
396.801	389.44
397.025	368.44
397.249	395.44
397.474	397.44
397.698	421.44
397.922	405.44
398.147	431.44
398.371	427.44
398.595	415.44
398.82	416.44
399.044	402.44
399.268	432.44
399.492	465.44
399.717	477.44
399.941	493.44
400.165	528.44
400.389	509.44
400.613	472.44
400.837	445.44
401.062	433.44
401.286	450.44
401.51	428.44
401.734	424.44
401.958	420.44
402.182	447.44
402.406	434.44
402.63	437.44
402.854	433.44
403.078	435.44
403.302	426.44
403.526	434.44
403.75	456.44
403.974	442.44
404.198	426.44
404.422	436.44
404.645	434.44
404.869	469.44
405.093	489.44
405.317	528.44
405.541	532.44
405.765	480.44
405.988	463.44
406.212	474.44
406.436	515.44
406.66	511.44
406.883	468.44
407.107	508.44
407.331	540.44
407.555	568.44
407.778	550.44
408.002	530.44
408.226	499.44
408.449	500.44
408.673	489.44
408.896	503.44
409.12	539.44
409.344	496.44
409.567	461.44
409.791	449.44
410.014	445.44
410.238	444.44
410.461	445.44
410.685	445.44
410.908	474.44
411.132	486.44
411.355	532.44
411.578	499.44
411.802	463.44
412.025	427.44
412.249	444.44
412.472	458.44
412.695	506.44
412.919	492.44
413.142	473.44
413.365	462.44
413.589	443.44
413.812	423.44
414.035	417.44
414.258	415.44
414.482	423.44
414.705	416.44
414.928	416.44
415.151	424.44
415.374	414.44
415.597	406.44
415.821	418.44
416.044	404.44
416.267	426.44
416.49	421.44
416.713	408.44
416.936	411.44
417.159	413.44
417.382	424.44
417.605	433.44
417.828	451.44
418.051	446.44
418.274	436.44
418.497	419.44
418.72	409.44
418.943	409.44
419.166	449.44
419.389	452.44
419.611	438.44
419.834	458.44
420.057	445.44
420.28	454.44
420.503	452.44
420.726	445.44
420.948	452.44
421.171	484.44
421.394	509.44
421.617	463.44
421.839	449.44
422.062	431.44
422.285	465.44
422.507	496.44
422.73	576.44
422.953	537.44
423.175	491.44
423.398	452.44
423.621	460.44
423.843	478.44
424.066	466.44
424.288	469.44
424.511	497.44
424.733	533.44
424.956	609.44
425.178	597.44
425.401	576.44
425.623	612.44
425.846	519.44
426.068	489.44
426.291	475.44
426.513	461.44
426.735	488.44
426.958	543.44
427.18	581.44
427.402	712.44
427.625	777.44
427.847	698.44
428.069	606.44
428.292	531.44
428.514	491.44
428.736	452.44
428.958	448.44
429.181	462.44
429.403	443.44
429.625	444.44
429.847	484.44
430.069	536.44
430.292	538.44
430.514	469.44
430.736	440.44
430.958	467.44
431.18	427.44
431.402	419.44
431.624	429.44
431.846	435.44
432.068	436.44
432.29	423.44
432.512	442.44
432.734	424.44
432.956	434.44
433.178	433.44
433.4	437.44
433.622	424.44
433.844	411.44
434.066	420.44
434.287	428.44
434.509	404.44
434.731	423.44
434.953	418.44
435.175	454.44
435.397	474.44
435.618	468.44
435.84	530.44
436.062	644.44
436.284	626.44
436.505	537.44
436.727	474.44
436.949	469.44
437.17	466.44
437.392	455.44
437.614	455.44
437.835	505.44
438.057	607.44
438.278	685.44
438.5	658.44
438.721	721.44
438.943	675.44
439.165	543.44
439.386	497.44
439.608	508.44
439.829	532.44
440.05	521.44
440.272	562.44
440.493	523.44
440.715	480.44
440.936	483.44
441.158	457.44
441.379	453.44
441.6	472.44
441.822	484.44
442.043	527.44
442.264	605.44
442.486	627.44
442.707	517.44
442.928	488.44
443.149	512.44
443.371	547.44
443.592	570.44
443.813	669.44
444.034	660.44
444.255	555.44
444.476	504.44
444.698	485.44
444.919	474.44
445.14	588.44
445.361	544.44
445.582	533.44
445.803	607.44
446.024	678.44
446.245	681.44
446.466	637.44
446.687	530.44
446.908	488.44
447.129	476.44
447.35	448.44
447.571	466.44
447.792	445.44
448.013	453.44
448.234	453.44
448.455	545.44
448.675	636.44
448.896	693.44
449.117	596.44
449.338	555.44
449.559	660.44
449.779	740.44
450	613.44
450.221	539.44
450.442	461.44
450.662	447.44
450.883	448.44
451.104	488.44
451.324	459.44
451.545	438.44
451.766	416.44
451.986	404.44
452.207	404.44
452.428	415.44
452.648	422.44
452.869	386.44
453.089	406.44
453.31	435.44
453.53	408.44
453.751	418.44
453.971	408.44
454.192	444.44
454.412	430.44
454.633	397.44
454.853	394.44
455.073	398.44
455.294	428.44
455.514	483.44
455.734	464.44
455.955	418.44
456.175	385.44
456.395	410.44
456.616	393.44
456.836	404.44
457.056	373.44
457.276	358.44
457.497	383.44
457.717	377.44
457.937	407.44
458.157	389.44
458.377	393.44
458.598	424.44
458.818	488.44
459.038	572.44
459.258	571.44
459.478	481.44
459.698	437.44
459.918	418.44
460.138	403.44
460.358	415.44
460.578	411.44
460.798	429.44
461.018	429.44
461.238	437.44
461.458	410.44
461.678	423.44
461.898	421.44
462.118	422.44
462.338	418.44
462.558	423.44
462.777	447.44
462.997	445.44
463.217	441.44
463.437	454.44
463.657	429.44
463.876	448.44
464.096	433.44
464.316	438.44
464.536	448.44
464.755	473.44
464.975	461.44
465.195	513.44
465.414	572.44
465.634	506.44
465.854	460.44
466.073	447.44
466.293	423.44
466.512	429.44
466.732	385.44
466.951	436.44
467.171	399.44
467.391	421.44
467.61	431.44
467.829	431.44
468.049	445.44
468.268	443.44
468.488	417.44
468.707	393.44
468.927	410.44
469.146	399.44
469.365	418.44
469.585	413.44
469.804	410.44
470.023	441.44
470.243	433.44
470.462	412.44
470.681	444.44
470.901	462.44
471.12	420.44
471.339	425.44
471.558	421.44
471.777	420.44
471.997	418.44
472.216	445.44
472.435	483.44
472.654	467.44
472.873	415.44
473.092	413.44
473.311	422.44
473.53	437.44
473.749	420.44
473.968	469.44
474.187	569.44
474.406	571.44
474.625	470.44
474.844	469.44
475.063	431.44
475.282	436.44
475.501	411.44
475.72	444.44
475.939	426.44
476.158	424.44
476.377	436.44
476.596	443.44
476.814	443.44
477.033	453.44
477.252	482.44
477.471	446.44
477.69	455.44
477.908	456.44
478.127	432.44
478.346	431.44
478.564	456.44
478.783	467.44
479.002	474.44
479.22	475.44
479.439	499.44
479.658	509.44
479.876	506.44
480.095	525.44
480.313	543.44
480.532	533.44
480.751	509.44
480.969	519.44
481.188	597.44
481.406	659.44
481.624	549.44
481.843	511.44
482.061	490.44
482.28	495.44
482.498	500.44
482.717	489.44
482.935	496.44
483.153	494.44
483.372	504.44
483.59	501.44
483.808	496.44
484.027	488.44
484.245	510.44
484.463	503.44
484.681	491.44
484.9	517.44
485.118	509.44
485.336	514.44
485.554	490.44
485.772	511.44
485.99	510.44
486.209	534.44
486.427	528.44
486.645	517.44
486.863	549.44
487.081	560.44
487.299	532.44
487.517	538.44
487.735	533.44
487.953	531.44
488.171	519.44
488.389	543.44
488.607	536.44
488.825	541.44
489.043	526.44
489.261	542.44
489.479	546.44
489.696	538.44
489.914	553.44
490.132	553.44
490.35	564.44
490.568	556.44
490.786	575.44
491.003	583.44
491.221	559.44
491.439	589.44
491.657	596.44
491.874	615.44
492.092	607.44
492.31	595.44
492.527	592.44
492.745	619.44
492.963	607.44
493.18	626.44
493.398	669.44
493.615	615.44
493.833	647.44
494.05	617.44
494.268	621.44
494.485	648.44
494.703	619.44
494.92	640.44
495.138	625.44
495.355	638.44
495.573	638.44
495.79	630.44
496.008	645.44
496.225	617.44
496.442	629.44
496.66	627.44
496.877	641.44
497.094	639.44
497.312	627.44
497.529	643.44
497.746	643.44
497.963	655.44
498.181	698.44
498.398	670.44
498.615	682.44
498.832	664.44
499.049	713.44
499.267	719.44
499.484	708.44
499.701	738.44
499.918	732.44
500.135	773.44
500.352	755.44
500.569	785.44
500.786	787.44
501.003	801.44
501.22	784.44
501.437	771.44
501.654	751.44
501.871	773.44
