Data from 1965.PennyLincolnUp.Lamp.En5.5.200Scan.071719.P1._HRD10591_14-09-10-911.txt Node
Date: Thu Jul 18 14:09:10 EDT 2019
User: cochatt
Spectrometer: HR+D1059
Trigger mode: 1
Integration Time (sec): 1.000000E-1
Scans to average: 1
Electric dark correction enabled: true
Nonlinearity correction enabled: false
Boxcar width: 0
XAxis mode: Wavelengths
Number of Pixels in Spectrum: 2048
>>>>>Begin Spectral Data<<<<<
223.165	-18.38
223.4	-18.38
223.635	-18.38
223.869	-17.38
224.104	-24.38
224.338	-17.38
224.573	-17.38
224.808	-8.38
225.042	-5.38
225.277	0.62
225.511	-13.38
225.746	-2.38
225.98	9.62
226.215	15.62
226.449	14.62
226.683	21.62
226.918	23.62
227.152	38.62
227.387	26.62
227.621	25.62
227.856	42.62
228.09	37.62
228.324	45.62
228.559	41.62
228.793	51.62
229.027	73.62
229.262	103.62
229.496	101.62
229.73	112.62
229.964	137.62
230.199	100.62
230.433	105.62
230.667	106.62
230.901	102.62
231.136	101.62
231.37	104.62
231.604	101.62
231.838	99.62
232.072	105.62
232.306	97.62
232.541	104.62
232.775	101.62
233.009	111.62
233.243	95.62
233.477	110.62
233.711	110.62
233.945	111.62
234.179	103.62
234.413	91.62
234.647	110.62
234.881	96.62
235.115	107.62
235.349	99.62
235.583	101.62
235.817	112.62
236.051	116.62
236.285	134.62
236.519	116.62
236.753	112.62
236.987	133.62
237.221	150.62
237.455	202.62
237.689	168.62
237.922	123.62
238.156	108.62
238.39	114.62
238.624	120.62
238.858	120.62
239.091	111.62
239.325	121.62
239.559	113.62
239.793	115.62
240.027	114.62
240.26	132.62
240.494	133.62
240.728	145.62
240.961	130.62
241.195	127.62
241.429	133.62
241.662	116.62
241.896	115.62
242.13	100.62
242.363	113.62
242.597	127.62
242.83	120.62
243.064	115.62
243.298	119.62
243.531	118.62
243.765	125.62
243.998	120.62
244.232	112.62
244.465	127.62
244.699	133.62
244.932	139.62
245.166	124.62
245.399	132.62
245.633	128.62
245.866	131.62
246.099	146.62
246.333	126.62
246.566	130.62
246.8	135.62
247.033	130.62
247.266	131.62
247.5	152.62
247.733	145.62
247.966	158.62
248.2	136.62
248.433	143.62
248.666	160.62
248.899	148.62
249.133	172.62
249.366	178.62
249.599	178.62
249.832	168.62
250.066	151.62
250.299	152.62
250.532	174.62
250.765	179.62
250.998	192.62
251.231	195.62
251.465	182.62
251.698	172.62
251.931	184.62
252.164	177.62
252.397	171.62
252.63	169.62
252.863	175.62
253.096	182.62
253.329	203.62
253.562	189.62
253.795	196.62
254.028	184.62
254.261	207.62
254.494	206.62
254.727	227.62
254.96	246.62
255.193	252.62
255.426	231.62
255.659	194.62
255.892	202.62
256.124	201.62
256.357	222.62
256.59	213.62
256.823	199.62
257.056	194.62
257.289	187.62
257.521	199.62
257.754	187.62
257.987	176.62
258.22	177.62
258.452	185.62
258.685	187.62
258.918	176.62
259.151	175.62
259.383	193.62
259.616	179.62
259.849	190.62
260.081	210.62
260.314	217.62
260.547	215.62
260.779	215.62
261.012	202.62
261.244	190.62
261.477	203.62
261.71	190.62
261.942	198.62
262.175	203.62
262.407	192.62
262.64	174.62
262.872	192.62
263.105	176.62
263.337	191.62
263.57	186.62
263.802	186.62
264.035	198.62
264.267	173.62
264.499	179.62
264.732	195.62
264.964	187.62
265.197	196.62
265.429	194.62
265.661	182.62
265.894	191.62
266.126	198.62
266.358	179.62
266.591	184.62
266.823	191.62
267.055	197.62
267.287	204.62
267.52	209.62
267.752	210.62
267.984	199.62
268.216	191.62
268.448	222.62
268.681	222.62
268.913	202.62
269.145	213.62
269.377	236.62
269.609	219.62
269.841	238.62
270.073	218.62
270.306	247.62
270.538	282.62
270.77	255.62
271.002	266.62
271.234	274.62
271.466	264.62
271.698	251.62
271.93	291.62
272.162	297.62
272.394	282.62
272.626	262.62
272.858	271.62
273.09	259.62
273.322	233.62
273.553	227.62
273.785	226.62
274.017	232.62
274.249	219.62
274.481	224.62
274.713	203.62
274.945	233.62
275.176	233.62
275.408	242.62
275.64	226.62
275.872	229.62
276.104	231.62
276.335	215.62
276.567	227.62
276.799	247.62
277.031	258.62
277.262	294.62
277.494	272.62
277.726	265.62
277.957	259.62
278.189	234.62
278.421	252.62
278.652	233.62
278.884	223.62
279.115	216.62
279.347	220.62
279.579	230.62
279.81	213.62
280.042	223.62
280.273	225.62
280.505	227.62
280.736	205.62
280.968	243.62
281.199	242.62
281.431	210.62
281.662	234.62
281.894	235.62
282.125	242.62
282.356	245.62
282.588	283.62
282.819	263.62
283.051	240.62
283.282	231.62
283.513	242.62
283.745	237.62
283.976	229.62
284.207	222.62
284.439	230.62
284.67	232.62
284.901	242.62
285.132	230.62
285.364	233.62
285.595	231.62
285.826	235.62
286.057	233.62
286.288	226.62
286.52	252.62
286.751	242.62
286.982	244.62
287.213	234.62
287.444	254.62
287.675	256.62
287.906	247.62
288.138	259.62
288.369	250.62
288.6	241.62
288.831	251.62
289.062	233.62
289.293	255.62
289.524	240.62
289.755	228.62
289.986	264.62
290.217	256.62
290.448	243.62
290.679	239.62
290.91	259.62
291.141	243.62
291.371	241.62
291.602	239.62
291.833	236.62
292.064	238.62
292.295	258.62
292.526	236.62
292.757	233.62
292.987	255.62
293.218	246.62
293.449	256.62
293.68	239.62
293.91	237.62
294.141	248.62
294.372	225.62
294.603	262.62
294.833	251.62
295.064	241.62
295.295	257.62
295.525	235.62
295.756	271.62
295.987	252.62
296.217	278.62
296.448	283.62
296.679	263.62
296.909	236.62
297.14	256.62
297.37	257.62
297.601	264.62
297.831	243.62
298.062	256.62
298.292	282.62
298.523	265.62
298.753	253.62
298.984	270.62
299.214	256.62
299.445	260.62
299.675	264.62
299.905	260.62
300.136	254.62
300.366	273.62
300.597	266.62
300.827	254.62
301.057	273.62
301.288	265.62
301.518	272.62
301.748	278.62
301.979	290.62
302.209	286.62
302.439	285.62
302.669	266.62
302.9	306.62
303.13	274.62
303.36	277.62
303.59	285.62
303.82	308.62
304.051	314.62
304.281	296.62
304.511	282.62
304.741	277.62
304.971	271.62
305.201	272.62
305.431	273.62
305.661	266.62
305.891	276.62
306.121	281.62
306.352	298.62
306.582	294.62
306.812	268.62
307.042	286.62
307.272	288.62
307.502	277.62
307.731	301.62
307.961	276.62
308.191	288.62
308.421	287.62
308.651	294.62
308.881	278.62
309.111	300.62
309.341	296.62
309.571	304.62
309.8	312.62
310.03	341.62
310.26	333.62
310.49	328.62
310.72	335.62
310.949	360.62
311.179	352.62
311.409	352.62
311.639	356.62
311.868	341.62
312.098	324.62
312.328	330.62
312.557	340.62
312.787	360.62
313.017	370.62
313.246	362.62
313.476	326.62
313.706	336.62
313.935	356.62
314.165	347.62
314.394	352.62
314.624	361.62
314.853	355.62
315.083	333.62
315.312	316.62
315.542	314.62
315.771	331.62
316.001	315.62
316.23	322.62
316.46	319.62
316.689	315.62
316.919	335.62
317.148	337.62
317.377	329.62
317.607	338.62
317.836	325.62
318.065	322.62
318.295	329.62
318.524	310.62
318.753	321.62
318.983	334.62
319.212	324.62
319.441	330.62
319.67	346.62
319.9	331.62
320.129	332.62
320.358	343.62
320.587	343.62
320.816	342.62
321.046	351.62
321.275	348.62
321.504	354.62
321.733	364.62
321.962	359.62
322.191	376.62
322.42	388.62
322.649	417.62
322.878	387.62
323.108	419.62
323.337	427.62
323.566	440.62
323.795	507.62
324.024	552.62
324.253	644.62
324.482	988.62
324.71	1473.62
324.939	2048.62
325.168	1746.62
325.397	946.62
325.626	624.62
325.855	502.62
326.084	473.62
326.313	480.62
326.542	477.62
326.77	503.62
326.999	625.62
327.228	872.62
327.457	1309.62
327.686	1540.62
327.914	1019.62
328.143	667.62
328.372	595.62
328.6	547.62
328.829	511.62
329.058	541.62
329.287	570.62
329.515	514.62
329.744	464.62
329.972	482.62
330.201	500.62
330.43	532.62
330.658	544.62
330.887	593.62
331.115	538.62
331.344	471.62
331.572	465.62
331.801	452.62
332.03	432.62
332.258	422.62
332.486	385.62
332.715	396.62
332.943	391.62
333.172	391.62
333.4	415.62
333.629	427.62
333.857	417.62
334.085	430.62
334.314	443.62
334.542	470.62
334.771	477.62
334.999	438.62
335.227	424.62
335.455	402.62
335.684	392.62
335.912	382.62
336.14	354.62
336.369	387.62
336.597	384.62
336.825	360.62
337.053	361.62
337.281	361.62
337.51	372.62
337.738	384.62
337.966	378.62
338.194	378.62
338.422	394.62
338.65	385.62
338.878	383.62
339.106	361.62
339.334	378.62
339.562	374.62
339.79	377.62
340.018	357.62
340.246	372.62
340.474	393.62
340.702	376.62
340.93	356.62
341.158	357.62
341.386	387.62
341.614	374.62
341.842	366.62
342.07	362.62
342.298	355.62
342.526	360.62
342.754	364.62
342.981	361.62
343.209	342.62
343.437	350.62
343.665	359.62
343.893	378.62
344.12	358.62
344.348	366.62
344.576	382.62
344.804	377.62
345.031	386.62
345.259	412.62
345.487	357.62
345.714	376.62
345.942	369.62
346.17	373.62
346.397	356.62
346.625	368.62
346.853	352.62
347.08	349.62
347.308	378.62
347.535	370.62
347.763	379.62
347.99	386.62
348.218	373.62
348.445	378.62
348.673	383.62
348.9	368.62
349.128	370.62
349.355	336.62
349.583	360.62
349.81	360.62
350.037	356.62
350.265	376.62
350.492	370.62
350.72	352.62
350.947	361.62
351.174	376.62
351.402	380.62
351.629	368.62
351.856	371.62
352.083	380.62
352.311	389.62
352.538	377.62
352.765	407.62
352.992	384.62
353.22	359.62
353.447	360.62
353.674	347.62
353.901	361.62
354.128	345.62
354.355	335.62
354.583	344.62
354.81	353.62
355.037	348.62
355.264	323.62
355.491	332.62
355.718	347.62
355.945	319.62
356.172	330.62
356.399	349.62
356.626	320.62
356.853	336.62
357.08	331.62
357.307	318.62
357.534	333.62
357.761	320.62
357.988	341.62
358.215	350.62
358.441	341.62
358.668	344.62
358.895	340.62
359.122	357.62
359.349	356.62
359.576	379.62
359.802	380.62
360.029	410.62
360.256	438.62
360.483	418.62
360.709	381.62
360.936	360.62
361.163	368.62
361.39	368.62
361.616	370.62
361.843	355.62
362.07	379.62
362.296	366.62
362.523	355.62
362.749	347.62
362.976	356.62
363.203	356.62
363.429	332.62
363.656	347.62
363.882	354.62
364.109	350.62
364.335	324.62
364.562	334.62
364.788	330.62
365.015	358.62
365.241	339.62
365.468	346.62
365.694	351.62
365.92	338.62
366.147	344.62
366.373	322.62
366.599	331.62
366.826	343.62
367.052	353.62
367.278	356.62
367.505	336.62
367.731	348.62
367.957	355.62
368.184	342.62
368.41	342.62
368.636	343.62
368.862	368.62
369.089	338.62
369.315	341.62
369.541	335.62
369.767	336.62
369.993	343.62
370.219	346.62
370.445	344.62
370.672	345.62
370.898	329.62
371.124	316.62
371.35	327.62
371.576	336.62
371.802	332.62
372.028	329.62
372.254	347.62
372.48	328.62
372.706	353.62
372.932	343.62
373.158	330.62
373.384	348.62
373.61	333.62
373.835	340.62
374.061	328.62
374.287	332.62
374.513	345.62
374.739	355.62
374.965	334.62
375.191	317.62
375.416	322.62
375.642	340.62
375.868	335.62
376.094	346.62
376.319	345.62
376.545	338.62
376.771	322.62
376.997	337.62
377.222	335.62
377.448	355.62
377.674	340.62
377.899	326.62
378.125	301.62
378.35	333.62
378.576	350.62
378.802	311.62
379.027	326.62
379.253	351.62
379.478	342.62
379.704	344.62
379.929	329.62
380.155	336.62
380.38	345.62
380.606	342.62
380.831	342.62
381.057	342.62
381.282	343.62
381.507	343.62
381.733	332.62
381.958	322.62
382.184	330.62
382.409	337.62
382.634	350.62
382.86	335.62
383.085	355.62
383.31	348.62
383.535	341.62
383.761	360.62
383.986	357.62
384.211	360.62
384.436	345.62
384.662	344.62
384.887	359.62
385.112	342.62
385.337	348.62
385.562	338.62
385.787	367.62
386.013	373.62
386.238	377.62
386.463	372.62
386.688	363.62
386.913	334.62
387.138	347.62
387.363	352.62
387.588	371.62
387.813	361.62
388.038	370.62
388.263	344.62
388.488	358.62
388.713	356.62
388.938	354.62
389.163	358.62
389.387	375.62
389.612	355.62
389.837	357.62
390.062	364.62
390.287	360.62
390.512	363.62
390.736	353.62
390.961	374.62
391.186	370.62
391.411	338.62
391.636	360.62
391.86	361.62
392.085	374.62
392.31	370.62
392.534	371.62
392.759	345.62
392.984	366.62
393.208	375.62
393.433	373.62
393.658	352.62
393.882	362.62
394.107	351.62
394.331	352.62
394.556	369.62
394.78	357.62
395.005	357.62
395.229	368.62
395.454	376.62
395.678	375.62
395.903	382.62
396.127	400.62
396.352	389.62
396.576	396.62
396.801	370.62
397.025	377.62
397.249	381.62
397.474	384.62
397.698	397.62
397.922	399.62
398.147	387.62
398.371	414.62
398.595	412.62
398.82	408.62
399.044	414.62
399.268	407.62
399.492	445.62
399.717	460.62
399.941	479.62
400.165	480.62
400.389	506.62
400.613	465.62
400.837	427.62
401.062	419.62
401.286	412.62
401.51	426.62
401.734	410.62
401.958	422.62
402.182	423.62
402.406	411.62
402.63	421.62
402.854	420.62
403.078	432.62
403.302	431.62
403.526	426.62
403.75	438.62
403.974	441.62
404.198	420.62
404.422	424.62
404.645	435.62
404.869	443.62
405.093	454.62
405.317	491.62
405.541	490.62
405.765	468.62
405.988	461.62
406.212	470.62
406.436	476.62
406.66	496.62
406.883	476.62
407.107	461.62
407.331	518.62
407.555	564.62
407.778	534.62
408.002	510.62
408.226	487.62
408.449	484.62
408.673	495.62
408.896	494.62
409.12	520.62
409.344	500.62
409.567	440.62
409.791	419.62
410.014	446.62
410.238	422.62
410.461	419.62
410.685	440.62
410.908	442.62
411.132	464.62
411.355	501.62
411.578	462.62
411.802	421.62
412.025	415.62
412.249	411.62
412.472	441.62
412.695	468.62
412.919	471.62
413.142	410.62
413.365	421.62
413.589	408.62
413.812	406.62
414.035	410.62
414.258	400.62
414.482	409.62
414.705	396.62
414.928	379.62
415.151	393.62
415.374	400.62
415.597	410.62
415.821	362.62
416.044	382.62
416.267	408.62
416.49	387.62
416.713	393.62
416.936	425.62
417.159	404.62
417.382	405.62
417.605	400.62
417.828	415.62
418.051	427.62
418.274	413.62
418.497	411.62
418.72	417.62
418.943	404.62
419.166	408.62
419.389	417.62
419.611	439.62
419.834	419.62
420.057	433.62
420.28	442.62
420.503	420.62
420.726	450.62
420.948	438.62
421.171	456.62
421.394	468.62
421.617	435.62
421.839	413.62
422.062	448.62
422.285	448.62
422.507	478.62
422.73	539.62
422.953	511.62
423.175	458.62
423.398	435.62
423.621	427.62
423.843	460.62
424.066	461.62
424.288	436.62
424.511	487.62
424.733	480.62
424.956	578.62
425.178	558.62
425.401	551.62
425.623	561.62
425.846	504.62
426.068	450.62
426.291	451.62
426.513	449.62
426.735	477.62
426.958	497.62
427.18	592.62
427.402	657.62
427.625	762.62
427.847	678.62
428.069	582.62
428.292	493.62
428.514	468.62
428.736	436.62
428.958	474.62
429.181	428.62
429.403	418.62
429.625	431.62
429.847	471.62
430.069	486.62
430.292	510.62
430.514	448.62
430.736	425.62
430.958	408.62
431.18	415.62
431.402	412.62
431.624	405.62
431.846	399.62
432.068	401.62
432.29	386.62
432.512	387.62
432.734	406.62
432.956	394.62
433.178	427.62
433.4	420.62
433.622	405.62
433.844	396.62
434.066	426.62
434.287	409.62
434.509	413.62
434.731	412.62
434.953	422.62
435.175	430.62
435.397	456.62
435.618	458.62
435.84	478.62
436.062	574.62
436.284	602.62
436.505	526.62
436.727	487.62
436.949	448.62
437.17	428.62
437.392	426.62
437.614	436.62
437.835	490.62
438.057	568.62
438.278	625.62
438.5	624.62
438.721	677.62
438.943	657.62
439.165	537.62
439.386	483.62
439.608	482.62
439.829	472.62
440.05	510.62
440.272	528.62
440.493	509.62
440.715	454.62
440.936	459.62
441.158	442.62
441.379	420.62
441.6	442.62
441.822	486.62
442.043	525.62
442.264	566.62
442.486	600.62
442.707	510.62
442.928	476.62
443.149	476.62
443.371	496.62
443.592	540.62
443.813	614.62
444.034	633.62
444.255	551.62
444.476	480.62
444.698	465.62
444.919	468.62
445.14	552.62
445.361	529.62
445.582	504.62
445.803	556.62
446.024	652.62
446.245	663.62
446.466	603.62
446.687	504.62
446.908	479.62
447.129	442.62
447.35	429.62
447.571	416.62
447.792	417.62
448.013	435.62
448.234	463.62
448.455	498.62
448.675	588.62
448.896	666.62
449.117	577.62
449.338	555.62
449.559	635.62
449.779	708.62
450	562.62
450.221	486.62
450.442	443.62
450.662	435.62
450.883	438.62
451.104	462.62
451.324	432.62
451.545	408.62
451.766	384.62
451.986	399.62
452.207	390.62
452.428	387.62
452.648	402.62
452.869	391.62
453.089	424.62
453.31	420.62
453.53	402.62
453.751	394.62
453.971	406.62
454.192	425.62
454.412	414.62
454.633	409.62
454.853	411.62
455.073	376.62
455.294	411.62
455.514	474.62
455.734	461.62
455.955	394.62
456.175	369.62
456.395	348.62
456.616	357.62
456.836	379.62
457.056	372.62
457.276	345.62
457.497	338.62
457.717	368.62
457.937	366.62
458.157	394.62
458.377	409.62
458.598	398.62
458.818	441.62
459.038	539.62
459.258	531.62
459.478	462.62
459.698	417.62
459.918	406.62
460.138	398.62
460.358	396.62
460.578	406.62
460.798	412.62
461.018	411.62
461.238	401.62
461.458	386.62
461.678	397.62
461.898	408.62
462.118	391.62
462.338	426.62
462.558	400.62
462.777	422.62
462.997	414.62
463.217	423.62
463.437	410.62
463.657	403.62
463.876	424.62
464.096	436.62
464.316	441.62
464.536	426.62
464.755	431.62
464.975	453.62
465.195	503.62
465.414	576.62
465.634	489.62
465.854	452.62
466.073	426.62
466.293	424.62
466.512	405.62
466.732	395.62
466.951	385.62
467.171	368.62
467.391	388.62
467.61	394.62
467.829	412.62
468.049	425.62
468.268	412.62
468.488	410.62
468.707	398.62
468.927	372.62
469.146	397.62
469.365	396.62
469.585	385.62
469.804	397.62
470.023	389.62
470.243	406.62
470.462	408.62
470.681	430.62
470.901	426.62
471.12	408.62
471.339	400.62
471.558	404.62
471.777	417.62
471.997	406.62
472.216	415.62
472.435	449.62
472.654	430.62
472.873	412.62
473.092	404.62
473.311	420.62
473.53	403.62
473.749	422.62
473.968	453.62
474.187	536.62
474.406	540.62
474.625	480.62
474.844	396.62
475.063	410.62
475.282	393.62
475.501	390.62
475.72	407.62
475.939	414.62
476.158	421.62
476.377	411.62
476.596	409.62
476.814	417.62
477.033	409.62
477.252	410.62
477.471	415.62
477.69	436.62
477.908	408.62
478.127	440.62
478.346	438.62
478.564	425.62
478.783	430.62
479.002	448.62
479.22	455.62
479.439	454.62
479.658	486.62
479.876	500.62
480.095	486.62
480.313	508.62
480.532	502.62
480.751	512.62
480.969	494.62
481.188	539.62
481.406	578.62
481.624	520.62
481.843	496.62
482.061	465.62
482.28	484.62
482.498	469.62
482.717	473.62
482.935	457.62
483.153	474.62
483.372	475.62
483.59	481.62
483.808	474.62
484.027	474.62
484.245	484.62
484.463	488.62
484.681	500.62
484.9	464.62
485.118	471.62
485.336	478.62
485.554	491.62
485.772	501.62
485.99	520.62
486.209	476.62
486.427	493.62
486.645	484.62
486.863	514.62
487.081	519.62
487.299	516.62
487.517	500.62
487.735	496.62
487.953	490.62
488.171	504.62
488.389	497.62
488.607	509.62
488.825	500.62
489.043	523.62
489.261	507.62
489.479	511.62
489.696	525.62
489.914	517.62
490.132	516.62
490.35	541.62
490.568	553.62
490.786	565.62
491.003	552.62
491.221	554.62
491.439	556.62
491.657	580.62
491.874	582.62
492.092	570.62
492.31	599.62
492.527	586.62
492.745	586.62
492.963	603.62
493.18	612.62
493.398	595.62
493.615	605.62
493.833	596.62
494.05	617.62
494.268	586.62
494.485	595.62
494.703	573.62
494.92	598.62
495.138	598.62
495.355	596.62
495.573	609.62
495.79	620.62
496.008	595.62
496.225	593.62
496.442	596.62
496.66	607.62
496.877	581.62
497.094	603.62
497.312	596.62
497.529	608.62
497.746	621.62
497.963	625.62
498.181	692.62
498.398	645.62
498.615	660.62
498.832	658.62
499.049	660.62
499.267	693.62
499.484	698.62
499.701	720.62
499.918	734.62
500.135	728.62
500.352	740.62
500.569	795.62
500.786	773.62
501.003	732.62
501.22	739.62
501.437	735.62
501.654	732.62
501.871	750.62
502.088	735.62
