Data from 1965.PennyLincolnUp.Lamp.En5.5.200Scan.071719.P1._HRD10591_14-10-16-912.txt Node
Date: Thu Jul 18 14:10:16 EDT 2019
User: cochatt
Spectrometer: HR+D1059
Trigger mode: 1
Integration Time (sec): 1.000000E-1
Scans to average: 1
Electric dark correction enabled: true
Nonlinearity correction enabled: false
Boxcar width: 0
XAxis mode: Wavelengths
Number of Pixels in Spectrum: 2048
>>>>>Begin Spectral Data<<<<<
223.165	-9.44
223.4	-9.44
223.635	-9.44
223.869	-13.44
224.104	-32.44
224.338	-5.44
224.573	-10.44
224.808	-14.44
225.042	11.56
225.277	-0.44
225.511	0.56
225.746	4.56
225.98	9.56
226.215	0.56
226.449	9.56
226.683	7.56
226.918	15.56
227.152	26.56
227.387	40.56
227.621	40.56
227.856	28.56
228.09	57.56
228.324	58.56
228.559	54.56
228.793	77.56
229.027	82.56
229.262	99.56
229.496	121.56
229.73	113.56
229.964	141.56
230.199	122.56
230.433	103.56
230.667	107.56
230.901	106.56
231.136	114.56
231.37	99.56
231.604	116.56
231.838	97.56
232.072	112.56
232.306	110.56
232.541	112.56
232.775	107.56
233.009	112.56
233.243	119.56
233.477	98.56
233.711	100.56
233.945	104.56
234.179	104.56
234.413	93.56
234.647	112.56
234.881	119.56
235.115	105.56
235.349	124.56
235.583	112.56
235.817	114.56
236.051	116.56
236.285	118.56
236.519	124.56
236.753	136.56
236.987	132.56
237.221	172.56
237.455	218.56
237.689	169.56
237.922	139.56
238.156	129.56
238.39	114.56
238.624	124.56
238.858	114.56
239.091	110.56
239.325	101.56
239.559	117.56
239.793	115.56
240.027	113.56
240.26	131.56
240.494	169.56
240.728	151.56
240.961	135.56
241.195	130.56
241.429	124.56
241.662	131.56
241.896	118.56
242.13	132.56
242.363	115.56
242.597	116.56
242.83	120.56
243.064	134.56
243.298	124.56
243.531	140.56
243.765	141.56
243.998	134.56
244.232	125.56
244.465	130.56
244.699	136.56
244.932	121.56
245.166	121.56
245.399	139.56
245.633	132.56
245.866	126.56
246.099	128.56
246.333	139.56
246.566	126.56
246.8	157.56
247.033	134.56
247.266	134.56
247.5	140.56
247.733	149.56
247.966	155.56
248.2	152.56
248.433	161.56
248.666	169.56
248.899	156.56
249.133	187.56
249.366	196.56
249.599	185.56
249.832	168.56
250.066	161.56
250.299	174.56
250.532	176.56
250.765	188.56
250.998	209.56
251.231	201.56
251.465	175.56
251.698	173.56
251.931	188.56
252.164	179.56
252.397	189.56
252.63	190.56
252.863	159.56
253.096	195.56
253.329	187.56
253.562	203.56
253.795	200.56
254.028	203.56
254.261	176.56
254.494	184.56
254.727	233.56
254.96	244.56
255.193	244.56
255.426	232.56
255.659	204.56
255.892	204.56
256.124	211.56
256.357	212.56
256.59	220.56
256.823	194.56
257.056	199.56
257.289	183.56
257.521	188.56
257.754	194.56
257.987	169.56
258.22	186.56
258.452	183.56
258.685	195.56
258.918	187.56
259.151	183.56
259.383	206.56
259.616	203.56
259.849	190.56
260.081	214.56
260.314	240.56
260.547	213.56
260.779	222.56
261.012	210.56
261.244	220.56
261.477	204.56
261.71	211.56
261.942	222.56
262.175	222.56
262.407	201.56
262.64	200.56
262.872	189.56
263.105	198.56
263.337	185.56
263.57	169.56
263.802	188.56
264.035	197.56
264.267	188.56
264.499	188.56
264.732	188.56
264.964	186.56
265.197	183.56
265.429	203.56
265.661	181.56
265.894	189.56
266.126	188.56
266.358	186.56
266.591	200.56
266.823	213.56
267.055	185.56
267.287	206.56
267.52	202.56
267.752	190.56
267.984	209.56
268.216	193.56
268.448	203.56
268.681	209.56
268.913	202.56
269.145	229.56
269.377	245.56
269.609	247.56
269.841	241.56
270.073	242.56
270.306	284.56
270.538	286.56
270.77	279.56
271.002	276.56
271.234	261.56
271.466	282.56
271.698	265.56
271.93	284.56
272.162	300.56
272.394	292.56
272.626	287.56
272.858	279.56
273.09	271.56
273.322	232.56
273.553	237.56
273.785	244.56
274.017	233.56
274.249	242.56
274.481	237.56
274.713	248.56
274.945	250.56
275.176	246.56
275.408	229.56
275.64	240.56
275.872	229.56
276.104	246.56
276.335	247.56
276.567	259.56
276.799	258.56
277.031	264.56
277.262	274.56
277.494	276.56
277.726	274.56
277.957	257.56
278.189	252.56
278.421	247.56
278.652	243.56
278.884	244.56
279.115	222.56
279.347	248.56
279.579	250.56
279.81	235.56
280.042	229.56
280.273	235.56
280.505	236.56
280.736	261.56
280.968	228.56
281.199	248.56
281.431	235.56
281.662	218.56
281.894	257.56
282.125	245.56
282.356	276.56
282.588	276.56
282.819	265.56
283.051	240.56
283.282	234.56
283.513	238.56
283.745	250.56
283.976	225.56
284.207	258.56
284.439	240.56
284.67	254.56
284.901	244.56
285.132	249.56
285.364	233.56
285.595	241.56
285.826	237.56
286.057	243.56
286.288	235.56
286.52	254.56
286.751	260.56
286.982	249.56
287.213	267.56
287.444	254.56
287.675	247.56
287.906	253.56
288.138	267.56
288.369	271.56
288.6	261.56
288.831	265.56
289.062	232.56
289.293	255.56
289.524	262.56
289.755	254.56
289.986	257.56
290.217	254.56
290.448	250.56
290.679	244.56
290.91	248.56
291.141	264.56
291.371	286.56
291.602	244.56
291.833	245.56
292.064	245.56
292.295	244.56
292.526	239.56
292.757	240.56
292.987	236.56
293.218	250.56
293.449	253.56
293.68	250.56
293.91	256.56
294.141	250.56
294.372	254.56
294.603	249.56
294.833	254.56
295.064	254.56
295.295	258.56
295.525	257.56
295.756	254.56
295.987	278.56
296.217	289.56
296.448	288.56
296.679	268.56
296.909	277.56
297.14	244.56
297.37	274.56
297.601	262.56
297.831	273.56
298.062	263.56
298.292	258.56
298.523	266.56
298.753	270.56
298.984	275.56
299.214	259.56
299.445	268.56
299.675	284.56
299.905	276.56
300.136	260.56
300.366	276.56
300.597	279.56
300.827	284.56
301.057	312.56
301.288	298.56
301.518	285.56
301.748	297.56
301.979	289.56
302.209	270.56
302.439	301.56
302.669	285.56
302.9	292.56
303.13	280.56
303.36	291.56
303.59	276.56
303.82	298.56
304.051	298.56
304.281	309.56
304.511	285.56
304.741	296.56
304.971	274.56
305.201	301.56
305.431	284.56
305.661	270.56
305.891	303.56
306.121	295.56
306.352	288.56
306.582	317.56
306.812	287.56
307.042	282.56
307.272	283.56
307.502	286.56
307.731	287.56
307.961	298.56
308.191	306.56
308.421	300.56
308.651	301.56
308.881	297.56
309.111	284.56
309.341	318.56
309.571	326.56
309.8	326.56
310.03	312.56
310.26	345.56
310.49	353.56
310.72	349.56
310.949	379.56
311.179	372.56
311.409	358.56
311.639	328.56
311.868	324.56
312.098	357.56
312.328	364.56
312.557	363.56
312.787	380.56
313.017	382.56
313.246	358.56
313.476	334.56
313.706	328.56
313.935	334.56
314.165	356.56
314.394	372.56
314.624	360.56
314.853	345.56
315.083	337.56
315.312	338.56
315.542	320.56
315.771	330.56
316.001	342.56
316.23	333.56
316.46	329.56
316.689	329.56
316.919	332.56
317.148	350.56
317.377	349.56
317.607	333.56
317.836	355.56
318.065	341.56
318.295	344.56
318.524	325.56
318.753	318.56
318.983	336.56
319.212	336.56
319.441	353.56
319.67	350.56
319.9	338.56
320.129	319.56
320.358	336.56
320.587	348.56
320.816	361.56
321.046	354.56
321.275	367.56
321.504	364.56
321.733	359.56
321.962	362.56
322.191	389.56
322.42	410.56
322.649	428.56
322.878	412.56
323.108	435.56
323.337	467.56
323.566	476.56
323.795	494.56
324.024	558.56
324.253	681.56
324.482	996.56
324.71	1548.56
324.939	2143.56
325.168	1784.56
325.397	945.56
325.626	635.56
325.855	526.56
326.084	491.56
326.313	490.56
326.542	484.56
326.77	542.56
326.999	644.56
327.228	905.56
327.457	1369.56
327.686	1594.56
327.914	1053.56
328.143	705.56
328.372	623.56
328.6	578.56
328.829	530.56
329.058	556.56
329.287	568.56
329.515	522.56
329.744	490.56
329.972	482.56
330.201	512.56
330.43	576.56
330.658	555.56
330.887	607.56
331.115	592.56
331.344	468.56
331.572	469.56
331.801	451.56
332.03	434.56
332.258	428.56
332.486	420.56
332.715	401.56
332.943	436.56
333.172	422.56
333.4	422.56
333.629	421.56
333.857	446.56
334.085	438.56
334.314	455.56
334.542	479.56
334.771	514.56
334.999	461.56
335.227	406.56
335.455	412.56
335.684	417.56
335.912	414.56
336.14	394.56
336.369	398.56
336.597	385.56
336.825	420.56
337.053	418.56
337.281	400.56
337.51	381.56
337.738	396.56
337.966	403.56
338.194	405.56
338.422	387.56
338.65	389.56
338.878	387.56
339.106	391.56
339.334	377.56
339.562	380.56
339.79	376.56
340.018	384.56
340.246	399.56
340.474	388.56
340.702	399.56
340.93	380.56
341.158	386.56
341.386	390.56
341.614	379.56
341.842	387.56
342.07	398.56
342.298	422.56
342.526	377.56
342.754	363.56
342.981	362.56
343.209	362.56
343.437	361.56
343.665	382.56
343.893	372.56
344.12	377.56
344.348	366.56
344.576	366.56
344.804	398.56
345.031	392.56
345.259	393.56
345.487	390.56
345.714	398.56
345.942	362.56
346.17	376.56
346.397	362.56
346.625	369.56
346.853	385.56
347.08	378.56
347.308	373.56
347.535	351.56
347.763	384.56
347.99	396.56
348.218	397.56
348.445	382.56
348.673	395.56
348.9	379.56
349.128	389.56
349.355	354.56
349.583	353.56
349.81	354.56
350.037	357.56
350.265	357.56
350.492	369.56
350.72	352.56
350.947	385.56
351.174	382.56
351.402	376.56
351.629	378.56
351.856	394.56
352.083	380.56
352.311	400.56
352.538	368.56
352.765	397.56
352.992	371.56
353.22	380.56
353.447	357.56
353.674	366.56
353.901	353.56
354.128	348.56
354.355	339.56
354.583	353.56
354.81	334.56
355.037	354.56
355.264	339.56
355.491	340.56
355.718	337.56
355.945	333.56
356.172	325.56
356.399	337.56
356.626	335.56
356.853	350.56
357.08	342.56
357.307	354.56
357.534	347.56
357.761	331.56
357.988	360.56
358.215	340.56
358.441	346.56
358.668	337.56
358.895	336.56
359.122	344.56
359.349	350.56
359.576	388.56
359.802	398.56
360.029	436.56
360.256	436.56
360.483	412.56
360.709	382.56
360.936	354.56
361.163	377.56
361.39	381.56
361.616	384.56
361.843	378.56
362.07	372.56
362.296	388.56
362.523	369.56
362.749	379.56
362.976	363.56
363.203	358.56
363.429	369.56
363.656	365.56
363.882	355.56
364.109	387.56
364.335	352.56
364.562	360.56
364.788	370.56
365.015	350.56
365.241	348.56
365.468	372.56
365.694	360.56
365.92	341.56
366.147	347.56
366.373	348.56
366.599	351.56
366.826	337.56
367.052	351.56
367.278	362.56
367.505	351.56
367.731	353.56
367.957	365.56
368.184	346.56
368.41	385.56
368.636	363.56
368.862	361.56
369.089	358.56
369.315	348.56
369.541	356.56
369.767	337.56
369.993	334.56
370.219	362.56
370.445	340.56
370.672	370.56
370.898	353.56
371.124	356.56
371.35	346.56
371.576	338.56
371.802	343.56
372.028	358.56
372.254	334.56
372.48	341.56
372.706	347.56
372.932	331.56
373.158	348.56
373.384	347.56
373.61	343.56
373.835	341.56
374.061	352.56
374.287	330.56
374.513	350.56
374.739	346.56
374.965	354.56
375.191	350.56
375.416	342.56
375.642	359.56
375.868	348.56
376.094	354.56
376.319	351.56
376.545	343.56
376.771	344.56
376.997	352.56
377.222	333.56
377.448	322.56
377.674	336.56
377.899	326.56
378.125	341.56
378.35	334.56
378.576	355.56
378.802	334.56
379.027	328.56
379.253	356.56
379.478	318.56
379.704	334.56
379.929	352.56
380.155	344.56
380.38	335.56
380.606	354.56
380.831	335.56
381.057	356.56
381.282	333.56
381.507	342.56
381.733	348.56
381.958	362.56
382.184	343.56
382.409	346.56
382.634	352.56
382.86	349.56
383.085	342.56
383.31	326.56
383.535	353.56
383.761	339.56
383.986	350.56
384.211	356.56
384.436	358.56
384.662	341.56
384.887	370.56
385.112	371.56
385.337	350.56
385.562	380.56
385.787	360.56
386.013	360.56
386.238	388.56
386.463	370.56
386.688	355.56
386.913	349.56
387.138	341.56
387.363	360.56
387.588	376.56
387.813	386.56
388.038	374.56
388.263	371.56
388.488	355.56
388.713	359.56
388.938	363.56
389.163	380.56
389.387	368.56
389.612	358.56
389.837	352.56
390.062	375.56
390.287	364.56
390.512	364.56
390.736	378.56
390.961	380.56
391.186	376.56
391.411	389.56
391.636	380.56
391.86	366.56
392.085	374.56
392.31	374.56
392.534	376.56
392.759	369.56
392.984	388.56
393.208	361.56
393.433	350.56
393.658	354.56
393.882	371.56
394.107	380.56
394.331	373.56
394.556	390.56
394.78	374.56
395.005	375.56
395.229	381.56
395.454	385.56
395.678	380.56
395.903	393.56
396.127	393.56
396.352	383.56
396.576	389.56
396.801	403.56
397.025	393.56
397.249	397.56
397.474	393.56
397.698	397.56
397.922	397.56
398.147	407.56
398.371	400.56
398.595	407.56
398.82	403.56
399.044	436.56
399.268	411.56
399.492	445.56
399.717	441.56
399.941	491.56
400.165	485.56
400.389	518.56
400.613	472.56
400.837	440.56
401.062	442.56
401.286	434.56
401.51	431.56
401.734	421.56
401.958	439.56
402.182	435.56
402.406	438.56
402.63	451.56
402.854	435.56
403.078	441.56
403.302	415.56
403.526	443.56
403.75	428.56
403.974	424.56
404.198	422.56
404.422	413.56
404.645	439.56
404.869	448.56
405.093	474.56
405.317	485.56
405.541	525.56
405.765	481.56
405.988	482.56
406.212	480.56
406.436	482.56
406.66	477.56
406.883	480.56
407.107	496.56
407.331	544.56
407.555	565.56
407.778	566.56
408.002	511.56
408.226	490.56
408.449	487.56
408.673	482.56
408.896	492.56
409.12	519.56
409.344	499.56
409.567	468.56
409.791	459.56
410.014	453.56
410.238	434.56
410.461	430.56
410.685	468.56
410.908	468.56
411.132	493.56
411.355	510.56
411.578	474.56
411.802	432.56
412.025	418.56
412.249	451.56
412.472	456.56
412.695	508.56
412.919	481.56
413.142	451.56
413.365	425.56
413.589	412.56
413.812	413.56
414.035	407.56
414.258	388.56
414.482	411.56
414.705	405.56
414.928	398.56
415.151	404.56
415.374	401.56
415.597	394.56
415.821	396.56
416.044	406.56
416.267	426.56
416.49	412.56
416.713	398.56
416.936	387.56
417.159	406.56
417.382	436.56
417.605	422.56
417.828	419.56
418.051	442.56
418.274	416.56
418.497	392.56
418.72	408.56
418.943	402.56
419.166	442.56
419.389	442.56
419.611	405.56
419.834	444.56
420.057	452.56
420.28	467.56
420.503	458.56
420.726	424.56
420.948	448.56
421.171	473.56
421.394	488.56
421.617	437.56
421.839	414.56
422.062	434.56
422.285	448.56
422.507	475.56
422.73	542.56
422.953	546.56
423.175	450.56
423.398	449.56
423.621	443.56
423.843	464.56
424.066	461.56
424.288	458.56
424.511	481.56
424.733	532.56
424.956	609.56
425.178	579.56
425.401	582.56
425.623	604.56
425.846	513.56
426.068	482.56
426.291	476.56
426.513	454.56
426.735	476.56
426.958	499.56
427.18	582.56
427.402	676.56
427.625	768.56
427.847	684.56
428.069	595.56
428.292	510.56
428.514	468.56
428.736	438.56
428.958	452.56
429.181	445.56
429.403	438.56
429.625	437.56
429.847	454.56
430.069	522.56
430.292	520.56
430.514	461.56
430.736	456.56
430.958	424.56
431.18	436.56
431.402	433.56
431.624	424.56
431.846	419.56
432.068	401.56
432.29	396.56
432.512	398.56
432.734	440.56
432.956	402.56
433.178	433.56
433.4	441.56
433.622	425.56
433.844	423.56
434.066	421.56
434.287	421.56
434.509	411.56
434.731	410.56
434.953	411.56
435.175	440.56
435.397	446.56
435.618	491.56
435.84	523.56
436.062	573.56
436.284	638.56
436.505	536.56
436.727	497.56
436.949	468.56
437.17	443.56
437.392	445.56
437.614	452.56
437.835	504.56
438.057	595.56
438.278	637.56
438.5	618.56
438.721	700.56
438.943	672.56
439.165	554.56
439.386	494.56
439.608	478.56
439.829	487.56
440.05	522.56
440.272	564.56
440.493	504.56
440.715	484.56
440.936	451.56
441.158	448.56
441.379	445.56
441.6	448.56
441.822	480.56
442.043	506.56
442.264	586.56
442.486	599.56
442.707	546.56
442.928	494.56
443.149	489.56
443.371	535.56
443.592	555.56
443.813	627.56
444.034	654.56
444.255	542.56
444.476	518.56
444.698	472.56
444.919	467.56
445.14	569.56
445.361	560.56
445.582	516.56
445.803	577.56
446.024	676.56
446.245	678.56
446.466	624.56
446.687	521.56
446.908	478.56
447.129	450.56
447.35	447.56
447.571	423.56
447.792	412.56
448.013	445.56
448.234	457.56
448.455	503.56
448.675	626.56
448.896	676.56
449.117	597.56
449.338	574.56
449.559	640.56
449.779	715.56
450	605.56
450.221	488.56
450.442	458.56
450.662	427.56
450.883	450.56
451.104	460.56
451.324	468.56
451.545	426.56
451.766	408.56
451.986	399.56
452.207	402.56
452.428	391.56
452.648	388.56
452.869	385.56
453.089	392.56
453.31	442.56
453.53	408.56
453.751	406.56
453.971	396.56
454.192	436.56
454.412	410.56
454.633	399.56
454.853	408.56
455.073	380.56
455.294	418.56
455.514	480.56
455.734	457.56
455.955	402.56
456.175	399.56
456.395	363.56
456.616	373.56
456.836	370.56
457.056	369.56
457.276	351.56
457.497	386.56
457.717	360.56
457.937	385.56
458.157	396.56
458.377	396.56
458.598	422.56
458.818	473.56
459.038	552.56
459.258	553.56
459.478	454.56
459.698	416.56
459.918	414.56
460.138	408.56
460.358	407.56
460.578	420.56
460.798	414.56
461.018	403.56
461.238	428.56
461.458	434.56
461.678	418.56
461.898	394.56
462.118	418.56
462.338	433.56
462.558	417.56
462.777	392.56
462.997	420.56
463.217	410.56
463.437	438.56
463.657	438.56
463.876	422.56
464.096	434.56
464.316	444.56
464.536	459.56
464.755	430.56
464.975	443.56
465.195	488.56
465.414	592.56
465.634	498.56
465.854	469.56
466.073	441.56
466.293	402.56
466.512	402.56
466.732	409.56
466.951	408.56
467.171	407.56
467.391	417.56
467.61	418.56
467.829	441.56
468.049	415.56
468.268	423.56
468.488	422.56
468.707	408.56
468.927	376.56
469.146	381.56
469.365	405.56
469.585	400.56
469.804	398.56
470.023	429.56
470.243	420.56
470.462	406.56
470.681	418.56
470.901	426.56
471.12	392.56
471.339	427.56
471.558	414.56
471.777	421.56
471.997	427.56
472.216	452.56
472.435	465.56
472.654	436.56
472.873	419.56
473.092	423.56
473.311	407.56
473.53	393.56
473.749	424.56
473.968	457.56
474.187	559.56
474.406	570.56
474.625	456.56
474.844	459.56
475.063	422.56
475.282	404.56
475.501	410.56
475.72	434.56
475.939	434.56
476.158	431.56
476.377	449.56
476.596	422.56
476.814	440.56
477.033	459.56
477.252	437.56
477.471	452.56
477.69	434.56
477.908	421.56
478.127	455.56
478.346	449.56
478.564	456.56
478.783	439.56
479.002	458.56
479.22	457.56
479.439	475.56
479.658	530.56
479.876	498.56
480.095	507.56
480.313	514.56
480.532	501.56
480.751	504.56
480.969	532.56
481.188	592.56
481.406	621.56
481.624	536.56
481.843	499.56
482.061	510.56
482.28	516.56
482.498	488.56
482.717	470.56
482.935	496.56
483.153	484.56
483.372	481.56
483.59	472.56
483.808	490.56
484.027	484.56
484.245	499.56
484.463	479.56
484.681	516.56
484.9	503.56
485.118	513.56
485.336	472.56
485.554	476.56
485.772	499.56
485.99	505.56
486.209	493.56
486.427	471.56
486.645	513.56
486.863	524.56
487.081	539.56
487.299	516.56
487.517	515.56
487.735	522.56
487.953	516.56
488.171	510.56
488.389	533.56
488.607	538.56
488.825	537.56
489.043	529.56
489.261	542.56
489.479	534.56
489.696	535.56
489.914	541.56
490.132	520.56
490.35	535.56
490.568	510.56
490.786	561.56
491.003	545.56
491.221	578.56
491.439	603.56
491.657	577.56
491.874	576.56
492.092	578.56
492.31	610.56
492.527	611.56
492.745	587.56
492.963	634.56
493.18	617.56
493.398	602.56
493.615	594.56
493.833	627.56
494.05	620.56
494.268	592.56
494.485	609.56
494.703	602.56
494.92	640.56
495.138	653.56
495.355	618.56
495.573	608.56
495.79	599.56
496.008	614.56
496.225	618.56
496.442	609.56
496.66	614.56
496.877	614.56
497.094	613.56
497.312	612.56
497.529	622.56
497.746	648.56
497.963	652.56
498.181	679.56
498.398	663.56
498.615	681.56
498.832	675.56
499.049	681.56
499.267	682.56
499.484	699.56
499.701	708.56
499.918	728.56
500.135	754.56
500.352	769.56
500.569	797.56
500.786	787.56
501.003	780.56
501.22	784.56
501.437	747.56
501.654	768.56
501.871	752.56
502.088	733.56
