Data from 1965.PennyLincolnUp.Lamp.En5.5.200Scan.071719.P1._HRD10591_14-08-46-911.txt Node
Date: Thu Jul 18 14:08:46 EDT 2019
User: cochatt
Spectrometer: HR+D1059
Trigger mode: 1
Integration Time (sec): 1.000000E-1
Scans to average: 1
Electric dark correction enabled: true
Nonlinearity correction enabled: false
Boxcar width: 0
XAxis mode: Wavelengths
Number of Pixels in Spectrum: 2048
>>>>>Begin Spectral Data<<<<<
223.165	-20.44
223.4	-20.44
223.635	-20.44
223.869	-19.44
224.104	-23.44
224.338	-4.44
224.573	-0.44
224.808	-20.44
225.042	-8.44
225.277	3.56
225.511	-15.44
225.746	7.56
225.98	10.56
226.215	10.56
226.449	18.56
226.683	18.56
226.918	21.56
227.152	21.56
227.387	53.56
227.621	43.56
227.856	52.56
228.09	43.56
228.324	44.56
228.559	53.56
228.793	69.56
229.027	92.56
229.262	120.56
229.496	87.56
229.73	108.56
229.964	148.56
230.199	129.56
230.433	101.56
230.667	111.56
230.901	107.56
231.136	94.56
231.37	98.56
231.604	100.56
231.838	114.56
232.072	115.56
232.306	113.56
232.541	106.56
232.775	108.56
233.009	101.56
233.243	107.56
233.477	103.56
233.711	95.56
233.945	117.56
234.179	96.56
234.413	103.56
234.647	118.56
234.881	128.56
235.115	125.56
235.349	119.56
235.583	108.56
235.817	113.56
236.051	104.56
236.285	103.56
236.519	129.56
236.753	123.56
236.987	145.56
237.221	159.56
237.455	215.56
237.689	169.56
237.922	127.56
238.156	124.56
238.39	129.56
238.624	107.56
238.858	119.56
239.091	119.56
239.325	105.56
239.559	117.56
239.793	121.56
240.027	133.56
240.26	121.56
240.494	131.56
240.728	144.56
240.961	127.56
241.195	129.56
241.429	131.56
241.662	126.56
241.896	131.56
242.13	121.56
242.363	123.56
242.597	125.56
242.83	118.56
243.064	127.56
243.298	122.56
243.531	117.56
243.765	129.56
243.998	122.56
244.232	121.56
244.465	125.56
244.699	145.56
244.932	138.56
245.166	133.56
245.399	133.56
245.633	129.56
245.866	134.56
246.099	125.56
246.333	137.56
246.566	131.56
246.8	125.56
247.033	133.56
247.266	124.56
247.5	139.56
247.733	154.56
247.966	144.56
248.2	164.56
248.433	151.56
248.666	147.56
248.899	152.56
249.133	176.56
249.366	181.56
249.599	174.56
249.832	155.56
250.066	167.56
250.299	168.56
250.532	170.56
250.765	161.56
250.998	193.56
251.231	193.56
251.465	184.56
251.698	179.56
251.931	181.56
252.164	174.56
252.397	170.56
252.63	168.56
252.863	187.56
253.096	194.56
253.329	195.56
253.562	196.56
253.795	192.56
254.028	196.56
254.261	203.56
254.494	184.56
254.727	229.56
254.96	233.56
255.193	222.56
255.426	224.56
255.659	198.56
255.892	202.56
256.124	188.56
256.357	204.56
256.59	202.56
256.823	181.56
257.056	202.56
257.289	198.56
257.521	186.56
257.754	183.56
257.987	176.56
258.22	176.56
258.452	169.56
258.685	192.56
258.918	174.56
259.151	179.56
259.383	183.56
259.616	180.56
259.849	198.56
260.081	202.56
260.314	215.56
260.547	203.56
260.779	207.56
261.012	205.56
261.244	192.56
261.477	194.56
261.71	194.56
261.942	188.56
262.175	208.56
262.407	211.56
262.64	181.56
262.872	190.56
263.105	187.56
263.337	191.56
263.57	183.56
263.802	186.56
264.035	189.56
264.267	184.56
264.499	172.56
264.732	187.56
264.964	197.56
265.197	197.56
265.429	200.56
265.661	183.56
265.894	181.56
266.126	198.56
266.358	197.56
266.591	202.56
266.823	192.56
267.055	182.56
267.287	201.56
267.52	182.56
267.752	195.56
267.984	200.56
268.216	206.56
268.448	202.56
268.681	200.56
268.913	213.56
269.145	217.56
269.377	239.56
269.609	230.56
269.841	221.56
270.073	225.56
270.306	257.56
270.538	283.56
270.77	261.56
271.002	247.56
271.234	262.56
271.466	257.56
271.698	261.56
271.93	264.56
272.162	262.56
272.394	281.56
272.626	263.56
272.858	241.56
273.09	243.56
273.322	238.56
273.553	223.56
273.785	222.56
274.017	225.56
274.249	222.56
274.481	230.56
274.713	219.56
274.945	208.56
275.176	215.56
275.408	228.56
275.64	221.56
275.872	227.56
276.104	237.56
276.335	219.56
276.567	227.56
276.799	233.56
277.031	256.56
277.262	251.56
277.494	254.56
277.726	236.56
277.957	234.56
278.189	228.56
278.421	238.56
278.652	219.56
278.884	240.56
279.115	216.56
279.347	222.56
279.579	224.56
279.81	236.56
280.042	231.56
280.273	219.56
280.505	209.56
280.736	220.56
280.968	219.56
281.199	228.56
281.431	229.56
281.662	232.56
281.894	215.56
282.125	216.56
282.356	228.56
282.588	263.56
282.819	271.56
283.051	220.56
283.282	236.56
283.513	234.56
283.745	217.56
283.976	233.56
284.207	264.56
284.439	225.56
284.67	240.56
284.901	227.56
285.132	243.56
285.364	246.56
285.595	245.56
285.826	249.56
286.057	231.56
286.288	227.56
286.52	240.56
286.751	237.56
286.982	247.56
287.213	238.56
287.444	239.56
287.675	261.56
287.906	239.56
288.138	253.56
288.369	251.56
288.6	238.56
288.831	263.56
289.062	240.56
289.293	240.56
289.524	240.56
289.755	235.56
289.986	248.56
290.217	246.56
290.448	236.56
290.679	237.56
290.91	231.56
291.141	236.56
291.371	235.56
291.602	245.56
291.833	233.56
292.064	253.56
292.295	236.56
292.526	243.56
292.757	238.56
292.987	241.56
293.218	230.56
293.449	237.56
293.68	249.56
293.91	247.56
294.141	223.56
294.372	232.56
294.603	241.56
294.833	244.56
295.064	240.56
295.295	243.56
295.525	242.56
295.756	231.56
295.987	261.56
296.217	275.56
296.448	281.56
296.679	261.56
296.909	253.56
297.14	259.56
297.37	249.56
297.601	250.56
297.831	236.56
298.062	257.56
298.292	245.56
298.523	248.56
298.753	252.56
298.984	244.56
299.214	265.56
299.445	266.56
299.675	262.56
299.905	286.56
300.136	262.56
300.366	265.56
300.597	272.56
300.827	249.56
301.057	279.56
301.288	292.56
301.518	270.56
301.748	248.56
301.979	280.56
302.209	284.56
302.439	272.56
302.669	274.56
302.9	277.56
303.13	270.56
303.36	265.56
303.59	274.56
303.82	296.56
304.051	296.56
304.281	268.56
304.511	247.56
304.741	261.56
304.971	266.56
305.201	280.56
305.431	267.56
305.661	267.56
305.891	285.56
306.121	280.56
306.352	296.56
306.582	280.56
306.812	279.56
307.042	276.56
307.272	266.56
307.502	272.56
307.731	287.56
307.961	286.56
308.191	276.56
308.421	263.56
308.651	297.56
308.881	282.56
309.111	273.56
309.341	294.56
309.571	303.56
309.8	314.56
310.03	303.56
310.26	316.56
310.49	317.56
310.72	318.56
310.949	339.56
311.179	350.56
311.409	313.56
311.639	301.56
311.868	302.56
312.098	311.56
312.328	338.56
312.557	329.56
312.787	347.56
313.017	356.56
313.246	334.56
313.476	307.56
313.706	319.56
313.935	328.56
314.165	316.56
314.394	337.56
314.624	350.56
314.853	319.56
315.083	326.56
315.312	335.56
315.542	326.56
315.771	312.56
316.001	299.56
316.23	299.56
316.46	307.56
316.689	321.56
316.919	315.56
317.148	322.56
317.377	326.56
317.607	332.56
317.836	318.56
318.065	322.56
318.295	327.56
318.524	305.56
318.753	313.56
318.983	332.56
319.212	330.56
319.441	343.56
319.67	337.56
319.9	326.56
320.129	313.56
320.358	311.56
320.587	312.56
320.816	337.56
321.046	357.56
321.275	343.56
321.504	338.56
321.733	331.56
321.962	335.56
322.191	341.56
322.42	382.56
322.649	400.56
322.878	397.56
323.108	394.56
323.337	421.56
323.566	451.56
323.795	443.56
324.024	505.56
324.253	641.56
324.482	915.56
324.71	1327.56
324.939	1813.56
325.168	1559.56
325.397	834.56
325.626	582.56
325.855	479.56
326.084	435.56
326.313	439.56
326.542	466.56
326.77	487.56
326.999	581.56
327.228	795.56
327.457	1192.56
327.686	1387.56
327.914	947.56
328.143	648.56
328.372	566.56
328.6	502.56
328.829	477.56
329.058	504.56
329.287	524.56
329.515	478.56
329.744	460.56
329.972	457.56
330.201	477.56
330.43	513.56
330.658	522.56
330.887	539.56
331.115	519.56
331.344	445.56
331.572	401.56
331.801	408.56
332.03	409.56
332.258	402.56
332.486	394.56
332.715	377.56
332.943	374.56
333.172	388.56
333.4	396.56
333.629	371.56
333.857	399.56
334.085	409.56
334.314	421.56
334.542	459.56
334.771	462.56
334.999	419.56
335.227	375.56
335.455	404.56
335.684	389.56
335.912	354.56
336.14	348.56
336.369	363.56
336.597	371.56
336.825	373.56
337.053	375.56
337.281	376.56
337.51	376.56
337.738	362.56
337.966	365.56
338.194	369.56
338.422	359.56
338.65	361.56
338.878	361.56
339.106	356.56
339.334	365.56
339.562	347.56
339.79	343.56
340.018	360.56
340.246	377.56
340.474	387.56
340.702	368.56
340.93	358.56
341.158	350.56
341.386	364.56
341.614	369.56
341.842	377.56
342.07	362.56
342.298	334.56
342.526	359.56
342.754	353.56
342.981	344.56
343.209	320.56
343.437	342.56
343.665	344.56
343.893	354.56
344.12	364.56
344.348	357.56
344.576	382.56
344.804	377.56
345.031	364.56
345.259	374.56
345.487	373.56
345.714	367.56
345.942	351.56
346.17	358.56
346.397	345.56
346.625	346.56
346.853	339.56
347.08	359.56
347.308	350.56
347.535	349.56
347.763	346.56
347.99	343.56
348.218	362.56
348.445	378.56
348.673	372.56
348.9	354.56
349.128	346.56
349.355	359.56
349.583	333.56
349.81	347.56
350.037	335.56
350.265	334.56
350.492	340.56
350.72	347.56
350.947	350.56
351.174	348.56
351.402	360.56
351.629	347.56
351.856	361.56
352.083	363.56
352.311	341.56
352.538	373.56
352.765	364.56
352.992	339.56
353.22	350.56
353.447	345.56
353.674	344.56
353.901	328.56
354.128	327.56
354.355	320.56
354.583	315.56
354.81	308.56
355.037	316.56
355.264	324.56
355.491	326.56
355.718	311.56
355.945	315.56
356.172	313.56
356.399	319.56
356.626	315.56
356.853	297.56
357.08	322.56
357.307	314.56
357.534	342.56
357.761	337.56
357.988	328.56
358.215	336.56
358.441	327.56
358.668	340.56
358.895	335.56
359.122	336.56
359.349	325.56
359.576	340.56
359.802	373.56
360.029	391.56
360.256	429.56
360.483	390.56
360.709	363.56
360.936	355.56
361.163	360.56
361.39	356.56
361.616	356.56
361.843	350.56
362.07	352.56
362.296	349.56
362.523	332.56
362.749	350.56
362.976	342.56
363.203	325.56
363.429	337.56
363.656	322.56
363.882	343.56
364.109	335.56
364.335	331.56
364.562	341.56
364.788	326.56
365.015	334.56
365.241	329.56
365.468	339.56
365.694	340.56
365.92	328.56
366.147	323.56
366.373	323.56
366.599	332.56
366.826	336.56
367.052	326.56
367.278	341.56
367.505	334.56
367.731	323.56
367.957	324.56
368.184	352.56
368.41	352.56
368.636	348.56
368.862	344.56
369.089	344.56
369.315	325.56
369.541	327.56
369.767	318.56
369.993	331.56
370.219	340.56
370.445	334.56
370.672	334.56
370.898	350.56
371.124	308.56
371.35	340.56
371.576	326.56
371.802	314.56
372.028	336.56
372.254	350.56
372.48	337.56
372.706	332.56
372.932	327.56
373.158	325.56
373.384	337.56
373.61	306.56
373.835	335.56
374.061	327.56
374.287	344.56
374.513	337.56
374.739	334.56
374.965	336.56
375.191	330.56
375.416	338.56
375.642	327.56
375.868	328.56
376.094	318.56
376.319	319.56
376.545	327.56
376.771	324.56
376.997	325.56
377.222	331.56
377.448	331.56
377.674	323.56
377.899	319.56
378.125	307.56
378.35	309.56
378.576	320.56
378.802	328.56
379.027	317.56
379.253	317.56
379.478	320.56
379.704	324.56
379.929	325.56
380.155	323.56
380.38	332.56
380.606	335.56
380.831	327.56
381.057	345.56
381.282	346.56
381.507	332.56
381.733	331.56
381.958	342.56
382.184	327.56
382.409	336.56
382.634	321.56
382.86	331.56
383.085	343.56
383.31	318.56
383.535	321.56
383.761	345.56
383.986	343.56
384.211	337.56
384.436	329.56
384.662	336.56
384.887	361.56
385.112	336.56
385.337	332.56
385.562	351.56
385.787	336.56
386.013	348.56
386.238	362.56
386.463	360.56
386.688	345.56
386.913	355.56
387.138	346.56
387.363	361.56
387.588	355.56
387.813	354.56
388.038	341.56
388.263	347.56
388.488	343.56
388.713	364.56
388.938	387.56
389.163	349.56
389.387	347.56
389.612	350.56
389.837	339.56
390.062	345.56
390.287	338.56
390.512	351.56
390.736	330.56
390.961	344.56
391.186	340.56
391.411	345.56
391.636	331.56
391.86	351.56
392.085	356.56
392.31	343.56
392.534	349.56
392.759	355.56
392.984	335.56
393.208	340.56
393.433	364.56
393.658	361.56
393.882	337.56
394.107	341.56
394.331	343.56
394.556	349.56
394.78	361.56
395.005	355.56
395.229	353.56
395.454	380.56
395.678	371.56
395.903	376.56
396.127	379.56
396.352	389.56
396.576	362.56
396.801	366.56
397.025	386.56
397.249	373.56
397.474	363.56
397.698	378.56
397.922	382.56
398.147	372.56
398.371	391.56
398.595	391.56
398.82	378.56
399.044	386.56
399.268	409.56
399.492	408.56
399.717	421.56
399.941	439.56
400.165	459.56
400.389	482.56
400.613	442.56
400.837	423.56
401.062	404.56
401.286	419.56
401.51	391.56
401.734	399.56
401.958	404.56
402.182	385.56
402.406	412.56
402.63	438.56
402.854	412.56
403.078	380.56
403.302	393.56
403.526	407.56
403.75	407.56
403.974	411.56
404.198	396.56
404.422	417.56
404.645	404.56
404.869	406.56
405.093	453.56
405.317	462.56
405.541	492.56
405.765	455.56
405.988	431.56
406.212	457.56
406.436	456.56
406.66	478.56
406.883	466.56
407.107	457.56
407.331	504.56
407.555	526.56
407.778	519.56
408.002	487.56
408.226	463.56
408.449	461.56
408.673	451.56
408.896	457.56
409.12	481.56
409.344	461.56
409.567	435.56
409.791	429.56
410.014	428.56
410.238	426.56
410.461	422.56
410.685	416.56
410.908	414.56
411.132	442.56
411.355	478.56
411.578	451.56
411.802	420.56
412.025	414.56
412.249	418.56
412.472	432.56
412.695	462.56
412.919	452.56
413.142	411.56
413.365	421.56
413.589	394.56
413.812	411.56
414.035	388.56
414.258	382.56
414.482	373.56
414.705	380.56
414.928	398.56
415.151	379.56
415.374	387.56
415.597	380.56
415.821	380.56
416.044	391.56
416.267	379.56
416.49	382.56
416.713	395.56
416.936	386.56
417.159	383.56
417.382	385.56
417.605	384.56
417.828	407.56
418.051	409.56
418.274	382.56
418.497	371.56
418.72	374.56
418.943	383.56
419.166	388.56
419.389	419.56
419.611	437.56
419.834	400.56
420.057	381.56
420.28	397.56
420.503	408.56
420.726	417.56
420.948	415.56
421.171	441.56
421.394	457.56
421.617	428.56
421.839	405.56
422.062	408.56
422.285	432.56
422.507	463.56
422.73	523.56
422.953	495.56
423.175	439.56
423.398	421.56
423.621	434.56
423.843	429.56
424.066	435.56
424.288	437.56
424.511	444.56
424.733	492.56
424.956	553.56
425.178	526.56
425.401	551.56
425.623	540.56
425.846	468.56
426.068	445.56
426.291	447.56
426.513	437.56
426.735	456.56
426.958	482.56
427.18	544.56
427.402	656.56
427.625	692.56
427.847	641.56
428.069	563.56
428.292	485.56
428.514	435.56
428.736	417.56
428.958	411.56
429.181	413.56
429.403	416.56
429.625	415.56
429.847	449.56
430.069	487.56
430.292	470.56
430.514	419.56
430.736	434.56
430.958	390.56
431.18	386.56
431.402	403.56
431.624	376.56
431.846	391.56
432.068	381.56
432.29	408.56
432.512	387.56
432.734	391.56
432.956	411.56
433.178	400.56
433.4	409.56
433.622	399.56
433.844	405.56
434.066	378.56
434.287	391.56
434.509	396.56
434.731	416.56
434.953	394.56
435.175	393.56
435.397	426.56
435.618	447.56
435.84	461.56
436.062	565.56
436.284	587.56
436.505	505.56
436.727	465.56
436.949	431.56
437.17	432.56
437.392	407.56
437.614	423.56
437.835	471.56
438.057	563.56
438.278	638.56
438.5	609.56
438.721	675.56
438.943	605.56
439.165	504.56
439.386	494.56
439.608	456.56
439.829	453.56
440.05	478.56
440.272	527.56
440.493	480.56
440.715	447.56
440.936	423.56
441.158	417.56
441.379	420.56
441.6	414.56
441.822	429.56
442.043	469.56
442.264	548.56
442.486	582.56
442.707	471.56
442.928	450.56
443.149	454.56
443.371	495.56
443.592	516.56
443.813	567.56
444.034	606.56
444.255	522.56
444.476	478.56
444.698	435.56
444.919	430.56
445.14	515.56
445.361	509.56
445.582	496.56
445.803	565.56
446.024	627.56
446.245	624.56
446.466	558.56
446.687	457.56
446.908	447.56
447.129	404.56
447.35	412.56
447.571	414.56
447.792	400.56
448.013	430.56
448.234	443.56
448.455	470.56
448.675	571.56
448.896	642.56
449.117	563.56
449.338	507.56
449.559	597.56
449.779	661.56
450	558.56
450.221	454.56
450.442	421.56
450.662	405.56
450.883	429.56
451.104	449.56
451.324	443.56
451.545	399.56
451.766	375.56
451.986	377.56
452.207	385.56
452.428	383.56
452.648	379.56
452.869	363.56
453.089	385.56
453.31	391.56
453.53	366.56
453.751	362.56
453.971	376.56
454.192	379.56
454.412	404.56
454.633	380.56
454.853	391.56
455.073	359.56
455.294	407.56
455.514	460.56
455.734	442.56
455.955	381.56
456.175	358.56
456.395	351.56
456.616	323.56
456.836	350.56
457.056	351.56
457.276	343.56
457.497	343.56
457.717	357.56
457.937	358.56
458.157	362.56
458.377	364.56
458.598	397.56
458.818	427.56
459.038	523.56
459.258	496.56
459.478	421.56
459.698	432.56
459.918	392.56
460.138	404.56
460.358	393.56
460.578	387.56
460.798	396.56
461.018	387.56
461.238	366.56
461.458	397.56
461.678	368.56
461.898	399.56
462.118	396.56
462.338	413.56
462.558	389.56
462.777	399.56
462.997	400.56
463.217	407.56
463.437	424.56
463.657	410.56
463.876	395.56
464.096	416.56
464.316	403.56
464.536	417.56
464.755	407.56
464.975	413.56
465.195	452.56
465.414	552.56
465.634	463.56
465.854	415.56
466.073	406.56
466.293	391.56
466.512	407.56
466.732	389.56
466.951	382.56
467.171	386.56
467.391	376.56
467.61	401.56
467.829	403.56
468.049	387.56
468.268	396.56
468.488	377.56
468.707	381.56
468.927	379.56
469.146	364.56
469.365	378.56
469.585	370.56
469.804	383.56
470.023	400.56
470.243	408.56
470.462	404.56
470.681	405.56
470.901	392.56
471.12	387.56
471.339	398.56
471.558	386.56
471.777	384.56
471.997	385.56
472.216	400.56
472.435	421.56
472.654	418.56
472.873	408.56
473.092	392.56
473.311	384.56
473.53	393.56
473.749	405.56
473.968	420.56
474.187	506.56
474.406	535.56
474.625	446.56
474.844	417.56
475.063	385.56
475.282	385.56
475.501	395.56
475.72	387.56
475.939	399.56
476.158	410.56
476.377	394.56
476.596	426.56
476.814	410.56
477.033	421.56
477.252	400.56
477.471	414.56
477.69	424.56
477.908	424.56
478.127	442.56
478.346	415.56
478.564	409.56
478.783	420.56
479.002	425.56
479.22	440.56
479.439	461.56
479.658	461.56
479.876	485.56
480.095	480.56
480.313	495.56
480.532	477.56
480.751	466.56
480.969	487.56
481.188	542.56
481.406	575.56
481.624	519.56
481.843	463.56
482.061	458.56
482.28	486.56
482.498	462.56
482.717	481.56
482.935	459.56
483.153	437.56
483.372	456.56
483.59	448.56
483.808	454.56
484.027	455.56
484.245	465.56
484.463	456.56
484.681	497.56
484.9	481.56
485.118	470.56
485.336	459.56
485.554	459.56
485.772	463.56
485.99	461.56
486.209	468.56
486.427	486.56
486.645	469.56
486.863	519.56
487.081	490.56
487.299	474.56
487.517	469.56
487.735	468.56
487.953	473.56
488.171	477.56
488.389	496.56
488.607	492.56
488.825	506.56
489.043	500.56
489.261	507.56
489.479	490.56
489.696	489.56
489.914	495.56
490.132	485.56
490.35	499.56
490.568	513.56
490.786	497.56
491.003	527.56
491.221	555.56
491.439	516.56
491.657	549.56
491.874	541.56
492.092	564.56
492.31	558.56
492.527	552.56
492.745	557.56
492.963	571.56
493.18	575.56
493.398	556.56
493.615	569.56
493.833	549.56
494.05	555.56
494.268	568.56
494.485	563.56
494.703	567.56
494.92	559.56
495.138	575.56
495.355	568.56
495.573	584.56
495.79	573.56
496.008	573.56
496.225	579.56
496.442	586.56
496.66	574.56
496.877	589.56
497.094	573.56
497.312	593.56
497.529	592.56
497.746	583.56
497.963	610.56
498.181	622.56
498.398	615.56
498.615	628.56
498.832	641.56
499.049	638.56
499.267	657.56
499.484	659.56
499.701	665.56
499.918	702.56
500.135	732.56
500.352	721.56
500.569	735.56
500.786	730.56
501.003	731.56
501.22	717.56
501.437	701.56
501.654	674.56
501.871	690.56
502.088	688.56
