Data from 1965.PennyLincolnUp.Lamp.En5.5.200Scan.071719.P1._HRD10591_14-09-12-911.txt Node
Date: Thu Jul 18 14:09:12 EDT 2019
User: cochatt
Spectrometer: HR+D1059
Trigger mode: 1
Integration Time (sec): 1.000000E-1
Scans to average: 1
Electric dark correction enabled: true
Nonlinearity correction enabled: false
Boxcar width: 0
XAxis mode: Wavelengths
Number of Pixels in Spectrum: 2048
>>>>>Begin Spectral Data<<<<<
223.165	-19.19
223.4	-19.19
223.635	-19.19
223.869	-24.19
224.104	2.81
224.338	-15.19
224.573	-3.19
224.808	-21.19
225.042	-7.19
225.277	-15.19
225.511	4.81
225.746	12.81
225.98	13.81
226.215	9.81
226.449	-0.19
226.683	15.81
226.918	15.81
227.152	29.81
227.387	34.81
227.621	41.81
227.856	46.81
228.09	51.81
228.324	46.81
228.559	58.81
228.793	72.81
229.027	91.81
229.262	96.81
229.496	106.81
229.73	129.81
229.964	144.81
230.199	129.81
230.433	94.81
230.667	97.81
230.901	105.81
231.136	108.81
231.37	108.81
231.604	101.81
231.838	103.81
232.072	96.81
232.306	100.81
232.541	107.81
232.775	117.81
233.009	115.81
233.243	110.81
233.477	123.81
233.711	100.81
233.945	119.81
234.179	128.81
234.413	107.81
234.647	107.81
234.881	117.81
235.115	112.81
235.349	112.81
235.583	109.81
235.817	125.81
236.051	112.81
236.285	113.81
236.519	127.81
236.753	127.81
236.987	132.81
237.221	167.81
237.455	212.81
237.689	187.81
237.922	126.81
238.156	141.81
238.39	119.81
238.624	121.81
238.858	119.81
239.091	129.81
239.325	111.81
239.559	129.81
239.793	140.81
240.027	118.81
240.26	133.81
240.494	156.81
240.728	146.81
240.961	136.81
241.195	121.81
241.429	128.81
241.662	118.81
241.896	124.81
242.13	133.81
242.363	124.81
242.597	134.81
242.83	125.81
243.064	118.81
243.298	129.81
243.531	119.81
243.765	136.81
243.998	125.81
244.232	136.81
244.465	135.81
244.699	139.81
244.932	143.81
245.166	134.81
245.399	112.81
245.633	143.81
245.866	129.81
246.099	129.81
246.333	125.81
246.566	146.81
246.8	130.81
247.033	150.81
247.266	149.81
247.5	143.81
247.733	148.81
247.966	163.81
248.2	158.81
248.433	147.81
248.666	157.81
248.899	173.81
249.133	176.81
249.366	191.81
249.599	189.81
249.832	188.81
250.066	148.81
250.299	169.81
250.532	186.81
250.765	201.81
250.998	213.81
251.231	201.81
251.465	207.81
251.698	200.81
251.931	191.81
252.164	164.81
252.397	181.81
252.63	172.81
252.863	185.81
253.096	201.81
253.329	218.81
253.562	217.81
253.795	208.81
254.028	191.81
254.261	197.81
254.494	202.81
254.727	208.81
254.96	251.81
255.193	244.81
255.426	227.81
255.659	232.81
255.892	210.81
256.124	204.81
256.357	220.81
256.59	203.81
256.823	198.81
257.056	200.81
257.289	190.81
257.521	197.81
257.754	205.81
257.987	190.81
258.22	203.81
258.452	170.81
258.685	193.81
258.918	175.81
259.151	186.81
259.383	203.81
259.616	198.81
259.849	206.81
260.081	195.81
260.314	238.81
260.547	238.81
260.779	217.81
261.012	208.81
261.244	197.81
261.477	207.81
261.71	204.81
261.942	204.81
262.175	214.81
262.407	221.81
262.64	198.81
262.872	190.81
263.105	189.81
263.337	186.81
263.57	197.81
263.802	188.81
264.035	204.81
264.267	192.81
264.499	190.81
264.732	187.81
264.964	210.81
265.197	185.81
265.429	193.81
265.661	181.81
265.894	184.81
266.126	184.81
266.358	179.81
266.591	195.81
266.823	196.81
267.055	203.81
267.287	195.81
267.52	200.81
267.752	207.81
267.984	192.81
268.216	210.81
268.448	206.81
268.681	214.81
268.913	207.81
269.145	232.81
269.377	242.81
269.609	230.81
269.841	228.81
270.073	224.81
270.306	246.81
270.538	277.81
270.77	267.81
271.002	287.81
271.234	249.81
271.466	266.81
271.698	290.81
271.93	271.81
272.162	270.81
272.394	281.81
272.626	273.81
272.858	275.81
273.09	234.81
273.322	236.81
273.553	236.81
273.785	238.81
274.017	245.81
274.249	253.81
274.481	247.81
274.713	244.81
274.945	235.81
275.176	243.81
275.408	243.81
275.64	218.81
275.872	246.81
276.104	232.81
276.335	230.81
276.567	236.81
276.799	268.81
277.031	273.81
277.262	283.81
277.494	287.81
277.726	273.81
277.957	255.81
278.189	261.81
278.421	230.81
278.652	231.81
278.884	251.81
279.115	245.81
279.347	233.81
279.579	226.81
279.81	247.81
280.042	229.81
280.273	234.81
280.505	232.81
280.736	238.81
280.968	212.81
281.199	211.81
281.431	221.81
281.662	243.81
281.894	236.81
282.125	247.81
282.356	259.81
282.588	285.81
282.819	268.81
283.051	239.81
283.282	240.81
283.513	253.81
283.745	243.81
283.976	222.81
284.207	238.81
284.439	255.81
284.67	232.81
284.901	237.81
285.132	250.81
285.364	243.81
285.595	244.81
285.826	247.81
286.057	241.81
286.288	249.81
286.52	253.81
286.751	229.81
286.982	234.81
287.213	231.81
287.444	249.81
287.675	271.81
287.906	261.81
288.138	262.81
288.369	251.81
288.6	260.81
288.831	257.81
289.062	263.81
289.293	259.81
289.524	237.81
289.755	244.81
289.986	263.81
290.217	245.81
290.448	245.81
290.679	250.81
290.91	255.81
291.141	260.81
291.371	236.81
291.602	252.81
291.833	236.81
292.064	252.81
292.295	257.81
292.526	263.81
292.757	243.81
292.987	240.81
293.218	228.81
293.449	248.81
293.68	247.81
293.91	257.81
294.141	268.81
294.372	254.81
294.603	261.81
294.833	243.81
295.064	243.81
295.295	237.81
295.525	253.81
295.756	252.81
295.987	261.81
296.217	282.81
296.448	279.81
296.679	251.81
296.909	269.81
297.14	262.81
297.37	249.81
297.601	261.81
297.831	264.81
298.062	267.81
298.292	277.81
298.523	251.81
298.753	280.81
298.984	287.81
299.214	266.81
299.445	265.81
299.675	260.81
299.905	274.81
300.136	272.81
300.366	283.81
300.597	238.81
300.827	277.81
301.057	275.81
301.288	280.81
301.518	273.81
301.748	283.81
301.979	295.81
302.209	292.81
302.439	285.81
302.669	266.81
302.9	290.81
303.13	286.81
303.36	272.81
303.59	268.81
303.82	288.81
304.051	292.81
304.281	277.81
304.511	284.81
304.741	291.81
304.971	295.81
305.201	270.81
305.431	251.81
305.661	281.81
305.891	282.81
306.121	284.81
306.352	296.81
306.582	283.81
306.812	287.81
307.042	293.81
307.272	286.81
307.502	295.81
307.731	295.81
307.961	294.81
308.191	272.81
308.421	284.81
308.651	310.81
308.881	310.81
309.111	286.81
309.341	319.81
309.571	313.81
309.8	300.81
310.03	321.81
310.26	340.81
310.49	312.81
310.72	362.81
310.949	366.81
311.179	364.81
311.409	336.81
311.639	344.81
311.868	321.81
312.098	315.81
312.328	347.81
312.557	349.81
312.787	383.81
313.017	347.81
313.246	352.81
313.476	336.81
313.706	317.81
313.935	330.81
314.165	332.81
314.394	328.81
314.624	379.81
314.853	356.81
315.083	347.81
315.312	331.81
315.542	336.81
315.771	326.81
316.001	342.81
316.23	322.81
316.46	328.81
316.689	324.81
316.919	336.81
317.148	336.81
317.377	330.81
317.607	356.81
317.836	344.81
318.065	324.81
318.295	334.81
318.524	331.81
318.753	331.81
318.983	319.81
319.212	335.81
319.441	334.81
319.67	341.81
319.9	337.81
320.129	354.81
320.358	339.81
320.587	337.81
320.816	344.81
321.046	350.81
321.275	351.81
321.504	362.81
321.733	350.81
321.962	347.81
322.191	371.81
322.42	377.81
322.649	405.81
322.878	426.81
323.108	429.81
323.337	438.81
323.566	452.81
323.795	506.81
324.024	551.81
324.253	706.81
324.482	1020.81
324.71	1516.81
324.939	2071.81
325.168	1691.81
325.397	876.81
325.626	593.81
325.855	523.81
326.084	487.81
326.313	472.81
326.542	476.81
326.77	534.81
326.999	622.81
327.228	884.81
327.457	1298.81
327.686	1544.81
327.914	1023.81
328.143	684.81
328.372	614.81
328.6	577.81
328.829	538.81
329.058	547.81
329.287	535.81
329.515	504.81
329.744	471.81
329.972	476.81
330.201	492.81
330.43	542.81
330.658	559.81
330.887	597.81
331.115	547.81
331.344	501.81
331.572	441.81
331.801	462.81
332.03	441.81
332.258	427.81
332.486	416.81
332.715	404.81
332.943	390.81
333.172	401.81
333.4	389.81
333.629	402.81
333.857	443.81
334.085	431.81
334.314	425.81
334.542	487.81
334.771	484.81
334.999	449.81
335.227	399.81
335.455	425.81
335.684	395.81
335.912	407.81
336.14	393.81
336.369	392.81
336.597	404.81
336.825	385.81
337.053	391.81
337.281	390.81
337.51	405.81
337.738	387.81
337.966	393.81
338.194	389.81
338.422	381.81
338.65	387.81
338.878	374.81
339.106	383.81
339.334	385.81
339.562	365.81
339.79	386.81
340.018	381.81
340.246	372.81
340.474	395.81
340.702	378.81
340.93	368.81
341.158	365.81
341.386	372.81
341.614	363.81
341.842	372.81
342.07	377.81
342.298	379.81
342.526	381.81
342.754	372.81
342.981	369.81
343.209	365.81
343.437	374.81
343.665	373.81
343.893	379.81
344.12	381.81
344.348	396.81
344.576	401.81
344.804	388.81
345.031	411.81
345.259	390.81
345.487	387.81
345.714	395.81
345.942	363.81
346.17	351.81
346.397	364.81
346.625	352.81
346.853	367.81
347.08	364.81
347.308	380.81
347.535	375.81
347.763	362.81
347.99	359.81
348.218	386.81
348.445	375.81
348.673	395.81
348.9	381.81
349.128	351.81
349.355	339.81
349.583	346.81
349.81	348.81
350.037	352.81
350.265	356.81
350.492	342.81
350.72	345.81
350.947	384.81
351.174	382.81
351.402	384.81
351.629	380.81
351.856	379.81
352.083	383.81
352.311	394.81
352.538	386.81
352.765	406.81
352.992	381.81
353.22	362.81
353.447	365.81
353.674	357.81
353.901	364.81
354.128	350.81
354.355	358.81
354.583	346.81
354.81	344.81
355.037	342.81
355.264	341.81
355.491	339.81
355.718	343.81
355.945	332.81
356.172	339.81
356.399	336.81
356.626	348.81
356.853	343.81
357.08	322.81
357.307	346.81
357.534	334.81
357.761	341.81
357.988	354.81
358.215	355.81
358.441	334.81
358.668	334.81
358.895	323.81
359.122	348.81
359.349	355.81
359.576	368.81
359.802	384.81
360.029	423.81
360.256	443.81
360.483	407.81
360.709	379.81
360.936	368.81
361.163	376.81
361.39	362.81
361.616	362.81
361.843	364.81
362.07	371.81
362.296	352.81
362.523	355.81
362.749	363.81
362.976	365.81
363.203	371.81
363.429	343.81
363.656	344.81
363.882	362.81
364.109	344.81
364.335	349.81
364.562	347.81
364.788	338.81
365.015	353.81
365.241	362.81
365.468	356.81
365.694	373.81
365.92	350.81
366.147	357.81
366.373	352.81
366.599	356.81
366.826	339.81
367.052	355.81
367.278	343.81
367.505	333.81
367.731	348.81
367.957	348.81
368.184	350.81
368.41	345.81
368.636	337.81
368.862	366.81
369.089	365.81
369.315	334.81
369.541	350.81
369.767	345.81
369.993	351.81
370.219	361.81
370.445	348.81
370.672	326.81
370.898	351.81
371.124	350.81
371.35	342.81
371.576	326.81
371.802	335.81
372.028	326.81
372.254	341.81
372.48	331.81
372.706	341.81
372.932	353.81
373.158	345.81
373.384	336.81
373.61	350.81
373.835	359.81
374.061	359.81
374.287	360.81
374.513	345.81
374.739	336.81
374.965	355.81
375.191	335.81
375.416	340.81
375.642	342.81
375.868	352.81
376.094	342.81
376.319	350.81
376.545	335.81
376.771	347.81
376.997	340.81
377.222	319.81
377.448	345.81
377.674	337.81
377.899	341.81
378.125	327.81
378.35	331.81
378.576	322.81
378.802	323.81
379.027	332.81
379.253	362.81
379.478	345.81
379.704	333.81
379.929	328.81
380.155	330.81
380.38	324.81
380.606	345.81
380.831	352.81
381.057	335.81
381.282	342.81
381.507	341.81
381.733	346.81
381.958	347.81
382.184	344.81
382.409	337.81
382.634	360.81
382.86	356.81
383.085	352.81
383.31	353.81
383.535	349.81
383.761	346.81
383.986	346.81
384.211	348.81
384.436	364.81
384.662	340.81
384.887	352.81
385.112	337.81
385.337	366.81
385.562	363.81
385.787	350.81
386.013	369.81
386.238	373.81
386.463	363.81
386.688	359.81
386.913	364.81
387.138	349.81
387.363	375.81
387.588	362.81
387.813	366.81
388.038	372.81
388.263	355.81
388.488	367.81
388.713	380.81
388.938	383.81
389.163	370.81
389.387	363.81
389.612	356.81
389.837	363.81
390.062	375.81
390.287	373.81
390.512	377.81
390.736	364.81
390.961	357.81
391.186	367.81
391.411	376.81
391.636	374.81
391.86	378.81
392.085	379.81
392.31	375.81
392.534	372.81
392.759	362.81
392.984	377.81
393.208	357.81
393.433	385.81
393.658	370.81
393.882	367.81
394.107	379.81
394.331	376.81
394.556	360.81
394.78	368.81
395.005	348.81
395.229	364.81
395.454	390.81
395.678	392.81
395.903	376.81
396.127	409.81
396.352	411.81
396.576	372.81
396.801	392.81
397.025	380.81
397.249	378.81
397.474	400.81
397.698	386.81
397.922	389.81
398.147	403.81
398.371	420.81
398.595	416.81
398.82	406.81
399.044	406.81
399.268	408.81
399.492	441.81
399.717	456.81
399.941	487.81
400.165	501.81
400.389	504.81
400.613	454.81
400.837	455.81
401.062	411.81
401.286	428.81
401.51	411.81
401.734	410.81
401.958	402.81
402.182	407.81
402.406	435.81
402.63	443.81
402.854	436.81
403.078	411.81
403.302	424.81
403.526	427.81
403.75	413.81
403.974	437.81
404.198	414.81
404.422	431.81
404.645	430.81
404.869	435.81
405.093	465.81
405.317	515.81
405.541	519.81
405.765	470.81
405.988	455.81
406.212	461.81
406.436	497.81
406.66	502.81
406.883	475.81
407.107	488.81
407.331	525.81
407.555	581.81
407.778	555.81
408.002	497.81
408.226	499.81
408.449	488.81
408.673	466.81
408.896	488.81
409.12	521.81
409.344	497.81
409.567	452.81
409.791	438.81
410.014	447.81
410.238	421.81
410.461	439.81
410.685	420.81
410.908	458.81
411.132	481.81
411.355	491.81
411.578	477.81
411.802	443.81
412.025	441.81
412.249	452.81
412.472	480.81
412.695	510.81
412.919	483.81
413.142	455.81
413.365	431.81
413.589	421.81
413.812	409.81
414.035	407.81
414.258	412.81
414.482	419.81
414.705	397.81
414.928	420.81
415.151	411.81
415.374	408.81
415.597	391.81
415.821	407.81
416.044	411.81
416.267	408.81
416.49	386.81
416.713	398.81
416.936	402.81
417.159	395.81
417.382	423.81
417.605	408.81
417.828	411.81
418.051	440.81
418.274	428.81
418.497	401.81
418.72	412.81
418.943	380.81
419.166	437.81
419.389	434.81
419.611	437.81
419.834	439.81
420.057	440.81
420.28	431.81
420.503	407.81
420.726	445.81
420.948	452.81
421.171	468.81
421.394	494.81
421.617	459.81
421.839	424.81
422.062	422.81
422.285	438.81
422.507	485.81
422.73	528.81
422.953	531.81
423.175	461.81
423.398	463.81
423.621	445.81
423.843	478.81
424.066	449.81
424.288	453.81
424.511	501.81
424.733	535.81
424.956	564.81
425.178	561.81
425.401	542.81
425.623	558.81
425.846	481.81
426.068	465.81
426.291	461.81
426.513	462.81
426.735	464.81
426.958	513.81
427.18	574.81
427.402	685.81
427.625	764.81
427.847	679.81
428.069	581.81
428.292	517.81
428.514	459.81
428.736	433.81
428.958	436.81
429.181	451.81
429.403	440.81
429.625	439.81
429.847	485.81
430.069	529.81
430.292	513.81
430.514	442.81
430.736	451.81
430.958	446.81
431.18	419.81
431.402	417.81
431.624	412.81
431.846	406.81
432.068	389.81
432.29	400.81
432.512	424.81
432.734	400.81
432.956	411.81
433.178	415.81
433.4	435.81
433.622	421.81
433.844	401.81
434.066	399.81
434.287	406.81
434.509	416.81
434.731	414.81
434.953	425.81
435.175	441.81
435.397	446.81
435.618	472.81
435.84	488.81
436.062	580.81
436.284	639.81
436.505	541.81
436.727	476.81
436.949	432.81
437.17	458.81
437.392	447.81
437.614	434.81
437.835	491.81
438.057	556.81
438.278	637.81
438.5	645.81
438.721	688.81
438.943	647.81
439.165	535.81
439.386	512.81
439.608	479.81
439.829	506.81
440.05	474.81
440.272	536.81
440.493	522.81
440.715	464.81
440.936	449.81
441.158	449.81
441.379	436.81
441.6	442.81
441.822	463.81
442.043	505.81
442.264	565.81
442.486	631.81
442.707	535.81
442.928	480.81
443.149	455.81
443.371	534.81
443.592	533.81
443.813	608.81
444.034	653.81
444.255	525.81
444.476	486.81
444.698	478.81
444.919	453.81
445.14	564.81
445.361	530.81
445.582	512.81
445.803	571.81
446.024	667.81
446.245	638.81
446.466	596.81
446.687	500.81
446.908	462.81
447.129	429.81
447.35	446.81
447.571	439.81
447.792	420.81
448.013	443.81
448.234	469.81
448.455	524.81
448.675	609.81
448.896	660.81
449.117	577.81
449.338	555.81
449.559	644.81
449.779	705.81
450	573.81
450.221	488.81
450.442	460.81
450.662	435.81
450.883	433.81
451.104	458.81
451.324	443.81
451.545	419.81
451.766	422.81
451.986	397.81
452.207	414.81
452.428	386.81
452.648	390.81
452.869	383.81
453.089	402.81
453.31	422.81
453.53	390.81
453.751	408.81
453.971	410.81
454.192	423.81
454.412	417.81
454.633	388.81
454.853	389.81
455.073	392.81
455.294	408.81
455.514	472.81
455.734	461.81
455.955	387.81
456.175	386.81
456.395	364.81
456.616	371.81
456.836	381.81
457.056	348.81
457.276	364.81
457.497	390.81
457.717	381.81
457.937	388.81
458.157	387.81
458.377	385.81
458.598	403.81
458.818	477.81
459.038	545.81
459.258	535.81
459.478	440.81
459.698	431.81
459.918	419.81
460.138	387.81
460.358	414.81
460.578	411.81
460.798	419.81
461.018	406.81
461.238	419.81
461.458	399.81
461.678	440.81
461.898	408.81
462.118	422.81
462.338	413.81
462.558	404.81
462.777	420.81
462.997	427.81
463.217	439.81
463.437	420.81
463.657	438.81
463.876	433.81
464.096	424.81
464.316	426.81
464.536	442.81
464.755	437.81
464.975	451.81
465.195	502.81
465.414	572.81
465.634	486.81
465.854	456.81
466.073	416.81
466.293	439.81
466.512	411.81
466.732	409.81
466.951	413.81
467.171	407.81
467.391	414.81
467.61	407.81
467.829	405.81
468.049	401.81
468.268	425.81
468.488	411.81
468.707	396.81
468.927	379.81
469.146	361.81
469.365	389.81
469.585	395.81
469.804	398.81
470.023	408.81
470.243	413.81
470.462	413.81
470.681	413.81
470.901	423.81
471.12	427.81
471.339	421.81
471.558	411.81
471.777	399.81
471.997	389.81
472.216	394.81
472.435	469.81
472.654	408.81
472.873	395.81
473.092	402.81
473.311	402.81
473.53	418.81
473.749	425.81
473.968	436.81
474.187	544.81
474.406	544.81
474.625	472.81
474.844	460.81
475.063	447.81
475.282	431.81
475.501	423.81
475.72	417.81
475.939	408.81
476.158	449.81
476.377	422.81
476.596	441.81
476.814	440.81
477.033	452.81
477.252	435.81
477.471	433.81
477.69	426.81
477.908	438.81
478.127	424.81
478.346	447.81
478.564	457.81
478.783	447.81
479.002	464.81
479.22	447.81
479.439	475.81
479.658	508.81
479.876	504.81
480.095	505.81
480.313	525.81
480.532	489.81
480.751	501.81
480.969	505.81
481.188	574.81
481.406	613.81
481.624	546.81
481.843	486.81
482.061	491.81
482.28	471.81
482.498	461.81
482.717	505.81
482.935	477.81
483.153	482.81
483.372	487.81
483.59	481.81
483.808	468.81
484.027	481.81
484.245	481.81
484.463	482.81
484.681	488.81
484.9	484.81
485.118	496.81
485.336	494.81
485.554	491.81
485.772	506.81
485.99	493.81
486.209	511.81
486.427	494.81
486.645	496.81
486.863	527.81
487.081	555.81
487.299	525.81
487.517	512.81
487.735	502.81
487.953	503.81
488.171	520.81
488.389	520.81
488.607	517.81
488.825	496.81
489.043	528.81
489.261	529.81
489.479	537.81
489.696	537.81
489.914	515.81
490.132	519.81
490.35	524.81
490.568	556.81
490.786	554.81
491.003	564.81
491.221	557.81
491.439	589.81
491.657	578.81
491.874	586.81
492.092	585.81
492.31	602.81
492.527	587.81
492.745	587.81
492.963	592.81
493.18	597.81
493.398	590.81
493.615	593.81
493.833	579.81
494.05	589.81
494.268	623.81
494.485	591.81
494.703	596.81
494.92	591.81
495.138	599.81
495.355	596.81
495.573	618.81
495.79	608.81
496.008	605.81
496.225	606.81
496.442	603.81
496.66	610.81
496.877	601.81
497.094	608.81
497.312	607.81
497.529	625.81
497.746	626.81
497.963	628.81
498.181	662.81
498.398	644.81
498.615	658.81
498.832	660.81
499.049	681.81
499.267	679.81
499.484	705.81
499.701	725.81
499.918	756.81
500.135	734.81
500.352	747.81
500.569	761.81
500.786	758.81
501.003	796.81
501.22	758.81
501.437	767.81
501.654	748.81
501.871	721.81
502.088	727.81
