Data from 1965.PennyLincolnUp.Lamp.En5.5.200Scan.071719.P1._HRD10591_14-08-14-910.txt Node
Date: Thu Jul 18 14:08:14 EDT 2019
User: cochatt
Spectrometer: HR+D1059
Trigger mode: 1
Integration Time (sec): 1.000000E-1
Scans to average: 1
Electric dark correction enabled: true
Nonlinearity correction enabled: false
Boxcar width: 0
XAxis mode: Wavelengths
Number of Pixels in Spectrum: 2048
>>>>>Begin Spectral Data<<<<<
223.165	-0.31
223.4	-0.31
223.635	-0.31
223.869	-29.31
224.104	-11.31
224.338	-12.31
224.573	-3.31
224.808	-23.31
225.042	1.69
225.277	-4.31
225.511	3.69
225.746	-7.31
225.98	9.69
226.215	-1.31
226.449	3.69
226.683	23.69
226.918	20.69
227.152	29.69
227.387	36.69
227.621	40.69
227.856	44.69
228.09	48.69
228.324	47.69
228.559	40.69
228.793	61.69
229.027	72.69
229.262	90.69
229.496	103.69
229.73	120.69
229.964	117.69
230.199	109.69
230.433	88.69
230.667	83.69
230.901	92.69
231.136	98.69
231.37	99.69
231.604	107.69
231.838	100.69
232.072	98.69
232.306	117.69
232.541	91.69
232.775	91.69
233.009	103.69
233.243	94.69
233.477	96.69
233.711	112.69
233.945	88.69
234.179	89.69
234.413	104.69
234.647	100.69
234.881	112.69
235.115	104.69
235.349	103.69
235.583	106.69
235.817	100.69
236.051	98.69
236.285	94.69
236.519	102.69
236.753	102.69
236.987	113.69
237.221	155.69
237.455	198.69
237.689	154.69
237.922	115.69
238.156	93.69
238.39	115.69
238.624	127.69
238.858	121.69
239.091	119.69
239.325	113.69
239.559	98.69
239.793	129.69
240.027	122.69
240.26	127.69
240.494	131.69
240.728	116.69
240.961	125.69
241.195	118.69
241.429	115.69
241.662	119.69
241.896	104.69
242.13	120.69
242.363	95.69
242.597	117.69
242.83	113.69
243.064	121.69
243.298	126.69
243.531	111.69
243.765	115.69
243.998	131.69
244.232	119.69
244.465	107.69
244.699	126.69
244.932	129.69
245.166	109.69
245.399	109.69
245.633	122.69
245.866	121.69
246.099	130.69
246.333	131.69
246.566	130.69
246.8	132.69
247.033	130.69
247.266	138.69
247.5	152.69
247.733	145.69
247.966	163.69
248.2	131.69
248.433	149.69
248.666	151.69
248.899	134.69
249.133	164.69
249.366	179.69
249.599	168.69
249.832	152.69
250.066	152.69
250.299	145.69
250.532	152.69
250.765	179.69
250.998	178.69
251.231	191.69
251.465	177.69
251.698	168.69
251.931	168.69
252.164	153.69
252.397	157.69
252.63	175.69
252.863	177.69
253.096	175.69
253.329	181.69
253.562	164.69
253.795	187.69
254.028	181.69
254.261	199.69
254.494	199.69
254.727	223.69
254.96	222.69
255.193	218.69
255.426	201.69
255.659	203.69
255.892	189.69
256.124	197.69
256.357	196.69
256.59	185.69
256.823	168.69
257.056	153.69
257.289	184.69
257.521	178.69
257.754	180.69
257.987	191.69
258.22	190.69
258.452	181.69
258.685	175.69
258.918	175.69
259.151	183.69
259.383	190.69
259.616	181.69
259.849	176.69
260.081	184.69
260.314	214.69
260.547	191.69
260.779	188.69
261.012	183.69
261.244	181.69
261.477	183.69
261.71	187.69
261.942	181.69
262.175	192.69
262.407	182.69
262.64	194.69
262.872	164.69
263.105	184.69
263.337	173.69
263.57	169.69
263.802	175.69
264.035	154.69
264.267	175.69
264.499	193.69
264.732	165.69
264.964	169.69
265.197	182.69
265.429	184.69
265.661	179.69
265.894	169.69
266.126	188.69
266.358	172.69
266.591	168.69
266.823	179.69
267.055	181.69
267.287	192.69
267.52	177.69
267.752	182.69
267.984	193.69
268.216	172.69
268.448	181.69
268.681	198.69
268.913	190.69
269.145	207.69
269.377	213.69
269.609	207.69
269.841	216.69
270.073	228.69
270.306	243.69
270.538	256.69
270.77	252.69
271.002	225.69
271.234	252.69
271.466	242.69
271.698	256.69
271.93	251.69
272.162	248.69
272.394	241.69
272.626	245.69
272.858	228.69
273.09	221.69
273.322	228.69
273.553	209.69
273.785	200.69
274.017	221.69
274.249	210.69
274.481	202.69
274.713	228.69
274.945	213.69
275.176	213.69
275.408	215.69
275.64	215.69
275.872	204.69
276.104	210.69
276.335	206.69
276.567	212.69
276.799	221.69
277.031	241.69
277.262	243.69
277.494	239.69
277.726	246.69
277.957	228.69
278.189	257.69
278.421	224.69
278.652	227.69
278.884	220.69
279.115	217.69
279.347	224.69
279.579	230.69
279.81	208.69
280.042	207.69
280.273	205.69
280.505	220.69
280.736	222.69
280.968	220.69
281.199	226.69
281.431	218.69
281.662	204.69
281.894	220.69
282.125	209.69
282.356	218.69
282.588	233.69
282.819	245.69
283.051	228.69
283.282	220.69
283.513	232.69
283.745	222.69
283.976	220.69
284.207	205.69
284.439	223.69
284.67	227.69
284.901	228.69
285.132	228.69
285.364	219.69
285.595	225.69
285.826	210.69
286.057	220.69
286.288	234.69
286.52	224.69
286.751	218.69
286.982	222.69
287.213	230.69
287.444	219.69
287.675	221.69
287.906	224.69
288.138	244.69
288.369	237.69
288.6	247.69
288.831	229.69
289.062	227.69
289.293	220.69
289.524	224.69
289.755	223.69
289.986	241.69
290.217	232.69
290.448	235.69
290.679	231.69
290.91	240.69
291.141	241.69
291.371	231.69
291.602	236.69
291.833	211.69
292.064	223.69
292.295	224.69
292.526	219.69
292.757	236.69
292.987	219.69
293.218	213.69
293.449	227.69
293.68	210.69
293.91	243.69
294.141	218.69
294.372	225.69
294.603	237.69
294.833	225.69
295.064	236.69
295.295	224.69
295.525	239.69
295.756	243.69
295.987	243.69
296.217	256.69
296.448	258.69
296.679	241.69
296.909	231.69
297.14	249.69
297.37	230.69
297.601	239.69
297.831	227.69
298.062	231.69
298.292	252.69
298.523	236.69
298.753	259.69
298.984	241.69
299.214	228.69
299.445	252.69
299.675	252.69
299.905	236.69
300.136	267.69
300.366	247.69
300.597	248.69
300.827	262.69
301.057	257.69
301.288	253.69
301.518	264.69
301.748	245.69
301.979	255.69
302.209	258.69
302.439	271.69
302.669	262.69
302.9	249.69
303.13	267.69
303.36	247.69
303.59	250.69
303.82	273.69
304.051	266.69
304.281	235.69
304.511	268.69
304.741	247.69
304.971	262.69
305.201	263.69
305.431	259.69
305.661	262.69
305.891	264.69
306.121	249.69
306.352	266.69
306.582	262.69
306.812	260.69
307.042	263.69
307.272	258.69
307.502	265.69
307.731	275.69
307.961	279.69
308.191	254.69
308.421	265.69
308.651	269.69
308.881	283.69
309.111	268.69
309.341	279.69
309.571	284.69
309.8	305.69
310.03	287.69
310.26	303.69
310.49	295.69
310.72	317.69
310.949	326.69
311.179	330.69
311.409	301.69
311.639	284.69
311.868	303.69
312.098	311.69
312.328	297.69
312.557	308.69
312.787	306.69
313.017	331.69
313.246	328.69
313.476	299.69
313.706	311.69
313.935	316.69
314.165	313.69
314.394	295.69
314.624	330.69
314.853	308.69
315.083	299.69
315.312	315.69
315.542	307.69
315.771	304.69
316.001	301.69
316.23	299.69
316.46	296.69
316.689	291.69
316.919	298.69
317.148	325.69
317.377	296.69
317.607	309.69
317.836	287.69
318.065	297.69
318.295	286.69
318.524	301.69
318.753	298.69
318.983	311.69
319.212	290.69
319.441	307.69
319.67	338.69
319.9	310.69
320.129	310.69
320.358	291.69
320.587	290.69
320.816	324.69
321.046	335.69
321.275	322.69
321.504	324.69
321.733	322.69
321.962	319.69
322.191	333.69
322.42	372.69
322.649	364.69
322.878	377.69
323.108	363.69
323.337	399.69
323.566	412.69
323.795	435.69
324.024	487.69
324.253	580.69
324.482	840.69
324.71	1295.69
324.939	1789.69
325.168	1485.69
325.397	787.69
325.626	545.69
325.855	440.69
326.084	419.69
326.313	395.69
326.542	419.69
326.77	457.69
326.999	542.69
327.228	750.69
327.457	1102.69
327.686	1257.69
327.914	874.69
328.143	608.69
328.372	522.69
328.6	493.69
328.829	456.69
329.058	473.69
329.287	467.69
329.515	457.69
329.744	429.69
329.972	413.69
330.201	412.69
330.43	450.69
330.658	476.69
330.887	498.69
331.115	473.69
331.344	428.69
331.572	392.69
331.801	390.69
332.03	406.69
332.258	372.69
332.486	360.69
332.715	362.69
332.943	353.69
333.172	361.69
333.4	362.69
333.629	379.69
333.857	380.69
334.085	370.69
334.314	404.69
334.542	419.69
334.771	420.69
334.999	396.69
335.227	360.69
335.455	367.69
335.684	348.69
335.912	348.69
336.14	340.69
336.369	358.69
336.597	357.69
336.825	357.69
337.053	352.69
337.281	347.69
337.51	357.69
337.738	357.69
337.966	364.69
338.194	348.69
338.422	330.69
338.65	367.69
338.878	359.69
339.106	324.69
339.334	329.69
339.562	359.69
339.79	343.69
340.018	341.69
340.246	338.69
340.474	352.69
340.702	348.69
340.93	352.69
341.158	348.69
341.386	329.69
341.614	336.69
341.842	334.69
342.07	339.69
342.298	333.69
342.526	327.69
342.754	333.69
342.981	322.69
343.209	329.69
343.437	323.69
343.665	343.69
343.893	339.69
344.12	345.69
344.348	360.69
344.576	350.69
344.804	358.69
345.031	361.69
345.259	353.69
345.487	369.69
345.714	345.69
345.942	337.69
346.17	336.69
346.397	342.69
346.625	321.69
346.853	333.69
347.08	326.69
347.308	325.69
347.535	322.69
347.763	348.69
347.99	340.69
348.218	332.69
348.445	355.69
348.673	341.69
348.9	336.69
349.128	326.69
349.355	337.69
349.583	318.69
349.81	344.69
350.037	320.69
350.265	325.69
350.492	331.69
350.72	316.69
350.947	330.69
351.174	338.69
351.402	345.69
351.629	330.69
351.856	337.69
352.083	330.69
352.311	338.69
352.538	348.69
352.765	354.69
352.992	334.69
353.22	325.69
353.447	321.69
353.674	325.69
353.901	323.69
354.128	340.69
354.355	319.69
354.583	307.69
354.81	321.69
355.037	296.69
355.264	303.69
355.491	292.69
355.718	300.69
355.945	290.69
356.172	326.69
356.399	299.69
356.626	320.69
356.853	321.69
357.08	283.69
357.307	304.69
357.534	300.69
357.761	293.69
357.988	317.69
358.215	314.69
358.441	322.69
358.668	305.69
358.895	329.69
359.122	329.69
359.349	337.69
359.576	333.69
359.802	349.69
360.029	403.69
360.256	367.69
360.483	365.69
360.709	338.69
360.936	339.69
361.163	329.69
361.39	338.69
361.616	325.69
361.843	332.69
362.07	345.69
362.296	332.69
362.523	333.69
362.749	307.69
362.976	333.69
363.203	328.69
363.429	313.69
363.656	306.69
363.882	296.69
364.109	308.69
364.335	323.69
364.562	337.69
364.788	301.69
365.015	349.69
365.241	320.69
365.468	343.69
365.694	333.69
365.92	320.69
366.147	313.69
366.373	308.69
366.599	320.69
366.826	325.69
367.052	323.69
367.278	308.69
367.505	309.69
367.731	319.69
367.957	314.69
368.184	321.69
368.41	344.69
368.636	330.69
368.862	341.69
369.089	323.69
369.315	294.69
369.541	304.69
369.767	312.69
369.993	355.69
370.219	323.69
370.445	318.69
370.672	314.69
370.898	313.69
371.124	315.69
371.35	326.69
371.576	313.69
371.802	311.69
372.028	312.69
372.254	297.69
372.48	303.69
372.706	304.69
372.932	303.69
373.158	317.69
373.384	322.69
373.61	315.69
373.835	331.69
374.061	291.69
374.287	325.69
374.513	308.69
374.739	320.69
374.965	305.69
375.191	311.69
375.416	333.69
375.642	315.69
375.868	316.69
376.094	323.69
376.319	320.69
376.545	302.69
376.771	279.69
376.997	308.69
377.222	297.69
377.448	301.69
377.674	320.69
377.899	299.69
378.125	316.69
378.35	298.69
378.576	303.69
378.802	294.69
379.027	310.69
379.253	310.69
379.478	315.69
379.704	311.69
379.929	336.69
380.155	329.69
380.38	323.69
380.606	307.69
380.831	319.69
381.057	319.69
381.282	322.69
381.507	316.69
381.733	307.69
381.958	323.69
382.184	309.69
382.409	316.69
382.634	316.69
382.86	315.69
383.085	327.69
383.31	315.69
383.535	339.69
383.761	326.69
383.986	331.69
384.211	307.69
384.436	314.69
384.662	357.69
384.887	334.69
385.112	325.69
385.337	341.69
385.562	323.69
385.787	336.69
386.013	330.69
386.238	347.69
386.463	343.69
386.688	325.69
386.913	338.69
387.138	315.69
387.363	340.69
387.588	323.69
387.813	348.69
388.038	337.69
388.263	351.69
388.488	333.69
388.713	319.69
388.938	328.69
389.163	354.69
389.387	354.69
389.612	332.69
389.837	347.69
390.062	353.69
390.287	332.69
390.512	343.69
390.736	343.69
390.961	342.69
391.186	337.69
391.411	350.69
391.636	346.69
391.86	337.69
392.085	331.69
392.31	333.69
392.534	333.69
392.759	337.69
392.984	337.69
393.208	320.69
393.433	339.69
393.658	357.69
393.882	335.69
394.107	340.69
394.331	340.69
394.556	348.69
394.78	338.69
395.005	355.69
395.229	339.69
395.454	349.69
395.678	362.69
395.903	372.69
396.127	371.69
396.352	377.69
396.576	353.69
396.801	343.69
397.025	331.69
397.249	359.69
397.474	354.69
397.698	358.69
397.922	361.69
398.147	383.69
398.371	385.69
398.595	388.69
398.82	357.69
399.044	381.69
399.268	391.69
399.492	427.69
399.717	424.69
399.941	435.69
400.165	456.69
400.389	455.69
400.613	437.69
400.837	410.69
401.062	385.69
401.286	376.69
401.51	397.69
401.734	377.69
401.958	385.69
402.182	392.69
402.406	380.69
402.63	403.69
402.854	395.69
403.078	396.69
403.302	387.69
403.526	402.69
403.75	395.69
403.974	393.69
404.198	376.69
404.422	405.69
404.645	399.69
404.869	419.69
405.093	412.69
405.317	436.69
405.541	486.69
405.765	431.69
405.988	419.69
406.212	432.69
406.436	465.69
406.66	445.69
406.883	459.69
407.107	447.69
407.331	485.69
407.555	511.69
407.778	521.69
408.002	469.69
408.226	433.69
408.449	429.69
408.673	434.69
408.896	453.69
409.12	476.69
409.344	453.69
409.567	393.69
409.791	400.69
410.014	385.69
410.238	382.69
410.461	416.69
410.685	396.69
410.908	409.69
411.132	409.69
411.355	462.69
411.578	429.69
411.802	418.69
412.025	387.69
412.249	405.69
412.472	412.69
412.695	434.69
412.919	419.69
413.142	406.69
413.365	377.69
413.589	380.69
413.812	404.69
414.035	385.69
414.258	373.69
414.482	375.69
414.705	396.69
414.928	377.69
415.151	381.69
415.374	372.69
415.597	367.69
415.821	368.69
416.044	399.69
416.267	422.69
416.49	387.69
416.713	371.69
416.936	368.69
417.159	379.69
417.382	379.69
417.605	389.69
417.828	370.69
418.051	387.69
418.274	377.69
418.497	371.69
418.72	370.69
418.943	386.69
419.166	374.69
419.389	400.69
419.611	393.69
419.834	388.69
420.057	412.69
420.28	387.69
420.503	383.69
420.726	397.69
420.948	403.69
421.171	423.69
421.394	437.69
421.617	395.69
421.839	388.69
422.062	370.69
422.285	417.69
422.507	460.69
422.73	495.69
422.953	474.69
423.175	448.69
423.398	402.69
423.621	409.69
423.843	403.69
424.066	415.69
424.288	405.69
424.511	435.69
424.733	504.69
424.956	546.69
425.178	507.69
425.401	498.69
425.623	526.69
425.846	474.69
426.068	433.69
426.291	429.69
426.513	419.69
426.735	418.69
426.958	464.69
427.18	543.69
427.402	611.69
427.625	686.69
427.847	597.69
428.069	540.69
428.292	478.69
428.514	422.69
428.736	407.69
428.958	402.69
429.181	402.69
429.403	402.69
429.625	404.69
429.847	455.69
430.069	449.69
430.292	465.69
430.514	413.69
430.736	388.69
430.958	417.69
431.18	400.69
431.402	368.69
431.624	384.69
431.846	388.69
432.068	363.69
432.29	389.69
432.512	379.69
432.734	391.69
432.956	378.69
433.178	395.69
433.4	397.69
433.622	385.69
433.844	393.69
434.066	380.69
434.287	377.69
434.509	371.69
434.731	403.69
434.953	390.69
435.175	397.69
435.397	396.69
435.618	437.69
435.84	458.69
436.062	533.69
436.284	565.69
436.505	488.69
436.727	420.69
436.949	405.69
437.17	395.69
437.392	405.69
437.614	413.69
437.835	458.69
438.057	517.69
438.278	569.69
438.5	576.69
438.721	619.69
438.943	563.69
439.165	481.69
439.386	441.69
439.608	441.69
439.829	440.69
440.05	450.69
440.272	479.69
440.493	459.69
440.715	433.69
440.936	412.69
441.158	409.69
441.379	405.69
441.6	407.69
441.822	412.69
442.043	453.69
442.264	514.69
442.486	533.69
442.707	453.69
442.928	434.69
443.149	437.69
443.371	453.69
443.592	488.69
443.813	555.69
444.034	602.69
444.255	509.69
444.476	438.69
444.698	450.69
444.919	415.69
445.14	511.69
445.361	485.69
445.582	467.69
445.803	513.69
446.024	583.69
446.245	580.69
446.466	529.69
446.687	468.69
446.908	442.69
447.129	411.69
447.35	415.69
447.571	396.69
447.792	394.69
448.013	431.69
448.234	419.69
448.455	457.69
448.675	553.69
448.896	609.69
449.117	520.69
449.338	502.69
449.559	573.69
449.779	635.69
450	515.69
450.221	438.69
450.442	417.69
450.662	395.69
450.883	396.69
451.104	421.69
451.324	395.69
451.545	377.69
451.766	395.69
451.986	381.69
452.207	354.69
452.428	373.69
452.648	374.69
452.869	365.69
453.089	369.69
453.31	377.69
453.53	372.69
453.751	383.69
453.971	375.69
454.192	391.69
454.412	378.69
454.633	353.69
454.853	365.69
455.073	372.69
455.294	371.69
455.514	442.69
455.734	421.69
455.955	372.69
456.175	339.69
456.395	335.69
456.616	327.69
456.836	325.69
457.056	337.69
457.276	330.69
457.497	332.69
457.717	348.69
457.937	336.69
458.157	379.69
458.377	341.69
458.598	389.69
458.818	422.69
459.038	487.69
459.258	487.69
459.478	436.69
459.698	383.69
459.918	365.69
460.138	405.69
460.358	375.69
460.578	382.69
460.798	378.69
461.018	401.69
461.238	392.69
461.458	392.69
461.678	380.69
461.898	388.69
462.118	381.69
462.338	393.69
462.558	383.69
462.777	397.69
462.997	411.69
463.217	412.69
463.437	392.69
463.657	384.69
463.876	407.69
464.096	397.69
464.316	407.69
464.536	392.69
464.755	414.69
464.975	413.69
465.195	462.69
465.414	539.69
465.634	443.69
465.854	415.69
466.073	394.69
466.293	374.69
466.512	391.69
466.732	345.69
466.951	375.69
467.171	367.69
467.391	367.69
467.61	379.69
467.829	380.69
468.049	385.69
468.268	398.69
468.488	348.69
468.707	371.69
468.927	377.69
469.146	362.69
469.365	367.69
469.585	362.69
469.804	381.69
470.023	369.69
470.243	367.69
470.462	368.69
470.681	398.69
470.901	407.69
471.12	375.69
471.339	374.69
471.558	389.69
471.777	391.69
471.997	380.69
472.216	389.69
472.435	428.69
472.654	394.69
472.873	386.69
473.092	376.69
473.311	371.69
473.53	371.69
473.749	378.69
473.968	422.69
474.187	484.69
474.406	500.69
474.625	426.69
474.844	393.69
475.063	389.69
475.282	380.69
475.501	389.69
475.72	370.69
475.939	393.69
476.158	394.69
476.377	405.69
476.596	375.69
476.814	393.69
477.033	403.69
477.252	389.69
477.471	396.69
477.69	390.69
477.908	424.69
478.127	404.69
478.346	399.69
478.564	397.69
478.783	405.69
479.002	406.69
479.22	419.69
479.439	434.69
479.658	457.69
479.876	463.69
480.095	456.69
480.313	480.69
480.532	479.69
480.751	463.69
480.969	455.69
481.188	509.69
481.406	549.69
481.624	484.69
481.843	454.69
482.061	461.69
482.28	429.69
482.498	427.69
482.717	441.69
482.935	435.69
483.153	453.69
483.372	434.69
483.59	442.69
483.808	444.69
484.027	444.69
484.245	458.69
484.463	465.69
484.681	436.69
484.9	449.69
485.118	457.69
485.336	445.69
485.554	475.69
485.772	456.69
485.99	459.69
486.209	483.69
486.427	448.69
486.645	472.69
486.863	468.69
487.081	473.69
487.299	484.69
487.517	471.69
487.735	455.69
487.953	458.69
488.171	485.69
488.389	484.69
488.607	480.69
488.825	459.69
489.043	499.69
489.261	499.69
489.479	480.69
489.696	471.69
489.914	461.69
490.132	488.69
490.35	494.69
490.568	515.69
490.786	492.69
491.003	500.69
491.221	513.69
491.439	510.69
491.657	519.69
491.874	509.69
492.092	536.69
492.31	499.69
492.527	545.69
492.745	533.69
492.963	537.69
493.18	549.69
493.398	585.69
493.615	541.69
493.833	569.69
494.05	545.69
494.268	545.69
494.485	524.69
494.703	535.69
494.92	552.69
495.138	553.69
495.355	564.69
495.573	568.69
495.79	562.69
496.008	535.69
496.225	566.69
496.442	560.69
496.66	573.69
496.877	557.69
497.094	554.69
497.312	560.69
497.529	559.69
497.746	573.69
497.963	556.69
498.181	577.69
498.398	586.69
498.615	596.69
498.832	621.69
499.049	643.69
499.267	642.69
499.484	644.69
499.701	655.69
499.918	661.69
500.135	700.69
500.352	689.69
500.569	716.69
500.786	717.69
501.003	716.69
501.22	691.69
501.437	682.69
501.654	684.69
501.871	681.69
502.088	673.69
502.305	619.69
