Data from 1965.PennyLincolnUp.Lamp.En5.5.200Scan.071719.P1._HRD10591_14-09-55-912.txt Node
Date: Thu Jul 18 14:09:55 EDT 2019
User: cochatt
Spectrometer: HR+D1059
Trigger mode: 1
Integration Time (sec): 1.000000E-1
Scans to average: 1
Electric dark correction enabled: true
Nonlinearity correction enabled: false
Boxcar width: 0
XAxis mode: Wavelengths
Number of Pixels in Spectrum: 2048
>>>>>Begin Spectral Data<<<<<
223.165	-9.69
223.4	-9.69
223.635	-9.69
223.869	-12.69
224.104	-15.69
224.338	-9.69
224.573	-10.69
224.808	-16.69
225.042	-4.69
225.277	4.31
225.511	-9.69
225.746	6.31
225.98	-1.69
226.215	-12.69
226.449	15.31
226.683	18.31
226.918	34.31
227.152	25.31
227.387	46.31
227.621	40.31
227.856	38.31
228.09	35.31
228.324	54.31
228.559	45.31
228.793	75.31
229.027	101.31
229.262	97.31
229.496	100.31
229.73	134.31
229.964	150.31
230.199	127.31
230.433	112.31
230.667	104.31
230.901	101.31
231.136	98.31
231.37	118.31
231.604	109.31
231.838	107.31
232.072	116.31
232.306	109.31
232.541	126.31
232.775	135.31
233.009	118.31
233.243	112.31
233.477	104.31
233.711	107.31
233.945	105.31
234.179	111.31
234.413	95.31
234.647	108.31
234.881	94.31
235.115	111.31
235.349	100.31
235.583	110.31
235.817	123.31
236.051	116.31
236.285	122.31
236.519	118.31
236.753	134.31
236.987	145.31
237.221	168.31
237.455	202.31
237.689	158.31
237.922	141.31
238.156	132.31
238.39	130.31
238.624	130.31
238.858	128.31
239.091	120.31
239.325	108.31
239.559	116.31
239.793	120.31
240.027	115.31
240.26	132.31
240.494	165.31
240.728	140.31
240.961	137.31
241.195	138.31
241.429	125.31
241.662	137.31
241.896	121.31
242.13	131.31
242.363	119.31
242.597	125.31
242.83	107.31
243.064	124.31
243.298	127.31
243.531	127.31
243.765	119.31
243.998	136.31
244.232	132.31
244.465	129.31
244.699	128.31
244.932	125.31
245.166	140.31
245.399	136.31
245.633	138.31
245.866	137.31
246.099	142.31
246.333	130.31
246.566	146.31
246.8	143.31
247.033	135.31
247.266	139.31
247.5	157.31
247.733	157.31
247.966	153.31
248.2	147.31
248.433	140.31
248.666	158.31
248.899	160.31
249.133	184.31
249.366	193.31
249.599	178.31
249.832	156.31
250.066	167.31
250.299	161.31
250.532	180.31
250.765	187.31
250.998	200.31
251.231	202.31
251.465	208.31
251.698	165.31
251.931	179.31
252.164	187.31
252.397	188.31
252.63	162.31
252.863	167.31
253.096	194.31
253.329	203.31
253.562	212.31
253.795	189.31
254.028	205.31
254.261	193.31
254.494	204.31
254.727	218.31
254.96	234.31
255.193	231.31
255.426	220.31
255.659	211.31
255.892	199.31
256.124	205.31
256.357	216.31
256.59	211.31
256.823	190.31
257.056	199.31
257.289	186.31
257.521	191.31
257.754	196.31
257.987	180.31
258.22	183.31
258.452	190.31
258.685	186.31
258.918	195.31
259.151	192.31
259.383	204.31
259.616	211.31
259.849	207.31
260.081	200.31
260.314	221.31
260.547	231.31
260.779	227.31
261.012	195.31
261.244	203.31
261.477	215.31
261.71	198.31
261.942	204.31
262.175	222.31
262.407	217.31
262.64	189.31
262.872	186.31
263.105	189.31
263.337	184.31
263.57	212.31
263.802	188.31
264.035	211.31
264.267	194.31
264.499	173.31
264.732	192.31
264.964	189.31
265.197	189.31
265.429	196.31
265.661	189.31
265.894	192.31
266.126	198.31
266.358	191.31
266.591	206.31
266.823	216.31
267.055	204.31
267.287	192.31
267.52	186.31
267.752	198.31
267.984	202.31
268.216	209.31
268.448	213.31
268.681	229.31
268.913	219.31
269.145	233.31
269.377	242.31
269.609	225.31
269.841	245.31
270.073	260.31
270.306	256.31
270.538	285.31
270.77	268.31
271.002	249.31
271.234	275.31
271.466	271.31
271.698	251.31
271.93	282.31
272.162	302.31
272.394	284.31
272.626	271.31
272.858	268.31
273.09	245.31
273.322	249.31
273.553	225.31
273.785	228.31
274.017	222.31
274.249	232.31
274.481	231.31
274.713	228.31
274.945	249.31
275.176	250.31
275.408	234.31
275.64	225.31
275.872	229.31
276.104	230.31
276.335	234.31
276.567	237.31
276.799	243.31
277.031	278.31
277.262	278.31
277.494	287.31
277.726	266.31
277.957	239.31
278.189	230.31
278.421	228.31
278.652	246.31
278.884	240.31
279.115	229.31
279.347	236.31
279.579	228.31
279.81	230.31
280.042	242.31
280.273	246.31
280.505	224.31
280.736	238.31
280.968	227.31
281.199	239.31
281.431	236.31
281.662	250.31
281.894	254.31
282.125	257.31
282.356	270.31
282.588	265.31
282.819	277.31
283.051	250.31
283.282	243.31
283.513	248.31
283.745	235.31
283.976	234.31
284.207	247.31
284.439	237.31
284.67	244.31
284.901	233.31
285.132	235.31
285.364	243.31
285.595	245.31
285.826	232.31
286.057	232.31
286.288	239.31
286.52	244.31
286.751	243.31
286.982	237.31
287.213	238.31
287.444	269.31
287.675	250.31
287.906	255.31
288.138	268.31
288.369	276.31
288.6	281.31
288.831	280.31
289.062	255.31
289.293	260.31
289.524	246.31
289.755	259.31
289.986	232.31
290.217	254.31
290.448	240.31
290.679	244.31
290.91	252.31
291.141	247.31
291.371	240.31
291.602	256.31
291.833	237.31
292.064	239.31
292.295	254.31
292.526	242.31
292.757	246.31
292.987	253.31
293.218	246.31
293.449	232.31
293.68	235.31
293.91	242.31
294.141	237.31
294.372	246.31
294.603	252.31
294.833	261.31
295.064	245.31
295.295	250.31
295.525	271.31
295.756	254.31
295.987	273.31
296.217	291.31
296.448	293.31
296.679	272.31
296.909	261.31
297.14	255.31
297.37	266.31
297.601	255.31
297.831	267.31
298.062	266.31
298.292	264.31
298.523	256.31
298.753	279.31
298.984	267.31
299.214	270.31
299.445	262.31
299.675	271.31
299.905	280.31
300.136	285.31
300.366	277.31
300.597	271.31
300.827	268.31
301.057	281.31
301.288	288.31
301.518	264.31
301.748	264.31
301.979	275.31
302.209	277.31
302.439	288.31
302.669	288.31
302.9	291.31
303.13	290.31
303.36	289.31
303.59	282.31
303.82	297.31
304.051	301.31
304.281	279.31
304.511	291.31
304.741	290.31
304.971	283.31
305.201	292.31
305.431	287.31
305.661	299.31
305.891	277.31
306.121	277.31
306.352	281.31
306.582	300.31
306.812	296.31
307.042	283.31
307.272	286.31
307.502	281.31
307.731	284.31
307.961	293.31
308.191	282.31
308.421	294.31
308.651	284.31
308.881	295.31
309.111	310.31
309.341	299.31
309.571	330.31
309.8	330.31
310.03	332.31
310.26	331.31
310.49	336.31
310.72	333.31
310.949	351.31
311.179	364.31
311.409	330.31
311.639	328.31
311.868	346.31
312.098	357.31
312.328	346.31
312.557	359.31
312.787	363.31
313.017	365.31
313.246	351.31
313.476	343.31
313.706	322.31
313.935	339.31
314.165	367.31
314.394	367.31
314.624	365.31
314.853	352.31
315.083	360.31
315.312	345.31
315.542	326.31
315.771	316.31
316.001	331.31
316.23	346.31
316.46	325.31
316.689	342.31
316.919	330.31
317.148	338.31
317.377	335.31
317.607	336.31
317.836	343.31
318.065	329.31
318.295	330.31
318.524	315.31
318.753	339.31
318.983	347.31
319.212	331.31
319.441	348.31
319.67	341.31
319.9	336.31
320.129	338.31
320.358	322.31
320.587	347.31
320.816	357.31
321.046	380.31
321.275	362.31
321.504	372.31
321.733	363.31
321.962	362.31
322.191	382.31
322.42	400.31
322.649	388.31
322.878	424.31
323.108	434.31
323.337	426.31
323.566	461.31
323.795	509.31
324.024	558.31
324.253	694.31
324.482	1032.31
324.71	1551.31
324.939	2142.31
325.168	1790.31
325.397	942.31
325.626	646.31
325.855	530.31
326.084	467.31
326.313	474.31
326.542	464.31
326.77	534.31
326.999	626.31
327.228	877.31
327.457	1356.31
327.686	1558.31
327.914	1029.31
328.143	694.31
328.372	617.31
328.6	574.31
328.829	543.31
329.058	551.31
329.287	577.31
329.515	540.31
329.744	496.31
329.972	446.31
330.201	511.31
330.43	540.31
330.658	564.31
330.887	578.31
331.115	566.31
331.344	482.31
331.572	453.31
331.801	449.31
332.03	428.31
332.258	436.31
332.486	427.31
332.715	374.31
332.943	423.31
333.172	398.31
333.4	379.31
333.629	422.31
333.857	426.31
334.085	427.31
334.314	452.31
334.542	481.31
334.771	504.31
334.999	456.31
335.227	406.31
335.455	402.31
335.684	407.31
335.912	383.31
336.14	393.31
336.369	390.31
336.597	398.31
336.825	391.31
337.053	390.31
337.281	384.31
337.51	392.31
337.738	393.31
337.966	385.31
338.194	380.31
338.422	402.31
338.65	375.31
338.878	382.31
339.106	364.31
339.334	372.31
339.562	360.31
339.79	386.31
340.018	382.31
340.246	375.31
340.474	377.31
340.702	372.31
340.93	367.31
341.158	377.31
341.386	364.31
341.614	355.31
341.842	357.31
342.07	381.31
342.298	368.31
342.526	382.31
342.754	359.31
342.981	336.31
343.209	357.31
343.437	361.31
343.665	362.31
343.893	375.31
344.12	364.31
344.348	367.31
344.576	395.31
344.804	379.31
345.031	382.31
345.259	402.31
345.487	390.31
345.714	374.31
345.942	362.31
346.17	375.31
346.397	368.31
346.625	368.31
346.853	356.31
347.08	370.31
347.308	372.31
347.535	382.31
347.763	372.31
347.99	363.31
348.218	393.31
348.445	382.31
348.673	377.31
348.9	372.31
349.128	359.31
349.355	347.31
349.583	355.31
349.81	353.31
350.037	354.31
350.265	348.31
350.492	363.31
350.72	355.31
350.947	356.31
351.174	361.31
351.402	376.31
351.629	379.31
351.856	367.31
352.083	370.31
352.311	397.31
352.538	389.31
352.765	406.31
352.992	376.31
353.22	381.31
353.447	349.31
353.674	391.31
353.901	351.31
354.128	332.31
354.355	355.31
354.583	350.31
354.81	330.31
355.037	344.31
355.264	335.31
355.491	327.31
355.718	329.31
355.945	336.31
356.172	325.31
356.399	296.31
356.626	328.31
356.853	328.31
357.08	333.31
357.307	343.31
357.534	343.31
357.761	330.31
357.988	343.31
358.215	338.31
358.441	340.31
358.668	343.31
358.895	358.31
359.122	332.31
359.349	348.31
359.576	390.31
359.802	401.31
360.029	415.31
360.256	438.31
360.483	398.31
360.709	380.31
360.936	350.31
361.163	378.31
361.39	355.31
361.616	380.31
361.843	362.31
362.07	373.31
362.296	392.31
362.523	381.31
362.749	351.31
362.976	353.31
363.203	344.31
363.429	353.31
363.656	348.31
363.882	353.31
364.109	361.31
364.335	359.31
364.562	335.31
364.788	340.31
365.015	361.31
365.241	353.31
365.468	367.31
365.694	382.31
365.92	359.31
366.147	355.31
366.373	343.31
366.599	358.31
366.826	346.31
367.052	340.31
367.278	350.31
367.505	345.31
367.731	328.31
367.957	336.31
368.184	332.31
368.41	356.31
368.636	343.31
368.862	352.31
369.089	355.31
369.315	365.31
369.541	324.31
369.767	341.31
369.993	346.31
370.219	328.31
370.445	334.31
370.672	332.31
370.898	343.31
371.124	340.31
371.35	341.31
371.576	345.31
371.802	339.31
372.028	328.31
372.254	332.31
372.48	346.31
372.706	333.31
372.932	337.31
373.158	336.31
373.384	335.31
373.61	347.31
373.835	337.31
374.061	340.31
374.287	343.31
374.513	336.31
374.739	346.31
374.965	343.31
375.191	352.31
375.416	340.31
375.642	339.31
375.868	328.31
376.094	341.31
376.319	332.31
376.545	316.31
376.771	325.31
376.997	337.31
377.222	330.31
377.448	346.31
377.674	336.31
377.899	338.31
378.125	332.31
378.35	360.31
378.576	334.31
378.802	341.31
379.027	353.31
379.253	318.31
379.478	334.31
379.704	334.31
379.929	330.31
380.155	356.31
380.38	359.31
380.606	318.31
380.831	324.31
381.057	314.31
381.282	333.31
381.507	330.31
381.733	343.31
381.958	347.31
382.184	334.31
382.409	342.31
382.634	350.31
382.86	339.31
383.085	357.31
383.31	339.31
383.535	344.31
383.761	339.31
383.986	326.31
384.211	343.31
384.436	364.31
384.662	331.31
384.887	331.31
385.112	343.31
385.337	349.31
385.562	363.31
385.787	352.31
386.013	383.31
386.238	375.31
386.463	381.31
386.688	376.31
386.913	363.31
387.138	354.31
387.363	364.31
387.588	360.31
387.813	364.31
388.038	348.31
388.263	356.31
388.488	356.31
388.713	367.31
388.938	358.31
389.163	363.31
389.387	348.31
389.612	360.31
389.837	347.31
390.062	372.31
390.287	375.31
390.512	363.31
390.736	374.31
390.961	386.31
391.186	371.31
391.411	356.31
391.636	365.31
391.86	366.31
392.085	361.31
392.31	372.31
392.534	392.31
392.759	377.31
392.984	358.31
393.208	361.31
393.433	346.31
393.658	358.31
393.882	341.31
394.107	354.31
394.331	337.31
394.556	362.31
394.78	347.31
395.005	342.31
395.229	370.31
395.454	360.31
395.678	384.31
395.903	402.31
396.127	384.31
396.352	395.31
396.576	347.31
396.801	376.31
397.025	379.31
397.249	390.31
397.474	386.31
397.698	404.31
397.922	395.31
398.147	395.31
398.371	418.31
398.595	377.31
398.82	377.31
399.044	406.31
399.268	426.31
399.492	411.31
399.717	433.31
399.941	458.31
400.165	501.31
400.389	489.31
400.613	472.31
400.837	429.31
401.062	436.31
401.286	405.31
401.51	401.31
401.734	410.31
401.958	414.31
402.182	405.31
402.406	430.31
402.63	429.31
402.854	407.31
403.078	409.31
403.302	419.31
403.526	430.31
403.75	415.31
403.974	408.31
404.198	425.31
404.422	423.31
404.645	422.31
404.869	421.31
405.093	459.31
405.317	474.31
405.541	498.31
405.765	471.31
405.988	446.31
406.212	460.31
406.436	481.31
406.66	490.31
406.883	460.31
407.107	483.31
407.331	505.31
407.555	559.31
407.778	552.31
408.002	518.31
408.226	451.31
408.449	460.31
408.673	482.31
408.896	506.31
409.12	530.31
409.344	497.31
409.567	452.31
409.791	438.31
410.014	423.31
410.238	434.31
410.461	429.31
410.685	427.31
410.908	451.31
411.132	471.31
411.355	499.31
411.578	485.31
411.802	444.31
412.025	414.31
412.249	436.31
412.472	463.31
412.695	479.31
412.919	488.31
413.142	443.31
413.365	419.31
413.589	415.31
413.812	406.31
414.035	409.31
414.258	398.31
414.482	396.31
414.705	409.31
414.928	410.31
415.151	408.31
415.374	407.31
415.597	406.31
415.821	409.31
416.044	400.31
416.267	386.31
416.49	406.31
416.713	376.31
416.936	394.31
417.159	401.31
417.382	392.31
417.605	394.31
417.828	415.31
418.051	425.31
418.274	414.31
418.497	413.31
418.72	386.31
418.943	391.31
419.166	406.31
419.389	440.31
419.611	426.31
419.834	427.31
420.057	425.31
420.28	418.31
420.503	411.31
420.726	426.31
420.948	454.31
421.171	476.31
421.394	508.31
421.617	457.31
421.839	419.31
422.062	419.31
422.285	432.31
422.507	482.31
422.73	530.31
422.953	506.31
423.175	476.31
423.398	436.31
423.621	452.31
423.843	459.31
424.066	460.31
424.288	450.31
424.511	492.31
424.733	509.31
424.956	590.31
425.178	573.31
425.401	542.31
425.623	584.31
425.846	484.31
426.068	445.31
426.291	449.31
426.513	460.31
426.735	446.31
426.958	510.31
427.18	568.31
427.402	678.31
427.625	746.31
427.847	685.31
428.069	584.31
428.292	527.31
428.514	462.31
428.736	459.31
428.958	440.31
429.181	434.31
429.403	444.31
429.625	440.31
429.847	458.31
430.069	541.31
430.292	502.31
430.514	448.31
430.736	423.31
430.958	439.31
431.18	419.31
431.402	408.31
431.624	388.31
431.846	412.31
432.068	391.31
432.29	393.31
432.512	407.31
432.734	426.31
432.956	409.31
433.178	407.31
433.4	422.31
433.622	408.31
433.844	408.31
434.066	418.31
434.287	403.31
434.509	411.31
434.731	401.31
434.953	416.31
435.175	434.31
435.397	454.31
435.618	437.31
435.84	491.31
436.062	593.31
436.284	616.31
436.505	543.31
436.727	483.31
436.949	459.31
437.17	437.31
437.392	468.31
437.614	465.31
437.835	503.31
438.057	572.31
438.278	623.31
438.5	644.31
438.721	714.31
438.943	647.31
439.165	527.31
439.386	476.31
439.608	478.31
439.829	474.31
440.05	509.31
440.272	559.31
440.493	513.31
440.715	456.31
440.936	457.31
441.158	452.31
441.379	446.31
441.6	446.31
441.822	457.31
442.043	509.31
442.264	575.31
442.486	599.31
442.707	537.31
442.928	502.31
443.149	487.31
443.371	484.31
443.592	536.31
443.813	635.31
444.034	653.31
444.255	551.31
444.476	484.31
444.698	470.31
444.919	445.31
445.14	581.31
445.361	540.31
445.582	500.31
445.803	560.31
446.024	654.31
446.245	646.31
446.466	577.31
446.687	516.31
446.908	481.31
447.129	446.31
447.35	458.31
447.571	422.31
447.792	451.31
448.013	458.31
448.234	448.31
448.455	521.31
448.675	607.31
448.896	686.31
449.117	551.31
449.338	554.31
449.559	622.31
449.779	694.31
450	585.31
450.221	477.31
450.442	461.31
450.662	426.31
450.883	436.31
451.104	443.31
451.324	438.31
451.545	416.31
451.766	420.31
451.986	384.31
452.207	380.31
452.428	364.31
452.648	385.31
452.869	391.31
453.089	388.31
453.31	410.31
453.53	413.31
453.751	391.31
453.971	399.31
454.192	424.31
454.412	431.31
454.633	404.31
454.853	398.31
455.073	398.31
455.294	430.31
455.514	501.31
455.734	470.31
455.955	377.31
456.175	354.31
456.395	363.31
456.616	382.31
456.836	363.31
457.056	370.31
457.276	356.31
457.497	382.31
457.717	381.31
457.937	396.31
458.157	393.31
458.377	396.31
458.598	419.31
458.818	467.31
459.038	556.31
459.258	547.31
459.478	460.31
459.698	436.31
459.918	404.31
460.138	418.31
460.358	422.31
460.578	386.31
460.798	410.31
461.018	394.31
461.238	385.31
461.458	384.31
461.678	378.31
461.898	417.31
462.118	398.31
462.338	418.31
462.558	418.31
462.777	422.31
462.997	423.31
463.217	434.31
463.437	450.31
463.657	447.31
463.876	415.31
464.096	418.31
464.316	413.31
464.536	440.31
464.755	419.31
464.975	420.31
465.195	501.31
465.414	590.31
465.634	500.31
465.854	456.31
466.073	452.31
466.293	408.31
466.512	412.31
466.732	407.31
466.951	392.31
467.171	394.31
467.391	401.31
467.61	423.31
467.829	434.31
468.049	428.31
468.268	408.31
468.488	383.31
468.707	400.31
468.927	397.31
469.146	377.31
469.365	383.31
469.585	388.31
469.804	410.31
470.023	410.31
470.243	412.31
470.462	407.31
470.681	437.31
470.901	406.31
471.12	414.31
471.339	414.31
471.558	401.31
471.777	418.31
471.997	409.31
472.216	402.31
472.435	456.31
472.654	426.31
472.873	417.31
473.092	409.31
473.311	402.31
473.53	409.31
473.749	420.31
473.968	452.31
474.187	550.31
474.406	570.31
474.625	451.31
474.844	423.31
475.063	387.31
475.282	399.31
475.501	408.31
475.72	419.31
475.939	404.31
476.158	415.31
476.377	420.31
476.596	436.31
476.814	432.31
477.033	430.31
477.252	445.31
477.471	412.31
477.69	441.31
477.908	428.31
478.127	439.31
478.346	434.31
478.564	451.31
478.783	445.31
479.002	452.31
479.22	432.31
479.439	470.31
479.658	478.31
479.876	495.31
480.095	470.31
480.313	515.31
480.532	499.31
480.751	503.31
480.969	503.31
481.188	576.31
481.406	614.31
481.624	535.31
481.843	515.31
482.061	478.31
482.28	502.31
482.498	464.31
482.717	470.31
482.935	472.31
483.153	479.31
483.372	456.31
483.59	468.31
483.808	471.31
484.027	478.31
484.245	483.31
484.463	457.31
484.681	503.31
484.9	469.31
485.118	479.31
485.336	476.31
485.554	470.31
485.772	482.31
485.99	476.31
486.209	507.31
486.427	487.31
486.645	502.31
486.863	535.31
487.081	500.31
487.299	516.31
487.517	498.31
487.735	474.31
487.953	527.31
488.171	517.31
488.389	514.31
488.607	498.31
488.825	477.31
489.043	520.31
489.261	514.31
489.479	516.31
489.696	502.31
489.914	514.31
490.132	526.31
490.35	528.31
490.568	539.31
490.786	546.31
491.003	538.31
491.221	560.31
491.439	592.31
491.657	573.31
491.874	574.31
492.092	576.31
492.31	571.31
492.527	589.31
492.745	588.31
492.963	598.31
493.18	592.31
493.398	606.31
493.615	590.31
493.833	586.31
494.05	608.31
494.268	587.31
494.485	607.31
494.703	607.31
494.92	609.31
495.138	612.31
495.355	581.31
495.573	611.31
495.79	605.31
496.008	590.31
496.225	597.31
496.442	606.31
496.66	607.31
496.877	592.31
497.094	608.31
497.312	622.31
497.529	622.31
497.746	634.31
497.963	616.31
498.181	647.31
498.398	664.31
498.615	640.31
498.832	666.31
499.049	670.31
499.267	676.31
499.484	683.31
499.701	696.31
499.918	724.31
500.135	744.31
500.352	755.31
500.569	760.31
500.786	782.31
501.003	744.31
501.22	738.31
501.437	741.31
501.654	716.31
501.871	716.31
502.088	713.31
