Data from 1965.PennyLincolnUp.Lamp.En5.5.200Scan.071719.P1._HRD10591_14-08-06-910.txt Node
Date: Thu Jul 18 14:08:06 EDT 2019
User: cochatt
Spectrometer: HR+D1059
Trigger mode: 1
Integration Time (sec): 1.000000E-1
Scans to average: 1
Electric dark correction enabled: true
Nonlinearity correction enabled: false
Boxcar width: 0
XAxis mode: Wavelengths
Number of Pixels in Spectrum: 2048
>>>>>Begin Spectral Data<<<<<
223.165	-1.69
223.4	-1.69
223.635	-1.69
223.869	-21.69
224.104	-24.69
224.338	-25.69
224.573	-12.69
224.808	-21.69
225.042	-11.69
225.277	8.31
225.511	10.31
225.746	4.31
225.98	-0.69
226.215	6.31
226.449	11.31
226.683	22.31
226.918	32.31
227.152	25.31
227.387	22.31
227.621	32.31
227.856	29.31
228.09	45.31
228.324	45.31
228.559	59.31
228.793	50.31
229.027	81.31
229.262	94.31
229.496	91.31
229.73	96.31
229.964	150.31
230.199	128.31
230.433	108.31
230.667	105.31
230.901	105.31
231.136	93.31
231.37	110.31
231.604	106.31
231.838	92.31
232.072	110.31
232.306	84.31
232.541	108.31
232.775	97.31
233.009	92.31
233.243	101.31
233.477	101.31
233.711	92.31
233.945	95.31
234.179	112.31
234.413	111.31
234.647	119.31
234.881	110.31
235.115	124.31
235.349	109.31
235.583	106.31
235.817	94.31
236.051	103.31
236.285	100.31
236.519	117.31
236.753	118.31
236.987	125.31
237.221	152.31
237.455	198.31
237.689	153.31
237.922	125.31
238.156	117.31
238.39	121.31
238.624	116.31
238.858	96.31
239.091	125.31
239.325	108.31
239.559	109.31
239.793	105.31
240.027	115.31
240.26	120.31
240.494	130.31
240.728	132.31
240.961	135.31
241.195	124.31
241.429	127.31
241.662	103.31
241.896	116.31
242.13	119.31
242.363	115.31
242.597	120.31
242.83	120.31
243.064	120.31
243.298	107.31
243.531	121.31
243.765	123.31
243.998	125.31
244.232	125.31
244.465	128.31
244.699	124.31
244.932	135.31
245.166	126.31
245.399	134.31
245.633	124.31
245.866	126.31
246.099	118.31
246.333	123.31
246.566	139.31
246.8	125.31
247.033	143.31
247.266	133.31
247.5	148.31
247.733	162.31
247.966	156.31
248.2	150.31
248.433	128.31
248.666	157.31
248.899	159.31
249.133	171.31
249.366	182.31
249.599	166.31
249.832	157.31
250.066	153.31
250.299	155.31
250.532	163.31
250.765	171.31
250.998	169.31
251.231	185.31
251.465	171.31
251.698	179.31
251.931	159.31
252.164	187.31
252.397	179.31
252.63	178.31
252.863	158.31
253.096	166.31
253.329	180.31
253.562	184.31
253.795	199.31
254.028	175.31
254.261	178.31
254.494	177.31
254.727	195.31
254.96	218.31
255.193	214.31
255.426	190.31
255.659	198.31
255.892	188.31
256.124	198.31
256.357	186.31
256.59	191.31
256.823	180.31
257.056	169.31
257.289	178.31
257.521	186.31
257.754	157.31
257.987	191.31
258.22	173.31
258.452	178.31
258.685	184.31
258.918	171.31
259.151	187.31
259.383	196.31
259.616	182.31
259.849	181.31
260.081	211.31
260.314	206.31
260.547	207.31
260.779	207.31
261.012	182.31
261.244	198.31
261.477	201.31
261.71	170.31
261.942	187.31
262.175	199.31
262.407	177.31
262.64	183.31
262.872	180.31
263.105	169.31
263.337	172.31
263.57	199.31
263.802	173.31
264.035	190.31
264.267	175.31
264.499	178.31
264.732	180.31
264.964	174.31
265.197	178.31
265.429	202.31
265.661	175.31
265.894	174.31
266.126	187.31
266.358	180.31
266.591	179.31
266.823	191.31
267.055	180.31
267.287	197.31
267.52	183.31
267.752	183.31
267.984	194.31
268.216	190.31
268.448	202.31
268.681	196.31
268.913	212.31
269.145	218.31
269.377	231.31
269.609	220.31
269.841	195.31
270.073	227.31
270.306	221.31
270.538	242.31
270.77	252.31
271.002	254.31
271.234	231.31
271.466	246.31
271.698	238.31
271.93	235.31
272.162	243.31
272.394	232.31
272.626	231.31
272.858	227.31
273.09	209.31
273.322	227.31
273.553	214.31
273.785	215.31
274.017	221.31
274.249	215.31
274.481	222.31
274.713	220.31
274.945	204.31
275.176	223.31
275.408	206.31
275.64	202.31
275.872	230.31
276.104	227.31
276.335	208.31
276.567	213.31
276.799	220.31
277.031	247.31
277.262	249.31
277.494	257.31
277.726	237.31
277.957	210.31
278.189	234.31
278.421	214.31
278.652	237.31
278.884	213.31
279.115	214.31
279.347	234.31
279.579	221.31
279.81	207.31
280.042	226.31
280.273	218.31
280.505	205.31
280.736	208.31
280.968	224.31
281.199	222.31
281.431	217.31
281.662	217.31
281.894	223.31
282.125	227.31
282.356	240.31
282.588	267.31
282.819	246.31
283.051	197.31
283.282	218.31
283.513	244.31
283.745	218.31
283.976	228.31
284.207	202.31
284.439	231.31
284.67	231.31
284.901	225.31
285.132	236.31
285.364	238.31
285.595	222.31
285.826	220.31
286.057	227.31
286.288	216.31
286.52	226.31
286.751	232.31
286.982	214.31
287.213	226.31
287.444	230.31
287.675	247.31
287.906	232.31
288.138	247.31
288.369	245.31
288.6	230.31
288.831	248.31
289.062	239.31
289.293	228.31
289.524	234.31
289.755	233.31
289.986	232.31
290.217	222.31
290.448	243.31
290.679	224.31
290.91	208.31
291.141	210.31
291.371	235.31
291.602	233.31
291.833	227.31
292.064	235.31
292.295	223.31
292.526	228.31
292.757	221.31
292.987	217.31
293.218	230.31
293.449	222.31
293.68	237.31
293.91	238.31
294.141	241.31
294.372	236.31
294.603	218.31
294.833	236.31
295.064	216.31
295.295	237.31
295.525	238.31
295.756	246.31
295.987	244.31
296.217	253.31
296.448	276.31
296.679	247.31
296.909	246.31
297.14	238.31
297.37	214.31
297.601	244.31
297.831	266.31
298.062	251.31
298.292	244.31
298.523	232.31
298.753	236.31
298.984	217.31
299.214	228.31
299.445	234.31
299.675	236.31
299.905	248.31
300.136	254.31
300.366	261.31
300.597	255.31
300.827	268.31
301.057	274.31
301.288	284.31
301.518	237.31
301.748	248.31
301.979	250.31
302.209	264.31
302.439	265.31
302.669	272.31
302.9	257.31
303.13	258.31
303.36	250.31
303.59	287.31
303.82	300.31
304.051	277.31
304.281	261.31
304.511	265.31
304.741	248.31
304.971	259.31
305.201	260.31
305.431	277.31
305.661	278.31
305.891	269.31
306.121	272.31
306.352	267.31
306.582	277.31
306.812	275.31
307.042	271.31
307.272	271.31
307.502	283.31
307.731	268.31
307.961	280.31
308.191	266.31
308.421	263.31
308.651	258.31
308.881	266.31
309.111	278.31
309.341	275.31
309.571	277.31
309.8	291.31
310.03	320.31
310.26	313.31
310.49	306.31
310.72	304.31
310.949	316.31
311.179	330.31
311.409	310.31
311.639	315.31
311.868	318.31
312.098	312.31
312.328	309.31
312.557	328.31
312.787	323.31
313.017	327.31
313.246	326.31
313.476	312.31
313.706	301.31
313.935	331.31
314.165	332.31
314.394	330.31
314.624	316.31
314.853	295.31
315.083	312.31
315.312	302.31
315.542	322.31
315.771	307.31
316.001	313.31
316.23	295.31
316.46	303.31
316.689	295.31
316.919	310.31
317.148	318.31
317.377	317.31
317.607	322.31
317.836	320.31
318.065	288.31
318.295	301.31
318.524	302.31
318.753	300.31
318.983	301.31
319.212	294.31
319.441	319.31
319.67	325.31
319.9	312.31
320.129	303.31
320.358	310.31
320.587	298.31
320.816	319.31
321.046	318.31
321.275	333.31
321.504	324.31
321.733	307.31
321.962	317.31
322.191	346.31
322.42	334.31
322.649	367.31
322.878	357.31
323.108	371.31
323.337	389.31
323.566	416.31
323.795	432.31
324.024	461.31
324.253	567.31
324.482	824.31
324.71	1187.31
324.939	1658.31
325.168	1374.31
325.397	753.31
325.626	525.31
325.855	455.31
326.084	409.31
326.313	421.31
326.542	416.31
326.77	431.31
326.999	524.31
327.228	716.31
327.457	1067.31
327.686	1259.31
327.914	827.31
328.143	578.31
328.372	504.31
328.6	492.31
328.829	446.31
329.058	461.31
329.287	473.31
329.515	431.31
329.744	416.31
329.972	424.31
330.201	415.31
330.43	456.31
330.658	470.31
330.887	504.31
331.115	490.31
331.344	404.31
331.572	394.31
331.801	402.31
332.03	376.31
332.258	384.31
332.486	375.31
332.715	347.31
332.943	354.31
333.172	376.31
333.4	363.31
333.629	362.31
333.857	388.31
334.085	395.31
334.314	401.31
334.542	410.31
334.771	435.31
334.999	395.31
335.227	382.31
335.455	378.31
335.684	361.31
335.912	343.31
336.14	376.31
336.369	351.31
336.597	360.31
336.825	370.31
337.053	340.31
337.281	337.31
337.51	347.31
337.738	367.31
337.966	347.31
338.194	373.31
338.422	357.31
338.65	356.31
338.878	350.31
339.106	349.31
339.334	346.31
339.562	326.31
339.79	327.31
340.018	330.31
340.246	349.31
340.474	362.31
340.702	347.31
340.93	319.31
341.158	327.31
341.386	358.31
341.614	357.31
341.842	341.31
342.07	328.31
342.298	351.31
342.526	356.31
342.754	330.31
342.981	327.31
343.209	346.31
343.437	337.31
343.665	342.31
343.893	335.31
344.12	346.31
344.348	340.31
344.576	347.31
344.804	349.31
345.031	341.31
345.259	381.31
345.487	338.31
345.714	350.31
345.942	359.31
346.17	343.31
346.397	339.31
346.625	353.31
346.853	325.31
347.08	346.31
347.308	344.31
347.535	351.31
347.763	340.31
347.99	364.31
348.218	362.31
348.445	361.31
348.673	365.31
348.9	333.31
349.128	344.31
349.355	316.31
349.583	327.31
349.81	312.31
350.037	321.31
350.265	315.31
350.492	310.31
350.72	325.31
350.947	323.31
351.174	344.31
351.402	349.31
351.629	342.31
351.856	359.31
352.083	347.31
352.311	334.31
352.538	350.31
352.765	364.31
352.992	326.31
353.22	345.31
353.447	340.31
353.674	332.31
353.901	326.31
354.128	329.31
354.355	324.31
354.583	304.31
354.81	322.31
355.037	340.31
355.264	309.31
355.491	318.31
355.718	312.31
355.945	331.31
356.172	300.31
356.399	337.31
356.626	304.31
356.853	322.31
357.08	312.31
357.307	315.31
357.534	310.31
357.761	319.31
357.988	313.31
358.215	321.31
358.441	332.31
358.668	301.31
358.895	317.31
359.122	315.31
359.349	319.31
359.576	345.31
359.802	342.31
360.029	355.31
360.256	384.31
360.483	379.31
360.709	355.31
360.936	338.31
361.163	326.31
361.39	359.31
361.616	352.31
361.843	337.31
362.07	346.31
362.296	326.31
362.523	328.31
362.749	329.31
362.976	340.31
363.203	333.31
363.429	330.31
363.656	337.31
363.882	314.31
364.109	315.31
364.335	319.31
364.562	300.31
364.788	335.31
365.015	308.31
365.241	322.31
365.468	327.31
365.694	314.31
365.92	317.31
366.147	314.31
366.373	319.31
366.599	320.31
366.826	322.31
367.052	319.31
367.278	338.31
367.505	333.31
367.731	338.31
367.957	326.31
368.184	320.31
368.41	348.31
368.636	345.31
368.862	335.31
369.089	328.31
369.315	322.31
369.541	312.31
369.767	332.31
369.993	326.31
370.219	314.31
370.445	330.31
370.672	318.31
370.898	304.31
371.124	327.31
371.35	323.31
371.576	318.31
371.802	321.31
372.028	334.31
372.254	324.31
372.48	327.31
372.706	298.31
372.932	308.31
373.158	321.31
373.384	319.31
373.61	333.31
373.835	331.31
374.061	347.31
374.287	314.31
374.513	335.31
374.739	318.31
374.965	340.31
375.191	326.31
375.416	316.31
375.642	326.31
375.868	339.31
376.094	333.31
376.319	313.31
376.545	339.31
376.771	323.31
376.997	327.31
377.222	316.31
377.448	313.31
377.674	317.31
377.899	309.31
378.125	298.31
378.35	327.31
378.576	333.31
378.802	306.31
379.027	323.31
379.253	318.31
379.478	314.31
379.704	318.31
379.929	322.31
380.155	326.31
380.38	311.31
380.606	328.31
380.831	317.31
381.057	336.31
381.282	351.31
381.507	329.31
381.733	309.31
381.958	330.31
382.184	320.31
382.409	324.31
382.634	330.31
382.86	319.31
383.085	324.31
383.31	325.31
383.535	316.31
383.761	351.31
383.986	328.31
384.211	331.31
384.436	326.31
384.662	340.31
384.887	327.31
385.112	329.31
385.337	330.31
385.562	338.31
385.787	334.31
386.013	348.31
386.238	351.31
386.463	342.31
386.688	347.31
386.913	329.31
387.138	323.31
387.363	329.31
387.588	323.31
387.813	319.31
388.038	340.31
388.263	357.31
388.488	347.31
388.713	354.31
388.938	347.31
389.163	335.31
389.387	344.31
389.612	322.31
389.837	341.31
390.062	340.31
390.287	332.31
390.512	345.31
390.736	341.31
390.961	342.31
391.186	352.31
391.411	356.31
391.636	357.31
391.86	355.31
392.085	371.31
392.31	357.31
392.534	351.31
392.759	364.31
392.984	358.31
393.208	360.31
393.433	347.31
393.658	343.31
393.882	352.31
394.107	343.31
394.331	367.31
394.556	352.31
394.78	348.31
395.005	341.31
395.229	350.31
395.454	332.31
395.678	344.31
395.903	373.31
396.127	373.31
396.352	394.31
396.576	363.31
396.801	359.31
397.025	341.31
397.249	349.31
397.474	354.31
397.698	359.31
397.922	391.31
398.147	394.31
398.371	409.31
398.595	379.31
398.82	364.31
399.044	400.31
399.268	392.31
399.492	397.31
399.717	446.31
399.941	471.31
400.165	478.31
400.389	473.31
400.613	460.31
400.837	410.31
401.062	401.31
401.286	414.31
401.51	387.31
401.734	371.31
401.958	396.31
402.182	396.31
402.406	397.31
402.63	402.31
402.854	396.31
403.078	398.31
403.302	394.31
403.526	401.31
403.75	384.31
403.974	378.31
404.198	406.31
404.422	401.31
404.645	408.31
404.869	414.31
405.093	424.31
405.317	461.31
405.541	483.31
405.765	452.31
405.988	417.31
406.212	423.31
406.436	448.31
406.66	456.31
406.883	456.31
407.107	472.31
407.331	483.31
407.555	526.31
407.778	522.31
408.002	456.31
408.226	450.31
408.449	442.31
408.673	439.31
408.896	464.31
409.12	488.31
409.344	460.31
409.567	415.31
409.791	413.31
410.014	423.31
410.238	412.31
410.461	386.31
410.685	418.31
410.908	427.31
411.132	464.31
411.355	460.31
411.578	461.31
411.802	425.31
412.025	395.31
412.249	423.31
412.472	416.31
412.695	451.31
412.919	404.31
413.142	409.31
413.365	404.31
413.589	398.31
413.812	408.31
414.035	391.31
414.258	376.31
414.482	393.31
414.705	386.31
414.928	395.31
415.151	379.31
415.374	399.31
415.597	382.31
415.821	392.31
416.044	384.31
416.267	385.31
416.49	392.31
416.713	367.31
416.936	390.31
417.159	387.31
417.382	392.31
417.605	388.31
417.828	403.31
418.051	398.31
418.274	395.31
418.497	383.31
418.72	375.31
418.943	382.31
419.166	404.31
419.389	414.31
419.611	414.31
419.834	396.31
420.057	407.31
420.28	404.31
420.503	392.31
420.726	398.31
420.948	410.31
421.171	463.31
421.394	471.31
421.617	420.31
421.839	393.31
422.062	407.31
422.285	406.31
422.507	439.31
422.73	498.31
422.953	489.31
423.175	436.31
423.398	409.31
423.621	427.31
423.843	429.31
424.066	449.31
424.288	410.31
424.511	437.31
424.733	474.31
424.956	541.31
425.178	533.31
425.401	539.31
425.623	522.31
425.846	467.31
426.068	454.31
426.291	419.31
426.513	443.31
426.735	450.31
426.958	448.31
427.18	529.31
427.402	605.31
427.625	661.31
427.847	608.31
428.069	533.31
428.292	471.31
428.514	429.31
428.736	411.31
428.958	409.31
429.181	403.31
429.403	385.31
429.625	406.31
429.847	437.31
430.069	488.31
430.292	474.31
430.514	407.31
430.736	413.31
430.958	380.31
431.18	404.31
431.402	383.31
431.624	365.31
431.846	398.31
432.068	375.31
432.29	404.31
432.512	388.31
432.734	406.31
432.956	378.31
433.178	412.31
433.4	402.31
433.622	406.31
433.844	396.31
434.066	386.31
434.287	380.31
434.509	384.31
434.731	409.31
434.953	402.31
435.175	388.31
435.397	434.31
435.618	429.31
435.84	489.31
436.062	541.31
436.284	578.31
436.505	488.31
436.727	441.31
436.949	420.31
437.17	407.31
437.392	406.31
437.614	415.31
437.835	439.31
438.057	516.31
438.278	586.31
438.5	579.31
438.721	612.31
438.943	586.31
439.165	492.31
439.386	459.31
439.608	467.31
439.829	436.31
440.05	470.31
440.272	497.31
440.493	479.31
440.715	434.31
440.936	425.31
441.158	411.31
441.379	416.31
441.6	396.31
441.822	426.31
442.043	477.31
442.264	524.31
442.486	564.31
442.707	479.31
442.928	431.31
443.149	454.31
443.371	491.31
443.592	502.31
443.813	564.31
444.034	584.31
444.255	507.31
444.476	456.31
444.698	441.31
444.919	432.31
445.14	530.31
445.361	512.31
445.582	492.31
445.803	520.31
446.024	595.31
446.245	578.31
446.466	534.31
446.687	483.31
446.908	431.31
447.129	440.31
447.35	410.31
447.571	428.31
447.792	420.31
448.013	393.31
448.234	412.31
448.455	469.31
448.675	521.31
448.896	615.31
449.117	536.31
449.338	515.31
449.559	575.31
449.779	653.31
450	534.31
450.221	430.31
450.442	410.31
450.662	386.31
450.883	395.31
451.104	422.31
451.324	402.31
451.545	396.31
451.766	385.31
451.986	373.31
452.207	351.31
452.428	361.31
452.648	372.31
452.869	363.31
453.089	369.31
453.31	370.31
453.53	376.31
453.751	367.31
453.971	356.31
454.192	395.31
454.412	361.31
454.633	374.31
454.853	366.31
455.073	369.31
455.294	386.31
455.514	417.31
455.734	438.31
455.955	387.31
456.175	372.31
456.395	356.31
456.616	331.31
456.836	346.31
457.056	351.31
457.276	346.31
457.497	349.31
457.717	356.31
457.937	374.31
458.157	342.31
458.377	356.31
458.598	378.31
458.818	416.31
459.038	485.31
459.258	487.31
459.478	423.31
459.698	388.31
459.918	380.31
460.138	381.31
460.358	380.31
460.578	364.31
460.798	392.31
461.018	403.31
461.238	396.31
461.458	386.31
461.678	359.31
461.898	386.31
462.118	388.31
462.338	397.31
462.558	388.31
462.777	386.31
462.997	414.31
463.217	390.31
463.437	415.31
463.657	405.31
463.876	413.31
464.096	430.31
464.316	439.31
464.536	419.31
464.755	412.31
464.975	424.31
465.195	448.31
465.414	509.31
465.634	453.31
465.854	407.31
466.073	406.31
466.293	374.31
466.512	395.31
466.732	365.31
466.951	377.31
467.171	375.31
467.391	386.31
467.61	393.31
467.829	399.31
468.049	390.31
468.268	368.31
468.488	369.31
468.707	374.31
468.927	389.31
469.146	352.31
469.365	346.31
469.585	338.31
469.804	352.31
470.023	393.31
470.243	386.31
470.462	386.31
470.681	389.31
470.901	393.31
471.12	378.31
471.339	370.31
471.558	395.31
471.777	381.31
471.997	395.31
472.216	393.31
472.435	425.31
472.654	409.31
472.873	390.31
473.092	392.31
473.311	383.31
473.53	388.31
473.749	401.31
473.968	431.31
474.187	500.31
474.406	493.31
474.625	420.31
474.844	381.31
475.063	396.31
475.282	365.31
475.501	392.31
475.72	392.31
475.939	371.31
476.158	395.31
476.377	389.31
476.596	380.31
476.814	404.31
477.033	396.31
477.252	406.31
477.471	400.31
477.69	412.31
477.908	408.31
478.127	442.31
478.346	404.31
478.564	400.31
478.783	419.31
479.002	451.31
479.22	442.31
479.439	457.31
479.658	458.31
479.876	448.31
480.095	472.31
480.313	473.31
480.532	462.31
480.751	472.31
480.969	493.31
481.188	528.31
481.406	547.31
481.624	498.31
481.843	460.31
482.061	466.31
482.28	439.31
482.498	450.31
482.717	456.31
482.935	471.31
483.153	469.31
483.372	446.31
483.59	471.31
483.808	429.31
484.027	451.31
484.245	433.31
484.463	461.31
484.681	454.31
484.9	478.31
485.118	464.31
485.336	442.31
485.554	458.31
485.772	452.31
485.99	452.31
486.209	466.31
486.427	450.31
486.645	470.31
486.863	488.31
487.081	468.31
487.299	479.31
487.517	475.31
487.735	473.31
487.953	475.31
488.171	489.31
488.389	492.31
488.607	470.31
488.825	472.31
489.043	461.31
489.261	501.31
489.479	494.31
489.696	479.31
489.914	495.31
490.132	487.31
490.35	506.31
490.568	509.31
490.786	505.31
491.003	528.31
491.221	534.31
491.439	519.31
491.657	534.31
491.874	544.31
492.092	508.31
492.31	535.31
492.527	524.31
492.745	554.31
492.963	545.31
493.18	548.31
493.398	549.31
493.615	568.31
493.833	574.31
494.05	552.31
494.268	557.31
494.485	535.31
494.703	543.31
494.92	539.31
495.138	559.31
495.355	573.31
495.573	572.31
495.79	573.31
496.008	578.31
496.225	570.31
496.442	543.31
496.66	575.31
496.877	535.31
497.094	590.31
497.312	570.31
497.529	563.31
497.746	607.31
497.963	590.31
498.181	600.31
498.398	596.31
498.615	622.31
498.832	626.31
499.049	630.31
499.267	637.31
499.484	639.31
499.701	671.31
499.918	682.31
500.135	701.31
500.352	742.31
500.569	715.31
500.786	738.31
501.003	731.31
501.22	731.31
501.437	712.31
501.654	698.31
501.871	688.31
502.088	678.31
