Data from 1965.PennyLincolnUp.Lamp.En5.5.200Scan.071719.P1._HRD10591_14-11-01-912.txt Node
Date: Thu Jul 18 14:11:01 EDT 2019
User: cochatt
Spectrometer: HR+D1059
Trigger mode: 1
Integration Time (sec): 1.000000E-1
Scans to average: 1
Electric dark correction enabled: true
Nonlinearity correction enabled: false
Boxcar width: 0
XAxis mode: Wavelengths
Number of Pixels in Spectrum: 2048
>>>>>Begin Spectral Data<<<<<
223.165	-6.94
223.4	-6.94
223.635	-6.94
223.869	-23.94
224.104	-12.94
224.338	-23.94
224.573	-16.94
224.808	-12.94
225.042	-2.94
225.277	-6.94
225.511	-3.94
225.746	5.06
225.98	6.06
226.215	11.06
226.449	9.06
226.683	25.06
226.918	36.06
227.152	19.06
227.387	30.06
227.621	28.06
227.856	52.06
228.09	40.06
228.324	37.06
228.559	42.06
228.793	69.06
229.027	99.06
229.262	106.06
229.496	122.06
229.73	139.06
229.964	153.06
230.199	128.06
230.433	111.06
230.667	106.06
230.901	107.06
231.136	102.06
231.37	117.06
231.604	91.06
231.838	108.06
232.072	104.06
232.306	106.06
232.541	111.06
232.775	116.06
233.009	127.06
233.243	101.06
233.477	104.06
233.711	113.06
233.945	97.06
234.179	119.06
234.413	115.06
234.647	112.06
234.881	102.06
235.115	119.06
235.349	108.06
235.583	112.06
235.817	120.06
236.051	121.06
236.285	125.06
236.519	124.06
236.753	134.06
236.987	149.06
237.221	179.06
237.455	219.06
237.689	188.06
237.922	132.06
238.156	133.06
238.39	128.06
238.624	100.06
238.858	112.06
239.091	115.06
239.325	133.06
239.559	122.06
239.793	123.06
240.027	142.06
240.26	142.06
240.494	155.06
240.728	146.06
240.961	159.06
241.195	140.06
241.429	135.06
241.662	137.06
241.896	129.06
242.13	132.06
242.363	131.06
242.597	124.06
242.83	120.06
243.064	147.06
243.298	127.06
243.531	139.06
243.765	114.06
243.998	132.06
244.232	134.06
244.465	140.06
244.699	124.06
244.932	128.06
245.166	149.06
245.399	129.06
245.633	134.06
245.866	129.06
246.099	128.06
246.333	145.06
246.566	125.06
246.8	134.06
247.033	142.06
247.266	152.06
247.5	157.06
247.733	152.06
247.966	155.06
248.2	170.06
248.433	173.06
248.666	154.06
248.899	182.06
249.133	179.06
249.366	188.06
249.599	184.06
249.832	162.06
250.066	160.06
250.299	172.06
250.532	179.06
250.765	180.06
250.998	180.06
251.231	213.06
251.465	197.06
251.698	179.06
251.931	192.06
252.164	187.06
252.397	187.06
252.63	204.06
252.863	202.06
253.096	206.06
253.329	211.06
253.562	217.06
253.795	199.06
254.028	211.06
254.261	211.06
254.494	214.06
254.727	246.06
254.96	251.06
255.193	281.06
255.426	232.06
255.659	234.06
255.892	215.06
256.124	215.06
256.357	213.06
256.59	228.06
256.823	199.06
257.056	189.06
257.289	214.06
257.521	179.06
257.754	196.06
257.987	193.06
258.22	200.06
258.452	207.06
258.685	193.06
258.918	221.06
259.151	213.06
259.383	220.06
259.616	206.06
259.849	219.06
260.081	218.06
260.314	236.06
260.547	230.06
260.779	210.06
261.012	223.06
261.244	208.06
261.477	211.06
261.71	227.06
261.942	204.06
262.175	234.06
262.407	203.06
262.64	193.06
262.872	189.06
263.105	187.06
263.337	209.06
263.57	213.06
263.802	176.06
264.035	189.06
264.267	189.06
264.499	195.06
264.732	215.06
264.964	197.06
265.197	198.06
265.429	175.06
265.661	200.06
265.894	206.06
266.126	200.06
266.358	205.06
266.591	219.06
266.823	213.06
267.055	206.06
267.287	203.06
267.52	219.06
267.752	219.06
267.984	206.06
268.216	189.06
268.448	213.06
268.681	221.06
268.913	230.06
269.145	228.06
269.377	250.06
269.609	255.06
269.841	264.06
270.073	255.06
270.306	277.06
270.538	308.06
270.77	294.06
271.002	284.06
271.234	269.06
271.466	284.06
271.698	302.06
271.93	290.06
272.162	286.06
272.394	276.06
272.626	291.06
272.858	279.06
273.09	283.06
273.322	263.06
273.553	243.06
273.785	243.06
274.017	232.06
274.249	236.06
274.481	251.06
274.713	265.06
274.945	249.06
275.176	266.06
275.408	231.06
275.64	251.06
275.872	246.06
276.104	257.06
276.335	263.06
276.567	248.06
276.799	272.06
277.031	276.06
277.262	286.06
277.494	322.06
277.726	274.06
277.957	293.06
278.189	271.06
278.421	237.06
278.652	251.06
278.884	236.06
279.115	235.06
279.347	256.06
279.579	245.06
279.81	245.06
280.042	243.06
280.273	253.06
280.505	269.06
280.736	245.06
280.968	233.06
281.199	247.06
281.431	252.06
281.662	239.06
281.894	244.06
282.125	237.06
282.356	272.06
282.588	291.06
282.819	297.06
283.051	265.06
283.282	242.06
283.513	254.06
283.745	248.06
283.976	259.06
284.207	245.06
284.439	262.06
284.67	243.06
284.901	249.06
285.132	261.06
285.364	237.06
285.595	247.06
285.826	256.06
286.057	241.06
286.288	243.06
286.52	257.06
286.751	250.06
286.982	259.06
287.213	273.06
287.444	239.06
287.675	262.06
287.906	296.06
288.138	270.06
288.369	286.06
288.6	261.06
288.831	287.06
289.062	268.06
289.293	254.06
289.524	273.06
289.755	263.06
289.986	255.06
290.217	279.06
290.448	254.06
290.679	264.06
290.91	276.06
291.141	273.06
291.371	258.06
291.602	273.06
291.833	261.06
292.064	261.06
292.295	264.06
292.526	263.06
292.757	254.06
292.987	249.06
293.218	265.06
293.449	254.06
293.68	266.06
293.91	284.06
294.141	246.06
294.372	251.06
294.603	268.06
294.833	271.06
295.064	277.06
295.295	260.06
295.525	265.06
295.756	291.06
295.987	287.06
296.217	285.06
296.448	309.06
296.679	276.06
296.909	264.06
297.14	279.06
297.37	271.06
297.601	286.06
297.831	265.06
298.062	272.06
298.292	264.06
298.523	285.06
298.753	286.06
298.984	289.06
299.214	290.06
299.445	284.06
299.675	291.06
299.905	297.06
300.136	268.06
300.366	273.06
300.597	273.06
300.827	274.06
301.057	295.06
301.288	303.06
301.518	283.06
301.748	291.06
301.979	300.06
302.209	296.06
302.439	308.06
302.669	286.06
302.9	298.06
303.13	308.06
303.36	300.06
303.59	314.06
303.82	303.06
304.051	291.06
304.281	295.06
304.511	308.06
304.741	302.06
304.971	286.06
305.201	293.06
305.431	272.06
305.661	294.06
305.891	302.06
306.121	311.06
306.352	323.06
306.582	299.06
306.812	287.06
307.042	311.06
307.272	291.06
307.502	308.06
307.731	329.06
307.961	296.06
308.191	296.06
308.421	310.06
308.651	318.06
308.881	296.06
309.111	316.06
309.341	313.06
309.571	323.06
309.8	349.06
310.03	343.06
310.26	359.06
310.49	349.06
310.72	347.06
310.949	368.06
311.179	377.06
311.409	352.06
311.639	329.06
311.868	361.06
312.098	348.06
312.328	375.06
312.557	387.06
312.787	383.06
313.017	398.06
313.246	356.06
313.476	325.06
313.706	337.06
313.935	352.06
314.165	379.06
314.394	409.06
314.624	371.06
314.853	367.06
315.083	360.06
315.312	365.06
315.542	341.06
315.771	339.06
316.001	326.06
316.23	353.06
316.46	347.06
316.689	354.06
316.919	371.06
317.148	357.06
317.377	348.06
317.607	371.06
317.836	351.06
318.065	360.06
318.295	339.06
318.524	332.06
318.753	347.06
318.983	355.06
319.212	359.06
319.441	357.06
319.67	354.06
319.9	356.06
320.129	359.06
320.358	365.06
320.587	379.06
320.816	362.06
321.046	380.06
321.275	379.06
321.504	364.06
321.733	381.06
321.962	393.06
322.191	395.06
322.42	391.06
322.649	413.06
322.878	421.06
323.108	461.06
323.337	472.06
323.566	487.06
323.795	533.06
324.024	613.06
324.253	728.06
324.482	1071.06
324.71	1660.06
324.939	2302.06
325.168	1924.06
325.397	1008.06
325.626	641.06
325.855	568.06
326.084	523.06
326.313	492.06
326.542	496.06
326.77	566.06
326.999	683.06
327.228	953.06
327.457	1479.06
327.686	1669.06
327.914	1146.06
328.143	725.06
328.372	633.06
328.6	614.06
328.829	547.06
329.058	555.06
329.287	552.06
329.515	565.06
329.744	515.06
329.972	522.06
330.201	543.06
330.43	587.06
330.658	611.06
330.887	630.06
331.115	598.06
331.344	495.06
331.572	490.06
331.801	487.06
332.03	472.06
332.258	451.06
332.486	432.06
332.715	432.06
332.943	417.06
333.172	401.06
333.4	408.06
333.629	417.06
333.857	449.06
334.085	457.06
334.314	490.06
334.542	500.06
334.771	511.06
334.999	476.06
335.227	426.06
335.455	431.06
335.684	389.06
335.912	403.06
336.14	414.06
336.369	411.06
336.597	410.06
336.825	422.06
337.053	411.06
337.281	402.06
337.51	401.06
337.738	402.06
337.966	407.06
338.194	402.06
338.422	410.06
338.65	388.06
338.878	373.06
339.106	383.06
339.334	397.06
339.562	373.06
339.79	387.06
340.018	402.06
340.246	386.06
340.474	395.06
340.702	405.06
340.93	405.06
341.158	377.06
341.386	396.06
341.614	387.06
341.842	391.06
342.07	380.06
342.298	389.06
342.526	368.06
342.754	382.06
342.981	393.06
343.209	394.06
343.437	381.06
343.665	378.06
343.893	381.06
344.12	396.06
344.348	381.06
344.576	390.06
344.804	397.06
345.031	396.06
345.259	416.06
345.487	411.06
345.714	396.06
345.942	381.06
346.17	372.06
346.397	387.06
346.625	382.06
346.853	386.06
347.08	377.06
347.308	400.06
347.535	415.06
347.763	400.06
347.99	403.06
348.218	407.06
348.445	398.06
348.673	389.06
348.9	383.06
349.128	365.06
349.355	370.06
349.583	363.06
349.81	383.06
350.037	381.06
350.265	377.06
350.492	365.06
350.72	383.06
350.947	371.06
351.174	391.06
351.402	369.06
351.629	412.06
351.856	383.06
352.083	404.06
352.311	409.06
352.538	423.06
352.765	414.06
352.992	407.06
353.22	392.06
353.447	383.06
353.674	362.06
353.901	357.06
354.128	368.06
354.355	360.06
354.583	327.06
354.81	352.06
355.037	361.06
355.264	345.06
355.491	322.06
355.718	361.06
355.945	354.06
356.172	360.06
356.399	355.06
356.626	346.06
356.853	346.06
357.08	353.06
357.307	339.06
357.534	345.06
357.761	350.06
357.988	334.06
358.215	355.06
358.441	352.06
358.668	356.06
358.895	352.06
359.122	378.06
359.349	390.06
359.576	398.06
359.802	441.06
360.029	448.06
360.256	445.06
360.483	412.06
360.709	380.06
360.936	399.06
361.163	391.06
361.39	395.06
361.616	387.06
361.843	383.06
362.07	393.06
362.296	399.06
362.523	393.06
362.749	381.06
362.976	376.06
363.203	376.06
363.429	376.06
363.656	356.06
363.882	365.06
364.109	356.06
364.335	354.06
364.562	381.06
364.788	367.06
365.015	360.06
365.241	353.06
365.468	381.06
365.694	355.06
365.92	365.06
366.147	372.06
366.373	366.06
366.599	329.06
366.826	362.06
367.052	347.06
367.278	361.06
367.505	353.06
367.731	374.06
367.957	355.06
368.184	352.06
368.41	353.06
368.636	349.06
368.862	386.06
369.089	368.06
369.315	360.06
369.541	361.06
369.767	348.06
369.993	337.06
370.219	362.06
370.445	357.06
370.672	337.06
370.898	353.06
371.124	345.06
371.35	347.06
371.576	347.06
371.802	348.06
372.028	347.06
372.254	368.06
372.48	353.06
372.706	358.06
372.932	352.06
373.158	343.06
373.384	367.06
373.61	368.06
373.835	350.06
374.061	345.06
374.287	378.06
374.513	356.06
374.739	362.06
374.965	370.06
375.191	361.06
375.416	355.06
375.642	345.06
375.868	351.06
376.094	351.06
376.319	360.06
376.545	344.06
376.771	347.06
376.997	338.06
377.222	364.06
377.448	348.06
377.674	342.06
377.899	345.06
378.125	348.06
378.35	334.06
378.576	321.06
378.802	329.06
379.027	330.06
379.253	342.06
379.478	318.06
379.704	357.06
379.929	357.06
380.155	371.06
380.38	355.06
380.606	340.06
380.831	364.06
381.057	366.06
381.282	334.06
381.507	357.06
381.733	357.06
381.958	372.06
382.184	354.06
382.409	349.06
382.634	351.06
382.86	359.06
383.085	331.06
383.31	353.06
383.535	339.06
383.761	349.06
383.986	343.06
384.211	367.06
384.436	378.06
384.662	358.06
384.887	359.06
385.112	355.06
385.337	357.06
385.562	350.06
385.787	351.06
386.013	378.06
386.238	377.06
386.463	399.06
386.688	384.06
386.913	376.06
387.138	376.06
387.363	359.06
387.588	372.06
387.813	378.06
388.038	366.06
388.263	353.06
388.488	384.06
388.713	385.06
388.938	366.06
389.163	383.06
389.387	367.06
389.612	379.06
389.837	384.06
390.062	371.06
390.287	379.06
390.512	388.06
390.736	379.06
390.961	367.06
391.186	375.06
391.411	351.06
391.636	383.06
391.86	385.06
392.085	383.06
392.31	383.06
392.534	395.06
392.759	391.06
392.984	360.06
393.208	389.06
393.433	375.06
393.658	354.06
393.882	365.06
394.107	379.06
394.331	387.06
394.556	365.06
394.78	379.06
395.005	386.06
395.229	382.06
395.454	389.06
395.678	365.06
395.903	381.06
396.127	423.06
396.352	421.06
396.576	379.06
396.801	378.06
397.025	387.06
397.249	400.06
397.474	383.06
397.698	414.06
397.922	400.06
398.147	412.06
398.371	406.06
398.595	410.06
398.82	415.06
399.044	424.06
399.268	439.06
399.492	460.06
399.717	465.06
399.941	499.06
400.165	519.06
400.389	532.06
400.613	472.06
400.837	447.06
401.062	430.06
401.286	425.06
401.51	420.06
401.734	433.06
401.958	439.06
402.182	439.06
402.406	454.06
402.63	432.06
402.854	432.06
403.078	437.06
403.302	459.06
403.526	447.06
403.75	425.06
403.974	423.06
404.198	444.06
404.422	448.06
404.645	425.06
404.869	451.06
405.093	473.06
405.317	520.06
405.541	542.06
405.765	491.06
405.988	470.06
406.212	501.06
406.436	496.06
406.66	511.06
406.883	495.06
407.107	483.06
407.331	533.06
407.555	583.06
407.778	589.06
408.002	529.06
408.226	502.06
408.449	495.06
408.673	492.06
408.896	513.06
409.12	558.06
409.344	531.06
409.567	457.06
409.791	452.06
410.014	465.06
410.238	449.06
410.461	432.06
410.685	434.06
410.908	471.06
411.132	491.06
411.355	529.06
411.578	515.06
411.802	455.06
412.025	444.06
412.249	461.06
412.472	461.06
412.695	485.06
412.919	465.06
413.142	439.06
413.365	432.06
413.589	431.06
413.812	430.06
414.035	430.06
414.258	423.06
414.482	433.06
414.705	406.06
414.928	398.06
415.151	417.06
415.374	391.06
415.597	415.06
415.821	425.06
416.044	389.06
416.267	402.06
416.49	416.06
416.713	416.06
416.936	415.06
417.159	421.06
417.382	433.06
417.605	426.06
417.828	448.06
418.051	452.06
418.274	443.06
418.497	419.06
418.72	421.06
418.943	414.06
419.166	432.06
419.389	439.06
419.611	437.06
419.834	435.06
420.057	456.06
420.28	435.06
420.503	462.06
420.726	446.06
420.948	462.06
421.171	492.06
421.394	498.06
421.617	471.06
421.839	444.06
422.062	449.06
422.285	457.06
422.507	509.06
422.73	555.06
422.953	546.06
423.175	470.06
423.398	470.06
423.621	456.06
423.843	475.06
424.066	494.06
424.288	491.06
424.511	491.06
424.733	541.06
424.956	592.06
425.178	582.06
425.401	608.06
425.623	592.06
425.846	510.06
426.068	496.06
426.291	489.06
426.513	497.06
426.735	519.06
426.958	544.06
427.18	599.06
427.402	712.06
427.625	780.06
427.847	710.06
428.069	619.06
428.292	549.06
428.514	522.06
428.736	488.06
428.958	456.06
429.181	447.06
429.403	444.06
429.625	459.06
429.847	477.06
430.069	533.06
430.292	540.06
430.514	471.06
430.736	457.06
430.958	423.06
431.18	424.06
431.402	436.06
431.624	425.06
431.846	424.06
432.068	432.06
432.29	420.06
432.512	439.06
432.734	430.06
432.956	450.06
433.178	433.06
433.4	442.06
433.622	432.06
433.844	401.06
434.066	422.06
434.287	417.06
434.509	438.06
434.731	451.06
434.953	423.06
435.175	451.06
435.397	479.06
435.618	473.06
435.84	534.06
436.062	616.06
436.284	660.06
436.505	551.06
436.727	512.06
436.949	481.06
437.17	444.06
437.392	465.06
437.614	479.06
437.835	523.06
438.057	593.06
438.278	683.06
438.5	669.06
438.721	713.06
438.943	691.06
439.165	567.06
439.386	525.06
439.608	517.06
439.829	515.06
440.05	519.06
440.272	577.06
440.493	543.06
440.715	494.06
440.936	465.06
441.158	460.06
441.379	450.06
441.6	446.06
441.822	489.06
442.043	517.06
442.264	606.06
442.486	637.06
442.707	549.06
442.928	509.06
443.149	524.06
443.371	541.06
443.592	572.06
443.813	639.06
444.034	667.06
444.255	545.06
444.476	507.06
444.698	485.06
444.919	480.06
445.14	566.06
445.361	524.06
445.582	535.06
445.803	594.06
446.024	686.06
446.245	694.06
446.466	635.06
446.687	537.06
446.908	497.06
447.129	484.06
447.35	464.06
447.571	456.06
447.792	445.06
448.013	435.06
448.234	479.06
448.455	513.06
448.675	610.06
448.896	701.06
449.117	589.06
449.338	596.06
449.559	673.06
449.779	740.06
450	603.06
450.221	498.06
450.442	491.06
450.662	461.06
450.883	452.06
451.104	476.06
451.324	463.06
451.545	428.06
451.766	419.06
451.986	430.06
452.207	419.06
452.428	422.06
452.648	407.06
452.869	401.06
453.089	429.06
453.31	433.06
453.53	417.06
453.751	398.06
453.971	397.06
454.192	456.06
454.412	417.06
454.633	407.06
454.853	400.06
455.073	401.06
455.294	422.06
455.514	513.06
455.734	469.06
455.955	419.06
456.175	400.06
456.395	387.06
456.616	391.06
456.836	374.06
457.056	367.06
457.276	368.06
457.497	391.06
457.717	381.06
457.937	398.06
458.157	390.06
458.377	392.06
458.598	432.06
458.818	494.06
459.038	544.06
459.258	551.06
459.478	459.06
459.698	447.06
459.918	430.06
460.138	401.06
460.358	422.06
460.578	419.06
460.798	423.06
461.018	424.06
461.238	431.06
461.458	403.06
461.678	413.06
461.898	401.06
462.118	420.06
462.338	424.06
462.558	429.06
462.777	409.06
462.997	443.06
463.217	453.06
463.437	453.06
463.657	442.06
463.876	437.06
464.096	428.06
464.316	429.06
464.536	444.06
464.755	441.06
464.975	474.06
465.195	506.06
465.414	604.06
465.634	511.06
465.854	475.06
466.073	451.06
466.293	416.06
466.512	439.06
466.732	412.06
466.951	409.06
467.171	419.06
467.391	408.06
467.61	419.06
467.829	439.06
468.049	420.06
468.268	423.06
468.488	406.06
468.707	392.06
468.927	423.06
469.146	405.06
469.365	397.06
469.585	398.06
469.804	403.06
470.023	415.06
470.243	424.06
470.462	438.06
470.681	464.06
470.901	423.06
471.12	430.06
471.339	441.06
471.558	433.06
471.777	417.06
471.997	421.06
472.216	449.06
472.435	477.06
472.654	456.06
472.873	443.06
473.092	416.06
473.311	437.06
473.53	410.06
473.749	447.06
473.968	466.06
474.187	584.06
474.406	583.06
474.625	492.06
474.844	445.06
475.063	445.06
475.282	437.06
475.501	446.06
475.72	415.06
475.939	421.06
476.158	427.06
476.377	449.06
476.596	436.06
476.814	443.06
477.033	459.06
477.252	464.06
477.471	434.06
477.69	446.06
477.908	456.06
478.127	458.06
478.346	443.06
478.564	462.06
478.783	452.06
479.002	462.06
479.22	452.06
479.439	477.06
479.658	488.06
479.876	491.06
480.095	513.06
480.313	555.06
480.532	518.06
480.751	511.06
480.969	535.06
481.188	594.06
481.406	656.06
481.624	537.06
481.843	525.06
482.061	524.06
482.28	499.06
482.498	515.06
482.717	501.06
482.935	499.06
483.153	487.06
483.372	474.06
483.59	520.06
483.808	507.06
484.027	493.06
484.245	496.06
484.463	499.06
484.681	503.06
484.9	499.06
485.118	494.06
485.336	495.06
485.554	504.06
485.772	495.06
485.99	517.06
486.209	511.06
486.427	503.06
486.645	547.06
486.863	555.06
487.081	534.06
487.299	532.06
487.517	530.06
487.735	510.06
487.953	520.06
488.171	521.06
488.389	533.06
488.607	523.06
488.825	544.06
489.043	523.06
489.261	537.06
489.479	531.06
489.696	528.06
489.914	562.06
490.132	554.06
490.35	565.06
490.568	575.06
490.786	575.06
491.003	593.06
491.221	580.06
491.439	607.06
491.657	597.06
491.874	592.06
492.092	600.06
492.31	608.06
492.527	615.06
492.745	600.06
492.963	624.06
493.18	620.06
493.398	638.06
493.615	619.06
493.833	640.06
494.05	643.06
494.268	634.06
494.485	628.06
494.703	619.06
494.92	657.06
495.138	636.06
495.355	640.06
495.573	625.06
495.79	656.06
496.008	649.06
496.225	647.06
496.442	639.06
496.66	644.06
496.877	639.06
497.094	637.06
497.312	623.06
497.529	633.06
497.746	665.06
497.963	656.06
498.181	671.06
498.398	669.06
498.615	703.06
498.832	675.06
499.049	675.06
499.267	699.06
499.484	722.06
499.701	740.06
499.918	740.06
500.135	775.06
500.352	779.06
500.569	786.06
500.786	793.06
501.003	791.06
501.22	767.06
501.437	777.06
501.654	753.06
501.871	751.06
