Data from 1965.PennyLincolnUp.Lamp.En5.5.200Scan.071719.P1._HRD10591_14-08-52-910.txt Node
Date: Thu Jul 18 14:08:52 EDT 2019
User: cochatt
Spectrometer: HR+D1059
Trigger mode: 1
Integration Time (sec): 1.000000E-1
Scans to average: 1
Electric dark correction enabled: true
Nonlinearity correction enabled: false
Boxcar width: 0
XAxis mode: Wavelengths
Number of Pixels in Spectrum: 2048
>>>>>Begin Spectral Data<<<<<
223.165	-4.38
223.4	-4.38
223.635	-4.38
223.869	-7.38
224.104	-28.38
224.338	-15.38
224.573	-15.38
224.808	-10.38
225.042	-5.38
225.277	-3.38
225.511	-6.38
225.746	-3.38
225.98	3.62
226.215	16.62
226.449	17.62
226.683	18.62
226.918	17.62
227.152	25.62
227.387	52.62
227.621	29.62
227.856	30.62
228.09	49.62
228.324	42.62
228.559	53.62
228.793	60.62
229.027	98.62
229.262	95.62
229.496	116.62
229.73	127.62
229.964	134.62
230.199	125.62
230.433	106.62
230.667	100.62
230.901	108.62
231.136	101.62
231.37	96.62
231.604	115.62
231.838	106.62
232.072	104.62
232.306	104.62
232.541	96.62
232.775	103.62
233.009	93.62
233.243	102.62
233.477	110.62
233.711	105.62
233.945	103.62
234.179	122.62
234.413	102.62
234.647	124.62
234.881	104.62
235.115	102.62
235.349	112.62
235.583	120.62
235.817	115.62
236.051	123.62
236.285	117.62
236.519	123.62
236.753	132.62
236.987	131.62
237.221	161.62
237.455	187.62
237.689	184.62
237.922	124.62
238.156	126.62
238.39	118.62
238.624	105.62
238.858	105.62
239.091	109.62
239.325	123.62
239.559	115.62
239.793	129.62
240.027	135.62
240.26	129.62
240.494	141.62
240.728	159.62
240.961	131.62
241.195	139.62
241.429	143.62
241.662	111.62
241.896	114.62
242.13	106.62
242.363	131.62
242.597	119.62
242.83	145.62
243.064	136.62
243.298	117.62
243.531	118.62
243.765	123.62
243.998	122.62
244.232	129.62
244.465	139.62
244.699	131.62
244.932	138.62
245.166	128.62
245.399	145.62
245.633	112.62
245.866	119.62
246.099	127.62
246.333	136.62
246.566	140.62
246.8	122.62
247.033	136.62
247.266	133.62
247.5	135.62
247.733	152.62
247.966	127.62
248.2	153.62
248.433	142.62
248.666	151.62
248.899	155.62
249.133	173.62
249.366	188.62
249.599	169.62
249.832	174.62
250.066	162.62
250.299	158.62
250.532	169.62
250.765	181.62
250.998	188.62
251.231	196.62
251.465	199.62
251.698	179.62
251.931	175.62
252.164	166.62
252.397	164.62
252.63	182.62
252.863	193.62
253.096	184.62
253.329	196.62
253.562	197.62
253.795	181.62
254.028	200.62
254.261	198.62
254.494	201.62
254.727	227.62
254.96	234.62
255.193	229.62
255.426	230.62
255.659	189.62
255.892	207.62
256.124	199.62
256.357	218.62
256.59	193.62
256.823	170.62
257.056	184.62
257.289	187.62
257.521	183.62
257.754	173.62
257.987	165.62
258.22	189.62
258.452	187.62
258.685	183.62
258.918	181.62
259.151	192.62
259.383	192.62
259.616	198.62
259.849	186.62
260.081	205.62
260.314	215.62
260.547	218.62
260.779	213.62
261.012	199.62
261.244	206.62
261.477	203.62
261.71	173.62
261.942	189.62
262.175	206.62
262.407	198.62
262.64	202.62
262.872	190.62
263.105	177.62
263.337	190.62
263.57	201.62
263.802	184.62
264.035	201.62
264.267	185.62
264.499	175.62
264.732	181.62
264.964	178.62
265.197	188.62
265.429	185.62
265.661	187.62
265.894	183.62
266.126	183.62
266.358	188.62
266.591	203.62
266.823	197.62
267.055	189.62
267.287	207.62
267.52	195.62
267.752	186.62
267.984	200.62
268.216	199.62
268.448	213.62
268.681	191.62
268.913	198.62
269.145	210.62
269.377	224.62
269.609	246.62
269.841	227.62
270.073	234.62
270.306	244.62
270.538	272.62
270.77	277.62
271.002	247.62
271.234	240.62
271.466	267.62
271.698	265.62
271.93	278.62
272.162	252.62
272.394	250.62
272.626	260.62
272.858	246.62
273.09	235.62
273.322	239.62
273.553	215.62
273.785	232.62
274.017	222.62
274.249	227.62
274.481	227.62
274.713	230.62
274.945	235.62
275.176	236.62
275.408	225.62
275.64	229.62
275.872	215.62
276.104	240.62
276.335	216.62
276.567	243.62
276.799	263.62
277.031	250.62
277.262	274.62
277.494	272.62
277.726	251.62
277.957	243.62
278.189	243.62
278.421	246.62
278.652	247.62
278.884	247.62
279.115	256.62
279.347	234.62
279.579	243.62
279.81	232.62
280.042	222.62
280.273	227.62
280.505	226.62
280.736	243.62
280.968	219.62
281.199	217.62
281.431	229.62
281.662	229.62
281.894	233.62
282.125	252.62
282.356	250.62
282.588	249.62
282.819	270.62
283.051	235.62
283.282	235.62
283.513	238.62
283.745	227.62
283.976	231.62
284.207	252.62
284.439	244.62
284.67	245.62
284.901	228.62
285.132	219.62
285.364	240.62
285.595	236.62
285.826	224.62
286.057	218.62
286.288	235.62
286.52	250.62
286.751	230.62
286.982	255.62
287.213	252.62
287.444	246.62
287.675	245.62
287.906	249.62
288.138	253.62
288.369	276.62
288.6	248.62
288.831	256.62
289.062	246.62
289.293	246.62
289.524	255.62
289.755	253.62
289.986	256.62
290.217	250.62
290.448	243.62
290.679	248.62
290.91	236.62
291.141	235.62
291.371	267.62
291.602	256.62
291.833	231.62
292.064	249.62
292.295	228.62
292.526	258.62
292.757	248.62
292.987	264.62
293.218	228.62
293.449	249.62
293.68	242.62
293.91	226.62
294.141	262.62
294.372	241.62
294.603	252.62
294.833	253.62
295.064	244.62
295.295	267.62
295.525	252.62
295.756	257.62
295.987	267.62
296.217	285.62
296.448	259.62
296.679	275.62
296.909	246.62
297.14	245.62
297.37	247.62
297.601	251.62
297.831	240.62
298.062	248.62
298.292	249.62
298.523	254.62
298.753	255.62
298.984	234.62
299.214	272.62
299.445	265.62
299.675	265.62
299.905	278.62
300.136	273.62
300.366	275.62
300.597	273.62
300.827	280.62
301.057	283.62
301.288	283.62
301.518	271.62
301.748	264.62
301.979	266.62
302.209	284.62
302.439	276.62
302.669	277.62
302.9	279.62
303.13	263.62
303.36	290.62
303.59	283.62
303.82	287.62
304.051	290.62
304.281	291.62
304.511	261.62
304.741	272.62
304.971	266.62
305.201	272.62
305.431	284.62
305.661	273.62
305.891	278.62
306.121	288.62
306.352	297.62
306.582	299.62
306.812	275.62
307.042	270.62
307.272	286.62
307.502	278.62
307.731	293.62
307.961	296.62
308.191	290.62
308.421	292.62
308.651	282.62
308.881	284.62
309.111	292.62
309.341	300.62
309.571	294.62
309.8	293.62
310.03	318.62
310.26	319.62
310.49	361.62
310.72	326.62
310.949	348.62
311.179	353.62
311.409	317.62
311.639	334.62
311.868	309.62
312.098	340.62
312.328	340.62
312.557	363.62
312.787	365.62
313.017	381.62
313.246	351.62
313.476	338.62
313.706	330.62
313.935	347.62
314.165	355.62
314.394	357.62
314.624	352.62
314.853	331.62
315.083	332.62
315.312	310.62
315.542	328.62
315.771	316.62
316.001	304.62
316.23	304.62
316.46	318.62
316.689	305.62
316.919	319.62
317.148	334.62
317.377	326.62
317.607	330.62
317.836	340.62
318.065	324.62
318.295	310.62
318.524	344.62
318.753	321.62
318.983	333.62
319.212	332.62
319.441	341.62
319.67	354.62
319.9	318.62
320.129	327.62
320.358	315.62
320.587	350.62
320.816	343.62
321.046	334.62
321.275	353.62
321.504	369.62
321.733	371.62
321.962	357.62
322.191	356.62
322.42	387.62
322.649	385.62
322.878	393.62
323.108	415.62
323.337	421.62
323.566	423.62
323.795	453.62
324.024	528.62
324.253	632.62
324.482	930.62
324.71	1439.62
324.939	1925.62
325.168	1609.62
325.397	877.62
325.626	611.62
325.855	491.62
326.084	483.62
326.313	462.62
326.542	459.62
326.77	481.62
326.999	587.62
327.228	826.62
327.457	1213.62
327.686	1421.62
327.914	953.62
328.143	639.62
328.372	587.62
328.6	509.62
328.829	506.62
329.058	506.62
329.287	517.62
329.515	500.62
329.744	471.62
329.972	441.62
330.201	470.62
330.43	525.62
330.658	533.62
330.887	540.62
331.115	517.62
331.344	474.62
331.572	423.62
331.801	427.62
332.03	431.62
332.258	404.62
332.486	393.62
332.715	386.62
332.943	389.62
333.172	380.62
333.4	380.62
333.629	412.62
333.857	410.62
334.085	432.62
334.314	422.62
334.542	470.62
334.771	477.62
334.999	428.62
335.227	396.62
335.455	390.62
335.684	381.62
335.912	373.62
336.14	398.62
336.369	385.62
336.597	389.62
336.825	405.62
337.053	398.62
337.281	379.62
337.51	375.62
337.738	380.62
337.966	374.62
338.194	412.62
338.422	372.62
338.65	362.62
338.878	363.62
339.106	361.62
339.334	378.62
339.562	349.62
339.79	362.62
340.018	381.62
340.246	365.62
340.474	372.62
340.702	356.62
340.93	350.62
341.158	355.62
341.386	354.62
341.614	382.62
341.842	348.62
342.07	348.62
342.298	374.62
342.526	362.62
342.754	363.62
342.981	347.62
343.209	363.62
343.437	363.62
343.665	341.62
343.893	348.62
344.12	371.62
344.348	371.62
344.576	351.62
344.804	371.62
345.031	385.62
345.259	386.62
345.487	387.62
345.714	388.62
345.942	357.62
346.17	366.62
346.397	316.62
346.625	358.62
346.853	357.62
347.08	354.62
347.308	348.62
347.535	361.62
347.763	366.62
347.99	374.62
348.218	369.62
348.445	375.62
348.673	373.62
348.9	352.62
349.128	353.62
349.355	329.62
349.583	348.62
349.81	330.62
350.037	357.62
350.265	341.62
350.492	352.62
350.72	346.62
350.947	358.62
351.174	388.62
351.402	388.62
351.629	360.62
351.856	373.62
352.083	367.62
352.311	387.62
352.538	395.62
352.765	381.62
352.992	363.62
353.22	354.62
353.447	360.62
353.674	339.62
353.901	344.62
354.128	330.62
354.355	329.62
354.583	348.62
354.81	343.62
355.037	337.62
355.264	333.62
355.491	327.62
355.718	321.62
355.945	336.62
356.172	328.62
356.399	302.62
356.626	324.62
356.853	327.62
357.08	323.62
357.307	342.62
357.534	355.62
357.761	337.62
357.988	329.62
358.215	328.62
358.441	324.62
358.668	326.62
358.895	335.62
359.122	341.62
359.349	335.62
359.576	346.62
359.802	370.62
360.029	395.62
360.256	415.62
360.483	392.62
360.709	372.62
360.936	356.62
361.163	380.62
361.39	371.62
361.616	355.62
361.843	327.62
362.07	356.62
362.296	373.62
362.523	364.62
362.749	353.62
362.976	361.62
363.203	345.62
363.429	334.62
363.656	339.62
363.882	344.62
364.109	341.62
364.335	346.62
364.562	349.62
364.788	337.62
365.015	349.62
365.241	323.62
365.468	363.62
365.694	355.62
365.92	345.62
366.147	344.62
366.373	353.62
366.599	326.62
366.826	336.62
367.052	333.62
367.278	340.62
367.505	341.62
367.731	341.62
367.957	337.62
368.184	337.62
368.41	327.62
368.636	337.62
368.862	351.62
369.089	345.62
369.315	351.62
369.541	332.62
369.767	350.62
369.993	326.62
370.219	336.62
370.445	339.62
370.672	329.62
370.898	328.62
371.124	315.62
371.35	333.62
371.576	345.62
371.802	337.62
372.028	337.62
372.254	336.62
372.48	332.62
372.706	347.62
372.932	333.62
373.158	339.62
373.384	355.62
373.61	334.62
373.835	352.62
374.061	335.62
374.287	345.62
374.513	365.62
374.739	332.62
374.965	342.62
375.191	330.62
375.416	340.62
375.642	336.62
375.868	334.62
376.094	331.62
376.319	337.62
376.545	347.62
376.771	335.62
376.997	337.62
377.222	342.62
377.448	328.62
377.674	324.62
377.899	351.62
378.125	350.62
378.35	335.62
378.576	313.62
378.802	318.62
379.027	319.62
379.253	351.62
379.478	328.62
379.704	333.62
379.929	315.62
380.155	334.62
380.38	321.62
380.606	347.62
380.831	364.62
381.057	334.62
381.282	337.62
381.507	334.62
381.733	340.62
381.958	348.62
382.184	341.62
382.409	344.62
382.634	345.62
382.86	329.62
383.085	343.62
383.31	349.62
383.535	355.62
383.761	350.62
383.986	340.62
384.211	339.62
384.436	359.62
384.662	364.62
384.887	340.62
385.112	348.62
385.337	358.62
385.562	348.62
385.787	355.62
386.013	379.62
386.238	376.62
386.463	360.62
386.688	363.62
386.913	371.62
387.138	349.62
387.363	361.62
387.588	360.62
387.813	346.62
388.038	367.62
388.263	344.62
388.488	363.62
388.713	367.62
388.938	362.62
389.163	358.62
389.387	356.62
389.612	373.62
389.837	352.62
390.062	357.62
390.287	346.62
390.512	343.62
390.736	365.62
390.961	360.62
391.186	351.62
391.411	366.62
391.636	351.62
391.86	347.62
392.085	372.62
392.31	378.62
392.534	365.62
392.759	360.62
392.984	368.62
393.208	358.62
393.433	352.62
393.658	361.62
393.882	362.62
394.107	354.62
394.331	361.62
394.556	380.62
394.78	373.62
395.005	350.62
395.229	351.62
395.454	375.62
395.678	372.62
395.903	372.62
396.127	388.62
396.352	411.62
396.576	379.62
396.801	368.62
397.025	373.62
397.249	393.62
397.474	364.62
397.698	374.62
397.922	407.62
398.147	417.62
398.371	425.62
398.595	381.62
398.82	409.62
399.044	417.62
399.268	407.62
399.492	444.62
399.717	449.62
399.941	455.62
400.165	472.62
400.389	491.62
400.613	459.62
400.837	425.62
401.062	435.62
401.286	412.62
401.51	415.62
401.734	431.62
401.958	406.62
402.182	424.62
402.406	436.62
402.63	429.62
402.854	414.62
403.078	432.62
403.302	428.62
403.526	429.62
403.75	416.62
403.974	413.62
404.198	419.62
404.422	429.62
404.645	425.62
404.869	450.62
405.093	441.62
405.317	478.62
405.541	496.62
405.765	451.62
405.988	455.62
406.212	463.62
406.436	489.62
406.66	487.62
406.883	476.62
407.107	464.62
407.331	498.62
407.555	556.62
407.778	565.62
408.002	478.62
408.226	480.62
408.449	445.62
408.673	470.62
408.896	482.62
409.12	515.62
409.344	515.62
409.567	438.62
409.791	447.62
410.014	433.62
410.238	407.62
410.461	427.62
410.685	425.62
410.908	425.62
411.132	456.62
411.355	492.62
411.578	472.62
411.802	446.62
412.025	428.62
412.249	431.62
412.472	420.62
412.695	461.62
412.919	466.62
413.142	417.62
413.365	397.62
413.589	393.62
413.812	385.62
414.035	390.62
414.258	399.62
414.482	415.62
414.705	411.62
414.928	402.62
415.151	404.62
415.374	406.62
415.597	385.62
415.821	389.62
416.044	405.62
416.267	396.62
416.49	409.62
416.713	391.62
416.936	400.62
417.159	414.62
417.382	387.62
417.605	410.62
417.828	405.62
418.051	419.62
418.274	396.62
418.497	386.62
418.72	394.62
418.943	382.62
419.166	412.62
419.389	421.62
419.611	415.62
419.834	428.62
420.057	399.62
420.28	415.62
420.503	397.62
420.726	401.62
420.948	432.62
421.171	456.62
421.394	488.62
421.617	457.62
421.839	438.62
422.062	408.62
422.285	436.62
422.507	477.62
422.73	526.62
422.953	537.62
423.175	466.62
423.398	451.62
423.621	440.62
423.843	438.62
424.066	437.62
424.288	463.62
424.511	447.62
424.733	518.62
424.956	572.62
425.178	560.62
425.401	531.62
425.623	567.62
425.846	491.62
426.068	470.62
426.291	457.62
426.513	451.62
426.735	481.62
426.958	491.62
427.18	548.62
427.402	654.62
427.625	727.62
427.847	652.62
428.069	565.62
428.292	527.62
428.514	462.62
428.736	453.62
428.958	430.62
429.181	424.62
429.403	388.62
429.625	417.62
429.847	448.62
430.069	503.62
430.292	494.62
430.514	420.62
430.736	409.62
430.958	419.62
431.18	406.62
431.402	413.62
431.624	407.62
431.846	396.62
432.068	394.62
432.29	412.62
432.512	385.62
432.734	418.62
432.956	391.62
433.178	420.62
433.4	409.62
433.622	416.62
433.844	405.62
434.066	400.62
434.287	383.62
434.509	398.62
434.731	401.62
434.953	413.62
435.175	421.62
435.397	433.62
435.618	471.62
435.84	492.62
436.062	557.62
436.284	619.62
436.505	511.62
436.727	467.62
436.949	424.62
437.17	454.62
437.392	438.62
437.614	461.62
437.835	448.62
438.057	536.62
438.278	613.62
438.5	613.62
438.721	677.62
438.943	640.62
439.165	526.62
439.386	485.62
439.608	486.62
439.829	483.62
440.05	515.62
440.272	541.62
440.493	489.62
440.715	463.62
440.936	439.62
441.158	424.62
441.379	442.62
441.6	424.62
441.822	456.62
442.043	505.62
442.264	555.62
442.486	587.62
442.707	505.62
442.928	463.62
443.149	460.62
443.371	495.62
443.592	521.62
443.813	586.62
444.034	608.62
444.255	537.62
444.476	458.62
444.698	441.62
444.919	455.62
445.14	536.62
445.361	501.62
445.582	500.62
445.803	541.62
446.024	626.62
446.245	623.62
446.466	595.62
446.687	482.62
446.908	473.62
447.129	446.62
447.35	427.62
447.571	421.62
447.792	426.62
448.013	420.62
448.234	434.62
448.455	502.62
448.675	584.62
448.896	652.62
449.117	551.62
449.338	531.62
449.559	623.62
449.779	677.62
450	591.62
450.221	487.62
450.442	443.62
450.662	424.62
450.883	441.62
451.104	446.62
451.324	425.62
451.545	414.62
451.766	397.62
451.986	383.62
452.207	392.62
452.428	378.62
452.648	378.62
452.869	387.62
453.089	395.62
453.31	396.62
453.53	379.62
453.751	374.62
453.971	381.62
454.192	403.62
454.412	393.62
454.633	377.62
454.853	367.62
455.073	381.62
455.294	411.62
455.514	481.62
455.734	450.62
455.955	383.62
456.175	366.62
456.395	371.62
456.616	365.62
456.836	362.62
457.056	359.62
457.276	357.62
457.497	356.62
457.717	361.62
457.937	373.62
458.157	369.62
458.377	383.62
458.598	411.62
458.818	448.62
459.038	541.62
459.258	539.62
459.478	440.62
459.698	415.62
459.918	398.62
460.138	390.62
460.358	392.62
460.578	414.62
460.798	412.62
461.018	404.62
461.238	408.62
461.458	399.62
461.678	394.62
461.898	395.62
462.118	384.62
462.338	392.62
462.558	420.62
462.777	417.62
462.997	413.62
463.217	428.62
463.437	421.62
463.657	419.62
463.876	397.62
464.096	424.62
464.316	421.62
464.536	424.62
464.755	438.62
464.975	421.62
465.195	487.62
465.414	571.62
465.634	489.62
465.854	443.62
466.073	427.62
466.293	406.62
466.512	400.62
466.732	387.62
466.951	387.62
467.171	404.62
467.391	389.62
467.61	407.62
467.829	402.62
468.049	398.62
468.268	400.62
468.488	394.62
468.707	404.62
468.927	378.62
469.146	385.62
469.365	383.62
469.585	372.62
469.804	389.62
470.023	398.62
470.243	413.62
470.462	418.62
470.681	435.62
470.901	399.62
471.12	410.62
471.339	376.62
471.558	404.62
471.777	398.62
471.997	400.62
472.216	414.62
472.435	410.62
472.654	416.62
472.873	407.62
473.092	379.62
473.311	405.62
473.53	400.62
473.749	397.62
473.968	441.62
474.187	536.62
474.406	534.62
474.625	443.62
474.844	405.62
475.063	416.62
475.282	406.62
475.501	395.62
475.72	400.62
475.939	399.62
476.158	404.62
476.377	395.62
476.596	411.62
476.814	427.62
477.033	442.62
477.252	420.62
477.471	408.62
477.69	437.62
477.908	415.62
478.127	420.62
478.346	423.62
478.564	412.62
478.783	454.62
479.002	456.62
479.22	436.62
479.439	460.62
479.658	489.62
479.876	511.62
480.095	469.62
480.313	517.62
480.532	509.62
480.751	474.62
480.969	488.62
481.188	565.62
481.406	593.62
481.624	525.62
481.843	493.62
482.061	478.62
482.28	485.62
482.498	469.62
482.717	451.62
482.935	466.62
483.153	449.62
483.372	472.62
483.59	461.62
483.808	455.62
484.027	472.62
484.245	476.62
484.463	457.62
484.681	469.62
484.9	463.62
485.118	479.62
485.336	464.62
485.554	470.62
485.772	474.62
485.99	478.62
486.209	472.62
486.427	478.62
486.645	492.62
486.863	512.62
487.081	501.62
487.299	490.62
487.517	493.62
487.735	495.62
487.953	480.62
488.171	485.62
488.389	500.62
488.607	491.62
488.825	522.62
489.043	503.62
489.261	522.62
489.479	488.62
489.696	499.62
489.914	501.62
490.132	538.62
490.35	512.62
490.568	522.62
490.786	509.62
491.003	536.62
491.221	551.62
491.439	569.62
491.657	558.62
491.874	571.62
492.092	565.62
492.31	580.62
492.527	554.62
492.745	577.62
492.963	594.62
493.18	592.62
493.398	558.62
493.615	591.62
493.833	597.62
494.05	594.62
494.268	604.62
494.485	564.62
494.703	573.62
494.92	585.62
495.138	590.62
495.355	593.62
495.573	599.62
495.79	579.62
496.008	580.62
496.225	579.62
496.442	588.62
496.66	610.62
496.877	571.62
497.094	601.62
497.312	602.62
497.529	618.62
497.746	608.62
497.963	606.62
498.181	642.62
498.398	620.62
498.615	642.62
498.832	649.62
499.049	672.62
499.267	656.62
499.484	678.62
499.701	673.62
499.918	725.62
500.135	726.62
500.352	741.62
500.569	748.62
500.786	758.62
501.003	755.62
501.22	731.62
501.437	722.62
501.654	715.62
501.871	712.62
502.088	704.62
