Data from 1965.PennyLincolnUp.Lamp.En5.5.200Scan.071719.P1._HRD10591_14-10-37-913.txt Node
Date: Thu Jul 18 14:10:37 EDT 2019
User: cochatt
Spectrometer: HR+D1059
Trigger mode: 1
Integration Time (sec): 1.000000E-1
Scans to average: 1
Electric dark correction enabled: true
Nonlinearity correction enabled: false
Boxcar width: 0
XAxis mode: Wavelengths
Number of Pixels in Spectrum: 2048
>>>>>Begin Spectral Data<<<<<
223.165	-19.56
223.4	-19.56
223.635	-19.56
223.869	-12.56
224.104	-10.56
224.338	-18.56
224.573	-14.56
224.808	-17.56
225.042	-17.56
225.277	-6.56
225.511	-6.56
225.746	0.44
225.98	19.44
226.215	-0.56
226.449	18.44
226.683	23.44
226.918	33.44
227.152	29.44
227.387	39.44
227.621	37.44
227.856	47.44
228.09	42.44
228.324	63.44
228.559	54.44
228.793	72.44
229.027	101.44
229.262	99.44
229.496	117.44
229.73	121.44
229.964	161.44
230.199	115.44
230.433	112.44
230.667	106.44
230.901	119.44
231.136	104.44
231.37	104.44
231.604	105.44
231.838	100.44
232.072	112.44
232.306	100.44
232.541	105.44
232.775	113.44
233.009	104.44
233.243	112.44
233.477	126.44
233.711	104.44
233.945	121.44
234.179	118.44
234.413	99.44
234.647	112.44
234.881	112.44
235.115	113.44
235.349	117.44
235.583	110.44
235.817	122.44
236.051	117.44
236.285	126.44
236.519	128.44
236.753	130.44
236.987	137.44
237.221	176.44
237.455	234.44
237.689	181.44
237.922	135.44
238.156	133.44
238.39	122.44
238.624	123.44
238.858	126.44
239.091	114.44
239.325	131.44
239.559	118.44
239.793	112.44
240.027	138.44
240.26	133.44
240.494	155.44
240.728	137.44
240.961	147.44
241.195	132.44
241.429	122.44
241.662	130.44
241.896	123.44
242.13	129.44
242.363	125.44
242.597	146.44
242.83	131.44
243.064	130.44
243.298	137.44
243.531	133.44
243.765	120.44
243.998	139.44
244.232	151.44
244.465	130.44
244.699	137.44
244.932	124.44
245.166	112.44
245.399	139.44
245.633	127.44
245.866	135.44
246.099	138.44
246.333	141.44
246.566	144.44
246.8	150.44
247.033	133.44
247.266	137.44
247.5	160.44
247.733	162.44
247.966	154.44
248.2	165.44
248.433	157.44
248.666	166.44
248.899	165.44
249.133	164.44
249.366	187.44
249.599	208.44
249.832	187.44
250.066	172.44
250.299	170.44
250.532	185.44
250.765	193.44
250.998	197.44
251.231	203.44
251.465	182.44
251.698	209.44
251.931	194.44
252.164	181.44
252.397	173.44
252.63	195.44
252.863	191.44
253.096	193.44
253.329	200.44
253.562	194.44
253.795	199.44
254.028	197.44
254.261	193.44
254.494	205.44
254.727	261.44
254.96	258.44
255.193	245.44
255.426	228.44
255.659	214.44
255.892	234.44
256.124	219.44
256.357	223.44
256.59	218.44
256.823	218.44
257.056	200.44
257.289	197.44
257.521	211.44
257.754	210.44
257.987	202.44
258.22	209.44
258.452	197.44
258.685	196.44
258.918	190.44
259.151	212.44
259.383	201.44
259.616	191.44
259.849	203.44
260.081	233.44
260.314	219.44
260.547	233.44
260.779	234.44
261.012	216.44
261.244	215.44
261.477	213.44
261.71	218.44
261.942	211.44
262.175	220.44
262.407	219.44
262.64	214.44
262.872	203.44
263.105	203.44
263.337	215.44
263.57	217.44
263.802	195.44
264.035	203.44
264.267	197.44
264.499	194.44
264.732	187.44
264.964	187.44
265.197	205.44
265.429	189.44
265.661	202.44
265.894	183.44
266.126	207.44
266.358	190.44
266.591	206.44
266.823	203.44
267.055	227.44
267.287	220.44
267.52	211.44
267.752	217.44
267.984	204.44
268.216	232.44
268.448	219.44
268.681	213.44
268.913	223.44
269.145	242.44
269.377	255.44
269.609	271.44
269.841	250.44
270.073	264.44
270.306	264.44
270.538	287.44
270.77	289.44
271.002	280.44
271.234	282.44
271.466	304.44
271.698	273.44
271.93	297.44
272.162	295.44
272.394	305.44
272.626	259.44
272.858	262.44
273.09	259.44
273.322	247.44
273.553	234.44
273.785	245.44
274.017	250.44
274.249	251.44
274.481	246.44
274.713	229.44
274.945	251.44
275.176	263.44
275.408	232.44
275.64	242.44
275.872	232.44
276.104	245.44
276.335	248.44
276.567	267.44
276.799	267.44
277.031	278.44
277.262	300.44
277.494	290.44
277.726	264.44
277.957	262.44
278.189	248.44
278.421	269.44
278.652	255.44
278.884	246.44
279.115	248.44
279.347	241.44
279.579	248.44
279.81	243.44
280.042	245.44
280.273	238.44
280.505	236.44
280.736	232.44
280.968	225.44
281.199	226.44
281.431	239.44
281.662	249.44
281.894	229.44
282.125	234.44
282.356	275.44
282.588	290.44
282.819	266.44
283.051	245.44
283.282	236.44
283.513	238.44
283.745	249.44
283.976	253.44
284.207	243.44
284.439	249.44
284.67	260.44
284.901	243.44
285.132	251.44
285.364	242.44
285.595	227.44
285.826	241.44
286.057	251.44
286.288	248.44
286.52	246.44
286.751	247.44
286.982	246.44
287.213	234.44
287.444	243.44
287.675	241.44
287.906	252.44
288.138	269.44
288.369	272.44
288.6	281.44
288.831	273.44
289.062	281.44
289.293	267.44
289.524	248.44
289.755	240.44
289.986	259.44
290.217	264.44
290.448	265.44
290.679	265.44
290.91	266.44
291.141	255.44
291.371	255.44
291.602	249.44
291.833	263.44
292.064	274.44
292.295	263.44
292.526	269.44
292.757	257.44
292.987	261.44
293.218	245.44
293.449	264.44
293.68	256.44
293.91	253.44
294.141	259.44
294.372	250.44
294.603	267.44
294.833	269.44
295.064	273.44
295.295	261.44
295.525	247.44
295.756	265.44
295.987	284.44
296.217	311.44
296.448	301.44
296.679	265.44
296.909	253.44
297.14	247.44
297.37	257.44
297.601	266.44
297.831	275.44
298.062	268.44
298.292	254.44
298.523	285.44
298.753	280.44
298.984	265.44
299.214	269.44
299.445	269.44
299.675	265.44
299.905	274.44
300.136	289.44
300.366	284.44
300.597	277.44
300.827	270.44
301.057	275.44
301.288	292.44
301.518	295.44
301.748	288.44
301.979	287.44
302.209	298.44
302.439	304.44
302.669	291.44
302.9	281.44
303.13	289.44
303.36	290.44
303.59	304.44
303.82	294.44
304.051	310.44
304.281	314.44
304.511	285.44
304.741	286.44
304.971	282.44
305.201	298.44
305.431	304.44
305.661	298.44
305.891	292.44
306.121	286.44
306.352	305.44
306.582	302.44
306.812	289.44
307.042	281.44
307.272	290.44
307.502	297.44
307.731	309.44
307.961	301.44
308.191	311.44
308.421	297.44
308.651	317.44
308.881	295.44
309.111	322.44
309.341	322.44
309.571	320.44
309.8	320.44
310.03	345.44
310.26	361.44
310.49	348.44
310.72	345.44
310.949	370.44
311.179	339.44
311.409	347.44
311.639	340.44
311.868	354.44
312.098	349.44
312.328	347.44
312.557	359.44
312.787	386.44
313.017	384.44
313.246	359.44
313.476	365.44
313.706	340.44
313.935	355.44
314.165	364.44
314.394	382.44
314.624	375.44
314.853	356.44
315.083	353.44
315.312	335.44
315.542	356.44
315.771	333.44
316.001	342.44
316.23	324.44
316.46	330.44
316.689	327.44
316.919	337.44
317.148	350.44
317.377	354.44
317.607	354.44
317.836	351.44
318.065	345.44
318.295	360.44
318.524	369.44
318.753	332.44
318.983	334.44
319.212	337.44
319.441	359.44
319.67	365.44
319.9	343.44
320.129	341.44
320.358	338.44
320.587	363.44
320.816	362.44
321.046	351.44
321.275	385.44
321.504	367.44
321.733	375.44
321.962	367.44
322.191	407.44
322.42	405.44
322.649	429.44
322.878	455.44
323.108	439.44
323.337	442.44
323.566	485.44
323.795	543.44
324.024	604.44
324.253	736.44
324.482	1038.44
324.71	1603.44
324.939	2174.44
325.168	1815.44
325.397	973.44
325.626	663.44
325.855	535.44
326.084	498.44
326.313	492.44
326.542	501.44
326.77	543.44
326.999	655.44
327.228	918.44
327.457	1385.44
327.686	1628.44
327.914	1112.44
328.143	743.44
328.372	645.44
328.6	583.44
328.829	577.44
329.058	559.44
329.287	577.44
329.515	526.44
329.744	493.44
329.972	492.44
330.201	523.44
330.43	555.44
330.658	592.44
330.887	609.44
331.115	581.44
331.344	497.44
331.572	456.44
331.801	463.44
332.03	457.44
332.258	451.44
332.486	427.44
332.715	398.44
332.943	400.44
333.172	411.44
333.4	419.44
333.629	421.44
333.857	435.44
334.085	453.44
334.314	441.44
334.542	492.44
334.771	525.44
334.999	485.44
335.227	443.44
335.455	418.44
335.684	417.44
335.912	392.44
336.14	389.44
336.369	413.44
336.597	426.44
336.825	396.44
337.053	416.44
337.281	401.44
337.51	381.44
337.738	379.44
337.966	404.44
338.194	385.44
338.422	407.44
338.65	395.44
338.878	401.44
339.106	375.44
339.334	405.44
339.562	375.44
339.79	370.44
340.018	369.44
340.246	377.44
340.474	366.44
340.702	386.44
340.93	397.44
341.158	377.44
341.386	387.44
341.614	379.44
341.842	355.44
342.07	381.44
342.298	368.44
342.526	378.44
342.754	347.44
342.981	366.44
343.209	350.44
343.437	378.44
343.665	375.44
343.893	385.44
344.12	377.44
344.348	376.44
344.576	397.44
344.804	382.44
345.031	393.44
345.259	407.44
345.487	394.44
345.714	376.44
345.942	381.44
346.17	370.44
346.397	357.44
346.625	393.44
346.853	391.44
347.08	368.44
347.308	389.44
347.535	381.44
347.763	383.44
347.99	409.44
348.218	384.44
348.445	401.44
348.673	397.44
348.9	378.44
349.128	377.44
349.355	343.44
349.583	370.44
349.81	363.44
350.037	360.44
350.265	366.44
350.492	350.44
350.72	347.44
350.947	373.44
351.174	372.44
351.402	380.44
351.629	393.44
351.856	385.44
352.083	396.44
352.311	403.44
352.538	403.44
352.765	407.44
352.992	399.44
353.22	393.44
353.447	374.44
353.674	377.44
353.901	347.44
354.128	375.44
354.355	358.44
354.583	341.44
354.81	348.44
355.037	348.44
355.264	337.44
355.491	358.44
355.718	360.44
355.945	333.44
356.172	340.44
356.399	327.44
356.626	348.44
356.853	347.44
357.08	343.44
357.307	350.44
357.534	336.44
357.761	355.44
357.988	343.44
358.215	335.44
358.441	344.44
358.668	329.44
358.895	355.44
359.122	353.44
359.349	375.44
359.576	386.44
359.802	417.44
360.029	417.44
360.256	449.44
360.483	394.44
360.709	379.44
360.936	377.44
361.163	390.44
361.39	386.44
361.616	376.44
361.843	381.44
362.07	361.44
362.296	391.44
362.523	349.44
362.749	377.44
362.976	375.44
363.203	374.44
363.429	362.44
363.656	341.44
363.882	349.44
364.109	344.44
364.335	362.44
364.562	376.44
364.788	345.44
365.015	345.44
365.241	371.44
365.468	370.44
365.694	366.44
365.92	365.44
366.147	360.44
366.373	366.44
366.599	350.44
366.826	355.44
367.052	344.44
367.278	367.44
367.505	334.44
367.731	358.44
367.957	356.44
368.184	353.44
368.41	359.44
368.636	374.44
368.862	355.44
369.089	367.44
369.315	373.44
369.541	366.44
369.767	359.44
369.993	367.44
370.219	346.44
370.445	350.44
370.672	346.44
370.898	349.44
371.124	357.44
371.35	350.44
371.576	354.44
371.802	353.44
372.028	336.44
372.254	349.44
372.48	342.44
372.706	341.44
372.932	349.44
373.158	355.44
373.384	353.44
373.61	356.44
373.835	361.44
374.061	359.44
374.287	359.44
374.513	369.44
374.739	375.44
374.965	357.44
375.191	361.44
375.416	347.44
375.642	346.44
375.868	375.44
376.094	348.44
376.319	350.44
376.545	338.44
376.771	331.44
376.997	343.44
377.222	347.44
377.448	350.44
377.674	342.44
377.899	328.44
378.125	326.44
378.35	345.44
378.576	345.44
378.802	341.44
379.027	361.44
379.253	341.44
379.478	332.44
379.704	337.44
379.929	339.44
380.155	335.44
380.38	343.44
380.606	349.44
380.831	353.44
381.057	339.44
381.282	351.44
381.507	341.44
381.733	363.44
381.958	345.44
382.184	340.44
382.409	335.44
382.634	366.44
382.86	350.44
383.085	348.44
383.31	339.44
383.535	343.44
383.761	345.44
383.986	367.44
384.211	375.44
384.436	365.44
384.662	353.44
384.887	360.44
385.112	358.44
385.337	366.44
385.562	342.44
385.787	347.44
386.013	376.44
386.238	386.44
386.463	354.44
386.688	378.44
386.913	383.44
387.138	357.44
387.363	378.44
387.588	377.44
387.813	355.44
388.038	356.44
388.263	344.44
388.488	365.44
388.713	379.44
388.938	353.44
389.163	348.44
389.387	387.44
389.612	383.44
389.837	358.44
390.062	365.44
390.287	389.44
390.512	355.44
390.736	345.44
390.961	359.44
391.186	377.44
391.411	379.44
391.636	366.44
391.86	389.44
392.085	379.44
392.31	361.44
392.534	359.44
392.759	373.44
392.984	389.44
393.208	374.44
393.433	371.44
393.658	378.44
393.882	360.44
394.107	361.44
394.331	373.44
394.556	365.44
394.78	380.44
395.005	367.44
395.229	385.44
395.454	363.44
395.678	385.44
395.903	401.44
396.127	413.44
396.352	421.44
396.576	393.44
396.801	373.44
397.025	382.44
397.249	394.44
397.474	389.44
397.698	387.44
397.922	395.44
398.147	405.44
398.371	430.44
398.595	419.44
398.82	418.44
399.044	438.44
399.268	428.44
399.492	443.44
399.717	464.44
399.941	462.44
400.165	515.44
400.389	499.44
400.613	461.44
400.837	455.44
401.062	420.44
401.286	418.44
401.51	423.44
401.734	428.44
401.958	423.44
402.182	404.44
402.406	425.44
402.63	425.44
402.854	416.44
403.078	422.44
403.302	435.44
403.526	435.44
403.75	429.44
403.974	443.44
404.198	441.44
404.422	437.44
404.645	460.44
404.869	445.44
405.093	479.44
405.317	497.44
405.541	523.44
405.765	489.44
405.988	448.44
406.212	461.44
406.436	505.44
406.66	512.44
406.883	487.44
407.107	496.44
407.331	537.44
407.555	565.44
407.778	576.44
408.002	509.44
408.226	482.44
408.449	478.44
408.673	458.44
408.896	491.44
409.12	545.44
409.344	488.44
409.567	441.44
409.791	457.44
410.014	458.44
410.238	454.44
410.461	440.44
410.685	438.44
410.908	442.44
411.132	490.44
411.355	505.44
411.578	471.44
411.802	436.44
412.025	445.44
412.249	441.44
412.472	470.44
412.695	497.44
412.919	491.44
413.142	448.44
413.365	435.44
413.589	409.44
413.812	409.44
414.035	398.44
414.258	393.44
414.482	403.44
414.705	401.44
414.928	395.44
415.151	387.44
415.374	425.44
415.597	411.44
415.821	425.44
416.044	385.44
416.267	402.44
416.49	418.44
416.713	404.44
416.936	391.44
417.159	386.44
417.382	402.44
417.605	431.44
417.828	432.44
418.051	424.44
418.274	395.44
418.497	423.44
418.72	427.44
418.943	426.44
419.166	412.44
419.389	457.44
419.611	437.44
419.834	430.44
420.057	435.44
420.28	428.44
420.503	425.44
420.726	432.44
420.948	450.44
421.171	467.44
421.394	515.44
421.617	439.44
421.839	454.44
422.062	437.44
422.285	434.44
422.507	479.44
422.73	549.44
422.953	523.44
423.175	476.44
423.398	437.44
423.621	438.44
423.843	479.44
424.066	474.44
424.288	453.44
424.511	463.44
424.733	525.44
424.956	599.44
425.178	582.44
425.401	577.44
425.623	605.44
425.846	506.44
426.068	485.44
426.291	455.44
426.513	471.44
426.735	501.44
426.958	498.44
427.18	586.44
427.402	705.44
427.625	791.44
427.847	684.44
428.069	614.44
428.292	524.44
428.514	485.44
428.736	444.44
428.958	455.44
429.181	447.44
429.403	453.44
429.625	448.44
429.847	464.44
430.069	522.44
430.292	534.44
430.514	460.44
430.736	438.44
430.958	434.44
431.18	410.44
431.402	424.44
431.624	409.44
431.846	412.44
432.068	408.44
432.29	426.44
432.512	406.44
432.734	418.44
432.956	412.44
433.178	428.44
433.4	422.44
433.622	421.44
433.844	402.44
434.066	418.44
434.287	415.44
434.509	425.44
434.731	427.44
434.953	425.44
435.175	442.44
435.397	464.44
435.618	480.44
435.84	527.44
436.062	573.44
436.284	651.44
436.505	542.44
436.727	494.44
436.949	463.44
437.17	438.44
437.392	451.44
437.614	444.44
437.835	488.44
438.057	600.44
438.278	663.44
438.5	671.44
438.721	729.44
438.943	681.44
439.165	569.44
439.386	498.44
439.608	483.44
439.829	493.44
440.05	538.44
440.272	561.44
440.493	529.44
440.715	470.44
440.936	465.44
441.158	452.44
441.379	462.44
441.6	459.44
441.822	480.44
442.043	521.44
442.264	579.44
442.486	619.44
442.707	530.44
442.928	479.44
443.149	515.44
443.371	528.44
443.592	547.44
443.813	638.44
444.034	671.44
444.255	552.44
444.476	488.44
444.698	468.44
444.919	457.44
445.14	590.44
445.361	517.44
445.582	530.44
445.803	589.44
446.024	665.44
446.245	682.44
446.466	603.44
446.687	537.44
446.908	477.44
447.129	472.44
447.35	461.44
447.571	450.44
447.792	450.44
448.013	465.44
448.234	474.44
448.455	507.44
448.675	614.44
448.896	684.44
449.117	599.44
449.338	579.44
449.559	657.44
449.779	731.44
450	593.44
450.221	509.44
450.442	430.44
450.662	437.44
450.883	454.44
451.104	456.44
451.324	458.44
451.545	447.44
451.766	421.44
451.986	395.44
452.207	401.44
452.428	399.44
452.648	412.44
452.869	404.44
453.089	410.44
453.31	415.44
453.53	411.44
453.751	391.44
453.971	424.44
454.192	427.44
454.412	431.44
454.633	409.44
454.853	401.44
455.073	391.44
455.294	432.44
455.514	490.44
455.734	460.44
455.955	389.44
456.175	383.44
456.395	371.44
456.616	368.44
456.836	377.44
457.056	377.44
457.276	384.44
457.497	374.44
457.717	360.44
457.937	383.44
458.157	382.44
458.377	386.44
458.598	411.44
458.818	482.44
459.038	551.44
459.258	534.44
459.478	471.44
459.698	417.44
459.918	403.44
460.138	395.44
460.358	416.44
460.578	429.44
460.798	425.44
461.018	420.44
461.238	402.44
461.458	415.44
461.678	426.44
461.898	410.44
462.118	419.44
462.338	425.44
462.558	425.44
462.777	438.44
462.997	433.44
463.217	433.44
463.437	438.44
463.657	417.44
463.876	414.44
464.096	443.44
464.316	429.44
464.536	431.44
464.755	435.44
464.975	462.44
465.195	495.44
465.414	593.44
465.634	526.44
465.854	461.44
466.073	441.44
466.293	421.44
466.512	414.44
466.732	420.44
466.951	403.44
467.171	413.44
467.391	406.44
467.61	401.44
467.829	439.44
468.049	437.44
468.268	417.44
468.488	415.44
468.707	404.44
468.927	387.44
469.146	398.44
469.365	407.44
469.585	398.44
469.804	403.44
470.023	413.44
470.243	418.44
470.462	433.44
470.681	437.44
470.901	442.44
471.12	417.44
471.339	408.44
471.558	418.44
471.777	409.44
471.997	409.44
472.216	422.44
472.435	467.44
472.654	450.44
472.873	439.44
473.092	404.44
473.311	412.44
473.53	398.44
473.749	440.44
473.968	478.44
474.187	568.44
474.406	594.44
474.625	478.44
474.844	428.44
475.063	416.44
475.282	403.44
475.501	418.44
475.72	441.44
475.939	411.44
476.158	415.44
476.377	438.44
476.596	439.44
476.814	422.44
477.033	450.44
477.252	442.44
477.471	422.44
477.69	416.44
477.908	424.44
478.127	452.44
478.346	440.44
478.564	434.44
478.783	459.44
479.002	452.44
479.22	465.44
479.439	466.44
479.658	512.44
479.876	495.44
480.095	479.44
480.313	516.44
480.532	496.44
480.751	512.44
480.969	529.44
481.188	595.44
481.406	639.44
481.624	556.44
481.843	513.44
482.061	520.44
482.28	496.44
482.498	471.44
482.717	471.44
482.935	476.44
483.153	476.44
483.372	485.44
483.59	486.44
483.808	476.44
484.027	496.44
484.245	491.44
484.463	502.44
484.681	506.44
484.9	491.44
485.118	480.44
485.336	493.44
485.554	502.44
485.772	482.44
485.99	488.44
486.209	515.44
486.427	511.44
486.645	527.44
486.863	535.44
487.081	527.44
487.299	536.44
487.517	507.44
487.735	504.44
487.953	505.44
488.171	529.44
488.389	518.44
488.607	541.44
488.825	533.44
489.043	525.44
489.261	515.44
489.479	526.44
489.696	539.44
489.914	543.44
490.132	518.44
490.35	560.44
490.568	528.44
490.786	555.44
491.003	569.44
491.221	582.44
491.439	569.44
491.657	578.44
491.874	583.44
492.092	616.44
492.31	616.44
492.527	595.44
492.745	594.44
492.963	627.44
493.18	612.44
493.398	606.44
493.615	630.44
493.833	638.44
494.05	619.44
494.268	623.44
494.485	617.44
494.703	615.44
494.92	600.44
495.138	582.44
495.355	613.44
495.573	598.44
495.79	623.44
496.008	634.44
496.225	621.44
496.442	613.44
496.66	613.44
496.877	608.44
497.094	607.44
497.312	641.44
497.529	622.44
497.746	641.44
497.963	638.44
498.181	650.44
498.398	657.44
498.615	665.44
498.832	686.44
499.049	673.44
499.267	660.44
499.484	704.44
499.701	705.44
499.918	700.44
500.135	744.44
500.352	765.44
500.569	782.44
500.786	785.44
501.003	799.44
501.22	753.44
501.437	770.44
501.654	757.44
501.871	746.44
