Data from 1965.PennyLincolnUp.Lamp.En5.5.200Scan.071719.P1._HRD10591_14-09-54-911.txt Node
Date: Thu Jul 18 14:09:54 EDT 2019
User: cochatt
Spectrometer: HR+D1059
Trigger mode: 1
Integration Time (sec): 1.000000E-1
Scans to average: 1
Electric dark correction enabled: true
Nonlinearity correction enabled: false
Boxcar width: 0
XAxis mode: Wavelengths
Number of Pixels in Spectrum: 2048
>>>>>Begin Spectral Data<<<<<
223.165	-18.5
223.4	-18.5
223.635	-18.5
223.869	-18.5
224.104	-19.5
224.338	-11.5
224.573	0.5
224.808	-20.5
225.042	-4.5
225.277	-9.5
225.511	-9.5
225.746	14.5
225.98	7.5
226.215	18.5
226.449	11.5
226.683	23.5
226.918	15.5
227.152	20.5
227.387	24.5
227.621	28.5
227.856	34.5
228.09	30.5
228.324	51.5
228.559	61.5
228.793	73.5
229.027	101.5
229.262	116.5
229.496	118.5
229.73	124.5
229.964	155.5
230.199	114.5
230.433	106.5
230.667	116.5
230.901	112.5
231.136	109.5
231.37	115.5
231.604	104.5
231.838	111.5
232.072	97.5
232.306	81.5
232.541	101.5
232.775	116.5
233.009	101.5
233.243	99.5
233.477	99.5
233.711	113.5
233.945	120.5
234.179	107.5
234.413	105.5
234.647	119.5
234.881	114.5
235.115	110.5
235.349	101.5
235.583	123.5
235.817	125.5
236.051	124.5
236.285	109.5
236.519	116.5
236.753	116.5
236.987	131.5
237.221	176.5
237.455	205.5
237.689	160.5
237.922	150.5
238.156	127.5
238.39	120.5
238.624	109.5
238.858	116.5
239.091	108.5
239.325	114.5
239.559	118.5
239.793	121.5
240.027	123.5
240.26	133.5
240.494	144.5
240.728	131.5
240.961	114.5
241.195	131.5
241.429	128.5
241.662	127.5
241.896	125.5
242.13	126.5
242.363	111.5
242.597	128.5
242.83	134.5
243.064	118.5
243.298	136.5
243.531	117.5
243.765	123.5
243.998	117.5
244.232	128.5
244.465	124.5
244.699	137.5
244.932	129.5
245.166	147.5
245.399	143.5
245.633	125.5
245.866	143.5
246.099	131.5
246.333	135.5
246.566	132.5
246.8	148.5
247.033	139.5
247.266	143.5
247.5	165.5
247.733	154.5
247.966	147.5
248.2	143.5
248.433	158.5
248.666	167.5
248.899	178.5
249.133	176.5
249.366	192.5
249.599	170.5
249.832	167.5
250.066	162.5
250.299	163.5
250.532	172.5
250.765	189.5
250.998	209.5
251.231	199.5
251.465	187.5
251.698	187.5
251.931	182.5
252.164	186.5
252.397	187.5
252.63	201.5
252.863	200.5
253.096	199.5
253.329	213.5
253.562	206.5
253.795	196.5
254.028	198.5
254.261	201.5
254.494	204.5
254.727	208.5
254.96	260.5
255.193	244.5
255.426	242.5
255.659	212.5
255.892	192.5
256.124	208.5
256.357	210.5
256.59	221.5
256.823	186.5
257.056	193.5
257.289	190.5
257.521	192.5
257.754	175.5
257.987	184.5
258.22	189.5
258.452	182.5
258.685	205.5
258.918	199.5
259.151	184.5
259.383	196.5
259.616	211.5
259.849	190.5
260.081	220.5
260.314	222.5
260.547	215.5
260.779	204.5
261.012	220.5
261.244	194.5
261.477	207.5
261.71	205.5
261.942	222.5
262.175	218.5
262.407	191.5
262.64	205.5
262.872	198.5
263.105	190.5
263.337	186.5
263.57	176.5
263.802	198.5
264.035	185.5
264.267	200.5
264.499	192.5
264.732	183.5
264.964	193.5
265.197	202.5
265.429	213.5
265.661	178.5
265.894	196.5
266.126	182.5
266.358	202.5
266.591	189.5
266.823	198.5
267.055	182.5
267.287	211.5
267.52	225.5
267.752	210.5
267.984	212.5
268.216	191.5
268.448	190.5
268.681	198.5
268.913	227.5
269.145	244.5
269.377	248.5
269.609	252.5
269.841	250.5
270.073	253.5
270.306	276.5
270.538	281.5
270.77	276.5
271.002	287.5
271.234	258.5
271.466	259.5
271.698	282.5
271.93	301.5
272.162	301.5
272.394	264.5
272.626	276.5
272.858	254.5
273.09	253.5
273.322	248.5
273.553	231.5
273.785	235.5
274.017	241.5
274.249	240.5
274.481	236.5
274.713	239.5
274.945	264.5
275.176	238.5
275.408	242.5
275.64	216.5
275.872	230.5
276.104	247.5
276.335	230.5
276.567	254.5
276.799	267.5
277.031	262.5
277.262	271.5
277.494	294.5
277.726	285.5
277.957	269.5
278.189	249.5
278.421	236.5
278.652	253.5
278.884	236.5
279.115	250.5
279.347	243.5
279.579	235.5
279.81	254.5
280.042	234.5
280.273	220.5
280.505	235.5
280.736	237.5
280.968	239.5
281.199	228.5
281.431	232.5
281.662	228.5
281.894	214.5
282.125	222.5
282.356	234.5
282.588	280.5
282.819	270.5
283.051	243.5
283.282	231.5
283.513	236.5
283.745	252.5
283.976	248.5
284.207	252.5
284.439	243.5
284.67	253.5
284.901	237.5
285.132	235.5
285.364	246.5
285.595	247.5
285.826	219.5
286.057	269.5
286.288	236.5
286.52	226.5
286.751	227.5
286.982	256.5
287.213	250.5
287.444	235.5
287.675	232.5
287.906	245.5
288.138	269.5
288.369	277.5
288.6	275.5
288.831	261.5
289.062	242.5
289.293	264.5
289.524	236.5
289.755	243.5
289.986	252.5
290.217	238.5
290.448	254.5
290.679	244.5
290.91	252.5
291.141	244.5
291.371	267.5
291.602	248.5
291.833	256.5
292.064	265.5
292.295	247.5
292.526	255.5
292.757	233.5
292.987	250.5
293.218	239.5
293.449	256.5
293.68	238.5
293.91	266.5
294.141	257.5
294.372	249.5
294.603	264.5
294.833	246.5
295.064	247.5
295.295	250.5
295.525	255.5
295.756	247.5
295.987	262.5
296.217	282.5
296.448	308.5
296.679	278.5
296.909	258.5
297.14	277.5
297.37	264.5
297.601	246.5
297.831	271.5
298.062	250.5
298.292	256.5
298.523	259.5
298.753	273.5
298.984	265.5
299.214	268.5
299.445	268.5
299.675	281.5
299.905	274.5
300.136	267.5
300.366	268.5
300.597	281.5
300.827	278.5
301.057	293.5
301.288	285.5
301.518	287.5
301.748	285.5
301.979	294.5
302.209	296.5
302.439	289.5
302.669	282.5
302.9	293.5
303.13	297.5
303.36	300.5
303.59	299.5
303.82	302.5
304.051	291.5
304.281	290.5
304.511	270.5
304.741	305.5
304.971	292.5
305.201	272.5
305.431	282.5
305.661	267.5
305.891	299.5
306.121	286.5
306.352	304.5
306.582	301.5
306.812	298.5
307.042	286.5
307.272	290.5
307.502	284.5
307.731	286.5
307.961	293.5
308.191	295.5
308.421	288.5
308.651	315.5
308.881	312.5
309.111	307.5
309.341	302.5
309.571	312.5
309.8	322.5
310.03	305.5
310.26	341.5
310.49	332.5
310.72	327.5
310.949	349.5
311.179	356.5
311.409	357.5
311.639	346.5
311.868	342.5
312.098	332.5
312.328	344.5
312.557	359.5
312.787	371.5
313.017	358.5
313.246	358.5
313.476	347.5
313.706	354.5
313.935	333.5
314.165	348.5
314.394	368.5
314.624	354.5
314.853	330.5
315.083	326.5
315.312	335.5
315.542	320.5
315.771	345.5
316.001	330.5
316.23	343.5
316.46	337.5
316.689	339.5
316.919	347.5
317.148	347.5
317.377	343.5
317.607	363.5
317.836	354.5
318.065	323.5
318.295	353.5
318.524	335.5
318.753	340.5
318.983	348.5
319.212	344.5
319.441	345.5
319.67	357.5
319.9	364.5
320.129	333.5
320.358	346.5
320.587	327.5
320.816	351.5
321.046	379.5
321.275	362.5
321.504	372.5
321.733	366.5
321.962	348.5
322.191	393.5
322.42	399.5
322.649	418.5
322.878	412.5
323.108	416.5
323.337	438.5
323.566	476.5
323.795	512.5
324.024	564.5
324.253	680.5
324.482	984.5
324.71	1516.5
324.939	2094.5
325.168	1717.5
325.397	928.5
325.626	652.5
325.855	525.5
326.084	486.5
326.313	474.5
326.542	486.5
326.77	553.5
326.999	627.5
327.228	868.5
327.457	1318.5
327.686	1530.5
327.914	1003.5
328.143	711.5
328.372	646.5
328.6	577.5
328.829	540.5
329.058	546.5
329.287	566.5
329.515	502.5
329.744	481.5
329.972	462.5
330.201	513.5
330.43	554.5
330.658	572.5
330.887	578.5
331.115	557.5
331.344	495.5
331.572	450.5
331.801	455.5
332.03	430.5
332.258	436.5
332.486	384.5
332.715	408.5
332.943	399.5
333.172	392.5
333.4	408.5
333.629	424.5
333.857	415.5
334.085	456.5
334.314	459.5
334.542	487.5
334.771	524.5
334.999	461.5
335.227	448.5
335.455	410.5
335.684	410.5
335.912	399.5
336.14	380.5
336.369	382.5
336.597	404.5
336.825	384.5
337.053	398.5
337.281	389.5
337.51	392.5
337.738	391.5
337.966	382.5
338.194	387.5
338.422	393.5
338.65	377.5
338.878	381.5
339.106	382.5
339.334	376.5
339.562	363.5
339.79	376.5
340.018	380.5
340.246	388.5
340.474	389.5
340.702	379.5
340.93	370.5
341.158	368.5
341.386	382.5
341.614	365.5
341.842	408.5
342.07	370.5
342.298	367.5
342.526	385.5
342.754	368.5
342.981	366.5
343.209	379.5
343.437	374.5
343.665	380.5
343.893	390.5
344.12	375.5
344.348	364.5
344.576	386.5
344.804	393.5
345.031	382.5
345.259	402.5
345.487	383.5
345.714	380.5
345.942	374.5
346.17	370.5
346.397	378.5
346.625	370.5
346.853	387.5
347.08	363.5
347.308	367.5
347.535	396.5
347.763	371.5
347.99	383.5
348.218	380.5
348.445	377.5
348.673	393.5
348.9	364.5
349.128	371.5
349.355	374.5
349.583	367.5
349.81	358.5
350.037	342.5
350.265	353.5
350.492	356.5
350.72	324.5
350.947	352.5
351.174	361.5
351.402	374.5
351.629	363.5
351.856	372.5
352.083	388.5
352.311	398.5
352.538	413.5
352.765	396.5
352.992	404.5
353.22	362.5
353.447	394.5
353.674	372.5
353.901	343.5
354.128	330.5
354.355	354.5
354.583	342.5
354.81	339.5
355.037	324.5
355.264	343.5
355.491	337.5
355.718	326.5
355.945	326.5
356.172	333.5
356.399	335.5
356.626	318.5
356.853	329.5
357.08	346.5
357.307	326.5
357.534	342.5
357.761	330.5
357.988	342.5
358.215	350.5
358.441	349.5
358.668	352.5
358.895	363.5
359.122	358.5
359.349	356.5
359.576	378.5
359.802	390.5
360.029	422.5
360.256	433.5
360.483	394.5
360.709	378.5
360.936	381.5
361.163	360.5
361.39	376.5
361.616	374.5
361.843	367.5
362.07	368.5
362.296	361.5
362.523	372.5
362.749	350.5
362.976	346.5
363.203	350.5
363.429	346.5
363.656	354.5
363.882	363.5
364.109	356.5
364.335	361.5
364.562	348.5
364.788	346.5
365.015	339.5
365.241	348.5
365.468	350.5
365.694	352.5
365.92	357.5
366.147	342.5
366.373	350.5
366.599	340.5
366.826	319.5
367.052	345.5
367.278	342.5
367.505	354.5
367.731	349.5
367.957	349.5
368.184	357.5
368.41	359.5
368.636	352.5
368.862	380.5
369.089	367.5
369.315	344.5
369.541	360.5
369.767	349.5
369.993	355.5
370.219	359.5
370.445	336.5
370.672	341.5
370.898	328.5
371.124	327.5
371.35	328.5
371.576	330.5
371.802	333.5
372.028	337.5
372.254	348.5
372.48	354.5
372.706	335.5
372.932	324.5
373.158	343.5
373.384	347.5
373.61	331.5
373.835	329.5
374.061	344.5
374.287	362.5
374.513	360.5
374.739	342.5
374.965	320.5
375.191	331.5
375.416	360.5
375.642	318.5
375.868	317.5
376.094	354.5
376.319	326.5
376.545	350.5
376.771	342.5
376.997	341.5
377.222	328.5
377.448	355.5
377.674	337.5
377.899	344.5
378.125	356.5
378.35	348.5
378.576	331.5
378.802	348.5
379.027	337.5
379.253	325.5
379.478	335.5
379.704	344.5
379.929	337.5
380.155	331.5
380.38	326.5
380.606	348.5
380.831	346.5
381.057	344.5
381.282	354.5
381.507	335.5
381.733	331.5
381.958	335.5
382.184	361.5
382.409	362.5
382.634	356.5
382.86	360.5
383.085	358.5
383.31	358.5
383.535	360.5
383.761	334.5
383.986	344.5
384.211	344.5
384.436	340.5
384.662	339.5
384.887	355.5
385.112	370.5
385.337	372.5
385.562	367.5
385.787	356.5
386.013	377.5
386.238	360.5
386.463	374.5
386.688	358.5
386.913	369.5
387.138	362.5
387.363	367.5
387.588	378.5
387.813	386.5
388.038	374.5
388.263	370.5
388.488	376.5
388.713	346.5
388.938	377.5
389.163	375.5
389.387	381.5
389.612	371.5
389.837	367.5
390.062	363.5
390.287	370.5
390.512	356.5
390.736	371.5
390.961	357.5
391.186	366.5
391.411	380.5
391.636	366.5
391.86	366.5
392.085	371.5
392.31	382.5
392.534	372.5
392.759	374.5
392.984	360.5
393.208	388.5
393.433	365.5
393.658	378.5
393.882	376.5
394.107	358.5
394.331	376.5
394.556	360.5
394.78	359.5
395.005	373.5
395.229	376.5
395.454	384.5
395.678	365.5
395.903	383.5
396.127	381.5
396.352	412.5
396.576	402.5
396.801	384.5
397.025	376.5
397.249	393.5
397.474	382.5
397.698	382.5
397.922	385.5
398.147	403.5
398.371	419.5
398.595	401.5
398.82	404.5
399.044	409.5
399.268	409.5
399.492	440.5
399.717	456.5
399.941	462.5
400.165	487.5
400.389	486.5
400.613	481.5
400.837	436.5
401.062	414.5
401.286	436.5
401.51	414.5
401.734	400.5
401.958	414.5
402.182	408.5
402.406	435.5
402.63	432.5
402.854	418.5
403.078	438.5
403.302	436.5
403.526	423.5
403.75	438.5
403.974	415.5
404.198	413.5
404.422	424.5
404.645	450.5
404.869	416.5
405.093	459.5
405.317	512.5
405.541	510.5
405.765	475.5
405.988	448.5
406.212	469.5
406.436	481.5
406.66	496.5
406.883	501.5
407.107	484.5
407.331	502.5
407.555	568.5
407.778	572.5
408.002	526.5
408.226	488.5
408.449	477.5
408.673	466.5
408.896	502.5
409.12	535.5
409.344	507.5
409.567	453.5
409.791	458.5
410.014	435.5
410.238	431.5
410.461	446.5
410.685	427.5
410.908	450.5
411.132	503.5
411.355	500.5
411.578	491.5
411.802	452.5
412.025	442.5
412.249	450.5
412.472	472.5
412.695	512.5
412.919	498.5
413.142	439.5
413.365	440.5
413.589	448.5
413.812	418.5
414.035	396.5
414.258	410.5
414.482	408.5
414.705	401.5
414.928	415.5
415.151	400.5
415.374	395.5
415.597	390.5
415.821	406.5
416.044	391.5
416.267	428.5
416.49	413.5
416.713	407.5
416.936	416.5
417.159	406.5
417.382	392.5
417.605	417.5
417.828	427.5
418.051	420.5
418.274	419.5
418.497	402.5
418.72	403.5
418.943	408.5
419.166	423.5
419.389	436.5
419.611	437.5
419.834	434.5
420.057	410.5
420.28	420.5
420.503	428.5
420.726	435.5
420.948	441.5
421.171	476.5
421.394	506.5
421.617	460.5
421.839	452.5
422.062	436.5
422.285	442.5
422.507	490.5
422.73	543.5
422.953	516.5
423.175	472.5
423.398	440.5
423.621	462.5
423.843	466.5
424.066	473.5
424.288	450.5
424.511	465.5
424.733	532.5
424.956	594.5
425.178	571.5
425.401	565.5
425.623	584.5
425.846	510.5
426.068	472.5
426.291	460.5
426.513	469.5
426.735	479.5
426.958	522.5
427.18	587.5
427.402	679.5
427.625	760.5
427.847	682.5
428.069	583.5
428.292	524.5
428.514	498.5
428.736	443.5
428.958	437.5
429.181	421.5
429.403	447.5
429.625	426.5
429.847	471.5
430.069	518.5
430.292	495.5
430.514	470.5
430.736	434.5
430.958	421.5
431.18	414.5
431.402	403.5
431.624	424.5
431.846	394.5
432.068	417.5
432.29	426.5
432.512	407.5
432.734	410.5
432.956	414.5
433.178	415.5
433.4	426.5
433.622	410.5
433.844	420.5
434.066	411.5
434.287	400.5
434.509	420.5
434.731	452.5
434.953	431.5
435.175	446.5
435.397	456.5
435.618	476.5
435.84	492.5
436.062	557.5
436.284	634.5
436.505	552.5
436.727	502.5
436.949	447.5
437.17	425.5
437.392	440.5
437.614	467.5
437.835	514.5
438.057	565.5
438.278	636.5
438.5	637.5
438.721	699.5
438.943	664.5
439.165	531.5
439.386	493.5
439.608	485.5
439.829	480.5
440.05	501.5
440.272	562.5
440.493	505.5
440.715	453.5
440.936	447.5
441.158	440.5
441.379	448.5
441.6	477.5
441.822	481.5
442.043	508.5
442.264	553.5
442.486	610.5
442.707	516.5
442.928	509.5
443.149	507.5
443.371	515.5
443.592	547.5
443.813	628.5
444.034	654.5
444.255	550.5
444.476	489.5
444.698	462.5
444.919	455.5
445.14	568.5
445.361	528.5
445.582	526.5
445.803	592.5
446.024	652.5
446.245	683.5
446.466	612.5
446.687	526.5
446.908	498.5
447.129	460.5
447.35	463.5
447.571	452.5
447.792	425.5
448.013	456.5
448.234	457.5
448.455	506.5
448.675	588.5
448.896	685.5
449.117	594.5
449.338	568.5
449.559	650.5
449.779	714.5
450	606.5
450.221	499.5
450.442	458.5
450.662	446.5
450.883	434.5
451.104	470.5
451.324	464.5
451.545	445.5
451.766	431.5
451.986	412.5
452.207	394.5
452.428	392.5
452.648	405.5
452.869	386.5
453.089	420.5
453.31	439.5
453.53	391.5
453.751	425.5
453.971	420.5
454.192	432.5
454.412	426.5
454.633	399.5
454.853	402.5
455.073	396.5
455.294	429.5
455.514	492.5
455.734	471.5
455.955	404.5
456.175	378.5
456.395	376.5
456.616	378.5
456.836	346.5
457.056	352.5
457.276	379.5
457.497	388.5
457.717	375.5
457.937	391.5
458.157	365.5
458.377	398.5
458.598	417.5
458.818	467.5
459.038	549.5
459.258	557.5
459.478	463.5
459.698	422.5
459.918	420.5
460.138	409.5
460.358	423.5
460.578	421.5
460.798	429.5
461.018	406.5
461.238	396.5
461.458	425.5
461.678	406.5
461.898	415.5
462.118	419.5
462.338	397.5
462.558	437.5
462.777	416.5
462.997	449.5
463.217	405.5
463.437	440.5
463.657	419.5
463.876	427.5
464.096	440.5
464.316	401.5
464.536	428.5
464.755	438.5
464.975	450.5
465.195	502.5
465.414	587.5
465.634	503.5
465.854	460.5
466.073	429.5
466.293	422.5
466.512	404.5
466.732	399.5
466.951	410.5
467.171	376.5
467.391	403.5
467.61	424.5
467.829	417.5
468.049	416.5
468.268	406.5
468.488	408.5
468.707	414.5
468.927	399.5
469.146	398.5
469.365	402.5
469.585	391.5
469.804	392.5
470.023	401.5
470.243	405.5
470.462	412.5
470.681	426.5
470.901	415.5
471.12	410.5
471.339	424.5
471.558	410.5
471.777	418.5
471.997	397.5
472.216	440.5
472.435	459.5
472.654	438.5
472.873	402.5
473.092	418.5
473.311	423.5
473.53	429.5
473.749	423.5
473.968	471.5
474.187	555.5
474.406	565.5
474.625	466.5
474.844	428.5
475.063	414.5
475.282	425.5
475.501	402.5
475.72	438.5
475.939	408.5
476.158	420.5
476.377	423.5
476.596	424.5
476.814	426.5
477.033	449.5
477.252	452.5
477.471	420.5
477.69	457.5
477.908	450.5
478.127	432.5
478.346	444.5
478.564	446.5
478.783	439.5
479.002	447.5
479.22	469.5
479.439	462.5
479.658	500.5
479.876	486.5
480.095	527.5
480.313	528.5
480.532	524.5
480.751	507.5
480.969	510.5
481.188	566.5
481.406	630.5
481.624	550.5
481.843	523.5
482.061	491.5
482.28	496.5
482.498	480.5
482.717	492.5
482.935	485.5
483.153	477.5
483.372	475.5
483.59	488.5
483.808	480.5
484.027	479.5
484.245	459.5
484.463	491.5
484.681	495.5
484.9	473.5
485.118	491.5
485.336	494.5
485.554	484.5
485.772	479.5
485.99	491.5
486.209	495.5
486.427	492.5
486.645	500.5
486.863	532.5
487.081	524.5
487.299	514.5
487.517	515.5
487.735	503.5
487.953	502.5
488.171	512.5
488.389	517.5
488.607	519.5
488.825	489.5
489.043	507.5
489.261	544.5
489.479	533.5
489.696	536.5
489.914	530.5
490.132	527.5
490.35	553.5
490.568	549.5
490.786	564.5
491.003	556.5
491.221	580.5
491.439	595.5
491.657	564.5
491.874	581.5
492.092	559.5
492.31	618.5
492.527	591.5
492.745	597.5
492.963	606.5
493.18	607.5
493.398	602.5
493.615	612.5
493.833	607.5
494.05	598.5
494.268	628.5
494.485	607.5
494.703	598.5
494.92	582.5
495.138	602.5
495.355	618.5
495.573	628.5
495.79	623.5
496.008	596.5
496.225	601.5
496.442	612.5
496.66	617.5
496.877	630.5
497.094	631.5
497.312	632.5
497.529	624.5
497.746	616.5
497.963	639.5
498.181	649.5
498.398	657.5
498.615	660.5
498.832	670.5
499.049	692.5
499.267	667.5
499.484	700.5
499.701	723.5
499.918	701.5
500.135	765.5
500.352	787.5
500.569	780.5
500.786	750.5
501.003	755.5
501.22	742.5
501.437	756.5
501.654	740.5
501.871	737.5
502.088	725.5
502.305	698.5
502.522	676.5
502.739	686.5
502.956	643.5
503.172	636.5
503.389	626.5
503.606	631.5
503.823	639.5
504.04	628.5
504.256	619.5
504.473	589.5
504.69	616.5
504.907	602.5
505.123	581.5
505.34	592.5
505.557	601.5
505.773	615.5
505.99	598.5
506.207	587.5
506.423	603.5
506.64	573.5
506.856	591.5
507.073	589.5
507.289	574.5
507.506	579.5
507.722	601.5
507.939	618.5
508.155	618.5
508.372	581.5
508.588	571.5
508.805	547.5
509.021	572.5
509.238	580.5
509.454	587.5
509.67	570.5
509.887	574.5
510.103	538.5
510.319	582.5
510.536	668.5
510.752	1184.5
510.968	939.5
511.184	604.5
511.401	566.5
511.617	566.5
511.833	570.5
512.049	567.5
512.265	539.5
512.481	539.5
512.698	553.5
512.914	535.5
513.13	534.5
513.346	535.5
513.562	552.5
513.778	533.5
513.994	551.5
514.21	573.5
514.426	591.5
514.642	621.5
514.858	663.5
515.074	720.5
515.29	855.5
515.506	1332.5
515.721	1068.5
515.937	692.5
516.153	605.5
516.369	578.5
516.585	570.5
516.801	586.5
517.016	527.5
517.232	561.5
517.448	526.5
517.664	541.5
517.879	555.5
518.095	549.5
518.311	556.5
518.527	541.5
518.742	551.5
518.958	555.5
519.173	520.5
519.389	550.5
519.605	537.5
519.82	538.5
