Data from 1965.PennyLincolnUp.Lamp.En5.5.200Scan.071719.P1._HRD10591_14-07-44-912.txt Node
Date: Thu Jul 18 14:07:44 EDT 2019
User: cochatt
Spectrometer: HR+D1059
Trigger mode: 1
Integration Time (sec): 1.000000E-1
Scans to average: 1
Electric dark correction enabled: true
Nonlinearity correction enabled: false
Boxcar width: 0
XAxis mode: Wavelengths
Number of Pixels in Spectrum: 2048
>>>>>Begin Spectral Data<<<<<
223.165	-17.56
223.4	-17.56
223.635	-17.56
223.869	-28.56
224.104	-11.56
224.338	-6.56
224.573	-18.56
224.808	-0.56
225.042	-9.56
225.277	-4.56
225.511	-1.56
225.746	7.44
225.98	8.44
226.215	7.44
226.449	5.44
226.683	17.44
226.918	24.44
227.152	28.44
227.387	47.44
227.621	41.44
227.856	54.44
228.09	57.44
228.324	57.44
228.559	59.44
228.793	66.44
229.027	90.44
229.262	86.44
229.496	109.44
229.73	94.44
229.964	129.44
230.199	104.44
230.433	110.44
230.667	107.44
230.901	107.44
231.136	91.44
231.37	91.44
231.604	106.44
231.838	103.44
232.072	95.44
232.306	99.44
232.541	106.44
232.775	104.44
233.009	116.44
233.243	107.44
233.477	124.44
233.711	105.44
233.945	104.44
234.179	109.44
234.413	102.44
234.647	103.44
234.881	111.44
235.115	105.44
235.349	104.44
235.583	111.44
235.817	91.44
236.051	94.44
236.285	110.44
236.519	108.44
236.753	113.44
236.987	117.44
237.221	142.44
237.455	180.44
237.689	143.44
237.922	118.44
238.156	136.44
238.39	115.44
238.624	109.44
238.858	99.44
239.091	105.44
239.325	94.44
239.559	118.44
239.793	121.44
240.027	127.44
240.26	119.44
240.494	129.44
240.728	118.44
240.961	126.44
241.195	120.44
241.429	110.44
241.662	100.44
241.896	114.44
242.13	120.44
242.363	118.44
242.597	111.44
242.83	106.44
243.064	121.44
243.298	110.44
243.531	121.44
243.765	118.44
243.998	126.44
244.232	131.44
244.465	122.44
244.699	116.44
244.932	136.44
245.166	125.44
245.399	121.44
245.633	120.44
245.866	121.44
246.099	124.44
246.333	117.44
246.566	122.44
246.8	124.44
247.033	129.44
247.266	133.44
247.5	121.44
247.733	140.44
247.966	141.44
248.2	123.44
248.433	149.44
248.666	147.44
248.899	139.44
249.133	151.44
249.366	158.44
249.599	150.44
249.832	158.44
250.066	140.44
250.299	147.44
250.532	144.44
250.765	147.44
250.998	166.44
251.231	169.44
251.465	157.44
251.698	162.44
251.931	172.44
252.164	150.44
252.397	167.44
252.63	150.44
252.863	166.44
253.096	169.44
253.329	187.44
253.562	192.44
253.795	177.44
254.028	182.44
254.261	179.44
254.494	177.44
254.727	202.44
254.96	211.44
255.193	206.44
255.426	186.44
255.659	179.44
255.892	177.44
256.124	166.44
256.357	176.44
256.59	173.44
256.823	147.44
257.056	188.44
257.289	154.44
257.521	172.44
257.754	174.44
257.987	173.44
258.22	172.44
258.452	158.44
258.685	167.44
258.918	161.44
259.151	158.44
259.383	168.44
259.616	173.44
259.849	188.44
260.081	201.44
260.314	196.44
260.547	203.44
260.779	178.44
261.012	181.44
261.244	166.44
261.477	187.44
261.71	185.44
261.942	178.44
262.175	197.44
262.407	196.44
262.64	155.44
262.872	177.44
263.105	164.44
263.337	182.44
263.57	174.44
263.802	177.44
264.035	176.44
264.267	175.44
264.499	153.44
264.732	183.44
264.964	163.44
265.197	174.44
265.429	171.44
265.661	179.44
265.894	179.44
266.126	178.44
266.358	172.44
266.591	164.44
266.823	179.44
267.055	173.44
267.287	193.44
267.52	185.44
267.752	188.44
267.984	167.44
268.216	171.44
268.448	179.44
268.681	183.44
268.913	177.44
269.145	186.44
269.377	221.44
269.609	215.44
269.841	205.44
270.073	201.44
270.306	231.44
270.538	251.44
270.77	233.44
271.002	224.44
271.234	231.44
271.466	212.44
271.698	241.44
271.93	232.44
272.162	230.44
272.394	240.44
272.626	229.44
272.858	201.44
273.09	213.44
273.322	221.44
273.553	223.44
273.785	206.44
274.017	207.44
274.249	202.44
274.481	199.44
274.713	209.44
274.945	230.44
275.176	200.44
275.408	209.44
275.64	194.44
275.872	190.44
276.104	196.44
276.335	218.44
276.567	202.44
276.799	201.44
277.031	227.44
277.262	227.44
277.494	245.44
277.726	234.44
277.957	230.44
278.189	230.44
278.421	223.44
278.652	209.44
278.884	230.44
279.115	183.44
279.347	210.44
279.579	223.44
279.81	220.44
280.042	214.44
280.273	205.44
280.505	218.44
280.736	219.44
280.968	225.44
281.199	201.44
281.431	206.44
281.662	208.44
281.894	196.44
282.125	206.44
282.356	220.44
282.588	223.44
282.819	227.44
283.051	213.44
283.282	227.44
283.513	228.44
283.745	229.44
283.976	210.44
284.207	217.44
284.439	217.44
284.67	220.44
284.901	216.44
285.132	212.44
285.364	205.44
285.595	227.44
285.826	223.44
286.057	221.44
286.288	218.44
286.52	229.44
286.751	213.44
286.982	214.44
287.213	214.44
287.444	218.44
287.675	236.44
287.906	216.44
288.138	231.44
288.369	225.44
288.6	235.44
288.831	231.44
289.062	225.44
289.293	215.44
289.524	223.44
289.755	212.44
289.986	232.44
290.217	243.44
290.448	224.44
290.679	221.44
290.91	222.44
291.141	219.44
291.371	221.44
291.602	213.44
291.833	222.44
292.064	230.44
292.295	215.44
292.526	234.44
292.757	221.44
292.987	238.44
293.218	230.44
293.449	225.44
293.68	237.44
293.91	213.44
294.141	239.44
294.372	238.44
294.603	214.44
294.833	237.44
295.064	220.44
295.295	227.44
295.525	238.44
295.756	229.44
295.987	238.44
296.217	265.44
296.448	253.44
296.679	237.44
296.909	223.44
297.14	233.44
297.37	235.44
297.601	235.44
297.831	232.44
298.062	259.44
298.292	243.44
298.523	245.44
298.753	242.44
298.984	246.44
299.214	238.44
299.445	230.44
299.675	233.44
299.905	245.44
300.136	260.44
300.366	225.44
300.597	241.44
300.827	254.44
301.057	241.44
301.288	240.44
301.518	252.44
301.748	249.44
301.979	272.44
302.209	255.44
302.439	260.44
302.669	260.44
302.9	244.44
303.13	244.44
303.36	237.44
303.59	249.44
303.82	269.44
304.051	270.44
304.281	254.44
304.511	267.44
304.741	265.44
304.971	269.44
305.201	256.44
305.431	245.44
305.661	260.44
305.891	260.44
306.121	266.44
306.352	261.44
306.582	259.44
306.812	252.44
307.042	263.44
307.272	269.44
307.502	262.44
307.731	248.44
307.961	267.44
308.191	251.44
308.421	267.44
308.651	267.44
308.881	243.44
309.111	273.44
309.341	283.44
309.571	282.44
309.8	271.44
310.03	294.44
310.26	290.44
310.49	277.44
310.72	299.44
310.949	305.44
311.179	299.44
311.409	289.44
311.639	268.44
311.868	293.44
312.098	307.44
312.328	291.44
312.557	321.44
312.787	310.44
313.017	312.44
313.246	308.44
313.476	296.44
313.706	295.44
313.935	305.44
314.165	293.44
314.394	316.44
314.624	309.44
314.853	313.44
315.083	297.44
315.312	308.44
315.542	296.44
315.771	298.44
316.001	277.44
316.23	278.44
316.46	294.44
316.689	293.44
316.919	291.44
317.148	299.44
317.377	296.44
317.607	292.44
317.836	309.44
318.065	292.44
318.295	301.44
318.524	281.44
318.753	277.44
318.983	305.44
319.212	300.44
319.441	300.44
319.67	277.44
319.9	313.44
320.129	294.44
320.358	299.44
320.587	282.44
320.816	293.44
321.046	283.44
321.275	316.44
321.504	311.44
321.733	313.44
321.962	289.44
322.191	314.44
322.42	330.44
322.649	324.44
322.878	339.44
323.108	351.44
323.337	351.44
323.566	378.44
323.795	417.44
324.024	430.44
324.253	537.44
324.482	780.44
324.71	1143.44
324.939	1564.44
325.168	1313.44
325.397	675.44
325.626	485.44
325.855	409.44
326.084	395.44
326.313	384.44
326.542	381.44
326.77	423.44
326.999	509.44
327.228	685.44
327.457	1002.44
327.686	1153.44
327.914	764.44
328.143	531.44
328.372	466.44
328.6	455.44
328.829	419.44
329.058	430.44
329.287	433.44
329.515	417.44
329.744	376.44
329.972	385.44
330.201	395.44
330.43	427.44
330.658	434.44
330.887	455.44
331.115	436.44
331.344	407.44
331.572	383.44
331.801	362.44
332.03	362.44
332.258	354.44
332.486	339.44
332.715	343.44
332.943	357.44
333.172	338.44
333.4	349.44
333.629	355.44
333.857	346.44
334.085	383.44
334.314	366.44
334.542	393.44
334.771	385.44
334.999	372.44
335.227	338.44
335.455	341.44
335.684	346.44
335.912	353.44
336.14	345.44
336.369	346.44
336.597	345.44
336.825	346.44
337.053	310.44
337.281	326.44
337.51	323.44
337.738	334.44
337.966	335.44
338.194	339.44
338.422	346.44
338.65	320.44
338.878	329.44
339.106	318.44
339.334	331.44
339.562	326.44
339.79	316.44
340.018	324.44
340.246	335.44
340.474	350.44
340.702	326.44
340.93	317.44
341.158	316.44
341.386	310.44
341.614	313.44
341.842	332.44
342.07	320.44
342.298	309.44
342.526	316.44
342.754	338.44
342.981	318.44
343.209	314.44
343.437	329.44
343.665	332.44
343.893	341.44
344.12	343.44
344.348	333.44
344.576	337.44
344.804	340.44
345.031	339.44
345.259	331.44
345.487	324.44
345.714	326.44
345.942	336.44
346.17	330.44
346.397	314.44
346.625	329.44
346.853	310.44
347.08	321.44
347.308	311.44
347.535	341.44
347.763	343.44
347.99	329.44
348.218	333.44
348.445	309.44
348.673	327.44
348.9	322.44
349.128	316.44
349.355	323.44
349.583	323.44
349.81	324.44
350.037	313.44
350.265	316.44
350.492	306.44
350.72	280.44
350.947	329.44
351.174	341.44
351.402	343.44
351.629	325.44
351.856	325.44
352.083	310.44
352.311	331.44
352.538	328.44
352.765	335.44
352.992	325.44
353.22	309.44
353.447	331.44
353.674	317.44
353.901	311.44
354.128	291.44
354.355	308.44
354.583	293.44
354.81	300.44
355.037	308.44
355.264	313.44
355.491	294.44
355.718	289.44
355.945	289.44
356.172	285.44
356.399	310.44
356.626	285.44
356.853	285.44
357.08	297.44
357.307	293.44
357.534	294.44
357.761	301.44
357.988	314.44
358.215	303.44
358.441	297.44
358.668	317.44
358.895	313.44
359.122	316.44
359.349	315.44
359.576	333.44
359.802	341.44
360.029	371.44
360.256	366.44
360.483	334.44
360.709	326.44
360.936	341.44
361.163	325.44
361.39	316.44
361.616	320.44
361.843	315.44
362.07	332.44
362.296	310.44
362.523	329.44
362.749	325.44
362.976	320.44
363.203	311.44
363.429	322.44
363.656	332.44
363.882	301.44
364.109	294.44
364.335	312.44
364.562	309.44
364.788	301.44
365.015	309.44
365.241	313.44
365.468	320.44
365.694	323.44
365.92	323.44
366.147	306.44
366.373	305.44
366.599	319.44
366.826	310.44
367.052	317.44
367.278	311.44
367.505	320.44
367.731	313.44
367.957	309.44
368.184	321.44
368.41	308.44
368.636	318.44
368.862	315.44
369.089	305.44
369.315	307.44
369.541	317.44
369.767	314.44
369.993	313.44
370.219	315.44
370.445	316.44
370.672	301.44
370.898	315.44
371.124	305.44
371.35	306.44
371.576	323.44
371.802	306.44
372.028	306.44
372.254	313.44
372.48	300.44
372.706	282.44
372.932	311.44
373.158	293.44
373.384	305.44
373.61	321.44
373.835	326.44
374.061	305.44
374.287	305.44
374.513	303.44
374.739	310.44
374.965	330.44
375.191	314.44
375.416	322.44
375.642	315.44
375.868	325.44
376.094	312.44
376.319	319.44
376.545	303.44
376.771	305.44
376.997	316.44
377.222	284.44
377.448	305.44
377.674	314.44
377.899	310.44
378.125	291.44
378.35	309.44
378.576	298.44
378.802	299.44
379.027	309.44
379.253	319.44
379.478	321.44
379.704	307.44
379.929	317.44
380.155	298.44
380.38	300.44
380.606	315.44
380.831	313.44
381.057	322.44
381.282	315.44
381.507	305.44
381.733	314.44
381.958	310.44
382.184	299.44
382.409	318.44
382.634	318.44
382.86	311.44
383.085	306.44
383.31	316.44
383.535	296.44
383.761	319.44
383.986	312.44
384.211	334.44
384.436	337.44
384.662	323.44
384.887	333.44
385.112	312.44
385.337	317.44
385.562	325.44
385.787	316.44
386.013	345.44
386.238	343.44
386.463	354.44
386.688	339.44
386.913	313.44
387.138	346.44
387.363	330.44
387.588	336.44
387.813	341.44
388.038	334.44
388.263	339.44
388.488	337.44
388.713	335.44
388.938	335.44
389.163	332.44
389.387	330.44
389.612	355.44
389.837	343.44
390.062	308.44
390.287	337.44
390.512	321.44
390.736	323.44
390.961	326.44
391.186	325.44
391.411	358.44
391.636	320.44
391.86	333.44
392.085	348.44
392.31	320.44
392.534	340.44
392.759	337.44
392.984	334.44
393.208	341.44
393.433	335.44
393.658	356.44
393.882	337.44
394.107	344.44
394.331	336.44
394.556	370.44
394.78	321.44
395.005	334.44
395.229	339.44
395.454	339.44
395.678	340.44
395.903	341.44
396.127	375.44
396.352	370.44
396.576	352.44
396.801	348.44
397.025	362.44
397.249	346.44
397.474	351.44
397.698	346.44
397.922	346.44
398.147	389.44
398.371	385.44
398.595	386.44
398.82	353.44
399.044	373.44
399.268	391.44
399.492	396.44
399.717	420.44
399.941	430.44
400.165	443.44
400.389	455.44
400.613	413.44
400.837	393.44
401.062	378.44
401.286	385.44
401.51	383.44
401.734	376.44
401.958	393.44
402.182	379.44
402.406	390.44
402.63	390.44
402.854	374.44
403.078	388.44
403.302	385.44
403.526	386.44
403.75	390.44
403.974	366.44
404.198	371.44
404.422	377.44
404.645	403.44
404.869	379.44
405.093	412.44
405.317	422.44
405.541	448.44
405.765	411.44
405.988	405.44
406.212	428.44
406.436	424.44
406.66	426.44
406.883	426.44
407.107	445.44
407.331	477.44
407.555	515.44
407.778	498.44
408.002	458.44
408.226	426.44
408.449	406.44
408.673	423.44
408.896	429.44
409.12	482.44
409.344	444.44
409.567	406.44
409.791	419.44
410.014	404.44
410.238	418.44
410.461	389.44
410.685	388.44
410.908	414.44
411.132	442.44
411.355	426.44
411.578	421.44
411.802	377.44
412.025	366.44
412.249	393.44
412.472	404.44
412.695	431.44
412.919	411.44
413.142	390.44
413.365	382.44
413.589	394.44
413.812	364.44
414.035	377.44
414.258	369.44
414.482	362.44
414.705	397.44
414.928	383.44
415.151	369.44
415.374	357.44
415.597	357.44
415.821	359.44
416.044	364.44
416.267	356.44
416.49	356.44
416.713	358.44
416.936	361.44
417.159	380.44
417.382	380.44
417.605	376.44
417.828	391.44
418.051	407.44
418.274	390.44
418.497	364.44
418.72	367.44
418.943	360.44
419.166	381.44
419.389	402.44
419.611	380.44
419.834	399.44
420.057	381.44
420.28	384.44
420.503	373.44
420.726	380.44
420.948	379.44
421.171	398.44
421.394	439.44
421.617	399.44
421.839	388.44
422.062	394.44
422.285	395.44
422.507	438.44
422.73	487.44
422.953	437.44
423.175	420.44
423.398	391.44
423.621	395.44
423.843	407.44
424.066	412.44
424.288	403.44
424.511	432.44
424.733	467.44
424.956	510.44
425.178	492.44
425.401	486.44
425.623	505.44
425.846	421.44
426.068	403.44
426.291	422.44
426.513	395.44
426.735	403.44
426.958	458.44
427.18	519.44
427.402	598.44
427.625	638.44
427.847	551.44
428.069	501.44
428.292	460.44
428.514	416.44
428.736	415.44
428.958	382.44
429.181	386.44
429.403	386.44
429.625	373.44
429.847	409.44
430.069	453.44
430.292	464.44
430.514	381.44
430.736	381.44
430.958	393.44
431.18	383.44
431.402	348.44
431.624	376.44
431.846	371.44
432.068	371.44
432.29	367.44
432.512	344.44
432.734	372.44
432.956	370.44
433.178	397.44
433.4	378.44
433.622	373.44
433.844	373.44
434.066	375.44
434.287	361.44
434.509	374.44
434.731	373.44
434.953	374.44
435.175	400.44
435.397	402.44
435.618	416.44
435.84	457.44
436.062	516.44
436.284	535.44
436.505	487.44
436.727	407.44
436.949	404.44
437.17	392.44
437.392	399.44
437.614	403.44
437.835	442.44
438.057	487.44
438.278	570.44
438.5	535.44
438.721	591.44
438.943	572.44
439.165	480.44
439.386	454.44
439.608	435.44
439.829	430.44
440.05	447.44
440.272	469.44
440.493	464.44
440.715	395.44
440.936	377.44
441.158	405.44
441.379	384.44
441.6	407.44
441.822	413.44
442.043	439.44
442.264	521.44
442.486	536.44
442.707	469.44
442.928	419.44
443.149	430.44
443.371	448.44
443.592	491.44
443.813	542.44
444.034	574.44
444.255	464.44
444.476	443.44
444.698	437.44
444.919	421.44
445.14	497.44
445.361	468.44
445.582	446.44
445.803	485.44
446.024	578.44
446.245	550.44
446.466	538.44
446.687	444.44
446.908	403.44
447.129	409.44
447.35	407.44
447.571	381.44
447.792	385.44
448.013	400.44
448.234	411.44
448.455	458.44
448.675	519.44
448.896	591.44
449.117	497.44
449.338	468.44
449.559	553.44
449.779	601.44
450	492.44
450.221	419.44
450.442	405.44
450.662	381.44
450.883	393.44
451.104	417.44
451.324	397.44
451.545	379.44
451.766	384.44
451.986	342.44
452.207	361.44
452.428	352.44
452.648	339.44
452.869	349.44
453.089	361.44
453.31	377.44
453.53	359.44
453.751	366.44
453.971	363.44
454.192	374.44
454.412	369.44
454.633	337.44
454.853	334.44
455.073	344.44
455.294	374.44
455.514	416.44
455.734	409.44
455.955	346.44
456.175	349.44
456.395	326.44
456.616	325.44
456.836	322.44
457.056	318.44
457.276	331.44
457.497	326.44
457.717	335.44
457.937	342.44
458.157	332.44
458.377	347.44
458.598	358.44
458.818	391.44
459.038	463.44
459.258	466.44
459.478	394.44
459.698	371.44
459.918	358.44
460.138	347.44
460.358	375.44
460.578	372.44
460.798	374.44
461.018	360.44
461.238	365.44
461.458	355.44
461.678	370.44
461.898	365.44
462.118	389.44
462.338	399.44
462.558	391.44
462.777	379.44
462.997	398.44
463.217	413.44
463.437	406.44
463.657	397.44
463.876	396.44
464.096	387.44
464.316	408.44
464.536	392.44
464.755	408.44
464.975	411.44
465.195	441.44
465.414	505.44
465.634	444.44
465.854	395.44
466.073	410.44
466.293	402.44
466.512	373.44
466.732	357.44
466.951	384.44
467.171	358.44
467.391	356.44
467.61	381.44
467.829	390.44
468.049	375.44
468.268	380.44
468.488	363.44
468.707	364.44
468.927	347.44
469.146	358.44
469.365	357.44
469.585	346.44
469.804	374.44
470.023	369.44
470.243	370.44
470.462	349.44
470.681	359.44
470.901	374.44
471.12	373.44
471.339	366.44
471.558	355.44
471.777	368.44
471.997	343.44
472.216	375.44
472.435	379.44
472.654	362.44
472.873	362.44
473.092	371.44
473.311	376.44
473.53	363.44
473.749	376.44
473.968	411.44
474.187	466.44
474.406	506.44
474.625	412.44
474.844	391.44
475.063	373.44
475.282	373.44
475.501	354.44
475.72	365.44
475.939	377.44
476.158	364.44
476.377	388.44
476.596	383.44
476.814	389.44
477.033	381.44
477.252	379.44
477.471	401.44
477.69	417.44
477.908	396.44
478.127	421.44
478.346	381.44
478.564	405.44
478.783	402.44
479.002	385.44
479.22	418.44
479.439	423.44
479.658	466.44
479.876	477.44
480.095	456.44
480.313	463.44
480.532	441.44
480.751	445.44
480.969	459.44
481.188	493.44
481.406	516.44
481.624	475.44
481.843	443.44
482.061	430.44
482.28	434.44
482.498	440.44
482.717	435.44
482.935	436.44
483.153	428.44
483.372	435.44
483.59	437.44
483.808	442.44
484.027	428.44
484.245	425.44
484.463	452.44
484.681	465.44
484.9	446.44
485.118	438.44
485.336	442.44
485.554	469.44
485.772	445.44
485.99	457.44
486.209	439.44
486.427	443.44
486.645	481.44
486.863	481.44
487.081	471.44
487.299	472.44
487.517	468.44
487.735	467.44
487.953	466.44
488.171	463.44
488.389	458.44
488.607	445.44
488.825	471.44
489.043	470.44
489.261	451.44
489.479	455.44
489.696	469.44
489.914	462.44
490.132	471.44
490.35	494.44
490.568	493.44
490.786	462.44
491.003	483.44
491.221	492.44
491.439	527.44
491.657	514.44
491.874	517.44
492.092	534.44
492.31	527.44
492.527	523.44
492.745	522.44
492.963	519.44
493.18	525.44
493.398	525.44
493.615	517.44
493.833	547.44
494.05	528.44
494.268	524.44
494.485	520.44
494.703	545.44
494.92	516.44
495.138	515.44
495.355	525.44
495.573	541.44
495.79	524.44
496.008	525.44
496.225	527.44
496.442	546.44
496.66	541.44
496.877	550.44
497.094	533.44
497.312	537.44
497.529	564.44
497.746	553.44
497.963	567.44
498.181	565.44
498.398	581.44
498.615	589.44
498.832	601.44
499.049	628.44
499.267	612.44
499.484	629.44
499.701	654.44
499.918	651.44
500.135	670.44
500.352	678.44
500.569	677.44
500.786	695.44
501.003	694.44
501.22	674.44
501.437	689.44
501.654	663.44
501.871	669.44
502.088	656.44
