Data from 1965.PennyLincolnUp.Lamp.En5.5.200Scan.071719.P1._HRD10591_14-09-07-910.txt Node
Date: Thu Jul 18 14:09:07 EDT 2019
User: cochatt
Spectrometer: HR+D1059
Trigger mode: 1
Integration Time (sec): 1.000000E-1
Scans to average: 1
Electric dark correction enabled: true
Nonlinearity correction enabled: false
Boxcar width: 0
XAxis mode: Wavelengths
Number of Pixels in Spectrum: 2048
>>>>>Begin Spectral Data<<<<<
223.165	-11.19
223.4	-11.19
223.635	-11.19
223.869	-7.19
224.104	-14.19
224.338	-7.19
224.573	-10.19
224.808	-8.19
225.042	-7.19
225.277	-3.19
225.511	0.81
225.746	2.81
225.98	-6.19
226.215	-0.19
226.449	7.81
226.683	17.81
226.918	30.81
227.152	14.81
227.387	39.81
227.621	43.81
227.856	42.81
228.09	33.81
228.324	44.81
228.559	51.81
228.793	65.81
229.027	76.81
229.262	99.81
229.496	101.81
229.73	120.81
229.964	125.81
230.199	109.81
230.433	106.81
230.667	96.81
230.901	97.81
231.136	104.81
231.37	98.81
231.604	98.81
231.838	106.81
232.072	113.81
232.306	95.81
232.541	101.81
232.775	105.81
233.009	91.81
233.243	115.81
233.477	100.81
233.711	97.81
233.945	94.81
234.179	114.81
234.413	122.81
234.647	103.81
234.881	106.81
235.115	106.81
235.349	104.81
235.583	122.81
235.817	108.81
236.051	116.81
236.285	108.81
236.519	117.81
236.753	121.81
236.987	115.81
237.221	165.81
237.455	201.81
237.689	166.81
237.922	131.81
238.156	119.81
238.39	115.81
238.624	106.81
238.858	104.81
239.091	114.81
239.325	114.81
239.559	123.81
239.793	109.81
240.027	131.81
240.26	117.81
240.494	148.81
240.728	138.81
240.961	124.81
241.195	130.81
241.429	121.81
241.662	119.81
241.896	124.81
242.13	113.81
242.363	111.81
242.597	104.81
242.83	119.81
243.064	132.81
243.298	127.81
243.531	119.81
243.765	120.81
243.998	130.81
244.232	127.81
244.465	125.81
244.699	125.81
244.932	115.81
245.166	125.81
245.399	133.81
245.633	126.81
245.866	128.81
246.099	135.81
246.333	122.81
246.566	128.81
246.8	140.81
247.033	144.81
247.266	134.81
247.5	140.81
247.733	153.81
247.966	169.81
248.2	147.81
248.433	162.81
248.666	167.81
248.899	158.81
249.133	181.81
249.366	204.81
249.599	171.81
249.832	154.81
250.066	177.81
250.299	163.81
250.532	166.81
250.765	199.81
250.998	182.81
251.231	191.81
251.465	200.81
251.698	164.81
251.931	175.81
252.164	164.81
252.397	187.81
252.63	181.81
252.863	185.81
253.096	182.81
253.329	198.81
253.562	195.81
253.795	185.81
254.028	197.81
254.261	184.81
254.494	193.81
254.727	222.81
254.96	244.81
255.193	239.81
255.426	209.81
255.659	187.81
255.892	203.81
256.124	203.81
256.357	182.81
256.59	189.81
256.823	188.81
257.056	191.81
257.289	198.81
257.521	200.81
257.754	199.81
257.987	189.81
258.22	193.81
258.452	181.81
258.685	184.81
258.918	173.81
259.151	179.81
259.383	192.81
259.616	201.81
259.849	203.81
260.081	218.81
260.314	228.81
260.547	237.81
260.779	220.81
261.012	213.81
261.244	199.81
261.477	204.81
261.71	206.81
261.942	204.81
262.175	194.81
262.407	193.81
262.64	191.81
262.872	181.81
263.105	172.81
263.337	194.81
263.57	191.81
263.802	201.81
264.035	186.81
264.267	166.81
264.499	172.81
264.732	191.81
264.964	185.81
265.197	179.81
265.429	190.81
265.661	194.81
265.894	187.81
266.126	189.81
266.358	189.81
266.591	192.81
266.823	200.81
267.055	194.81
267.287	193.81
267.52	193.81
267.752	188.81
267.984	199.81
268.216	193.81
268.448	203.81
268.681	203.81
268.913	216.81
269.145	228.81
269.377	250.81
269.609	232.81
269.841	237.81
270.073	242.81
270.306	259.81
270.538	265.81
270.77	294.81
271.002	274.81
271.234	248.81
271.466	251.81
271.698	267.81
271.93	277.81
272.162	283.81
272.394	272.81
272.626	273.81
272.858	256.81
273.09	250.81
273.322	255.81
273.553	223.81
273.785	243.81
274.017	231.81
274.249	227.81
274.481	217.81
274.713	232.81
274.945	224.81
275.176	231.81
275.408	229.81
275.64	226.81
275.872	231.81
276.104	230.81
276.335	243.81
276.567	236.81
276.799	262.81
277.031	261.81
277.262	288.81
277.494	272.81
277.726	262.81
277.957	243.81
278.189	245.81
278.421	230.81
278.652	234.81
278.884	235.81
279.115	218.81
279.347	231.81
279.579	232.81
279.81	223.81
280.042	232.81
280.273	255.81
280.505	224.81
280.736	219.81
280.968	211.81
281.199	210.81
281.431	235.81
281.662	213.81
281.894	237.81
282.125	216.81
282.356	253.81
282.588	263.81
282.819	264.81
283.051	240.81
283.282	223.81
283.513	229.81
283.745	251.81
283.976	250.81
284.207	257.81
284.439	231.81
284.67	243.81
284.901	228.81
285.132	226.81
285.364	234.81
285.595	231.81
285.826	255.81
286.057	233.81
286.288	234.81
286.52	235.81
286.751	234.81
286.982	253.81
287.213	240.81
287.444	242.81
287.675	243.81
287.906	243.81
288.138	259.81
288.369	262.81
288.6	268.81
288.831	242.81
289.062	269.81
289.293	245.81
289.524	241.81
289.755	226.81
289.986	227.81
290.217	236.81
290.448	247.81
290.679	242.81
290.91	243.81
291.141	247.81
291.371	228.81
291.602	242.81
291.833	220.81
292.064	233.81
292.295	229.81
292.526	257.81
292.757	248.81
292.987	261.81
293.218	239.81
293.449	252.81
293.68	243.81
293.91	243.81
294.141	242.81
294.372	251.81
294.603	263.81
294.833	255.81
295.064	261.81
295.295	237.81
295.525	261.81
295.756	248.81
295.987	267.81
296.217	278.81
296.448	295.81
296.679	253.81
296.909	249.81
297.14	232.81
297.37	234.81
297.601	254.81
297.831	258.81
298.062	248.81
298.292	260.81
298.523	277.81
298.753	252.81
298.984	263.81
299.214	277.81
299.445	273.81
299.675	256.81
299.905	278.81
300.136	258.81
300.366	259.81
300.597	269.81
300.827	284.81
301.057	273.81
301.288	272.81
301.518	264.81
301.748	287.81
301.979	277.81
302.209	272.81
302.439	283.81
302.669	281.81
302.9	261.81
303.13	275.81
303.36	297.81
303.59	285.81
303.82	279.81
304.051	287.81
304.281	276.81
304.511	285.81
304.741	278.81
304.971	281.81
305.201	295.81
305.431	279.81
305.661	268.81
305.891	281.81
306.121	285.81
306.352	293.81
306.582	296.81
306.812	291.81
307.042	295.81
307.272	285.81
307.502	283.81
307.731	289.81
307.961	276.81
308.191	280.81
308.421	284.81
308.651	273.81
308.881	290.81
309.111	305.81
309.341	303.81
309.571	294.81
309.8	318.81
310.03	299.81
310.26	314.81
310.49	313.81
310.72	344.81
310.949	353.81
311.179	363.81
311.409	342.81
311.639	333.81
311.868	328.81
312.098	330.81
312.328	330.81
312.557	361.81
312.787	343.81
313.017	358.81
313.246	340.81
313.476	328.81
313.706	312.81
313.935	341.81
314.165	324.81
314.394	343.81
314.624	343.81
314.853	347.81
315.083	333.81
315.312	315.81
315.542	318.81
315.771	308.81
316.001	325.81
316.23	320.81
316.46	324.81
316.689	338.81
316.919	332.81
317.148	351.81
317.377	340.81
317.607	338.81
317.836	313.81
318.065	326.81
318.295	330.81
318.524	336.81
318.753	335.81
318.983	324.81
319.212	333.81
319.441	353.81
319.67	351.81
319.9	342.81
320.129	338.81
320.358	340.81
320.587	356.81
320.816	355.81
321.046	343.81
321.275	354.81
321.504	367.81
321.733	367.81
321.962	344.81
322.191	361.81
322.42	371.81
322.649	401.81
322.878	400.81
323.108	405.81
323.337	447.81
323.566	462.81
323.795	497.81
324.024	521.81
324.253	656.81
324.482	964.81
324.71	1480.81
324.939	2042.81
325.168	1675.81
325.397	907.81
325.626	601.81
325.855	489.81
326.084	464.81
326.313	461.81
326.542	463.81
326.77	487.81
326.999	603.81
327.228	837.81
327.457	1280.81
327.686	1492.81
327.914	975.81
328.143	653.81
328.372	616.81
328.6	572.81
328.829	524.81
329.058	547.81
329.287	547.81
329.515	512.81
329.744	462.81
329.972	454.81
330.201	492.81
330.43	515.81
330.658	567.81
330.887	573.81
331.115	542.81
331.344	454.81
331.572	427.81
331.801	421.81
332.03	431.81
332.258	417.81
332.486	424.81
332.715	388.81
332.943	393.81
333.172	395.81
333.4	382.81
333.629	409.81
333.857	421.81
334.085	421.81
334.314	448.81
334.542	470.81
334.771	499.81
334.999	463.81
335.227	408.81
335.455	380.81
335.684	383.81
335.912	388.81
336.14	393.81
336.369	375.81
336.597	398.81
336.825	407.81
337.053	406.81
337.281	393.81
337.51	389.81
337.738	377.81
337.966	374.81
338.194	370.81
338.422	378.81
338.65	371.81
338.878	367.81
339.106	368.81
339.334	378.81
339.562	373.81
339.79	363.81
340.018	358.81
340.246	384.81
340.474	374.81
340.702	355.81
340.93	372.81
341.158	361.81
341.386	356.81
341.614	380.81
341.842	357.81
342.07	352.81
342.298	372.81
342.526	355.81
342.754	350.81
342.981	362.81
343.209	353.81
343.437	360.81
343.665	349.81
343.893	370.81
344.12	370.81
344.348	373.81
344.576	377.81
344.804	390.81
345.031	393.81
345.259	382.81
345.487	387.81
345.714	369.81
345.942	378.81
346.17	373.81
346.397	349.81
346.625	363.81
346.853	359.81
347.08	359.81
347.308	385.81
347.535	368.81
347.763	385.81
347.99	372.81
348.218	373.81
348.445	368.81
348.673	365.81
348.9	359.81
349.128	376.81
349.355	346.81
349.583	346.81
349.81	348.81
350.037	343.81
350.265	345.81
350.492	336.81
350.72	348.81
350.947	369.81
351.174	378.81
351.402	376.81
351.629	363.81
351.856	360.81
352.083	367.81
352.311	393.81
352.538	386.81
352.765	396.81
352.992	375.81
353.22	385.81
353.447	365.81
353.674	363.81
353.901	358.81
354.128	354.81
354.355	344.81
354.583	328.81
354.81	344.81
355.037	312.81
355.264	325.81
355.491	315.81
355.718	330.81
355.945	311.81
356.172	315.81
356.399	332.81
356.626	326.81
356.853	339.81
357.08	329.81
357.307	333.81
357.534	335.81
357.761	347.81
357.988	336.81
358.215	331.81
358.441	311.81
358.668	324.81
358.895	339.81
359.122	352.81
359.349	357.81
359.576	365.81
359.802	376.81
360.029	421.81
360.256	419.81
360.483	405.81
360.709	386.81
360.936	373.81
361.163	343.81
361.39	366.81
361.616	359.81
361.843	358.81
362.07	343.81
362.296	364.81
362.523	348.81
362.749	349.81
362.976	348.81
363.203	358.81
363.429	341.81
363.656	361.81
363.882	333.81
364.109	365.81
364.335	348.81
364.562	355.81
364.788	344.81
365.015	355.81
365.241	345.81
365.468	347.81
365.694	346.81
365.92	377.81
366.147	344.81
366.373	343.81
366.599	343.81
366.826	360.81
367.052	341.81
367.278	346.81
367.505	363.81
367.731	338.81
367.957	352.81
368.184	357.81
368.41	352.81
368.636	359.81
368.862	354.81
369.089	332.81
369.315	342.81
369.541	338.81
369.767	330.81
369.993	351.81
370.219	338.81
370.445	325.81
370.672	356.81
370.898	325.81
371.124	345.81
371.35	333.81
371.576	342.81
371.802	330.81
372.028	343.81
372.254	335.81
372.48	339.81
372.706	349.81
372.932	352.81
373.158	331.81
373.384	343.81
373.61	337.81
373.835	336.81
374.061	344.81
374.287	339.81
374.513	330.81
374.739	344.81
374.965	348.81
375.191	335.81
375.416	339.81
375.642	330.81
375.868	329.81
376.094	349.81
376.319	341.81
376.545	337.81
376.771	341.81
376.997	332.81
377.222	330.81
377.448	327.81
377.674	351.81
377.899	331.81
378.125	315.81
378.35	308.81
378.576	341.81
378.802	342.81
379.027	337.81
379.253	339.81
379.478	340.81
379.704	332.81
379.929	346.81
380.155	336.81
380.38	346.81
380.606	332.81
380.831	351.81
381.057	343.81
381.282	322.81
381.507	345.81
381.733	334.81
381.958	317.81
382.184	336.81
382.409	347.81
382.634	342.81
382.86	349.81
383.085	354.81
383.31	348.81
383.535	365.81
383.761	339.81
383.986	355.81
384.211	355.81
384.436	351.81
384.662	339.81
384.887	360.81
385.112	351.81
385.337	352.81
385.562	355.81
385.787	355.81
386.013	355.81
386.238	351.81
386.463	382.81
386.688	359.81
386.913	350.81
387.138	359.81
387.363	351.81
387.588	368.81
387.813	363.81
388.038	375.81
388.263	362.81
388.488	364.81
388.713	374.81
388.938	381.81
389.163	373.81
389.387	370.81
389.612	344.81
389.837	353.81
390.062	368.81
390.287	345.81
390.512	362.81
390.736	375.81
390.961	351.81
391.186	373.81
391.411	371.81
391.636	364.81
391.86	368.81
392.085	372.81
392.31	361.81
392.534	359.81
392.759	369.81
392.984	371.81
393.208	362.81
393.433	355.81
393.658	364.81
393.882	349.81
394.107	353.81
394.331	355.81
394.556	375.81
394.78	356.81
395.005	385.81
395.229	355.81
395.454	362.81
395.678	371.81
395.903	383.81
396.127	391.81
396.352	420.81
396.576	380.81
396.801	352.81
397.025	348.81
397.249	387.81
397.474	379.81
397.698	380.81
397.922	383.81
398.147	396.81
398.371	399.81
398.595	426.81
398.82	393.81
399.044	411.81
399.268	413.81
399.492	439.81
399.717	463.81
399.941	464.81
400.165	487.81
400.389	511.81
400.613	476.81
400.837	426.81
401.062	433.81
401.286	409.81
401.51	402.81
401.734	389.81
401.958	412.81
402.182	416.81
402.406	421.81
402.63	419.81
402.854	408.81
403.078	431.81
403.302	417.81
403.526	415.81
403.75	436.81
403.974	428.81
404.198	434.81
404.422	433.81
404.645	424.81
404.869	423.81
405.093	453.81
405.317	515.81
405.541	507.81
405.765	496.81
405.988	454.81
406.212	479.81
406.436	491.81
406.66	503.81
406.883	453.81
407.107	481.81
407.331	540.81
407.555	550.81
407.778	537.81
408.002	524.81
408.226	469.81
408.449	466.81
408.673	466.81
408.896	484.81
409.12	532.81
409.344	502.81
409.567	444.81
409.791	427.81
410.014	428.81
410.238	412.81
410.461	423.81
410.685	433.81
410.908	466.81
411.132	463.81
411.355	475.81
411.578	465.81
411.802	416.81
412.025	433.81
412.249	426.81
412.472	460.81
412.695	473.81
412.919	462.81
413.142	437.81
413.365	423.81
413.589	421.81
413.812	406.81
414.035	415.81
414.258	398.81
414.482	413.81
414.705	391.81
414.928	401.81
415.151	413.81
415.374	390.81
415.597	416.81
415.821	381.81
416.044	407.81
416.267	396.81
416.49	389.81
416.713	378.81
416.936	403.81
417.159	405.81
417.382	381.81
417.605	410.81
417.828	412.81
418.051	396.81
418.274	445.81
418.497	403.81
418.72	408.81
418.943	398.81
419.166	413.81
419.389	427.81
419.611	431.81
419.834	415.81
420.057	427.81
420.28	428.81
420.503	409.81
420.726	420.81
420.948	429.81
421.171	459.81
421.394	496.81
421.617	437.81
421.839	409.81
422.062	444.81
422.285	448.81
422.507	498.81
422.73	540.81
422.953	517.81
423.175	451.81
423.398	442.81
423.621	449.81
423.843	440.81
424.066	452.81
424.288	457.81
424.511	474.81
424.733	506.81
424.956	552.81
425.178	562.81
425.401	539.81
425.623	568.81
425.846	490.81
426.068	449.81
426.291	442.81
426.513	457.81
426.735	454.81
426.958	512.81
427.18	594.81
427.402	663.81
427.625	727.81
427.847	673.81
428.069	573.81
428.292	539.81
428.514	461.81
428.736	427.81
428.958	442.81
429.181	421.81
429.403	443.81
429.625	433.81
429.847	466.81
430.069	512.81
430.292	501.81
430.514	447.81
430.736	403.81
430.958	435.81
431.18	408.81
431.402	403.81
431.624	408.81
431.846	403.81
432.068	385.81
432.29	407.81
432.512	399.81
432.734	402.81
432.956	410.81
433.178	419.81
433.4	429.81
433.622	445.81
433.844	419.81
434.066	415.81
434.287	409.81
434.509	413.81
434.731	403.81
434.953	420.81
435.175	429.81
435.397	453.81
435.618	463.81
435.84	485.81
436.062	547.81
436.284	615.81
436.505	537.81
436.727	522.81
436.949	450.81
437.17	426.81
437.392	435.81
437.614	460.81
437.835	476.81
438.057	573.81
438.278	631.81
438.5	613.81
438.721	693.81
438.943	649.81
439.165	527.81
439.386	493.81
439.608	491.81
439.829	491.81
440.05	515.81
440.272	547.81
440.493	503.81
440.715	454.81
440.936	416.81
441.158	414.81
441.379	437.81
441.6	460.81
441.822	444.81
442.043	472.81
442.264	565.81
442.486	597.81
442.707	512.81
442.928	487.81
443.149	497.81
443.371	517.81
443.592	523.81
443.813	607.81
444.034	637.81
444.255	535.81
444.476	468.81
444.698	476.81
444.919	454.81
445.14	557.81
445.361	508.81
445.582	505.81
445.803	569.81
446.024	659.81
446.245	625.81
446.466	569.81
446.687	508.81
446.908	455.81
447.129	443.81
447.35	424.81
447.571	446.81
447.792	431.81
448.013	427.81
448.234	465.81
448.455	493.81
448.675	591.81
448.896	635.81
449.117	574.81
449.338	529.81
449.559	639.81
449.779	689.81
450	587.81
450.221	501.81
450.442	439.81
450.662	422.81
450.883	417.81
451.104	456.81
451.324	453.81
451.545	431.81
451.766	413.81
451.986	403.81
452.207	394.81
452.428	384.81
452.648	405.81
452.869	384.81
453.089	380.81
453.31	409.81
453.53	408.81
453.751	385.81
453.971	399.81
454.192	419.81
454.412	432.81
454.633	418.81
454.853	403.81
455.073	404.81
455.294	410.81
455.514	451.81
455.734	449.81
455.955	393.81
456.175	371.81
456.395	364.81
456.616	360.81
456.836	360.81
457.056	368.81
457.276	367.81
457.497	349.81
457.717	378.81
457.937	373.81
458.157	364.81
458.377	379.81
458.598	406.81
458.818	456.81
459.038	563.81
459.258	544.81
459.478	459.81
459.698	399.81
459.918	413.81
460.138	405.81
460.358	418.81
460.578	407.81
460.798	395.81
461.018	402.81
461.238	395.81
461.458	383.81
461.678	374.81
461.898	401.81
462.118	405.81
462.338	417.81
462.558	416.81
462.777	414.81
462.997	423.81
463.217	431.81
463.437	434.81
463.657	411.81
463.876	413.81
464.096	458.81
464.316	431.81
464.536	420.81
464.755	447.81
464.975	457.81
465.195	513.81
465.414	544.81
465.634	489.81
465.854	444.81
466.073	431.81
466.293	394.81
466.512	402.81
466.732	397.81
466.951	398.81
467.171	396.81
467.391	381.81
467.61	408.81
467.829	410.81
468.049	397.81
468.268	415.81
468.488	391.81
468.707	401.81
468.927	391.81
469.146	387.81
469.365	376.81
469.585	395.81
469.804	392.81
470.023	408.81
470.243	395.81
470.462	402.81
470.681	444.81
470.901	415.81
471.12	419.81
471.339	405.81
471.558	410.81
471.777	411.81
471.997	414.81
472.216	418.81
472.435	437.81
472.654	433.81
472.873	405.81
473.092	408.81
473.311	398.81
473.53	388.81
473.749	390.81
473.968	445.81
474.187	540.81
474.406	547.81
474.625	458.81
474.844	403.81
475.063	416.81
475.282	407.81
475.501	395.81
475.72	403.81
475.939	403.81
476.158	428.81
476.377	387.81
476.596	407.81
476.814	424.81
477.033	448.81
477.252	419.81
477.471	419.81
477.69	434.81
477.908	424.81
478.127	439.81
478.346	437.81
478.564	449.81
478.783	437.81
479.002	443.81
479.22	462.81
479.439	480.81
479.658	470.81
479.876	457.81
480.095	490.81
480.313	506.81
480.532	500.81
480.751	530.81
480.969	506.81
481.188	579.81
481.406	607.81
481.624	533.81
481.843	504.81
482.061	497.81
482.28	510.81
482.498	497.81
482.717	469.81
482.935	483.81
483.153	471.81
483.372	480.81
483.59	482.81
483.808	476.81
484.027	463.81
484.245	460.81
484.463	469.81
484.681	480.81
484.9	482.81
485.118	484.81
485.336	470.81
485.554	479.81
485.772	490.81
485.99	498.81
486.209	485.81
486.427	474.81
486.645	507.81
486.863	517.81
487.081	515.81
487.299	514.81
487.517	521.81
487.735	485.81
487.953	506.81
488.171	496.81
488.389	501.81
488.607	502.81
488.825	492.81
489.043	518.81
489.261	503.81
489.479	512.81
489.696	508.81
489.914	524.81
490.132	522.81
490.35	501.81
490.568	531.81
490.786	543.81
491.003	577.81
491.221	561.81
491.439	588.81
491.657	575.81
491.874	578.81
492.092	587.81
492.31	603.81
492.527	588.81
492.745	602.81
492.963	596.81
493.18	588.81
493.398	595.81
493.615	598.81
493.833	584.81
494.05	599.81
494.268	604.81
494.485	586.81
494.703	604.81
494.92	593.81
495.138	593.81
495.355	602.81
495.573	631.81
495.79	599.81
496.008	599.81
496.225	625.81
496.442	605.81
496.66	613.81
496.877	607.81
497.094	615.81
497.312	607.81
497.529	602.81
497.746	619.81
497.963	611.81
498.181	642.81
498.398	647.81
498.615	629.81
498.832	652.81
499.049	669.81
499.267	673.81
499.484	664.81
499.701	695.81
499.918	727.81
500.135	742.81
500.352	751.81
500.569	741.81
500.786	756.81
501.003	761.81
501.22	761.81
501.437	744.81
501.654	724.81
501.871	740.81
502.088	737.81
