Data from 1966.PennyLincolnUp.Lamp.En5.5.200Scan.071719.P1._HRD10591_14-14-41-914.txt Node
Date: Thu Jul 18 14:14:41 EDT 2019
User: cochatt
Spectrometer: HR+D1059
Trigger mode: 1
Integration Time (sec): 1.000000E-1
Scans to average: 1
Electric dark correction enabled: true
Nonlinearity correction enabled: false
Boxcar width: 0
XAxis mode: Wavelengths
Number of Pixels in Spectrum: 2048
>>>>>Begin Spectral Data<<<<<
223.165	-16.31
223.4	-16.31
223.635	-16.31
223.869	-13.31
224.104	-14.31
224.338	-25.31
224.573	-19.31
224.808	-6.31
225.042	1.69
225.277	-1.31
225.511	-8.31
225.746	5.69
225.98	12.69
226.215	21.69
226.449	11.69
226.683	18.69
226.918	12.69
227.152	19.69
227.387	39.69
227.621	36.69
227.856	47.69
228.09	36.69
228.324	46.69
228.559	51.69
228.793	59.69
229.027	79.69
229.262	75.69
229.496	100.69
229.73	95.69
229.964	98.69
230.199	99.69
230.433	86.69
230.667	92.69
230.901	77.69
231.136	91.69
231.37	97.69
231.604	79.69
231.838	99.69
232.072	79.69
232.306	93.69
232.541	90.69
232.775	89.69
233.009	80.69
233.243	89.69
233.477	89.69
233.711	94.69
233.945	84.69
234.179	98.69
234.413	108.69
234.647	94.69
234.881	92.69
235.115	92.69
235.349	96.69
235.583	105.69
235.817	84.69
236.051	91.69
236.285	89.69
236.519	86.69
236.753	111.69
236.987	116.69
237.221	108.69
237.455	133.69
237.689	106.69
237.922	88.69
238.156	90.69
238.39	85.69
238.624	98.69
238.858	103.69
239.091	103.69
239.325	96.69
239.559	98.69
239.793	95.69
240.027	116.69
240.26	113.69
240.494	113.69
240.728	108.69
240.961	104.69
241.195	111.69
241.429	99.69
241.662	113.69
241.896	101.69
242.13	86.69
242.363	89.69
242.597	92.69
242.83	108.69
243.064	81.69
243.298	98.69
243.531	102.69
243.765	93.69
243.998	89.69
244.232	93.69
244.465	98.69
244.699	101.69
244.932	97.69
245.166	112.69
245.399	96.69
245.633	117.69
245.866	92.69
246.099	114.69
246.333	107.69
246.566	103.69
246.8	111.69
247.033	112.69
247.266	102.69
247.5	107.69
247.733	135.69
247.966	121.69
248.2	125.69
248.433	106.69
248.666	115.69
248.899	137.69
249.133	127.69
249.366	131.69
249.599	122.69
249.832	104.69
250.066	111.69
250.299	106.69
250.532	120.69
250.765	142.69
250.998	136.69
251.231	148.69
251.465	131.69
251.698	142.69
251.931	135.69
252.164	120.69
252.397	108.69
252.63	145.69
252.863	123.69
253.096	148.69
253.329	143.69
253.562	145.69
253.795	140.69
254.028	140.69
254.261	145.69
254.494	132.69
254.727	164.69
254.96	164.69
255.193	170.69
255.426	160.69
255.659	135.69
255.892	149.69
256.124	145.69
256.357	128.69
256.59	139.69
256.823	140.69
257.056	117.69
257.289	128.69
257.521	135.69
257.754	124.69
257.987	138.69
258.22	125.69
258.452	124.69
258.685	134.69
258.918	139.69
259.151	136.69
259.383	137.69
259.616	129.69
259.849	139.69
260.081	141.69
260.314	165.69
260.547	162.69
260.779	152.69
261.012	139.69
261.244	125.69
261.477	145.69
261.71	130.69
261.942	147.69
262.175	155.69
262.407	156.69
262.64	133.69
262.872	138.69
263.105	128.69
263.337	139.69
263.57	123.69
263.802	127.69
264.035	131.69
264.267	133.69
264.499	134.69
264.732	145.69
264.964	134.69
265.197	129.69
265.429	138.69
265.661	127.69
265.894	132.69
266.126	139.69
266.358	136.69
266.591	119.69
266.823	136.69
267.055	142.69
267.287	133.69
267.52	139.69
267.752	127.69
267.984	125.69
268.216	134.69
268.448	144.69
268.681	140.69
268.913	137.69
269.145	161.69
269.377	160.69
269.609	162.69
269.841	139.69
270.073	154.69
270.306	173.69
270.538	183.69
270.77	183.69
271.002	171.69
271.234	168.69
271.466	169.69
271.698	179.69
271.93	171.69
272.162	184.69
272.394	182.69
272.626	183.69
272.858	181.69
273.09	168.69
273.322	142.69
273.553	154.69
273.785	159.69
274.017	159.69
274.249	149.69
274.481	147.69
274.713	152.69
274.945	162.69
275.176	149.69
275.408	139.69
275.64	159.69
275.872	151.69
276.104	159.69
276.335	142.69
276.567	145.69
276.799	168.69
277.031	187.69
277.262	198.69
277.494	192.69
277.726	180.69
277.957	162.69
278.189	157.69
278.421	156.69
278.652	153.69
278.884	158.69
279.115	163.69
279.347	161.69
279.579	138.69
279.81	163.69
280.042	169.69
280.273	161.69
280.505	150.69
280.736	165.69
280.968	157.69
281.199	163.69
281.431	155.69
281.662	155.69
281.894	155.69
282.125	139.69
282.356	170.69
282.588	175.69
282.819	169.69
283.051	147.69
283.282	156.69
283.513	157.69
283.745	154.69
283.976	169.69
284.207	152.69
284.439	167.69
284.67	163.69
284.901	154.69
285.132	154.69
285.364	139.69
285.595	168.69
285.826	157.69
286.057	178.69
286.288	154.69
286.52	156.69
286.751	192.69
286.982	161.69
287.213	159.69
287.444	175.69
287.675	176.69
287.906	178.69
288.138	167.69
288.369	155.69
288.6	177.69
288.831	160.69
289.062	160.69
289.293	184.69
289.524	166.69
289.755	162.69
289.986	175.69
290.217	164.69
290.448	172.69
290.679	164.69
290.91	164.69
291.141	162.69
291.371	163.69
291.602	160.69
291.833	160.69
292.064	163.69
292.295	163.69
292.526	174.69
292.757	156.69
292.987	175.69
293.218	159.69
293.449	166.69
293.68	163.69
293.91	176.69
294.141	179.69
294.372	170.69
294.603	165.69
294.833	171.69
295.064	161.69
295.295	163.69
295.525	177.69
295.756	176.69
295.987	161.69
296.217	183.69
296.448	199.69
296.679	168.69
296.909	179.69
297.14	169.69
297.37	187.69
297.601	161.69
297.831	179.69
298.062	169.69
298.292	163.69
298.523	172.69
298.753	164.69
298.984	156.69
299.214	175.69
299.445	163.69
299.675	175.69
299.905	171.69
300.136	167.69
300.366	175.69
300.597	161.69
300.827	182.69
301.057	185.69
301.288	193.69
301.518	179.69
301.748	179.69
301.979	187.69
302.209	185.69
302.439	168.69
302.669	199.69
302.9	170.69
303.13	173.69
303.36	196.69
303.59	201.69
303.82	191.69
304.051	210.69
304.281	177.69
304.511	173.69
304.741	187.69
304.971	176.69
305.201	203.69
305.431	186.69
305.661	164.69
305.891	190.69
306.121	194.69
306.352	187.69
306.582	187.69
306.812	184.69
307.042	185.69
307.272	176.69
307.502	180.69
307.731	187.69
307.961	176.69
308.191	178.69
308.421	169.69
308.651	198.69
308.881	188.69
309.111	194.69
309.341	199.69
309.571	193.69
309.8	188.69
310.03	185.69
310.26	189.69
310.49	191.69
310.72	198.69
310.949	207.69
311.179	227.69
311.409	202.69
311.639	193.69
311.868	212.69
312.098	198.69
312.328	212.69
312.557	207.69
312.787	226.69
313.017	234.69
313.246	221.69
313.476	203.69
313.706	207.69
313.935	205.69
314.165	202.69
314.394	214.69
314.624	205.69
314.853	204.69
315.083	209.69
315.312	216.69
315.542	214.69
315.771	204.69
316.001	190.69
316.23	191.69
316.46	192.69
316.689	208.69
316.919	195.69
317.148	213.69
317.377	215.69
317.607	198.69
317.836	208.69
318.065	213.69
318.295	191.69
318.524	215.69
318.753	215.69
318.983	201.69
319.212	210.69
319.441	221.69
319.67	221.69
319.9	203.69
320.129	185.69
320.358	208.69
320.587	203.69
320.816	205.69
321.046	213.69
321.275	229.69
321.504	200.69
321.733	201.69
321.962	204.69
322.191	225.69
322.42	217.69
322.649	244.69
322.878	223.69
323.108	241.69
323.337	279.69
323.566	264.69
323.795	278.69
324.024	293.69
324.253	361.69
324.482	520.69
324.71	776.69
324.939	1072.69
325.168	857.69
325.397	441.69
325.626	307.69
325.855	267.69
326.084	244.69
326.313	234.69
326.542	262.69
326.77	299.69
326.999	345.69
327.228	464.69
327.457	687.69
327.686	756.69
327.914	517.69
328.143	340.69
328.372	327.69
328.6	314.69
328.829	300.69
329.058	301.69
329.287	300.69
329.515	284.69
329.744	276.69
329.972	268.69
330.201	279.69
330.43	324.69
330.658	319.69
330.887	341.69
331.115	317.69
331.344	274.69
331.572	265.69
331.801	266.69
332.03	260.69
332.258	246.69
332.486	234.69
332.715	223.69
332.943	236.69
333.172	247.69
333.4	225.69
333.629	255.69
333.857	241.69
334.085	267.69
334.314	268.69
334.542	283.69
334.771	321.69
334.999	285.69
335.227	270.69
335.455	241.69
335.684	216.69
335.912	235.69
336.14	254.69
336.369	236.69
336.597	236.69
336.825	231.69
337.053	214.69
337.281	224.69
337.51	222.69
337.738	230.69
337.966	245.69
338.194	239.69
338.422	225.69
338.65	243.69
338.878	224.69
339.106	231.69
339.334	242.69
339.562	209.69
339.79	210.69
340.018	209.69
340.246	224.69
340.474	218.69
340.702	219.69
340.93	225.69
341.158	204.69
341.386	209.69
341.614	225.69
341.842	219.69
342.07	211.69
342.298	204.69
342.526	229.69
342.754	221.69
342.981	228.69
343.209	220.69
343.437	212.69
343.665	210.69
343.893	220.69
344.12	229.69
344.348	214.69
344.576	212.69
344.804	243.69
345.031	234.69
345.259	236.69
345.487	236.69
345.714	228.69
345.942	233.69
346.17	202.69
346.397	217.69
346.625	216.69
346.853	231.69
347.08	224.69
347.308	216.69
347.535	216.69
347.763	209.69
347.99	214.69
348.218	226.69
348.445	232.69
348.673	233.69
348.9	215.69
349.128	221.69
349.355	204.69
349.583	198.69
349.81	192.69
350.037	208.69
350.265	193.69
350.492	209.69
350.72	206.69
350.947	225.69
351.174	243.69
351.402	227.69
351.629	207.69
351.856	219.69
352.083	232.69
352.311	239.69
352.538	234.69
352.765	243.69
352.992	217.69
353.22	218.69
353.447	219.69
353.674	214.69
353.901	209.69
354.128	218.69
354.355	184.69
354.583	203.69
354.81	179.69
355.037	217.69
355.264	217.69
355.491	185.69
355.718	209.69
355.945	195.69
356.172	200.69
356.399	212.69
356.626	176.69
356.853	201.69
357.08	182.69
357.307	191.69
357.534	208.69
357.761	223.69
357.988	203.69
358.215	199.69
358.441	197.69
358.668	199.69
358.895	205.69
359.122	213.69
359.349	210.69
359.576	217.69
359.802	217.69
360.029	249.69
360.256	246.69
360.483	236.69
360.709	226.69
360.936	215.69
361.163	209.69
361.39	208.69
361.616	231.69
361.843	209.69
362.07	199.69
362.296	227.69
362.523	223.69
362.749	211.69
362.976	224.69
363.203	220.69
363.429	200.69
363.656	211.69
363.882	223.69
364.109	196.69
364.335	211.69
364.562	190.69
364.788	204.69
365.015	201.69
365.241	202.69
365.468	212.69
365.694	211.69
365.92	179.69
366.147	203.69
366.373	212.69
366.599	209.69
366.826	199.69
367.052	194.69
367.278	202.69
367.505	223.69
367.731	204.69
367.957	191.69
368.184	205.69
368.41	199.69
368.636	209.69
368.862	205.69
369.089	197.69
369.315	204.69
369.541	218.69
369.767	205.69
369.993	228.69
370.219	199.69
370.445	219.69
370.672	204.69
370.898	185.69
371.124	196.69
371.35	213.69
371.576	216.69
371.802	188.69
372.028	195.69
372.254	202.69
372.48	205.69
372.706	201.69
372.932	196.69
373.158	213.69
373.384	203.69
373.61	189.69
373.835	207.69
374.061	197.69
374.287	214.69
374.513	220.69
374.739	213.69
374.965	202.69
375.191	195.69
375.416	194.69
375.642	197.69
375.868	207.69
376.094	194.69
376.319	197.69
376.545	197.69
376.771	201.69
376.997	201.69
377.222	208.69
377.448	204.69
377.674	192.69
377.899	191.69
378.125	213.69
378.35	204.69
378.576	198.69
378.802	194.69
379.027	202.69
379.253	191.69
379.478	193.69
379.704	208.69
379.929	207.69
380.155	209.69
380.38	197.69
380.606	213.69
380.831	201.69
381.057	199.69
381.282	200.69
381.507	215.69
381.733	191.69
381.958	205.69
382.184	196.69
382.409	218.69
382.634	206.69
382.86	202.69
383.085	203.69
383.31	218.69
383.535	204.69
383.761	212.69
383.986	213.69
384.211	210.69
384.436	222.69
384.662	190.69
384.887	204.69
385.112	210.69
385.337	203.69
385.562	210.69
385.787	208.69
386.013	224.69
386.238	223.69
386.463	204.69
386.688	215.69
386.913	202.69
387.138	220.69
387.363	221.69
387.588	213.69
387.813	228.69
388.038	209.69
388.263	217.69
388.488	232.69
388.713	219.69
388.938	208.69
389.163	190.69
389.387	214.69
389.612	201.69
389.837	217.69
390.062	209.69
390.287	213.69
390.512	218.69
390.736	218.69
390.961	217.69
391.186	213.69
391.411	224.69
391.636	237.69
391.86	208.69
392.085	215.69
392.31	208.69
392.534	215.69
392.759	226.69
392.984	227.69
393.208	223.69
393.433	223.69
393.658	239.69
393.882	220.69
394.107	239.69
394.331	221.69
394.556	199.69
394.78	213.69
395.005	214.69
395.229	213.69
395.454	225.69
395.678	221.69
395.903	224.69
396.127	245.69
396.352	227.69
396.576	220.69
396.801	205.69
397.025	225.69
397.249	228.69
397.474	219.69
397.698	226.69
397.922	244.69
398.147	250.69
398.371	239.69
398.595	236.69
398.82	230.69
399.044	243.69
399.268	248.69
399.492	268.69
399.717	286.69
399.941	293.69
400.165	296.69
400.389	293.69
400.613	265.69
400.837	243.69
401.062	235.69
401.286	246.69
401.51	230.69
401.734	251.69
401.958	244.69
402.182	233.69
402.406	268.69
402.63	261.69
402.854	224.69
403.078	241.69
403.302	238.69
403.526	252.69
403.75	254.69
403.974	250.69
404.198	246.69
404.422	266.69
404.645	261.69
404.869	270.69
405.093	285.69
405.317	273.69
405.541	312.69
405.765	269.69
405.988	275.69
406.212	287.69
406.436	299.69
406.66	293.69
406.883	280.69
407.107	278.69
407.331	323.69
407.555	330.69
407.778	325.69
408.002	304.69
408.226	266.69
408.449	290.69
408.673	261.69
408.896	286.69
409.12	299.69
409.344	280.69
409.567	259.69
409.791	255.69
410.014	234.69
410.238	244.69
410.461	266.69
410.685	252.69
410.908	245.69
411.132	294.69
411.355	293.69
411.578	276.69
411.802	260.69
412.025	256.69
412.249	260.69
412.472	264.69
412.695	287.69
412.919	265.69
413.142	267.69
413.365	256.69
413.589	248.69
413.812	243.69
414.035	257.69
414.258	236.69
414.482	237.69
414.705	240.69
414.928	255.69
415.151	270.69
415.374	244.69
415.597	233.69
415.821	237.69
416.044	252.69
416.267	237.69
416.49	234.69
416.713	234.69
416.936	239.69
417.159	244.69
417.382	226.69
417.605	259.69
417.828	264.69
418.051	261.69
418.274	245.69
418.497	248.69
418.72	232.69
418.943	243.69
419.166	239.69
419.389	241.69
419.611	245.69
419.834	258.69
420.057	262.69
420.28	249.69
420.503	241.69
420.726	252.69
420.948	253.69
421.171	269.69
421.394	268.69
421.617	253.69
421.839	235.69
422.062	257.69
422.285	249.69
422.507	276.69
422.73	298.69
422.953	301.69
423.175	284.69
423.398	258.69
423.621	267.69
423.843	259.69
424.066	255.69
424.288	258.69
424.511	270.69
424.733	311.69
424.956	322.69
425.178	318.69
425.401	319.69
425.623	309.69
425.846	280.69
426.068	260.69
426.291	268.69
426.513	278.69
426.735	269.69
426.958	291.69
427.18	337.69
427.402	372.69
427.625	417.69
427.847	356.69
428.069	327.69
428.292	286.69
428.514	263.69
428.736	256.69
428.958	264.69
429.181	234.69
429.403	257.69
429.625	246.69
429.847	263.69
430.069	289.69
430.292	284.69
430.514	262.69
430.736	224.69
430.958	240.69
431.18	237.69
431.402	248.69
431.624	235.69
431.846	231.69
432.068	231.69
432.29	222.69
432.512	233.69
432.734	241.69
432.956	229.69
433.178	257.69
433.4	247.69
433.622	259.69
433.844	228.69
434.066	242.69
434.287	224.69
434.509	220.69
434.731	256.69
434.953	255.69
435.175	265.69
435.397	271.69
435.618	267.69
435.84	291.69
436.062	319.69
436.284	327.69
436.505	278.69
436.727	246.69
436.949	248.69
437.17	251.69
437.392	237.69
437.614	265.69
437.835	285.69
438.057	299.69
438.278	356.69
438.5	357.69
438.721	378.69
438.943	352.69
439.165	293.69
439.386	259.69
439.608	278.69
439.829	282.69
440.05	290.69
440.272	323.69
440.493	287.69
440.715	247.69
440.936	256.69
441.158	235.69
441.379	241.69
441.6	271.69
441.822	272.69
442.043	287.69
442.264	315.69
442.486	324.69
442.707	287.69
442.928	293.69
443.149	285.69
443.371	319.69
443.592	319.69
443.813	331.69
444.034	347.69
444.255	292.69
444.476	252.69
444.698	279.69
444.919	273.69
445.14	347.69
445.361	315.69
445.582	298.69
445.803	308.69
446.024	387.69
446.245	370.69
446.466	331.69
446.687	285.69
446.908	274.69
447.129	265.69
447.35	250.69
447.571	254.69
447.792	249.69
448.013	255.69
448.234	275.69
448.455	280.69
448.675	346.69
448.896	339.69
449.117	307.69
449.338	300.69
449.559	351.69
449.779	373.69
450	311.69
450.221	263.69
450.442	254.69
450.662	233.69
450.883	243.69
451.104	263.69
451.324	252.69
451.545	231.69
451.766	235.69
451.986	226.69
452.207	232.69
452.428	210.69
452.648	237.69
452.869	215.69
453.089	248.69
453.31	219.69
453.53	223.69
453.751	213.69
453.971	231.69
454.192	230.69
454.412	232.69
454.633	236.69
454.853	225.69
455.073	224.69
455.294	246.69
455.514	267.69
455.734	251.69
455.955	214.69
456.175	201.69
456.395	216.69
456.616	217.69
456.836	209.69
457.056	215.69
457.276	221.69
457.497	193.69
457.717	223.69
457.937	225.69
458.157	200.69
458.377	230.69
458.598	259.69
458.818	275.69
459.038	319.69
459.258	304.69
459.478	252.69
459.698	246.69
459.918	252.69
460.138	229.69
460.358	238.69
460.578	228.69
460.798	242.69
461.018	241.69
461.238	223.69
461.458	253.69
461.678	234.69
461.898	242.69
462.118	218.69
462.338	234.69
462.558	260.69
462.777	247.69
462.997	248.69
463.217	263.69
463.437	250.69
463.657	261.69
463.876	240.69
464.096	250.69
464.316	244.69
464.536	247.69
464.755	243.69
464.975	273.69
465.195	289.69
465.414	354.69
465.634	261.69
465.854	260.69
466.073	264.69
466.293	240.69
466.512	231.69
466.732	223.69
466.951	235.69
467.171	234.69
467.391	246.69
467.61	240.69
467.829	249.69
468.049	249.69
468.268	238.69
468.488	225.69
468.707	250.69
468.927	217.69
469.146	230.69
469.365	220.69
469.585	216.69
469.804	224.69
470.023	267.69
470.243	236.69
470.462	253.69
470.681	261.69
470.901	256.69
471.12	232.69
471.339	235.69
471.558	230.69
471.777	240.69
471.997	230.69
472.216	259.69
472.435	285.69
472.654	274.69
472.873	235.69
473.092	258.69
473.311	222.69
473.53	215.69
473.749	236.69
473.968	261.69
474.187	330.69
474.406	332.69
474.625	265.69
474.844	231.69
475.063	253.69
475.282	232.69
475.501	230.69
475.72	243.69
475.939	250.69
476.158	241.69
476.377	229.69
476.596	234.69
476.814	227.69
477.033	250.69
477.252	237.69
477.471	246.69
477.69	250.69
477.908	241.69
478.127	236.69
478.346	234.69
478.564	256.69
478.783	251.69
479.002	269.69
479.22	252.69
479.439	266.69
479.658	267.69
479.876	278.69
480.095	287.69
480.313	291.69
480.532	274.69
480.751	273.69
480.969	289.69
481.188	362.69
481.406	369.69
481.624	303.69
481.843	265.69
482.061	285.69
482.28	278.69
482.498	273.69
482.717	258.69
482.935	260.69
483.153	269.69
483.372	273.69
483.59	284.69
483.808	275.69
484.027	268.69
484.245	269.69
484.463	283.69
484.681	268.69
484.9	282.69
485.118	274.69
485.336	291.69
485.554	284.69
485.772	288.69
485.99	275.69
486.209	281.69
486.427	287.69
486.645	301.69
486.863	297.69
487.081	296.69
487.299	288.69
487.517	267.69
487.735	292.69
487.953	293.69
488.171	297.69
488.389	272.69
488.607	282.69
488.825	291.69
489.043	295.69
489.261	295.69
489.479	300.69
489.696	284.69
489.914	317.69
490.132	309.69
490.35	290.69
490.568	291.69
490.786	300.69
491.003	312.69
491.221	317.69
491.439	332.69
491.657	332.69
491.874	345.69
492.092	333.69
492.31	357.69
492.527	340.69
492.745	325.69
492.963	341.69
493.18	344.69
493.398	349.69
493.615	339.69
493.833	351.69
494.05	341.69
494.268	354.69
494.485	331.69
494.703	348.69
494.92	348.69
495.138	337.69
495.355	339.69
495.573	311.69
495.79	330.69
496.008	361.69
496.225	350.69
496.442	363.69
496.66	343.69
496.877	330.69
497.094	343.69
497.312	317.69
497.529	351.69
497.746	334.69
497.963	347.69
498.181	368.69
498.398	335.69
498.615	374.69
498.832	364.69
499.049	368.69
499.267	379.69
499.484	377.69
499.701	373.69
499.918	382.69
500.135	410.69
500.352	427.69
500.569	451.69
500.786	434.69
501.003	446.69
501.22	417.69
501.437	422.69
501.654	415.69
501.871	398.69
502.088	376.69
502.305	378.69
502.522	373.69
502.739	360.69
