Data from 1966.PennyLincolnUp.Lamp.En5.5.200Scan.071719.P1.Scan2.head_HRD10591_14-17-52-142.txt Node
Date: Thu Jul 18 14:17:52 EDT 2019
User: cochatt
Spectrometer: HR+D1059
Trigger mode: 1
Integration Time (sec): 1.000000E-1
Scans to average: 1
Electric dark correction enabled: true
Nonlinearity correction enabled: false
Boxcar width: 0
XAxis mode: Wavelengths
Number of Pixels in Spectrum: 2048
>>>>>Begin Spectral Data<<<<<
223.165	-2.88
223.4	-2.88
223.635	-2.88
223.869	-27.88
224.104	-20.88
224.338	-15.88
224.573	-8.88
224.808	-13.88
225.042	-18.88
225.277	-6.88
225.511	-1.88
225.746	8.12
225.98	0.12
226.215	20.12
226.449	23.12
226.683	31.12
226.918	17.12
227.152	18.12
227.387	44.12
227.621	45.12
227.856	49.12
228.09	53.12
228.324	72.12
228.559	54.12
228.793	75.12
229.027	100.12
229.262	120.12
229.496	120.12
229.73	141.12
229.964	156.12
230.199	128.12
230.433	125.12
230.667	100.12
230.901	120.12
231.136	115.12
231.37	118.12
231.604	136.12
231.838	130.12
232.072	125.12
232.306	121.12
232.541	110.12
232.775	111.12
233.009	126.12
233.243	111.12
233.477	132.12
233.711	121.12
233.945	119.12
234.179	114.12
234.413	123.12
234.647	108.12
234.881	121.12
235.115	116.12
235.349	128.12
235.583	124.12
235.817	125.12
236.051	132.12
236.285	129.12
236.519	134.12
236.753	132.12
236.987	157.12
237.221	180.12
237.455	239.12
237.689	172.12
237.922	140.12
238.156	130.12
238.39	129.12
238.624	124.12
238.858	134.12
239.091	128.12
239.325	120.12
239.559	137.12
239.793	129.12
240.027	143.12
240.26	141.12
240.494	160.12
240.728	146.12
240.961	161.12
241.195	142.12
241.429	129.12
241.662	140.12
241.896	149.12
242.13	143.12
242.363	142.12
242.597	128.12
242.83	148.12
243.064	142.12
243.298	145.12
243.531	147.12
243.765	139.12
243.998	143.12
244.232	149.12
244.465	144.12
244.699	150.12
244.932	155.12
245.166	149.12
245.399	162.12
245.633	160.12
245.866	163.12
246.099	172.12
246.333	157.12
246.566	159.12
246.8	155.12
247.033	161.12
247.266	164.12
247.5	170.12
247.733	165.12
247.966	184.12
248.2	185.12
248.433	167.12
248.666	176.12
248.899	178.12
249.133	208.12
249.366	215.12
249.599	196.12
249.832	205.12
250.066	191.12
250.299	205.12
250.532	198.12
250.765	203.12
250.998	219.12
251.231	232.12
251.465	204.12
251.698	211.12
251.931	200.12
252.164	219.12
252.397	220.12
252.63	204.12
252.863	225.12
253.096	223.12
253.329	246.12
253.562	232.12
253.795	219.12
254.028	218.12
254.261	215.12
254.494	238.12
254.727	254.12
254.96	293.12
255.193	268.12
255.426	246.12
255.659	242.12
255.892	222.12
256.124	229.12
256.357	227.12
256.59	235.12
256.823	228.12
257.056	216.12
257.289	208.12
257.521	204.12
257.754	212.12
257.987	214.12
258.22	212.12
258.452	220.12
258.685	208.12
258.918	223.12
259.151	203.12
259.383	203.12
259.616	237.12
259.849	223.12
260.081	223.12
260.314	255.12
260.547	272.12
260.779	235.12
261.012	242.12
261.244	227.12
261.477	227.12
261.71	232.12
261.942	230.12
262.175	239.12
262.407	236.12
262.64	225.12
262.872	224.12
263.105	216.12
263.337	220.12
263.57	233.12
263.802	208.12
264.035	207.12
264.267	217.12
264.499	212.12
264.732	220.12
264.964	219.12
265.197	225.12
265.429	212.12
265.661	220.12
265.894	229.12
266.126	221.12
266.358	220.12
266.591	235.12
266.823	219.12
267.055	239.12
267.287	248.12
267.52	226.12
267.752	236.12
267.984	239.12
268.216	240.12
268.448	255.12
268.681	237.12
268.913	245.12
269.145	256.12
269.377	268.12
269.609	275.12
269.841	273.12
270.073	276.12
270.306	294.12
270.538	310.12
270.77	314.12
271.002	304.12
271.234	296.12
271.466	306.12
271.698	311.12
271.93	331.12
272.162	306.12
272.394	317.12
272.626	296.12
272.858	304.12
273.09	284.12
273.322	257.12
273.553	266.12
273.785	255.12
274.017	260.12
274.249	268.12
274.481	273.12
274.713	275.12
274.945	282.12
275.176	273.12
275.408	282.12
275.64	284.12
275.872	267.12
276.104	256.12
276.335	278.12
276.567	292.12
276.799	281.12
277.031	312.12
277.262	316.12
277.494	326.12
277.726	309.12
277.957	284.12
278.189	300.12
278.421	289.12
278.652	271.12
278.884	282.12
279.115	270.12
279.347	272.12
279.579	266.12
279.81	278.12
280.042	273.12
280.273	277.12
280.505	271.12
280.736	269.12
280.968	257.12
281.199	293.12
281.431	262.12
281.662	287.12
281.894	277.12
282.125	274.12
282.356	298.12
282.588	291.12
282.819	318.12
283.051	292.12
283.282	280.12
283.513	289.12
283.745	301.12
283.976	268.12
284.207	275.12
284.439	270.12
284.67	290.12
284.901	282.12
285.132	290.12
285.364	305.12
285.595	303.12
285.826	293.12
286.057	269.12
286.288	290.12
286.52	308.12
286.751	298.12
286.982	289.12
287.213	300.12
287.444	278.12
287.675	299.12
287.906	316.12
288.138	323.12
288.369	296.12
288.6	307.12
288.831	291.12
289.062	298.12
289.293	323.12
289.524	286.12
289.755	302.12
289.986	303.12
290.217	292.12
290.448	300.12
290.679	301.12
290.91	305.12
291.141	286.12
291.371	298.12
291.602	293.12
291.833	288.12
292.064	288.12
292.295	296.12
292.526	313.12
292.757	318.12
292.987	278.12
293.218	292.12
293.449	305.12
293.68	299.12
293.91	294.12
294.141	314.12
294.372	308.12
294.603	300.12
294.833	307.12
295.064	290.12
295.295	279.12
295.525	325.12
295.756	314.12
295.987	322.12
296.217	333.12
296.448	320.12
296.679	304.12
296.909	295.12
297.14	316.12
297.37	297.12
297.601	289.12
297.831	309.12
298.062	331.12
298.292	320.12
298.523	318.12
298.753	326.12
298.984	321.12
299.214	313.12
299.445	303.12
299.675	332.12
299.905	331.12
300.136	319.12
300.366	304.12
300.597	308.12
300.827	338.12
301.057	319.12
301.288	332.12
301.518	330.12
301.748	342.12
301.979	336.12
302.209	326.12
302.439	339.12
302.669	346.12
302.9	336.12
303.13	341.12
303.36	320.12
303.59	328.12
303.82	325.12
304.051	346.12
304.281	362.12
304.511	330.12
304.741	323.12
304.971	310.12
305.201	321.12
305.431	333.12
305.661	345.12
305.891	322.12
306.121	339.12
306.352	346.12
306.582	337.12
306.812	333.12
307.042	349.12
307.272	353.12
307.502	336.12
307.731	342.12
307.961	329.12
308.191	321.12
308.421	340.12
308.651	354.12
308.881	371.12
309.111	346.12
309.341	342.12
309.571	353.12
309.8	359.12
310.03	378.12
310.26	371.12
310.49	364.12
310.72	378.12
310.949	385.12
311.179	393.12
311.409	378.12
311.639	389.12
311.868	397.12
312.098	406.12
312.328	398.12
312.557	414.12
312.787	419.12
313.017	409.12
313.246	397.12
313.476	407.12
313.706	398.12
313.935	392.12
314.165	388.12
314.394	394.12
314.624	419.12
314.853	390.12
315.083	392.12
315.312	376.12
315.542	368.12
315.771	386.12
316.001	392.12
316.23	365.12
316.46	367.12
316.689	396.12
316.919	368.12
317.148	418.12
317.377	390.12
317.607	412.12
317.836	382.12
318.065	380.12
318.295	398.12
318.524	378.12
318.753	392.12
318.983	379.12
319.212	398.12
319.441	379.12
319.67	402.12
319.9	396.12
320.129	389.12
320.358	404.12
320.587	388.12
320.816	409.12
321.046	402.12
321.275	396.12
321.504	397.12
321.733	416.12
321.962	410.12
322.191	422.12
322.42	435.12
322.649	434.12
322.878	442.12
323.108	452.12
323.337	485.12
323.566	493.12
323.795	518.12
324.024	574.12
324.253	652.12
324.482	912.12
324.71	1470.12
324.939	2114.12
325.168	1870.12
325.397	938.12
325.626	648.12
325.855	545.12
326.084	531.12
326.313	477.12
326.542	500.12
326.77	532.12
326.999	635.12
327.228	850.12
327.457	1278.12
327.686	1603.12
327.914	1054.12
328.143	696.12
328.372	605.12
328.6	576.12
328.829	537.12
329.058	559.12
329.287	572.12
329.515	540.12
329.744	510.12
329.972	498.12
330.201	524.12
330.43	587.12
330.658	568.12
330.887	605.12
331.115	601.12
331.344	539.12
331.572	488.12
331.801	497.12
332.03	499.12
332.258	468.12
332.486	461.12
332.715	473.12
332.943	464.12
333.172	470.12
333.4	462.12
333.629	496.12
333.857	491.12
334.085	512.12
334.314	516.12
334.542	530.12
334.771	571.12
334.999	549.12
335.227	494.12
335.455	490.12
335.684	475.12
335.912	467.12
336.14	472.12
336.369	446.12
336.597	481.12
336.825	464.12
337.053	485.12
337.281	457.12
337.51	441.12
337.738	455.12
337.966	465.12
338.194	467.12
338.422	452.12
338.65	459.12
338.878	472.12
339.106	449.12
339.334	430.12
339.562	444.12
339.79	440.12
340.018	450.12
340.246	458.12
340.474	472.12
340.702	454.12
340.93	437.12
341.158	428.12
341.386	445.12
341.614	440.12
341.842	474.12
342.07	445.12
342.298	444.12
342.526	433.12
342.754	415.12
342.981	427.12
343.209	431.12
343.437	462.12
343.665	458.12
343.893	448.12
344.12	440.12
344.348	466.12
344.576	438.12
344.804	467.12
345.031	467.12
345.259	472.12
345.487	472.12
345.714	452.12
345.942	440.12
346.17	438.12
346.397	433.12
346.625	420.12
346.853	428.12
347.08	442.12
347.308	401.12
347.535	452.12
347.763	456.12
347.99	449.12
348.218	433.12
348.445	451.12
348.673	440.12
348.9	454.12
349.128	438.12
349.355	427.12
349.583	442.12
349.81	430.12
350.037	428.12
350.265	414.12
350.492	425.12
350.72	420.12
350.947	424.12
351.174	441.12
351.402	450.12
351.629	435.12
351.856	454.12
352.083	448.12
352.311	452.12
352.538	452.12
352.765	442.12
352.992	433.12
353.22	437.12
353.447	438.12
353.674	426.12
353.901	410.12
354.128	423.12
354.355	421.12
354.583	423.12
354.81	422.12
355.037	421.12
355.264	421.12
355.491	408.12
355.718	415.12
355.945	404.12
356.172	418.12
356.399	400.12
356.626	388.12
356.853	416.12
357.08	418.12
357.307	398.12
357.534	410.12
357.761	433.12
357.988	419.12
358.215	414.12
358.441	413.12
358.668	412.12
358.895	421.12
359.122	433.12
359.349	425.12
359.576	434.12
359.802	468.12
360.029	454.12
360.256	467.12
360.483	457.12
360.709	468.12
360.936	464.12
361.163	463.12
361.39	468.12
361.616	448.12
361.843	437.12
362.07	428.12
362.296	456.12
362.523	441.12
362.749	443.12
362.976	421.12
363.203	431.12
363.429	432.12
363.656	432.12
363.882	431.12
364.109	407.12
364.335	412.12
364.562	438.12
364.788	419.12
365.015	418.12
365.241	420.12
365.468	445.12
365.694	432.12
365.92	424.12
366.147	431.12
366.373	445.12
366.599	412.12
366.826	426.12
367.052	424.12
367.278	410.12
367.505	423.12
367.731	418.12
367.957	427.12
368.184	420.12
368.41	444.12
368.636	436.12
368.862	444.12
369.089	447.12
369.315	424.12
369.541	451.12
369.767	432.12
369.993	416.12
370.219	453.12
370.445	417.12
370.672	426.12
370.898	440.12
371.124	443.12
371.35	443.12
371.576	440.12
371.802	421.12
372.028	407.12
372.254	429.12
372.48	446.12
372.706	425.12
372.932	446.12
373.158	440.12
373.384	453.12
373.61	440.12
373.835	436.12
374.061	438.12
374.287	437.12
374.513	446.12
374.739	450.12
374.965	453.12
375.191	438.12
375.416	454.12
375.642	445.12
375.868	459.12
376.094	434.12
376.319	424.12
376.545	435.12
376.771	452.12
376.997	434.12
377.222	440.12
377.448	448.12
377.674	432.12
377.899	461.12
378.125	423.12
378.35	425.12
378.576	437.12
378.802	432.12
379.027	445.12
379.253	432.12
379.478	418.12
379.704	445.12
379.929	435.12
380.155	450.12
380.38	437.12
380.606	453.12
380.831	424.12
381.057	422.12
381.282	444.12
381.507	430.12
381.733	450.12
381.958	442.12
382.184	431.12
382.409	432.12
382.634	444.12
382.86	460.12
383.085	457.12
383.31	459.12
383.535	458.12
383.761	469.12
383.986	446.12
384.211	468.12
384.436	463.12
384.662	496.12
384.887	469.12
385.112	456.12
385.337	474.12
385.562	480.12
385.787	491.12
386.013	483.12
386.238	477.12
386.463	476.12
386.688	487.12
386.913	489.12
387.138	478.12
387.363	481.12
387.588	470.12
387.813	470.12
388.038	477.12
388.263	476.12
388.488	461.12
388.713	492.12
388.938	486.12
389.163	498.12
389.387	508.12
389.612	471.12
389.837	476.12
390.062	493.12
390.287	470.12
390.512	481.12
390.736	475.12
390.961	496.12
391.186	504.12
391.411	478.12
391.636	484.12
391.86	497.12
392.085	526.12
392.31	495.12
392.534	504.12
392.759	505.12
392.984	504.12
393.208	492.12
393.433	515.12
393.658	498.12
393.882	476.12
394.107	480.12
394.331	493.12
394.556	482.12
394.78	501.12
395.005	504.12
395.229	483.12
395.454	505.12
395.678	512.12
395.903	516.12
396.127	554.12
396.352	517.12
396.576	512.12
396.801	504.12
397.025	512.12
397.249	523.12
397.474	515.12
397.698	521.12
397.922	550.12
398.147	541.12
398.371	573.12
398.595	530.12
398.82	550.12
399.044	586.12
399.268	590.12
399.492	609.12
399.717	654.12
399.941	685.12
400.165	691.12
400.389	693.12
400.613	649.12
400.837	610.12
401.062	574.12
401.286	577.12
401.51	578.12
401.734	576.12
401.958	580.12
402.182	592.12
402.406	568.12
402.63	587.12
402.854	589.12
403.078	578.12
403.302	576.12
403.526	589.12
403.75	584.12
403.974	572.12
404.198	586.12
404.422	589.12
404.645	604.12
404.869	611.12
405.093	632.12
405.317	656.12
405.541	693.12
405.765	676.12
405.988	617.12
406.212	610.12
406.436	647.12
406.66	643.12
406.883	635.12
407.107	674.12
407.331	699.12
407.555	764.12
407.778	787.12
408.002	718.12
408.226	645.12
408.449	660.12
408.673	644.12
408.896	675.12
409.12	720.12
409.344	667.12
409.567	615.12
409.791	604.12
410.014	614.12
410.238	590.12
410.461	599.12
410.685	585.12
410.908	612.12
411.132	639.12
411.355	678.12
411.578	656.12
411.802	613.12
412.025	576.12
412.249	608.12
412.472	618.12
412.695	652.12
412.919	642.12
413.142	609.12
413.365	579.12
413.589	582.12
413.812	542.12
414.035	560.12
414.258	547.12
414.482	568.12
414.705	562.12
414.928	572.12
415.151	570.12
415.374	549.12
415.597	540.12
415.821	533.12
416.044	553.12
416.267	548.12
416.49	533.12
416.713	552.12
416.936	544.12
417.159	572.12
417.382	565.12
417.605	549.12
417.828	568.12
418.051	580.12
418.274	601.12
418.497	572.12
418.72	570.12
418.943	548.12
419.166	568.12
419.389	598.12
419.611	611.12
419.834	603.12
420.057	609.12
420.28	594.12
420.503	581.12
420.726	594.12
420.948	572.12
421.171	621.12
421.394	668.12
421.617	584.12
421.839	595.12
422.062	576.12
422.285	595.12
422.507	677.12
422.73	749.12
422.953	737.12
423.175	643.12
423.398	601.12
423.621	605.12
423.843	635.12
424.066	634.12
424.288	623.12
424.511	619.12
424.733	714.12
424.956	762.12
425.178	751.12
425.401	724.12
425.623	782.12
425.846	666.12
426.068	639.12
426.291	592.12
426.513	618.12
426.735	629.12
426.958	680.12
427.18	746.12
427.402	905.12
427.625	997.12
427.847	841.12
428.069	740.12
428.292	686.12
428.514	620.12
428.736	586.12
428.958	577.12
429.181	576.12
429.403	562.12
429.625	591.12
429.847	622.12
430.069	681.12
430.292	652.12
430.514	610.12
430.736	572.12
430.958	565.12
431.18	530.12
431.402	546.12
431.624	545.12
431.846	548.12
432.068	531.12
432.29	534.12
432.512	540.12
432.734	560.12
432.956	558.12
433.178	555.12
433.4	554.12
433.622	545.12
433.844	548.12
434.066	543.12
434.287	529.12
434.509	545.12
434.731	545.12
434.953	574.12
435.175	594.12
435.397	608.12
435.618	627.12
435.84	663.12
436.062	741.12
436.284	824.12
436.505	709.12
436.727	636.12
436.949	584.12
437.17	588.12
437.392	552.12
437.614	588.12
437.835	625.12
438.057	714.12
438.278	824.12
438.5	818.12
438.721	898.12
438.943	893.12
439.165	698.12
439.386	646.12
439.608	650.12
439.829	620.12
440.05	669.12
440.272	677.12
440.493	630.12
440.715	645.12
440.936	609.12
441.158	597.12
441.379	590.12
441.6	617.12
441.822	619.12
442.043	646.12
442.264	767.12
442.486	800.12
442.707	689.12
442.928	640.12
443.149	619.12
443.371	671.12
443.592	701.12
443.813	830.12
444.034	884.12
444.255	722.12
444.476	662.12
444.698	641.12
444.919	629.12
445.14	699.12
445.361	659.12
445.582	643.12
445.803	740.12
446.024	833.12
446.245	838.12
446.466	784.12
446.687	686.12
446.908	625.12
447.129	592.12
447.35	590.12
447.571	566.12
447.792	542.12
448.013	557.12
448.234	584.12
448.455	630.12
448.675	770.12
448.896	917.12
449.117	738.12
449.338	717.12
449.559	818.12
449.779	957.12
450	746.12
450.221	626.12
450.442	595.12
450.662	581.12
450.883	571.12
451.104	582.12
451.324	553.12
451.545	526.12
451.766	525.12
451.986	501.12
452.207	525.12
452.428	520.12
452.648	530.12
452.869	514.12
453.089	534.12
453.31	522.12
453.53	513.12
453.751	527.12
453.971	542.12
454.192	544.12
454.412	510.12
454.633	491.12
454.853	516.12
455.073	504.12
455.294	556.12
455.514	598.12
455.734	593.12
455.955	516.12
456.175	489.12
456.395	470.12
456.616	462.12
456.836	492.12
457.056	488.12
457.276	482.12
457.497	478.12
457.717	463.12
457.937	480.12
458.157	504.12
458.377	509.12
458.598	550.12
458.818	619.12
459.038	668.12
459.258	715.12
459.478	602.12
459.698	557.12
459.918	550.12
460.138	547.12
460.358	537.12
460.578	562.12
460.798	572.12
461.018	562.12
461.238	554.12
461.458	561.12
461.678	554.12
461.898	586.12
462.118	570.12
462.338	570.12
462.558	595.12
462.777	580.12
462.997	603.12
463.217	640.12
463.437	646.12
463.657	616.12
463.876	598.12
464.096	626.12
464.316	606.12
464.536	590.12
464.755	627.12
464.975	612.12
465.195	627.12
465.414	689.12
465.634	642.12
465.854	614.12
466.073	570.12
466.293	560.12
466.512	538.12
466.732	501.12
466.951	524.12
467.171	508.12
467.391	536.12
467.61	525.12
467.829	570.12
468.049	536.12
468.268	534.12
468.488	536.12
468.707	506.12
468.927	518.12
469.146	506.12
469.365	525.12
469.585	487.12
469.804	528.12
470.023	553.12
470.243	540.12
470.462	551.12
470.681	538.12
470.901	556.12
471.12	527.12
471.339	540.12
471.558	548.12
471.777	550.12
471.997	521.12
472.216	535.12
472.435	570.12
472.654	572.12
472.873	542.12
473.092	525.12
473.311	528.12
473.53	535.12
473.749	557.12
473.968	558.12
474.187	689.12
474.406	721.12
474.625	604.12
474.844	558.12
475.063	553.12
475.282	550.12
475.501	548.12
475.72	544.12
475.939	552.12
476.158	556.12
476.377	574.12
476.596	578.12
476.814	571.12
477.033	590.12
477.252	587.12
477.471	586.12
477.69	558.12
477.908	581.12
478.127	590.12
478.346	589.12
478.564	608.12
478.783	605.12
479.002	621.12
479.22	610.12
479.439	636.12
479.658	638.12
479.876	645.12
480.095	665.12
480.313	683.12
480.532	654.12
480.751	677.12
480.969	690.12
481.188	736.12
481.406	773.12
481.624	706.12
481.843	668.12
482.061	658.12
482.28	630.12
482.498	643.12
482.717	628.12
482.935	612.12
483.153	643.12
483.372	644.12
483.59	612.12
483.808	620.12
484.027	627.12
484.245	633.12
484.463	648.12
484.681	660.12
484.9	669.12
485.118	652.12
485.336	635.12
485.554	677.12
485.772	640.12
485.99	660.12
486.209	665.12
486.427	670.12
486.645	653.12
486.863	686.12
487.081	690.12
487.299	681.12
487.517	686.12
487.735	667.12
487.953	660.12
488.171	686.12
488.389	672.12
488.607	705.12
488.825	675.12
489.043	685.12
489.261	700.12
489.479	673.12
489.696	672.12
489.914	715.12
490.132	703.12
490.35	717.12
490.568	709.12
490.786	732.12
491.003	708.12
491.221	751.12
491.439	765.12
491.657	757.12
491.874	757.12
492.092	773.12
492.31	745.12
492.527	796.12
492.745	786.12
492.963	794.12
493.18	808.12
493.398	826.12
493.615	802.12
493.833	818.12
494.05	781.12
494.268	830.12
494.485	790.12
494.703	797.12
494.92	783.12
495.138	810.12
495.355	796.12
495.573	824.12
495.79	817.12
496.008	810.12
496.225	795.12
496.442	791.12
496.66	786.12
496.877	806.12
497.094	811.12
497.312	824.12
497.529	824.12
497.746	858.12
497.963	881.12
498.181	876.12
498.398	898.12
498.615	908.12
498.832	921.12
499.049	926.12
499.267	949.12
499.484	978.12
499.701	1033.12
499.918	1070.12
500.135	1110.12
500.352	1168.12
500.569	1164.12
500.786	1184.12
501.003	1166.12
501.22	1118.12
501.437	1094.12
501.654	1066.12
