Data from 1966.PennyLincolnUp.Lamp.En5.5.200Scan.071719.P1.Scan2.head_HRD10591_14-16-35-040.txt Node
Date: Thu Jul 18 14:16:35 EDT 2019
User: cochatt
Spectrometer: HR+D1059
Trigger mode: 1
Integration Time (sec): 1.000000E-1
Scans to average: 1
Electric dark correction enabled: true
Nonlinearity correction enabled: false
Boxcar width: 0
XAxis mode: Wavelengths
Number of Pixels in Spectrum: 2048
>>>>>Begin Spectral Data<<<<<
223.165	-18.25
223.4	-18.25
223.635	-18.25
223.869	-27.25
224.104	-14.25
224.338	-24.25
224.573	-14.25
224.808	-14.25
225.042	1.75
225.277	-21.25
225.511	4.75
225.746	14.75
225.98	5.75
226.215	2.75
226.449	22.75
226.683	17.75
226.918	27.75
227.152	35.75
227.387	31.75
227.621	41.75
227.856	45.75
228.09	54.75
228.324	58.75
228.559	64.75
228.793	87.75
229.027	96.75
229.262	88.75
229.496	96.75
229.73	125.75
229.964	127.75
230.199	108.75
230.433	105.75
230.667	105.75
230.901	114.75
231.136	109.75
231.37	108.75
231.604	114.75
231.838	102.75
232.072	105.75
232.306	81.75
232.541	118.75
232.775	119.75
233.009	106.75
233.243	102.75
233.477	104.75
233.711	102.75
233.945	106.75
234.179	114.75
234.413	122.75
234.647	122.75
234.881	126.75
235.115	127.75
235.349	100.75
235.583	121.75
235.817	115.75
236.051	107.75
236.285	124.75
236.519	112.75
236.753	108.75
236.987	144.75
237.221	146.75
237.455	197.75
237.689	156.75
237.922	120.75
238.156	136.75
238.39	116.75
238.624	117.75
238.858	111.75
239.091	114.75
239.325	113.75
239.559	122.75
239.793	117.75
240.027	111.75
240.26	136.75
240.494	129.75
240.728	132.75
240.961	121.75
241.195	129.75
241.429	122.75
241.662	121.75
241.896	122.75
242.13	127.75
242.363	128.75
242.597	124.75
242.83	128.75
243.064	144.75
243.298	125.75
243.531	125.75
243.765	136.75
243.998	114.75
244.232	139.75
244.465	145.75
244.699	136.75
244.932	137.75
245.166	140.75
245.399	135.75
245.633	142.75
245.866	156.75
246.099	136.75
246.333	138.75
246.566	151.75
246.8	158.75
247.033	134.75
247.266	147.75
247.5	150.75
247.733	160.75
247.966	144.75
248.2	170.75
248.433	173.75
248.666	164.75
248.899	158.75
249.133	186.75
249.366	186.75
249.599	176.75
249.832	169.75
250.066	158.75
250.299	164.75
250.532	169.75
250.765	176.75
250.998	176.75
251.231	196.75
251.465	193.75
251.698	177.75
251.931	167.75
252.164	166.75
252.397	193.75
252.63	196.75
252.863	179.75
253.096	167.75
253.329	191.75
253.562	182.75
253.795	192.75
254.028	186.75
254.261	172.75
254.494	190.75
254.727	222.75
254.96	218.75
255.193	226.75
255.426	204.75
255.659	204.75
255.892	206.75
256.124	204.75
256.357	202.75
256.59	217.75
256.823	193.75
257.056	190.75
257.289	193.75
257.521	208.75
257.754	188.75
257.987	184.75
258.22	179.75
258.452	192.75
258.685	181.75
258.918	192.75
259.151	184.75
259.383	201.75
259.616	200.75
259.849	197.75
260.081	207.75
260.314	206.75
260.547	225.75
260.779	192.75
261.012	208.75
261.244	193.75
261.477	188.75
261.71	196.75
261.942	175.75
262.175	184.75
262.407	191.75
262.64	183.75
262.872	197.75
263.105	191.75
263.337	194.75
263.57	183.75
263.802	190.75
264.035	190.75
264.267	187.75
264.499	183.75
264.732	190.75
264.964	200.75
265.197	197.75
265.429	200.75
265.661	197.75
265.894	192.75
266.126	188.75
266.358	204.75
266.591	184.75
266.823	196.75
267.055	197.75
267.287	202.75
267.52	216.75
267.752	212.75
267.984	204.75
268.216	217.75
268.448	216.75
268.681	204.75
268.913	215.75
269.145	239.75
269.377	231.75
269.609	236.75
269.841	229.75
270.073	212.75
270.306	240.75
270.538	263.75
270.77	257.75
271.002	260.75
271.234	246.75
271.466	260.75
271.698	260.75
271.93	275.75
272.162	271.75
272.394	266.75
272.626	251.75
272.858	241.75
273.09	231.75
273.322	226.75
273.553	225.75
273.785	245.75
274.017	232.75
274.249	228.75
274.481	229.75
274.713	241.75
274.945	214.75
275.176	220.75
275.408	231.75
275.64	235.75
275.872	224.75
276.104	237.75
276.335	231.75
276.567	234.75
276.799	252.75
277.031	245.75
277.262	266.75
277.494	281.75
277.726	269.75
277.957	260.75
278.189	241.75
278.421	241.75
278.652	226.75
278.884	224.75
279.115	245.75
279.347	251.75
279.579	241.75
279.81	228.75
280.042	241.75
280.273	248.75
280.505	244.75
280.736	248.75
280.968	230.75
281.199	232.75
281.431	236.75
281.662	253.75
281.894	258.75
282.125	246.75
282.356	268.75
282.588	270.75
282.819	284.75
283.051	260.75
283.282	238.75
283.513	255.75
283.745	236.75
283.976	246.75
284.207	240.75
284.439	265.75
284.67	244.75
284.901	247.75
285.132	263.75
285.364	249.75
285.595	245.75
285.826	262.75
286.057	264.75
286.288	245.75
286.52	257.75
286.751	236.75
286.982	248.75
287.213	246.75
287.444	249.75
287.675	247.75
287.906	269.75
288.138	254.75
288.369	273.75
288.6	269.75
288.831	269.75
289.062	269.75
289.293	271.75
289.524	273.75
289.755	268.75
289.986	267.75
290.217	260.75
290.448	249.75
290.679	276.75
290.91	268.75
291.141	272.75
291.371	245.75
291.602	245.75
291.833	271.75
292.064	276.75
292.295	280.75
292.526	267.75
292.757	264.75
292.987	250.75
293.218	246.75
293.449	246.75
293.68	283.75
293.91	280.75
294.141	262.75
294.372	273.75
294.603	253.75
294.833	266.75
295.064	261.75
295.295	287.75
295.525	265.75
295.756	273.75
295.987	261.75
296.217	290.75
296.448	285.75
296.679	270.75
296.909	271.75
297.14	278.75
297.37	286.75
297.601	274.75
297.831	260.75
298.062	279.75
298.292	282.75
298.523	308.75
298.753	270.75
298.984	300.75
299.214	289.75
299.445	275.75
299.675	280.75
299.905	292.75
300.136	284.75
300.366	290.75
300.597	290.75
300.827	300.75
301.057	288.75
301.288	300.75
301.518	302.75
301.748	294.75
301.979	290.75
302.209	293.75
302.439	286.75
302.669	292.75
302.9	300.75
303.13	265.75
303.36	302.75
303.59	300.75
303.82	307.75
304.051	293.75
304.281	296.75
304.511	295.75
304.741	303.75
304.971	293.75
305.201	292.75
305.431	300.75
305.661	322.75
305.891	300.75
306.121	307.75
306.352	297.75
306.582	299.75
306.812	297.75
307.042	300.75
307.272	309.75
307.502	306.75
307.731	305.75
307.961	304.75
308.191	289.75
308.421	296.75
308.651	288.75
308.881	308.75
309.111	285.75
309.341	311.75
309.571	305.75
309.8	312.75
310.03	316.75
310.26	331.75
310.49	312.75
310.72	312.75
310.949	330.75
311.179	324.75
311.409	320.75
311.639	327.75
311.868	344.75
312.098	328.75
312.328	319.75
312.557	335.75
312.787	345.75
313.017	338.75
313.246	331.75
313.476	328.75
313.706	309.75
313.935	344.75
314.165	354.75
314.394	335.75
314.624	334.75
314.853	351.75
315.083	347.75
315.312	332.75
315.542	323.75
315.771	323.75
316.001	324.75
316.23	344.75
316.46	310.75
316.689	332.75
316.919	331.75
317.148	356.75
317.377	353.75
317.607	349.75
317.836	324.75
318.065	340.75
318.295	328.75
318.524	350.75
318.753	340.75
318.983	338.75
319.212	322.75
319.441	337.75
319.67	345.75
319.9	328.75
320.129	320.75
320.358	321.75
320.587	342.75
320.816	335.75
321.046	362.75
321.275	330.75
321.504	348.75
321.733	353.75
321.962	351.75
322.191	366.75
322.42	374.75
322.649	372.75
322.878	386.75
323.108	385.75
323.337	389.75
323.566	398.75
323.795	398.75
324.024	439.75
324.253	518.75
324.482	674.75
324.71	1044.75
324.939	1563.75
325.168	1345.75
325.397	696.75
325.626	470.75
325.855	426.75
326.084	409.75
326.313	406.75
326.542	417.75
326.77	446.75
326.999	470.75
327.228	662.75
327.457	972.75
327.686	1192.75
327.914	797.75
328.143	511.75
328.372	484.75
328.6	457.75
328.829	433.75
329.058	440.75
329.287	450.75
329.515	444.75
329.744	431.75
329.972	394.75
330.201	433.75
330.43	450.75
330.658	463.75
330.887	457.75
331.115	470.75
331.344	422.75
331.572	419.75
331.801	411.75
332.03	421.75
332.258	398.75
332.486	397.75
332.715	379.75
332.943	386.75
333.172	403.75
333.4	400.75
333.629	410.75
333.857	431.75
334.085	433.75
334.314	431.75
334.542	446.75
334.771	477.75
334.999	425.75
335.227	413.75
335.455	408.75
335.684	396.75
335.912	391.75
336.14	392.75
336.369	414.75
336.597	401.75
336.825	404.75
337.053	396.75
337.281	388.75
337.51	397.75
337.738	401.75
337.966	394.75
338.194	383.75
338.422	390.75
338.65	385.75
338.878	386.75
339.106	400.75
339.334	367.75
339.562	410.75
339.79	390.75
340.018	373.75
340.246	382.75
340.474	394.75
340.702	395.75
340.93	385.75
341.158	394.75
341.386	391.75
341.614	378.75
341.842	396.75
342.07	374.75
342.298	388.75
342.526	396.75
342.754	378.75
342.981	368.75
343.209	376.75
343.437	391.75
343.665	398.75
343.893	403.75
344.12	396.75
344.348	403.75
344.576	404.75
344.804	404.75
345.031	399.75
345.259	413.75
345.487	400.75
345.714	383.75
345.942	388.75
346.17	398.75
346.397	375.75
346.625	384.75
346.853	370.75
347.08	390.75
347.308	376.75
347.535	380.75
347.763	388.75
347.99	389.75
348.218	368.75
348.445	372.75
348.673	378.75
348.9	384.75
349.128	395.75
349.355	388.75
349.583	380.75
349.81	357.75
350.037	406.75
350.265	381.75
350.492	365.75
350.72	359.75
350.947	369.75
351.174	364.75
351.402	396.75
351.629	380.75
351.856	378.75
352.083	384.75
352.311	390.75
352.538	385.75
352.765	404.75
352.992	386.75
353.22	388.75
353.447	367.75
353.674	376.75
353.901	378.75
354.128	377.75
354.355	368.75
354.583	362.75
354.81	369.75
355.037	374.75
355.264	361.75
355.491	353.75
355.718	375.75
355.945	354.75
356.172	349.75
356.399	362.75
356.626	354.75
356.853	349.75
357.08	378.75
357.307	344.75
357.534	352.75
357.761	369.75
357.988	372.75
358.215	364.75
358.441	362.75
358.668	381.75
358.895	380.75
359.122	373.75
359.349	378.75
359.576	370.75
359.802	404.75
360.029	388.75
360.256	392.75
360.483	414.75
360.709	377.75
360.936	382.75
361.163	397.75
361.39	373.75
361.616	378.75
361.843	376.75
362.07	379.75
362.296	389.75
362.523	378.75
362.749	385.75
362.976	360.75
363.203	380.75
363.429	389.75
363.656	394.75
363.882	375.75
364.109	362.75
364.335	361.75
364.562	382.75
364.788	358.75
365.015	378.75
365.241	374.75
365.468	376.75
365.694	385.75
365.92	363.75
366.147	376.75
366.373	378.75
366.599	391.75
366.826	380.75
367.052	355.75
367.278	376.75
367.505	361.75
367.731	380.75
367.957	364.75
368.184	357.75
368.41	382.75
368.636	385.75
368.862	386.75
369.089	386.75
369.315	386.75
369.541	391.75
369.767	416.75
369.993	375.75
370.219	405.75
370.445	397.75
370.672	373.75
370.898	384.75
371.124	380.75
371.35	389.75
371.576	378.75
371.802	396.75
372.028	381.75
372.254	381.75
372.48	377.75
372.706	382.75
372.932	397.75
373.158	393.75
373.384	403.75
373.61	391.75
373.835	411.75
374.061	395.75
374.287	392.75
374.513	400.75
374.739	398.75
374.965	402.75
375.191	408.75
375.416	386.75
375.642	396.75
375.868	381.75
376.094	387.75
376.319	400.75
376.545	366.75
376.771	394.75
376.997	392.75
377.222	406.75
377.448	384.75
377.674	395.75
377.899	389.75
378.125	389.75
378.35	386.75
378.576	371.75
378.802	372.75
379.027	396.75
379.253	388.75
379.478	399.75
379.704	383.75
379.929	419.75
380.155	390.75
380.38	371.75
380.606	399.75
380.831	390.75
381.057	406.75
381.282	402.75
381.507	406.75
381.733	401.75
381.958	396.75
382.184	406.75
382.409	395.75
382.634	400.75
382.86	415.75
383.085	403.75
383.31	408.75
383.535	415.75
383.761	429.75
383.986	422.75
384.211	401.75
384.436	433.75
384.662	432.75
384.887	420.75
385.112	421.75
385.337	419.75
385.562	412.75
385.787	420.75
386.013	444.75
386.238	453.75
386.463	464.75
386.688	438.75
386.913	421.75
387.138	441.75
387.363	451.75
387.588	431.75
387.813	444.75
388.038	445.75
388.263	443.75
388.488	437.75
388.713	430.75
388.938	445.75
389.163	450.75
389.387	445.75
389.612	440.75
389.837	428.75
390.062	445.75
390.287	443.75
390.512	440.75
390.736	448.75
390.961	427.75
391.186	448.75
391.411	446.75
391.636	445.75
391.86	465.75
392.085	453.75
392.31	445.75
392.534	450.75
392.759	458.75
392.984	461.75
393.208	448.75
393.433	473.75
393.658	501.75
393.882	441.75
394.107	458.75
394.331	438.75
394.556	440.75
394.78	420.75
395.005	444.75
395.229	460.75
395.454	471.75
395.678	431.75
395.903	470.75
396.127	484.75
396.352	483.75
396.576	483.75
396.801	459.75
397.025	477.75
397.249	469.75
397.474	464.75
397.698	458.75
397.922	465.75
398.147	502.75
398.371	505.75
398.595	475.75
398.82	507.75
399.044	501.75
399.268	540.75
399.492	555.75
399.717	601.75
399.941	612.75
400.165	627.75
400.389	624.75
400.613	550.75
400.837	528.75
401.062	520.75
401.286	525.75
401.51	522.75
401.734	488.75
401.958	519.75
402.182	500.75
402.406	514.75
402.63	526.75
402.854	530.75
403.078	526.75
403.302	508.75
403.526	506.75
403.75	529.75
403.974	527.75
404.198	525.75
404.422	543.75
404.645	550.75
404.869	529.75
405.093	558.75
405.317	580.75
405.541	626.75
405.765	574.75
405.988	540.75
406.212	551.75
406.436	557.75
406.66	608.75
406.883	561.75
407.107	587.75
407.331	621.75
407.555	665.75
407.778	678.75
408.002	644.75
408.226	581.75
408.449	580.75
408.673	579.75
408.896	606.75
409.12	641.75
409.344	585.75
409.567	543.75
409.791	534.75
410.014	543.75
410.238	517.75
410.461	516.75
410.685	536.75
410.908	519.75
411.132	585.75
411.355	605.75
411.578	594.75
411.802	529.75
412.025	523.75
412.249	517.75
412.472	576.75
412.695	572.75
412.919	538.75
413.142	549.75
413.365	536.75
413.589	529.75
413.812	495.75
414.035	506.75
414.258	474.75
414.482	511.75
414.705	500.75
414.928	511.75
415.151	495.75
415.374	521.75
415.597	489.75
415.821	481.75
416.044	514.75
416.267	492.75
416.49	500.75
416.713	500.75
416.936	483.75
417.159	502.75
417.382	494.75
417.605	480.75
417.828	520.75
418.051	515.75
418.274	525.75
418.497	501.75
418.72	508.75
418.943	477.75
419.166	514.75
419.389	565.75
419.611	548.75
419.834	536.75
420.057	533.75
420.28	542.75
420.503	505.75
420.726	520.75
420.948	545.75
421.171	566.75
421.394	577.75
421.617	531.75
421.839	536.75
422.062	528.75
422.285	520.75
422.507	564.75
422.73	639.75
422.953	620.75
423.175	562.75
423.398	525.75
423.621	517.75
423.843	561.75
424.066	543.75
424.288	545.75
424.511	562.75
424.733	617.75
424.956	694.75
425.178	648.75
425.401	656.75
425.623	665.75
425.846	585.75
426.068	551.75
426.291	540.75
426.513	536.75
426.735	553.75
426.958	586.75
427.18	653.75
427.402	784.75
427.625	860.75
427.847	719.75
428.069	646.75
428.292	566.75
428.514	536.75
428.736	523.75
428.958	525.75
429.181	512.75
429.403	490.75
429.625	497.75
429.847	534.75
430.069	620.75
430.292	582.75
430.514	506.75
430.736	503.75
430.958	504.75
431.18	489.75
431.402	491.75
431.624	484.75
431.846	496.75
432.068	450.75
432.29	500.75
432.512	513.75
432.734	482.75
432.956	494.75
433.178	496.75
433.4	495.75
433.622	501.75
433.844	487.75
434.066	507.75
434.287	477.75
434.509	481.75
434.731	495.75
434.953	503.75
435.175	510.75
435.397	527.75
435.618	552.75
435.84	575.75
436.062	659.75
436.284	721.75
436.505	608.75
436.727	556.75
436.949	514.75
437.17	520.75
437.392	506.75
437.614	520.75
437.835	540.75
438.057	622.75
438.278	704.75
438.5	718.75
438.721	787.75
438.943	770.75
439.165	609.75
439.386	565.75
439.608	527.75
439.829	547.75
440.05	558.75
440.272	597.75
440.493	566.75
440.715	526.75
440.936	541.75
441.158	518.75
441.379	522.75
441.6	530.75
441.822	545.75
442.043	574.75
442.264	658.75
442.486	686.75
442.707	582.75
442.928	545.75
443.149	545.75
443.371	589.75
443.592	594.75
443.813	701.75
444.034	763.75
444.255	621.75
444.476	586.75
444.698	551.75
444.919	560.75
445.14	641.75
445.361	597.75
445.582	604.75
445.803	630.75
446.024	709.75
446.245	720.75
446.466	673.75
446.687	577.75
446.908	533.75
447.129	489.75
447.35	513.75
447.571	513.75
447.792	508.75
448.013	497.75
448.234	525.75
448.455	562.75
448.675	659.75
448.896	766.75
449.117	648.75
449.338	598.75
449.559	712.75
449.779	816.75
450	652.75
450.221	542.75
450.442	493.75
450.662	500.75
450.883	471.75
451.104	504.75
451.324	488.75
451.545	477.75
451.766	480.75
451.986	445.75
452.207	464.75
452.428	457.75
452.648	459.75
452.869	442.75
453.089	443.75
453.31	444.75
453.53	470.75
453.751	447.75
453.971	438.75
454.192	484.75
454.412	467.75
454.633	420.75
454.853	442.75
455.073	449.75
455.294	460.75
455.514	537.75
455.734	526.75
455.955	454.75
456.175	469.75
456.395	429.75
456.616	420.75
456.836	444.75
457.056	440.75
457.276	426.75
457.497	426.75
457.717	445.75
457.937	433.75
458.157	445.75
458.377	430.75
458.598	464.75
458.818	508.75
459.038	587.75
459.258	592.75
459.478	517.75
459.698	494.75
459.918	498.75
460.138	470.75
460.358	523.75
460.578	495.75
460.798	504.75
461.018	505.75
461.238	509.75
461.458	526.75
461.678	494.75
461.898	507.75
462.118	502.75
462.338	530.75
462.558	528.75
462.777	553.75
462.997	550.75
463.217	550.75
463.437	573.75
463.657	549.75
463.876	543.75
464.096	549.75
464.316	548.75
464.536	545.75
464.755	556.75
464.975	532.75
465.195	543.75
465.414	585.75
465.634	543.75
465.854	504.75
466.073	503.75
466.293	491.75
466.512	470.75
466.732	485.75
466.951	485.75
467.171	474.75
467.391	487.75
467.61	491.75
467.829	479.75
468.049	485.75
468.268	471.75
468.488	453.75
468.707	468.75
468.927	465.75
469.146	478.75
469.365	448.75
469.585	474.75
469.804	464.75
470.023	481.75
470.243	479.75
470.462	471.75
470.681	487.75
470.901	501.75
471.12	461.75
471.339	471.75
471.558	479.75
471.777	485.75
471.997	462.75
472.216	489.75
472.435	497.75
472.654	481.75
472.873	475.75
473.092	479.75
473.311	480.75
473.53	478.75
473.749	495.75
473.968	505.75
474.187	591.75
474.406	618.75
474.625	533.75
474.844	494.75
475.063	488.75
475.282	495.75
475.501	466.75
475.72	493.75
475.939	501.75
476.158	500.75
476.377	470.75
476.596	502.75
476.814	493.75
477.033	508.75
477.252	516.75
477.471	520.75
477.69	490.75
477.908	522.75
478.127	540.75
478.346	524.75
478.564	526.75
478.783	521.75
479.002	544.75
479.22	559.75
479.439	577.75
479.658	550.75
479.876	566.75
480.095	573.75
480.313	600.75
480.532	618.75
480.751	594.75
480.969	576.75
481.188	615.75
481.406	645.75
481.624	590.75
481.843	590.75
482.061	566.75
482.28	578.75
482.498	584.75
482.717	594.75
482.935	576.75
483.153	580.75
483.372	573.75
483.59	586.75
483.808	572.75
484.027	576.75
484.245	565.75
484.463	582.75
484.681	578.75
484.9	582.75
485.118	576.75
485.336	576.75
485.554	561.75
485.772	584.75
485.99	568.75
486.209	566.75
486.427	591.75
486.645	592.75
486.863	589.75
487.081	605.75
487.299	597.75
487.517	600.75
487.735	592.75
487.953	603.75
488.171	571.75
488.389	594.75
488.607	604.75
488.825	613.75
489.043	610.75
489.261	620.75
489.479	621.75
489.696	613.75
489.914	598.75
490.132	621.75
490.35	623.75
490.568	609.75
490.786	620.75
491.003	638.75
491.221	640.75
491.439	667.75
491.657	646.75
491.874	680.75
492.092	681.75
492.31	671.75
492.527	668.75
492.745	694.75
492.963	685.75
493.18	666.75
493.398	702.75
493.615	698.75
493.833	712.75
494.05	702.75
494.268	694.75
494.485	677.75
494.703	687.75
494.92	692.75
495.138	720.75
495.355	710.75
495.573	682.75
495.79	703.75
496.008	722.75
496.225	694.75
496.442	697.75
496.66	725.75
496.877	704.75
497.094	712.75
497.312	730.75
497.529	733.75
497.746	727.75
497.963	777.75
498.181	777.75
498.398	784.75
498.615	787.75
498.832	812.75
499.049	833.75
499.267	860.75
499.484	886.75
499.701	922.75
499.918	979.75
500.135	1008.75
500.352	1044.75
500.569	1078.75
500.786	1050.75
501.003	1052.75
501.22	1026.75
501.437	1021.75
501.654	934.75
501.871	924.75
