Data from 1966.PennyLincolnUp.Lamp.En5.5.200Scan.071719.P1.Scan2.head_HRD10591_14-19-19-258.txt Node
Date: Thu Jul 18 14:19:19 EDT 2019
User: cochatt
Spectrometer: HR+D1059
Trigger mode: 1
Integration Time (sec): 1.000000E-1
Scans to average: 1
Electric dark correction enabled: true
Nonlinearity correction enabled: false
Boxcar width: 0
XAxis mode: Wavelengths
Number of Pixels in Spectrum: 2048
>>>>>Begin Spectral Data<<<<<
223.165	-7.38
223.4	-7.38
223.635	-7.38
223.869	-20.38
224.104	-18.38
224.338	-13.38
224.573	-10.38
224.808	-5.38
225.042	2.62
225.277	-1.38
225.511	-8.38
225.746	2.62
225.98	7.62
226.215	13.62
226.449	-1.38
226.683	9.62
226.918	27.62
227.152	22.62
227.387	25.62
227.621	34.62
227.856	45.62
228.09	44.62
228.324	48.62
228.559	44.62
228.793	67.62
229.027	95.62
229.262	98.62
229.496	115.62
229.73	124.62
229.964	140.62
230.199	143.62
230.433	109.62
230.667	122.62
230.901	120.62
231.136	118.62
231.37	123.62
231.604	127.62
231.838	130.62
232.072	125.62
232.306	130.62
232.541	103.62
232.775	126.62
233.009	118.62
233.243	112.62
233.477	110.62
233.711	115.62
233.945	122.62
234.179	103.62
234.413	127.62
234.647	124.62
234.881	119.62
235.115	112.62
235.349	113.62
235.583	123.62
235.817	113.62
236.051	127.62
236.285	129.62
236.519	110.62
236.753	128.62
236.987	152.62
237.221	173.62
237.455	242.62
237.689	201.62
237.922	146.62
238.156	130.62
238.39	135.62
238.624	124.62
238.858	138.62
239.091	132.62
239.325	125.62
239.559	134.62
239.793	120.62
240.027	140.62
240.26	141.62
240.494	167.62
240.728	154.62
240.961	165.62
241.195	155.62
241.429	141.62
241.662	131.62
241.896	141.62
242.13	159.62
242.363	145.62
242.597	126.62
242.83	149.62
243.064	137.62
243.298	142.62
243.531	123.62
243.765	137.62
243.998	142.62
244.232	145.62
244.465	146.62
244.699	143.62
244.932	154.62
245.166	158.62
245.399	131.62
245.633	148.62
245.866	146.62
246.099	153.62
246.333	148.62
246.566	149.62
246.8	149.62
247.033	171.62
247.266	179.62
247.5	170.62
247.733	173.62
247.966	170.62
248.2	181.62
248.433	178.62
248.666	166.62
248.899	185.62
249.133	212.62
249.366	212.62
249.599	194.62
249.832	190.62
250.066	198.62
250.299	184.62
250.532	204.62
250.765	214.62
250.998	219.62
251.231	237.62
251.465	225.62
251.698	217.62
251.931	230.62
252.164	209.62
252.397	200.62
252.63	209.62
252.863	206.62
253.096	221.62
253.329	240.62
253.562	229.62
253.795	221.62
254.028	236.62
254.261	228.62
254.494	229.62
254.727	264.62
254.96	295.62
255.193	301.62
255.426	248.62
255.659	226.62
255.892	250.62
256.124	247.62
256.357	240.62
256.59	247.62
256.823	221.62
257.056	234.62
257.289	216.62
257.521	222.62
257.754	229.62
257.987	211.62
258.22	214.62
258.452	209.62
258.685	227.62
258.918	215.62
259.151	206.62
259.383	230.62
259.616	228.62
259.849	236.62
260.081	240.62
260.314	260.62
260.547	275.62
260.779	233.62
261.012	248.62
261.244	233.62
261.477	222.62
261.71	217.62
261.942	239.62
262.175	243.62
262.407	235.62
262.64	226.62
262.872	229.62
263.105	224.62
263.337	222.62
263.57	235.62
263.802	227.62
264.035	220.62
264.267	215.62
264.499	216.62
264.732	217.62
264.964	212.62
265.197	236.62
265.429	226.62
265.661	219.62
265.894	230.62
266.126	218.62
266.358	207.62
266.591	228.62
266.823	236.62
267.055	242.62
267.287	248.62
267.52	223.62
267.752	228.62
267.984	219.62
268.216	226.62
268.448	235.62
268.681	237.62
268.913	261.62
269.145	270.62
269.377	286.62
269.609	295.62
269.841	270.62
270.073	265.62
270.306	295.62
270.538	318.62
270.77	321.62
271.002	343.62
271.234	303.62
271.466	318.62
271.698	315.62
271.93	308.62
272.162	332.62
272.394	333.62
272.626	308.62
272.858	300.62
273.09	301.62
273.322	299.62
273.553	256.62
273.785	281.62
274.017	281.62
274.249	269.62
274.481	253.62
274.713	271.62
274.945	268.62
275.176	258.62
275.408	260.62
275.64	282.62
275.872	259.62
276.104	266.62
276.335	276.62
276.567	292.62
276.799	288.62
277.031	319.62
277.262	313.62
277.494	317.62
277.726	325.62
277.957	296.62
278.189	286.62
278.421	288.62
278.652	279.62
278.884	286.62
279.115	282.62
279.347	268.62
279.579	283.62
279.81	271.62
280.042	285.62
280.273	277.62
280.505	266.62
280.736	270.62
280.968	273.62
281.199	277.62
281.431	281.62
281.662	289.62
281.894	293.62
282.125	273.62
282.356	292.62
282.588	317.62
282.819	299.62
283.051	280.62
283.282	292.62
283.513	306.62
283.745	302.62
283.976	304.62
284.207	294.62
284.439	283.62
284.67	270.62
284.901	271.62
285.132	297.62
285.364	277.62
285.595	298.62
285.826	285.62
286.057	290.62
286.288	298.62
286.52	285.62
286.751	296.62
286.982	283.62
287.213	282.62
287.444	289.62
287.675	301.62
287.906	333.62
288.138	304.62
288.369	306.62
288.6	332.62
288.831	320.62
289.062	313.62
289.293	294.62
289.524	296.62
289.755	309.62
289.986	288.62
290.217	322.62
290.448	305.62
290.679	304.62
290.91	296.62
291.141	283.62
291.371	304.62
291.602	290.62
291.833	296.62
292.064	300.62
292.295	308.62
292.526	311.62
292.757	305.62
292.987	299.62
293.218	283.62
293.449	301.62
293.68	305.62
293.91	290.62
294.141	274.62
294.372	307.62
294.603	300.62
294.833	308.62
295.064	292.62
295.295	308.62
295.525	300.62
295.756	330.62
295.987	306.62
296.217	316.62
296.448	340.62
296.679	323.62
296.909	297.62
297.14	294.62
297.37	313.62
297.601	309.62
297.831	308.62
298.062	308.62
298.292	317.62
298.523	322.62
298.753	325.62
298.984	304.62
299.214	329.62
299.445	321.62
299.675	338.62
299.905	326.62
300.136	329.62
300.366	315.62
300.597	326.62
300.827	334.62
301.057	312.62
301.288	333.62
301.518	325.62
301.748	328.62
301.979	342.62
302.209	331.62
302.439	342.62
302.669	344.62
302.9	337.62
303.13	315.62
303.36	334.62
303.59	352.62
303.82	349.62
304.051	364.62
304.281	337.62
304.511	356.62
304.741	351.62
304.971	344.62
305.201	340.62
305.431	349.62
305.661	345.62
305.891	334.62
306.121	333.62
306.352	330.62
306.582	357.62
306.812	343.62
307.042	357.62
307.272	351.62
307.502	354.62
307.731	345.62
307.961	344.62
308.191	353.62
308.421	338.62
308.651	350.62
308.881	359.62
309.111	359.62
309.341	364.62
309.571	345.62
309.8	374.62
310.03	388.62
310.26	402.62
310.49	369.62
310.72	398.62
310.949	391.62
311.179	416.62
311.409	388.62
311.639	394.62
311.868	374.62
312.098	383.62
312.328	388.62
312.557	410.62
312.787	408.62
313.017	413.62
313.246	407.62
313.476	405.62
313.706	394.62
313.935	384.62
314.165	409.62
314.394	416.62
314.624	410.62
314.853	403.62
315.083	390.62
315.312	410.62
315.542	396.62
315.771	380.62
316.001	369.62
316.23	377.62
316.46	395.62
316.689	402.62
316.919	384.62
317.148	397.62
317.377	398.62
317.607	386.62
317.836	384.62
318.065	395.62
318.295	397.62
318.524	387.62
318.753	381.62
318.983	391.62
319.212	395.62
319.441	381.62
319.67	394.62
319.9	408.62
320.129	404.62
320.358	394.62
320.587	406.62
320.816	417.62
321.046	397.62
321.275	421.62
321.504	402.62
321.733	398.62
321.962	419.62
322.191	439.62
322.42	437.62
322.649	451.62
322.878	447.62
323.108	474.62
323.337	507.62
323.566	536.62
323.795	539.62
324.024	580.62
324.253	709.62
324.482	994.62
324.71	1532.62
324.939	2346.62
325.168	2003.62
325.397	999.62
325.626	643.62
325.855	552.62
326.084	522.62
326.313	518.62
326.542	518.62
326.77	571.62
326.999	675.62
327.228	889.62
327.457	1376.62
327.686	1734.62
327.914	1146.62
328.143	756.62
328.372	670.62
328.6	614.62
328.829	592.62
329.058	584.62
329.287	609.62
329.515	570.62
329.744	553.62
329.972	525.62
330.201	554.62
330.43	599.62
330.658	601.62
330.887	617.62
331.115	615.62
331.344	544.62
331.572	513.62
331.801	498.62
332.03	511.62
332.258	499.62
332.486	485.62
332.715	483.62
332.943	467.62
333.172	492.62
333.4	494.62
333.629	496.62
333.857	512.62
334.085	506.62
334.314	556.62
334.542	565.62
334.771	577.62
334.999	553.62
335.227	507.62
335.455	492.62
335.684	485.62
335.912	482.62
336.14	466.62
336.369	474.62
336.597	482.62
336.825	496.62
337.053	463.62
337.281	477.62
337.51	457.62
337.738	464.62
337.966	461.62
338.194	466.62
338.422	458.62
338.65	483.62
338.878	471.62
339.106	438.62
339.334	472.62
339.562	468.62
339.79	459.62
340.018	470.62
340.246	450.62
340.474	470.62
340.702	458.62
340.93	449.62
341.158	455.62
341.386	462.62
341.614	440.62
341.842	457.62
342.07	426.62
342.298	442.62
342.526	435.62
342.754	441.62
342.981	445.62
343.209	445.62
343.437	445.62
343.665	465.62
343.893	472.62
344.12	477.62
344.348	461.62
344.576	460.62
344.804	475.62
345.031	468.62
345.259	471.62
345.487	472.62
345.714	455.62
345.942	465.62
346.17	445.62
346.397	453.62
346.625	422.62
346.853	427.62
347.08	446.62
347.308	445.62
347.535	457.62
347.763	473.62
347.99	474.62
348.218	454.62
348.445	456.62
348.673	463.62
348.9	449.62
349.128	441.62
349.355	427.62
349.583	428.62
349.81	421.62
350.037	415.62
350.265	435.62
350.492	425.62
350.72	443.62
350.947	447.62
351.174	457.62
351.402	453.62
351.629	461.62
351.856	435.62
352.083	449.62
352.311	477.62
352.538	477.62
352.765	475.62
352.992	461.62
353.22	447.62
353.447	445.62
353.674	437.62
353.901	426.62
354.128	441.62
354.355	428.62
354.583	420.62
354.81	429.62
355.037	437.62
355.264	424.62
355.491	432.62
355.718	401.62
355.945	407.62
356.172	436.62
356.399	423.62
356.626	406.62
356.853	425.62
357.08	412.62
357.307	418.62
357.534	417.62
357.761	409.62
357.988	427.62
358.215	426.62
358.441	427.62
358.668	426.62
358.895	410.62
359.122	432.62
359.349	450.62
359.576	457.62
359.802	475.62
360.029	512.62
360.256	505.62
360.483	490.62
360.709	434.62
360.936	454.62
361.163	458.62
361.39	436.62
361.616	451.62
361.843	458.62
362.07	450.62
362.296	458.62
362.523	433.62
362.749	441.62
362.976	435.62
363.203	458.62
363.429	421.62
363.656	433.62
363.882	433.62
364.109	428.62
364.335	414.62
364.562	430.62
364.788	428.62
365.015	430.62
365.241	427.62
365.468	429.62
365.694	454.62
365.92	453.62
366.147	436.62
366.373	443.62
366.599	434.62
366.826	417.62
367.052	421.62
367.278	440.62
367.505	417.62
367.731	429.62
367.957	452.62
368.184	434.62
368.41	440.62
368.636	439.62
368.862	451.62
369.089	457.62
369.315	460.62
369.541	425.62
369.767	440.62
369.993	436.62
370.219	433.62
370.445	443.62
370.672	417.62
370.898	436.62
371.124	438.62
371.35	407.62
371.576	430.62
371.802	440.62
372.028	444.62
372.254	437.62
372.48	440.62
372.706	440.62
372.932	434.62
373.158	428.62
373.384	463.62
373.61	449.62
373.835	441.62
374.061	434.62
374.287	432.62
374.513	458.62
374.739	459.62
374.965	465.62
375.191	465.62
375.416	458.62
375.642	452.62
375.868	451.62
376.094	449.62
376.319	433.62
376.545	442.62
376.771	450.62
376.997	445.62
377.222	436.62
377.448	437.62
377.674	438.62
377.899	429.62
378.125	442.62
378.35	441.62
378.576	434.62
378.802	429.62
379.027	437.62
379.253	435.62
379.478	424.62
379.704	443.62
379.929	439.62
380.155	445.62
380.38	430.62
380.606	441.62
380.831	420.62
381.057	440.62
381.282	455.62
381.507	455.62
381.733	429.62
381.958	445.62
382.184	450.62
382.409	445.62
382.634	447.62
382.86	459.62
383.085	453.62
383.31	489.62
383.535	462.62
383.761	467.62
383.986	454.62
384.211	466.62
384.436	468.62
384.662	476.62
384.887	475.62
385.112	458.62
385.337	473.62
385.562	483.62
385.787	490.62
386.013	503.62
386.238	490.62
386.463	495.62
386.688	488.62
386.913	476.62
387.138	472.62
387.363	497.62
387.588	506.62
387.813	490.62
388.038	498.62
388.263	491.62
388.488	482.62
388.713	483.62
388.938	500.62
389.163	507.62
389.387	506.62
389.612	492.62
389.837	486.62
390.062	462.62
390.287	489.62
390.512	455.62
390.736	490.62
390.961	514.62
391.186	493.62
391.411	489.62
391.636	494.62
391.86	508.62
392.085	500.62
392.31	514.62
392.534	523.62
392.759	497.62
392.984	497.62
393.208	497.62
393.433	491.62
393.658	505.62
393.882	512.62
394.107	521.62
394.331	504.62
394.556	514.62
394.78	534.62
395.005	504.62
395.229	485.62
395.454	510.62
395.678	508.62
395.903	521.62
396.127	553.62
396.352	576.62
396.576	531.62
396.801	540.62
397.025	530.62
397.249	495.62
397.474	516.62
397.698	521.62
397.922	548.62
398.147	573.62
398.371	560.62
398.595	571.62
398.82	566.62
399.044	582.62
399.268	581.62
399.492	642.62
399.717	676.62
399.941	682.62
400.165	707.62
400.389	713.62
400.613	659.62
400.837	619.62
401.062	578.62
401.286	579.62
401.51	577.62
401.734	566.62
401.958	560.62
402.182	571.62
402.406	571.62
402.63	598.62
402.854	581.62
403.078	597.62
403.302	586.62
403.526	588.62
403.75	580.62
403.974	600.62
404.198	588.62
404.422	612.62
404.645	619.62
404.869	605.62
405.093	626.62
405.317	685.62
405.541	735.62
405.765	664.62
405.988	626.62
406.212	632.62
406.436	648.62
406.66	639.62
406.883	619.62
407.107	674.62
407.331	707.62
407.555	791.62
407.778	768.62
408.002	714.62
408.226	664.62
408.449	644.62
408.673	647.62
408.896	688.62
409.12	740.62
409.344	706.62
409.567	623.62
409.791	581.62
410.014	610.62
410.238	610.62
410.461	623.62
410.685	618.62
410.908	597.62
411.132	639.62
411.355	681.62
411.578	658.62
411.802	632.62
412.025	606.62
412.249	601.62
412.472	627.62
412.695	681.62
412.919	674.62
413.142	630.62
413.365	584.62
413.589	576.62
413.812	565.62
414.035	578.62
414.258	575.62
414.482	581.62
414.705	558.62
414.928	555.62
415.151	557.62
415.374	588.62
415.597	576.62
415.821	552.62
416.044	578.62
416.267	581.62
416.49	549.62
416.713	540.62
416.936	544.62
417.159	554.62
417.382	569.62
417.605	577.62
417.828	586.62
418.051	574.62
418.274	577.62
418.497	579.62
418.72	572.62
418.943	553.62
419.166	602.62
419.389	601.62
419.611	609.62
419.834	584.62
420.057	592.62
420.28	616.62
420.503	598.62
420.726	616.62
420.948	599.62
421.171	651.62
421.394	688.62
421.617	625.62
421.839	588.62
422.062	604.62
422.285	586.62
422.507	673.62
422.73	784.62
422.953	727.62
423.175	642.62
423.398	600.62
423.621	599.62
423.843	642.62
424.066	646.62
424.288	636.62
424.511	653.62
424.733	700.62
424.956	806.62
425.178	793.62
425.401	765.62
425.623	818.62
425.846	679.62
426.068	648.62
426.291	602.62
426.513	616.62
426.735	658.62
426.958	704.62
427.18	760.62
427.402	940.62
427.625	1021.62
427.847	900.62
428.069	756.62
428.292	688.62
428.514	654.62
428.736	618.62
428.958	602.62
429.181	591.62
429.403	595.62
429.625	588.62
429.847	630.62
430.069	707.62
430.292	676.62
430.514	627.62
430.736	595.62
430.958	600.62
431.18	568.62
431.402	561.62
431.624	565.62
431.846	537.62
432.068	553.62
432.29	562.62
432.512	557.62
432.734	570.62
432.956	577.62
433.178	583.62
433.4	587.62
433.622	577.62
433.844	570.62
434.066	528.62
434.287	581.62
434.509	560.62
434.731	597.62
434.953	593.62
435.175	585.62
435.397	613.62
435.618	652.62
435.84	688.62
436.062	791.62
436.284	871.62
436.505	722.62
436.727	676.62
436.949	625.62
437.17	585.62
437.392	577.62
437.614	604.62
437.835	660.62
438.057	748.62
438.278	882.62
438.5	886.62
438.721	955.62
438.943	896.62
439.165	710.62
439.386	642.62
439.608	634.62
439.829	645.62
440.05	699.62
440.272	711.62
440.493	672.62
440.715	632.62
440.936	612.62
441.158	584.62
441.379	595.62
441.6	622.62
441.822	629.62
442.043	686.62
442.264	781.62
442.486	831.62
442.707	708.62
442.928	672.62
443.149	652.62
443.371	679.62
443.592	739.62
443.813	844.62
444.034	895.62
444.255	758.62
444.476	690.62
444.698	657.62
444.919	640.62
445.14	743.62
445.361	713.62
445.582	725.62
445.803	758.62
446.024	886.62
446.245	891.62
446.466	800.62
446.687	698.62
446.908	632.62
447.129	610.62
447.35	606.62
447.571	584.62
447.792	571.62
448.013	587.62
448.234	585.62
448.455	662.62
448.675	814.62
448.896	937.62
449.117	764.62
449.338	719.62
449.559	860.62
449.779	977.62
450	772.62
450.221	625.62
450.442	594.62
450.662	588.62
450.883	559.62
451.104	591.62
451.324	595.62
451.545	548.62
451.766	544.62
451.986	541.62
452.207	524.62
452.428	518.62
452.648	531.62
452.869	534.62
453.089	542.62
453.31	545.62
453.53	545.62
453.751	523.62
453.971	526.62
454.192	552.62
454.412	555.62
454.633	523.62
454.853	521.62
455.073	534.62
455.294	547.62
455.514	629.62
455.734	602.62
455.955	520.62
456.175	522.62
456.395	487.62
456.616	491.62
456.836	514.62
457.056	501.62
457.276	500.62
457.497	500.62
457.717	485.62
457.937	512.62
458.157	516.62
458.377	527.62
458.598	546.62
458.818	618.62
459.038	695.62
459.258	729.62
459.478	597.62
459.698	558.62
459.918	541.62
460.138	562.62
460.358	572.62
460.578	595.62
460.798	579.62
461.018	597.62
461.238	545.62
461.458	564.62
461.678	554.62
461.898	581.62
462.118	577.62
462.338	596.62
462.558	580.62
462.777	580.62
462.997	611.62
463.217	615.62
463.437	630.62
463.657	622.62
463.876	609.62
464.096	611.62
464.316	624.62
464.536	617.62
464.755	605.62
464.975	615.62
465.195	640.62
465.414	732.62
465.634	672.62
465.854	592.62
466.073	565.62
466.293	577.62
466.512	546.62
466.732	520.62
466.951	518.62
467.171	541.62
467.391	556.62
467.61	560.62
467.829	570.62
468.049	556.62
468.268	541.62
468.488	522.62
468.707	544.62
468.927	530.62
469.146	523.62
469.365	529.62
469.585	512.62
469.804	532.62
470.023	540.62
470.243	525.62
470.462	557.62
470.681	579.62
470.901	553.62
471.12	550.62
471.339	554.62
471.558	577.62
471.777	567.62
471.997	545.62
472.216	568.62
472.435	579.62
472.654	574.62
472.873	550.62
473.092	532.62
473.311	544.62
473.53	557.62
473.749	558.62
473.968	595.62
474.187	700.62
474.406	744.62
474.625	597.62
474.844	544.62
475.063	549.62
475.282	565.62
475.501	548.62
475.72	547.62
475.939	569.62
476.158	572.62
476.377	566.62
476.596	580.62
476.814	572.62
477.033	572.62
477.252	596.62
477.471	577.62
477.69	584.62
477.908	584.62
478.127	605.62
478.346	590.62
478.564	592.62
478.783	617.62
479.002	645.62
479.22	632.62
479.439	635.62
479.658	654.62
479.876	662.62
480.095	697.62
480.313	708.62
480.532	664.62
480.751	663.62
480.969	709.62
481.188	732.62
481.406	812.62
481.624	749.62
481.843	676.62
482.061	678.62
482.28	663.62
482.498	665.62
482.717	641.62
482.935	653.62
483.153	650.62
483.372	679.62
483.59	647.62
483.808	643.62
484.027	651.62
484.245	652.62
484.463	666.62
484.681	651.62
484.9	654.62
485.118	694.62
485.336	640.62
485.554	657.62
485.772	660.62
485.99	658.62
486.209	659.62
486.427	655.62
486.645	692.62
486.863	709.62
487.081	711.62
487.299	699.62
487.517	692.62
487.735	699.62
487.953	692.62
488.171	693.62
488.389	726.62
488.607	697.62
488.825	708.62
489.043	683.62
489.261	729.62
489.479	705.62
489.696	711.62
489.914	729.62
490.132	744.62
490.35	758.62
490.568	749.62
490.786	745.62
491.003	748.62
491.221	773.62
491.439	773.62
491.657	785.62
491.874	764.62
492.092	821.62
492.31	821.62
492.527	819.62
492.745	827.62
492.963	821.62
493.18	828.62
493.398	834.62
493.615	820.62
493.833	819.62
494.05	832.62
494.268	820.62
494.485	826.62
494.703	847.62
494.92	841.62
495.138	855.62
495.355	835.62
495.573	840.62
495.79	830.62
496.008	831.62
496.225	835.62
496.442	846.62
496.66	824.62
496.877	809.62
497.094	825.62
497.312	850.62
497.529	856.62
497.746	858.62
497.963	883.62
498.181	906.62
498.398	930.62
498.615	919.62
498.832	930.62
499.049	964.62
499.267	986.62
499.484	1066.62
499.701	1030.62
499.918	1086.62
500.135	1147.62
500.352	1154.62
500.569	1212.62
500.786	1194.62
501.003	1196.62
501.22	1168.62
501.437	1124.62
501.654	1068.62
