Data from 1966.PennyLincolnUp.Lamp.En5.5.200Scan.071719.P1._HRD10591_14-12-29-912.txt Node
Date: Thu Jul 18 14:12:29 EDT 2019
User: cochatt
Spectrometer: HR+D1059
Trigger mode: 1
Integration Time (sec): 1.000000E-1
Scans to average: 1
Electric dark correction enabled: true
Nonlinearity correction enabled: false
Boxcar width: 0
XAxis mode: Wavelengths
Number of Pixels in Spectrum: 2048
>>>>>Begin Spectral Data<<<<<
223.165	-0.88
223.4	-0.88
223.635	-0.88
223.869	-17.88
224.104	-15.88
224.338	-24.88
224.573	-17.88
224.808	-14.88
225.042	-20.88
225.277	4.12
225.511	2.12
225.746	-4.88
225.98	-11.88
226.215	21.12
226.449	27.12
226.683	20.12
226.918	26.12
227.152	29.12
227.387	15.12
227.621	42.12
227.856	64.12
228.09	56.12
228.324	62.12
228.559	52.12
228.793	76.12
229.027	75.12
229.262	75.12
229.496	84.12
229.73	89.12
229.964	108.12
230.199	106.12
230.433	102.12
230.667	96.12
230.901	93.12
231.136	107.12
231.37	100.12
231.604	94.12
231.838	98.12
232.072	103.12
232.306	94.12
232.541	104.12
232.775	105.12
233.009	94.12
233.243	95.12
233.477	107.12
233.711	107.12
233.945	99.12
234.179	102.12
234.413	97.12
234.647	105.12
234.881	84.12
235.115	98.12
235.349	95.12
235.583	106.12
235.817	95.12
236.051	106.12
236.285	109.12
236.519	101.12
236.753	90.12
236.987	101.12
237.221	122.12
237.455	129.12
237.689	121.12
237.922	101.12
238.156	100.12
238.39	101.12
238.624	96.12
238.858	94.12
239.091	79.12
239.325	102.12
239.559	105.12
239.793	97.12
240.027	100.12
240.26	114.12
240.494	114.12
240.728	111.12
240.961	98.12
241.195	107.12
241.429	104.12
241.662	117.12
241.896	98.12
242.13	95.12
242.363	90.12
242.597	98.12
242.83	94.12
243.064	83.12
243.298	104.12
243.531	104.12
243.765	104.12
243.998	103.12
244.232	110.12
244.465	104.12
244.699	110.12
244.932	99.12
245.166	109.12
245.399	103.12
245.633	105.12
245.866	94.12
246.099	109.12
246.333	102.12
246.566	97.12
246.8	111.12
247.033	108.12
247.266	108.12
247.5	112.12
247.733	115.12
247.966	120.12
248.2	112.12
248.433	115.12
248.666	124.12
248.899	124.12
249.133	125.12
249.366	135.12
249.599	124.12
249.832	118.12
250.066	114.12
250.299	122.12
250.532	109.12
250.765	138.12
250.998	160.12
251.231	129.12
251.465	125.12
251.698	121.12
251.931	132.12
252.164	137.12
252.397	124.12
252.63	110.12
252.863	122.12
253.096	134.12
253.329	143.12
253.562	129.12
253.795	108.12
254.028	132.12
254.261	129.12
254.494	126.12
254.727	154.12
254.96	161.12
255.193	164.12
255.426	155.12
255.659	131.12
255.892	155.12
256.124	127.12
256.357	127.12
256.59	127.12
256.823	115.12
257.056	131.12
257.289	125.12
257.521	135.12
257.754	134.12
257.987	136.12
258.22	112.12
258.452	129.12
258.685	122.12
258.918	126.12
259.151	134.12
259.383	143.12
259.616	118.12
259.849	143.12
260.081	141.12
260.314	152.12
260.547	140.12
260.779	136.12
261.012	135.12
261.244	141.12
261.477	140.12
261.71	134.12
261.942	130.12
262.175	146.12
262.407	135.12
262.64	131.12
262.872	144.12
263.105	129.12
263.337	140.12
263.57	130.12
263.802	138.12
264.035	128.12
264.267	124.12
264.499	118.12
264.732	125.12
264.964	131.12
265.197	121.12
265.429	124.12
265.661	123.12
265.894	132.12
266.126	127.12
266.358	125.12
266.591	126.12
266.823	136.12
267.055	130.12
267.287	140.12
267.52	143.12
267.752	130.12
267.984	130.12
268.216	135.12
268.448	126.12
268.681	140.12
268.913	151.12
269.145	155.12
269.377	165.12
269.609	172.12
269.841	155.12
270.073	152.12
270.306	160.12
270.538	169.12
270.77	168.12
271.002	158.12
271.234	171.12
271.466	162.12
271.698	167.12
271.93	168.12
272.162	177.12
272.394	175.12
272.626	159.12
272.858	163.12
273.09	152.12
273.322	146.12
273.553	134.12
273.785	144.12
274.017	149.12
274.249	156.12
274.481	156.12
274.713	157.12
274.945	160.12
275.176	134.12
275.408	154.12
275.64	150.12
275.872	156.12
276.104	154.12
276.335	154.12
276.567	155.12
276.799	158.12
277.031	168.12
277.262	172.12
277.494	171.12
277.726	147.12
277.957	162.12
278.189	166.12
278.421	153.12
278.652	143.12
278.884	149.12
279.115	157.12
279.347	144.12
279.579	159.12
279.81	146.12
280.042	154.12
280.273	148.12
280.505	163.12
280.736	147.12
280.968	144.12
281.199	144.12
281.431	161.12
281.662	146.12
281.894	127.12
282.125	142.12
282.356	160.12
282.588	174.12
282.819	163.12
283.051	142.12
283.282	149.12
283.513	164.12
283.745	156.12
283.976	161.12
284.207	146.12
284.439	159.12
284.67	156.12
284.901	159.12
285.132	168.12
285.364	178.12
285.595	152.12
285.826	139.12
286.057	162.12
286.288	152.12
286.52	145.12
286.751	160.12
286.982	165.12
287.213	169.12
287.444	159.12
287.675	164.12
287.906	174.12
288.138	169.12
288.369	164.12
288.6	162.12
288.831	156.12
289.062	163.12
289.293	168.12
289.524	164.12
289.755	158.12
289.986	157.12
290.217	171.12
290.448	152.12
290.679	158.12
290.91	157.12
291.141	160.12
291.371	168.12
291.602	156.12
291.833	148.12
292.064	163.12
292.295	164.12
292.526	147.12
292.757	162.12
292.987	160.12
293.218	170.12
293.449	183.12
293.68	156.12
293.91	139.12
294.141	155.12
294.372	152.12
294.603	176.12
294.833	165.12
295.064	152.12
295.295	176.12
295.525	172.12
295.756	159.12
295.987	173.12
296.217	178.12
296.448	178.12
296.679	173.12
296.909	168.12
297.14	160.12
297.37	166.12
297.601	171.12
297.831	151.12
298.062	174.12
298.292	154.12
298.523	162.12
298.753	167.12
298.984	156.12
299.214	161.12
299.445	160.12
299.675	159.12
299.905	189.12
300.136	180.12
300.366	170.12
300.597	169.12
300.827	166.12
301.057	155.12
301.288	171.12
301.518	189.12
301.748	178.12
301.979	183.12
302.209	165.12
302.439	178.12
302.669	177.12
302.9	179.12
303.13	168.12
303.36	174.12
303.59	174.12
303.82	192.12
304.051	204.12
304.281	188.12
304.511	171.12
304.741	164.12
304.971	175.12
305.201	169.12
305.431	160.12
305.661	186.12
305.891	171.12
306.121	193.12
306.352	180.12
306.582	168.12
306.812	189.12
307.042	171.12
307.272	174.12
307.502	166.12
307.731	189.12
307.961	168.12
308.191	171.12
308.421	164.12
308.651	179.12
308.881	188.12
309.111	180.12
309.341	196.12
309.571	170.12
309.8	190.12
310.03	189.12
310.26	202.12
310.49	209.12
310.72	184.12
310.949	207.12
311.179	195.12
311.409	196.12
311.639	194.12
311.868	190.12
312.098	187.12
312.328	195.12
312.557	189.12
312.787	205.12
313.017	214.12
313.246	212.12
313.476	195.12
313.706	193.12
313.935	199.12
314.165	207.12
314.394	207.12
314.624	200.12
314.853	200.12
315.083	192.12
315.312	203.12
315.542	209.12
315.771	186.12
316.001	192.12
316.23	170.12
316.46	181.12
316.689	184.12
316.919	195.12
317.148	209.12
317.377	195.12
317.607	194.12
317.836	194.12
318.065	198.12
318.295	202.12
318.524	202.12
318.753	203.12
318.983	208.12
319.212	189.12
319.441	200.12
319.67	196.12
319.9	191.12
320.129	183.12
320.358	185.12
320.587	192.12
320.816	196.12
321.046	214.12
321.275	214.12
321.504	187.12
321.733	195.12
321.962	211.12
322.191	211.12
322.42	211.12
322.649	215.12
322.878	200.12
323.108	225.12
323.337	225.12
323.566	224.12
323.795	241.12
324.024	260.12
324.253	312.12
324.482	438.12
324.71	658.12
324.939	857.12
325.168	721.12
325.397	365.12
325.626	269.12
325.855	241.12
326.084	231.12
326.313	234.12
326.542	224.12
326.77	257.12
326.999	294.12
327.228	400.12
327.457	574.12
327.686	650.12
327.914	435.12
328.143	300.12
328.372	285.12
328.6	283.12
328.829	266.12
329.058	268.12
329.287	280.12
329.515	268.12
329.744	233.12
329.972	240.12
330.201	238.12
330.43	279.12
330.658	280.12
330.887	289.12
331.115	293.12
331.344	249.12
331.572	256.12
331.801	234.12
332.03	220.12
332.258	222.12
332.486	216.12
332.715	218.12
332.943	211.12
333.172	224.12
333.4	222.12
333.629	226.12
333.857	238.12
334.085	234.12
334.314	243.12
334.542	241.12
334.771	251.12
334.999	236.12
335.227	206.12
335.455	226.12
335.684	233.12
335.912	222.12
336.14	209.12
336.369	221.12
336.597	227.12
336.825	213.12
337.053	218.12
337.281	209.12
337.51	203.12
337.738	198.12
337.966	210.12
338.194	222.12
338.422	208.12
338.65	219.12
338.878	208.12
339.106	202.12
339.334	213.12
339.562	214.12
339.79	209.12
340.018	206.12
340.246	206.12
340.474	218.12
340.702	219.12
340.93	194.12
341.158	216.12
341.386	201.12
341.614	215.12
341.842	222.12
342.07	203.12
342.298	202.12
342.526	193.12
342.754	190.12
342.981	207.12
343.209	195.12
343.437	204.12
343.665	211.12
343.893	217.12
344.12	228.12
344.348	205.12
344.576	226.12
344.804	222.12
345.031	229.12
345.259	228.12
345.487	207.12
345.714	202.12
345.942	203.12
346.17	215.12
346.397	206.12
346.625	184.12
346.853	209.12
347.08	199.12
347.308	202.12
347.535	199.12
347.763	213.12
347.99	213.12
348.218	206.12
348.445	208.12
348.673	217.12
348.9	194.12
349.128	206.12
349.355	187.12
349.583	203.12
349.81	193.12
350.037	198.12
350.265	204.12
350.492	191.12
350.72	200.12
350.947	202.12
351.174	213.12
351.402	212.12
351.629	207.12
351.856	213.12
352.083	210.12
352.311	220.12
352.538	215.12
352.765	219.12
352.992	216.12
353.22	187.12
353.447	198.12
353.674	197.12
353.901	207.12
354.128	180.12
354.355	183.12
354.583	200.12
354.81	186.12
355.037	206.12
355.264	192.12
355.491	194.12
355.718	186.12
355.945	206.12
356.172	193.12
356.399	184.12
356.626	200.12
356.853	175.12
357.08	173.12
357.307	194.12
357.534	185.12
357.761	193.12
357.988	189.12
358.215	199.12
358.441	201.12
358.668	192.12
358.895	184.12
359.122	217.12
359.349	202.12
359.576	228.12
359.802	217.12
360.029	219.12
360.256	234.12
360.483	216.12
360.709	211.12
360.936	207.12
361.163	203.12
361.39	198.12
361.616	212.12
361.843	203.12
362.07	202.12
362.296	196.12
362.523	214.12
362.749	204.12
362.976	184.12
363.203	205.12
363.429	193.12
363.656	204.12
363.882	199.12
364.109	191.12
364.335	187.12
364.562	189.12
364.788	196.12
365.015	194.12
365.241	195.12
365.468	191.12
365.694	195.12
365.92	195.12
366.147	192.12
366.373	190.12
366.599	199.12
366.826	213.12
367.052	206.12
367.278	192.12
367.505	187.12
367.731	188.12
367.957	200.12
368.184	194.12
368.41	201.12
368.636	197.12
368.862	209.12
369.089	211.12
369.315	201.12
369.541	201.12
369.767	198.12
369.993	187.12
370.219	183.12
370.445	207.12
370.672	200.12
370.898	202.12
371.124	190.12
371.35	199.12
371.576	202.12
371.802	200.12
372.028	195.12
372.254	192.12
372.48	175.12
372.706	178.12
372.932	185.12
373.158	188.12
373.384	203.12
373.61	196.12
373.835	207.12
374.061	185.12
374.287	186.12
374.513	206.12
374.739	196.12
374.965	200.12
375.191	193.12
375.416	210.12
375.642	192.12
375.868	203.12
376.094	198.12
376.319	190.12
376.545	177.12
376.771	179.12
376.997	179.12
377.222	189.12
377.448	198.12
377.674	200.12
377.899	201.12
378.125	205.12
378.35	198.12
378.576	202.12
378.802	192.12
379.027	198.12
379.253	198.12
379.478	197.12
379.704	203.12
379.929	188.12
380.155	194.12
380.38	179.12
380.606	199.12
380.831	201.12
381.057	201.12
381.282	201.12
381.507	196.12
381.733	183.12
381.958	182.12
382.184	202.12
382.409	202.12
382.634	203.12
382.86	203.12
383.085	223.12
383.31	206.12
383.535	207.12
383.761	202.12
383.986	208.12
384.211	199.12
384.436	196.12
384.662	205.12
384.887	207.12
385.112	192.12
385.337	203.12
385.562	202.12
385.787	210.12
386.013	216.12
386.238	206.12
386.463	212.12
386.688	196.12
386.913	199.12
387.138	206.12
387.363	197.12
387.588	204.12
387.813	209.12
388.038	200.12
388.263	214.12
388.488	213.12
388.713	215.12
388.938	215.12
389.163	212.12
389.387	212.12
389.612	199.12
389.837	207.12
390.062	203.12
390.287	207.12
390.512	173.12
390.736	208.12
390.961	209.12
391.186	218.12
391.411	198.12
391.636	217.12
391.86	206.12
392.085	222.12
392.31	202.12
392.534	205.12
392.759	214.12
392.984	196.12
393.208	226.12
393.433	247.12
393.658	238.12
393.882	223.12
394.107	225.12
394.331	220.12
394.556	198.12
394.78	211.12
395.005	202.12
395.229	203.12
395.454	208.12
395.678	218.12
395.903	217.12
396.127	226.12
396.352	210.12
396.576	213.12
396.801	209.12
397.025	200.12
397.249	212.12
397.474	216.12
397.698	227.12
397.922	223.12
398.147	217.12
398.371	229.12
398.595	223.12
398.82	237.12
399.044	224.12
399.268	246.12
399.492	250.12
399.717	263.12
399.941	262.12
400.165	269.12
400.389	278.12
400.613	272.12
400.837	246.12
401.062	238.12
401.286	240.12
401.51	228.12
401.734	226.12
401.958	230.12
402.182	248.12
402.406	264.12
402.63	247.12
402.854	246.12
403.078	244.12
403.302	249.12
403.526	263.12
403.75	236.12
403.974	247.12
404.198	246.12
404.422	240.12
404.645	244.12
404.869	251.12
405.093	260.12
405.317	289.12
405.541	279.12
405.765	266.12
405.988	261.12
406.212	259.12
406.436	255.12
406.66	272.12
406.883	264.12
407.107	260.12
407.331	271.12
407.555	299.12
407.778	303.12
408.002	289.12
408.226	267.12
408.449	259.12
408.673	259.12
408.896	267.12
409.12	267.12
409.344	260.12
409.567	253.12
409.791	240.12
410.014	236.12
410.238	219.12
410.461	252.12
410.685	243.12
410.908	245.12
411.132	256.12
411.355	262.12
411.578	277.12
411.802	237.12
412.025	209.12
412.249	247.12
412.472	262.12
412.695	294.12
412.919	273.12
413.142	266.12
413.365	259.12
413.589	250.12
413.812	242.12
414.035	223.12
414.258	239.12
414.482	227.12
414.705	228.12
414.928	228.12
415.151	247.12
415.374	246.12
415.597	234.12
415.821	235.12
416.044	243.12
416.267	222.12
416.49	238.12
416.713	236.12
416.936	216.12
417.159	216.12
417.382	219.12
417.605	244.12
417.828	248.12
418.051	229.12
418.274	258.12
418.497	254.12
418.72	231.12
418.943	216.12
419.166	238.12
419.389	240.12
419.611	252.12
419.834	234.12
420.057	249.12
420.28	249.12
420.503	259.12
420.726	251.12
420.948	247.12
421.171	271.12
421.394	267.12
421.617	252.12
421.839	258.12
422.062	242.12
422.285	243.12
422.507	268.12
422.73	297.12
422.953	293.12
423.175	277.12
423.398	241.12
423.621	251.12
423.843	246.12
424.066	258.12
424.288	260.12
424.511	273.12
424.733	292.12
424.956	329.12
425.178	310.12
425.401	294.12
425.623	300.12
425.846	281.12
426.068	246.12
426.291	239.12
426.513	258.12
426.735	266.12
426.958	277.12
427.18	305.12
427.402	340.12
427.625	384.12
427.847	329.12
428.069	290.12
428.292	262.12
428.514	236.12
428.736	229.12
428.958	249.12
429.181	219.12
429.403	241.12
429.625	242.12
429.847	265.12
430.069	258.12
430.292	276.12
430.514	255.12
430.736	239.12
430.958	236.12
431.18	222.12
431.402	230.12
431.624	234.12
431.846	235.12
432.068	230.12
432.29	221.12
432.512	231.12
432.734	224.12
432.956	228.12
433.178	227.12
433.4	243.12
433.622	232.12
433.844	244.12
434.066	235.12
434.287	221.12
434.509	232.12
434.731	234.12
434.953	235.12
435.175	258.12
435.397	265.12
435.618	249.12
435.84	280.12
436.062	317.12
436.284	324.12
436.505	286.12
436.727	248.12
436.949	238.12
437.17	239.12
437.392	235.12
437.614	241.12
437.835	253.12
438.057	292.12
438.278	330.12
438.5	332.12
438.721	354.12
438.943	337.12
439.165	272.12
439.386	267.12
439.608	256.12
439.829	251.12
440.05	273.12
440.272	299.12
440.493	284.12
440.715	257.12
440.936	264.12
441.158	243.12
441.379	236.12
441.6	238.12
441.822	254.12
442.043	263.12
442.264	303.12
442.486	313.12
442.707	284.12
442.928	263.12
443.149	248.12
443.371	289.12
443.592	302.12
443.813	318.12
444.034	325.12
444.255	292.12
444.476	266.12
444.698	263.12
444.919	272.12
445.14	364.12
445.361	314.12
445.582	293.12
445.803	321.12
446.024	337.12
446.245	331.12
446.466	323.12
446.687	269.12
446.908	241.12
447.129	250.12
447.35	250.12
447.571	243.12
447.792	229.12
448.013	235.12
448.234	235.12
448.455	271.12
448.675	316.12
448.896	362.12
449.117	294.12
449.338	290.12
449.559	337.12
449.779	338.12
450	280.12
450.221	238.12
450.442	246.12
450.662	227.12
450.883	232.12
451.104	242.12
451.324	221.12
451.545	226.12
451.766	212.12
451.986	217.12
452.207	224.12
452.428	232.12
452.648	224.12
452.869	226.12
453.089	232.12
453.31	230.12
453.53	226.12
453.751	231.12
453.971	230.12
454.192	240.12
454.412	226.12
454.633	224.12
454.853	217.12
455.073	226.12
455.294	240.12
455.514	274.12
455.734	239.12
455.955	208.12
456.175	231.12
456.395	209.12
456.616	205.12
456.836	199.12
457.056	200.12
457.276	208.12
457.497	194.12
457.717	215.12
457.937	214.12
458.157	219.12
458.377	200.12
458.598	224.12
458.818	251.12
459.038	291.12
459.258	299.12
459.478	249.12
459.698	225.12
459.918	241.12
460.138	241.12
460.358	224.12
460.578	234.12
460.798	219.12
461.018	244.12
461.238	216.12
461.458	230.12
461.678	227.12
461.898	261.12
462.118	232.12
462.338	230.12
462.558	270.12
462.777	247.12
462.997	237.12
463.217	265.12
463.437	249.12
463.657	251.12
463.876	234.12
464.096	233.12
464.316	263.12
464.536	258.12
464.755	258.12
464.975	266.12
465.195	280.12
465.414	312.12
465.634	275.12
465.854	248.12
466.073	234.12
466.293	227.12
466.512	239.12
466.732	235.12
466.951	208.12
467.171	227.12
467.391	220.12
467.61	224.12
467.829	239.12
468.049	225.12
468.268	218.12
468.488	222.12
468.707	230.12
468.927	222.12
469.146	210.12
469.365	231.12
469.585	216.12
469.804	221.12
470.023	231.12
470.243	228.12
470.462	242.12
470.681	231.12
470.901	246.12
471.12	223.12
471.339	225.12
471.558	221.12
471.777	228.12
471.997	206.12
472.216	227.12
472.435	243.12
472.654	246.12
472.873	228.12
473.092	232.12
473.311	230.12
473.53	208.12
473.749	217.12
473.968	241.12
474.187	273.12
474.406	291.12
474.625	234.12
474.844	218.12
475.063	227.12
475.282	235.12
475.501	219.12
475.72	238.12
475.939	234.12
476.158	221.12
476.377	219.12
476.596	221.12
476.814	236.12
477.033	240.12
477.252	250.12
477.471	234.12
477.69	243.12
477.908	243.12
478.127	232.12
478.346	227.12
478.564	263.12
478.783	257.12
479.002	262.12
479.22	255.12
479.439	278.12
479.658	268.12
479.876	267.12
480.095	254.12
480.313	278.12
480.532	258.12
480.751	261.12
480.969	288.12
481.188	313.12
481.406	326.12
481.624	271.12
481.843	262.12
482.061	263.12
482.28	269.12
482.498	255.12
482.717	243.12
482.935	252.12
483.153	260.12
483.372	263.12
483.59	265.12
483.808	253.12
484.027	253.12
484.245	263.12
484.463	271.12
484.681	269.12
484.9	271.12
485.118	241.12
485.336	280.12
485.554	271.12
485.772	271.12
485.99	266.12
486.209	274.12
486.427	273.12
486.645	264.12
486.863	274.12
487.081	277.12
487.299	254.12
487.517	271.12
487.735	281.12
487.953	280.12
488.171	278.12
488.389	278.12
488.607	284.12
488.825	275.12
489.043	273.12
489.261	280.12
489.479	288.12
489.696	283.12
489.914	288.12
490.132	280.12
490.35	280.12
490.568	286.12
490.786	302.12
491.003	275.12
491.221	286.12
491.439	310.12
491.657	326.12
491.874	330.12
492.092	331.12
492.31	320.12
492.527	319.12
492.745	338.12
492.963	316.12
493.18	311.12
493.398	314.12
493.615	316.12
493.833	320.12
494.05	312.12
494.268	327.12
494.485	327.12
494.703	316.12
494.92	318.12
495.138	311.12
495.355	321.12
495.573	310.12
495.79	323.12
496.008	317.12
496.225	302.12
496.442	316.12
496.66	326.12
496.877	326.12
497.094	324.12
497.312	338.12
497.529	336.12
497.746	324.12
497.963	343.12
498.181	333.12
498.398	334.12
498.615	331.12
498.832	334.12
499.049	348.12
499.267	368.12
499.484	347.12
499.701	362.12
499.918	382.12
500.135	383.12
500.352	411.12
500.569	430.12
500.786	427.12
501.003	426.12
501.22	407.12
501.437	379.12
501.654	384.12
501.871	377.12
502.088	386.12
502.305	361.12
502.522	358.12
