Data from 1966.PennyLincolnUp.Lamp.En5.5.200Scan.071719.P1._HRD10591_14-15-06-923.txt Node
Date: Thu Jul 18 14:15:06 EDT 2019
User: cochatt
Spectrometer: HR+D1059
Trigger mode: 1
Integration Time (sec): 1.000000E-1
Scans to average: 1
Electric dark correction enabled: true
Nonlinearity correction enabled: false
Boxcar width: 0
XAxis mode: Wavelengths
Number of Pixels in Spectrum: 2048
>>>>>Begin Spectral Data<<<<<
223.165	-23.56
223.4	-23.56
223.635	-23.56
223.869	-19.56
224.104	-11.56
224.338	-18.56
224.573	-5.56
224.808	-20.56
225.042	-11.56
225.277	-10.56
225.511	-10.56
225.746	3.44
225.98	16.44
226.215	9.44
226.449	15.44
226.683	23.44
226.918	27.44
227.152	36.44
227.387	33.44
227.621	41.44
227.856	40.44
228.09	46.44
228.324	48.44
228.559	62.44
228.793	58.44
229.027	85.44
229.262	92.44
229.496	85.44
229.73	106.44
229.964	121.44
230.199	99.44
230.433	85.44
230.667	97.44
230.901	101.44
231.136	94.44
231.37	100.44
231.604	106.44
231.838	105.44
232.072	93.44
232.306	94.44
232.541	98.44
232.775	96.44
233.009	101.44
233.243	94.44
233.477	108.44
233.711	111.44
233.945	111.44
234.179	107.44
234.413	107.44
234.647	104.44
234.881	103.44
235.115	101.44
235.349	99.44
235.583	106.44
235.817	106.44
236.051	115.44
236.285	96.44
236.519	107.44
236.753	104.44
236.987	109.44
237.221	140.44
237.455	145.44
237.689	116.44
237.922	124.44
238.156	107.44
238.39	91.44
238.624	102.44
238.858	108.44
239.091	99.44
239.325	80.44
239.559	101.44
239.793	101.44
240.027	104.44
240.26	112.44
240.494	131.44
240.728	126.44
240.961	120.44
241.195	113.44
241.429	119.44
241.662	96.44
241.896	111.44
242.13	110.44
242.363	115.44
242.597	103.44
242.83	112.44
243.064	107.44
243.298	96.44
243.531	87.44
243.765	93.44
243.998	115.44
244.232	113.44
244.465	101.44
244.699	114.44
244.932	101.44
245.166	113.44
245.399	114.44
245.633	114.44
245.866	115.44
246.099	121.44
246.333	98.44
246.566	98.44
246.8	102.44
247.033	116.44
247.266	116.44
247.5	116.44
247.733	125.44
247.966	131.44
248.2	125.44
248.433	104.44
248.666	129.44
248.899	135.44
249.133	133.44
249.366	135.44
249.599	122.44
249.832	115.44
250.066	129.44
250.299	129.44
250.532	139.44
250.765	140.44
250.998	156.44
251.231	149.44
251.465	132.44
251.698	137.44
251.931	126.44
252.164	113.44
252.397	141.44
252.63	133.44
252.863	133.44
253.096	135.44
253.329	144.44
253.562	143.44
253.795	151.44
254.028	148.44
254.261	137.44
254.494	146.44
254.727	175.44
254.96	179.44
255.193	163.44
255.426	156.44
255.659	156.44
255.892	160.44
256.124	154.44
256.357	145.44
256.59	127.44
256.823	149.44
257.056	147.44
257.289	139.44
257.521	143.44
257.754	138.44
257.987	137.44
258.22	152.44
258.452	139.44
258.685	137.44
258.918	140.44
259.151	141.44
259.383	147.44
259.616	147.44
259.849	139.44
260.081	149.44
260.314	165.44
260.547	174.44
260.779	169.44
261.012	144.44
261.244	141.44
261.477	162.44
261.71	139.44
261.942	153.44
262.175	147.44
262.407	155.44
262.64	144.44
262.872	141.44
263.105	145.44
263.337	141.44
263.57	157.44
263.802	153.44
264.035	153.44
264.267	139.44
264.499	148.44
264.732	153.44
264.964	129.44
265.197	139.44
265.429	151.44
265.661	145.44
265.894	151.44
266.126	159.44
266.358	155.44
266.591	142.44
266.823	151.44
267.055	147.44
267.287	141.44
267.52	147.44
267.752	153.44
267.984	144.44
268.216	133.44
268.448	151.44
268.681	156.44
268.913	148.44
269.145	180.44
269.377	193.44
269.609	169.44
269.841	169.44
270.073	186.44
270.306	180.44
270.538	213.44
270.77	188.44
271.002	191.44
271.234	185.44
271.466	178.44
271.698	199.44
271.93	187.44
272.162	216.44
272.394	191.44
272.626	175.44
272.858	186.44
273.09	179.44
273.322	164.44
273.553	166.44
273.785	165.44
274.017	167.44
274.249	175.44
274.481	147.44
274.713	169.44
274.945	172.44
275.176	156.44
275.408	169.44
275.64	171.44
275.872	158.44
276.104	166.44
276.335	165.44
276.567	167.44
276.799	187.44
277.031	181.44
277.262	205.44
277.494	200.44
277.726	187.44
277.957	172.44
278.189	170.44
278.421	174.44
278.652	159.44
278.884	179.44
279.115	165.44
279.347	167.44
279.579	169.44
279.81	158.44
280.042	162.44
280.273	166.44
280.505	164.44
280.736	163.44
280.968	168.44
281.199	157.44
281.431	142.44
281.662	175.44
281.894	153.44
282.125	191.44
282.356	187.44
282.588	194.44
282.819	181.44
283.051	168.44
283.282	166.44
283.513	165.44
283.745	170.44
283.976	167.44
284.207	178.44
284.439	159.44
284.67	175.44
284.901	173.44
285.132	169.44
285.364	174.44
285.595	173.44
285.826	180.44
286.057	162.44
286.288	177.44
286.52	180.44
286.751	175.44
286.982	177.44
287.213	176.44
287.444	181.44
287.675	165.44
287.906	178.44
288.138	201.44
288.369	183.44
288.6	199.44
288.831	190.44
289.062	176.44
289.293	176.44
289.524	177.44
289.755	182.44
289.986	185.44
290.217	182.44
290.448	187.44
290.679	189.44
290.91	179.44
291.141	186.44
291.371	201.44
291.602	172.44
291.833	167.44
292.064	195.44
292.295	184.44
292.526	191.44
292.757	176.44
292.987	171.44
293.218	179.44
293.449	175.44
293.68	179.44
293.91	183.44
294.141	188.44
294.372	165.44
294.603	189.44
294.833	175.44
295.064	178.44
295.295	186.44
295.525	179.44
295.756	182.44
295.987	189.44
296.217	200.44
296.448	196.44
296.679	189.44
296.909	175.44
297.14	187.44
297.37	194.44
297.601	191.44
297.831	187.44
298.062	190.44
298.292	170.44
298.523	196.44
298.753	191.44
298.984	194.44
299.214	188.44
299.445	185.44
299.675	193.44
299.905	195.44
300.136	199.44
300.366	182.44
300.597	182.44
300.827	203.44
301.057	201.44
301.288	187.44
301.518	201.44
301.748	210.44
301.979	204.44
302.209	196.44
302.439	199.44
302.669	196.44
302.9	208.44
303.13	207.44
303.36	197.44
303.59	199.44
303.82	190.44
304.051	189.44
304.281	191.44
304.511	187.44
304.741	199.44
304.971	185.44
305.201	189.44
305.431	188.44
305.661	192.44
305.891	196.44
306.121	200.44
306.352	187.44
306.582	209.44
306.812	193.44
307.042	201.44
307.272	204.44
307.502	196.44
307.731	199.44
307.961	210.44
308.191	195.44
308.421	194.44
308.651	199.44
308.881	226.44
309.111	208.44
309.341	211.44
309.571	203.44
309.8	213.44
310.03	231.44
310.26	242.44
310.49	219.44
310.72	233.44
310.949	245.44
311.179	242.44
311.409	236.44
311.639	224.44
311.868	240.44
312.098	230.44
312.328	236.44
312.557	242.44
312.787	240.44
313.017	238.44
313.246	228.44
313.476	223.44
313.706	220.44
313.935	217.44
314.165	238.44
314.394	250.44
314.624	228.44
314.853	240.44
315.083	221.44
315.312	227.44
315.542	219.44
315.771	186.44
316.001	200.44
316.23	221.44
316.46	217.44
316.689	224.44
316.919	217.44
317.148	212.44
317.377	223.44
317.607	217.44
317.836	219.44
318.065	227.44
318.295	216.44
318.524	218.44
318.753	225.44
318.983	222.44
319.212	221.44
319.441	228.44
319.67	224.44
319.9	234.44
320.129	222.44
320.358	239.44
320.587	211.44
320.816	219.44
321.046	219.44
321.275	247.44
321.504	227.44
321.733	219.44
321.962	215.44
322.191	237.44
322.42	240.44
322.649	240.44
322.878	238.44
323.108	247.44
323.337	252.44
323.566	265.44
323.795	308.44
324.024	323.44
324.253	388.44
324.482	553.44
324.71	833.44
324.939	1089.44
325.168	882.44
325.397	458.44
325.626	330.44
325.855	284.44
326.084	272.44
326.313	256.44
326.542	247.44
326.77	299.44
326.999	354.44
327.228	475.44
327.457	719.44
327.686	808.44
327.914	537.44
328.143	388.44
328.372	349.44
328.6	323.44
328.829	314.44
329.058	313.44
329.287	324.44
329.515	308.44
329.744	282.44
329.972	291.44
330.201	301.44
330.43	334.44
330.658	346.44
330.887	377.44
331.115	343.44
331.344	291.44
331.572	276.44
331.801	278.44
332.03	284.44
332.258	271.44
332.486	262.44
332.715	241.44
332.943	267.44
333.172	256.44
333.4	252.44
333.629	268.44
333.857	282.44
334.085	276.44
334.314	292.44
334.542	325.44
334.771	333.44
334.999	295.44
335.227	253.44
335.455	255.44
335.684	244.44
335.912	249.44
336.14	252.44
336.369	255.44
336.597	235.44
336.825	263.44
337.053	234.44
337.281	237.44
337.51	243.44
337.738	243.44
337.966	250.44
338.194	227.44
338.422	259.44
338.65	264.44
338.878	247.44
339.106	240.44
339.334	220.44
339.562	244.44
339.79	230.44
340.018	245.44
340.246	257.44
340.474	236.44
340.702	238.44
340.93	242.44
341.158	225.44
341.386	237.44
341.614	251.44
341.842	231.44
342.07	227.44
342.298	247.44
342.526	234.44
342.754	217.44
342.981	223.44
343.209	241.44
343.437	251.44
343.665	236.44
343.893	243.44
344.12	234.44
344.348	234.44
344.576	237.44
344.804	252.44
345.031	251.44
345.259	246.44
345.487	248.44
345.714	253.44
345.942	216.44
346.17	232.44
346.397	249.44
346.625	256.44
346.853	227.44
347.08	226.44
347.308	249.44
347.535	254.44
347.763	219.44
347.99	240.44
348.218	243.44
348.445	244.44
348.673	248.44
348.9	251.44
349.128	235.44
349.355	229.44
349.583	219.44
349.81	226.44
350.037	236.44
350.265	233.44
350.492	226.44
350.72	229.44
350.947	218.44
351.174	227.44
351.402	257.44
351.629	242.44
351.856	237.44
352.083	240.44
352.311	240.44
352.538	241.44
352.765	246.44
352.992	244.44
353.22	227.44
353.447	257.44
353.674	229.44
353.901	244.44
354.128	212.44
354.355	215.44
354.583	245.44
354.81	243.44
355.037	208.44
355.264	225.44
355.491	220.44
355.718	211.44
355.945	219.44
356.172	216.44
356.399	218.44
356.626	230.44
356.853	223.44
357.08	219.44
357.307	212.44
357.534	204.44
357.761	210.44
357.988	219.44
358.215	214.44
358.441	210.44
358.668	228.44
358.895	221.44
359.122	220.44
359.349	197.44
359.576	217.44
359.802	240.44
360.029	258.44
360.256	267.44
360.483	263.44
360.709	227.44
360.936	246.44
361.163	237.44
361.39	234.44
361.616	260.44
361.843	233.44
362.07	240.44
362.296	232.44
362.523	231.44
362.749	227.44
362.976	227.44
363.203	221.44
363.429	225.44
363.656	238.44
363.882	238.44
364.109	234.44
364.335	228.44
364.562	218.44
364.788	220.44
365.015	224.44
365.241	218.44
365.468	232.44
365.694	223.44
365.92	245.44
366.147	233.44
366.373	228.44
366.599	223.44
366.826	228.44
367.052	219.44
367.278	218.44
367.505	229.44
367.731	226.44
367.957	201.44
368.184	223.44
368.41	225.44
368.636	238.44
368.862	229.44
369.089	207.44
369.315	214.44
369.541	227.44
369.767	217.44
369.993	204.44
370.219	236.44
370.445	223.44
370.672	208.44
370.898	209.44
371.124	221.44
371.35	231.44
371.576	214.44
371.802	218.44
372.028	219.44
372.254	232.44
372.48	210.44
372.706	216.44
372.932	229.44
373.158	209.44
373.384	217.44
373.61	232.44
373.835	220.44
374.061	211.44
374.287	211.44
374.513	218.44
374.739	221.44
374.965	226.44
375.191	232.44
375.416	219.44
375.642	230.44
375.868	228.44
376.094	233.44
376.319	216.44
376.545	220.44
376.771	224.44
376.997	224.44
377.222	230.44
377.448	220.44
377.674	220.44
377.899	216.44
378.125	216.44
378.35	194.44
378.576	231.44
378.802	208.44
379.027	217.44
379.253	219.44
379.478	225.44
379.704	211.44
379.929	213.44
380.155	212.44
380.38	211.44
380.606	216.44
380.831	204.44
381.057	234.44
381.282	220.44
381.507	211.44
381.733	217.44
381.958	223.44
382.184	223.44
382.409	210.44
382.634	248.44
382.86	226.44
383.085	247.44
383.31	230.44
383.535	218.44
383.761	235.44
383.986	233.44
384.211	228.44
384.436	240.44
384.662	239.44
384.887	225.44
385.112	225.44
385.337	234.44
385.562	230.44
385.787	247.44
386.013	244.44
386.238	259.44
386.463	239.44
386.688	227.44
386.913	230.44
387.138	223.44
387.363	227.44
387.588	218.44
387.813	218.44
388.038	223.44
388.263	225.44
388.488	232.44
388.713	229.44
388.938	233.44
389.163	239.44
389.387	219.44
389.612	235.44
389.837	224.44
390.062	225.44
390.287	228.44
390.512	228.44
390.736	232.44
390.961	239.44
391.186	213.44
391.411	240.44
391.636	238.44
391.86	235.44
392.085	229.44
392.31	236.44
392.534	236.44
392.759	214.44
392.984	234.44
393.208	253.44
393.433	257.44
393.658	227.44
393.882	238.44
394.107	232.44
394.331	233.44
394.556	225.44
394.78	226.44
395.005	238.44
395.229	235.44
395.454	241.44
395.678	253.44
395.903	244.44
396.127	259.44
396.352	243.44
396.576	251.44
396.801	231.44
397.025	237.44
397.249	240.44
397.474	250.44
397.698	259.44
397.922	251.44
398.147	266.44
398.371	255.44
398.595	263.44
398.82	253.44
399.044	255.44
399.268	267.44
399.492	276.44
399.717	315.44
399.941	323.44
400.165	305.44
400.389	322.44
400.613	301.44
400.837	273.44
401.062	277.44
401.286	278.44
401.51	262.44
401.734	253.44
401.958	245.44
402.182	267.44
402.406	267.44
402.63	287.44
402.854	293.44
403.078	264.44
403.302	269.44
403.526	273.44
403.75	273.44
403.974	279.44
404.198	274.44
404.422	285.44
404.645	263.44
404.869	281.44
405.093	317.44
405.317	300.44
405.541	330.44
405.765	287.44
405.988	301.44
406.212	300.44
406.436	316.44
406.66	306.44
406.883	315.44
407.107	317.44
407.331	330.44
407.555	336.44
407.778	345.44
408.002	309.44
408.226	307.44
408.449	313.44
408.673	302.44
408.896	315.44
409.12	313.44
409.344	295.44
409.567	268.44
409.791	283.44
410.014	267.44
410.238	259.44
410.461	282.44
410.685	286.44
410.908	263.44
411.132	303.44
411.355	311.44
411.578	286.44
411.802	282.44
412.025	257.44
412.249	281.44
412.472	300.44
412.695	301.44
412.919	275.44
413.142	275.44
413.365	273.44
413.589	275.44
413.812	261.44
414.035	275.44
414.258	252.44
414.482	276.44
414.705	253.44
414.928	246.44
415.151	251.44
415.374	247.44
415.597	260.44
415.821	271.44
416.044	254.44
416.267	249.44
416.49	251.44
416.713	242.44
416.936	231.44
417.159	269.44
417.382	273.44
417.605	250.44
417.828	283.44
418.051	287.44
418.274	274.44
418.497	268.44
418.72	267.44
418.943	256.44
419.166	276.44
419.389	275.44
419.611	292.44
419.834	284.44
420.057	274.44
420.28	287.44
420.503	255.44
420.726	252.44
420.948	275.44
421.171	287.44
421.394	299.44
421.617	280.44
421.839	291.44
422.062	270.44
422.285	289.44
422.507	304.44
422.73	341.44
422.953	327.44
423.175	296.44
423.398	298.44
423.621	284.44
423.843	300.44
424.066	307.44
424.288	277.44
424.511	302.44
424.733	316.44
424.956	352.44
425.178	352.44
425.401	332.44
425.623	337.44
425.846	305.44
426.068	299.44
426.291	292.44
426.513	290.44
426.735	282.44
426.958	297.44
427.18	368.44
427.402	398.44
427.625	449.44
427.847	389.44
428.069	332.44
428.292	306.44
428.514	294.44
428.736	277.44
428.958	265.44
429.181	264.44
429.403	249.44
429.625	253.44
429.847	282.44
430.069	314.44
430.292	324.44
430.514	274.44
430.736	269.44
430.958	259.44
431.18	266.44
431.402	268.44
431.624	269.44
431.846	258.44
432.068	258.44
432.29	248.44
432.512	299.44
432.734	255.44
432.956	257.44
433.178	276.44
433.4	257.44
433.622	276.44
433.844	258.44
434.066	248.44
434.287	283.44
434.509	268.44
434.731	266.44
434.953	270.44
435.175	274.44
435.397	301.44
435.618	297.44
435.84	302.44
436.062	332.44
436.284	380.44
436.505	321.44
436.727	296.44
436.949	287.44
437.17	277.44
437.392	279.44
437.614	285.44
437.835	303.44
438.057	346.44
438.278	368.44
438.5	371.44
438.721	385.44
438.943	385.44
439.165	316.44
439.386	297.44
439.608	316.44
439.829	312.44
440.05	305.44
440.272	330.44
440.493	305.44
440.715	271.44
440.936	285.44
441.158	290.44
441.379	275.44
441.6	288.44
441.822	312.44
442.043	315.44
442.264	331.44
442.486	357.44
442.707	301.44
442.928	308.44
443.149	305.44
443.371	319.44
443.592	345.44
443.813	377.44
444.034	390.44
444.255	329.44
444.476	305.44
444.698	291.44
444.919	275.44
445.14	386.44
445.361	363.44
445.582	327.44
445.803	346.44
446.024	407.44
446.245	380.44
446.466	368.44
446.687	311.44
446.908	301.44
447.129	279.44
447.35	274.44
447.571	248.44
447.792	264.44
448.013	264.44
448.234	276.44
448.455	319.44
448.675	344.44
448.896	402.44
449.117	324.44
449.338	309.44
449.559	368.44
449.779	405.44
450	324.44
450.221	281.44
450.442	269.44
450.662	266.44
450.883	285.44
451.104	295.44
451.324	291.44
451.545	280.44
451.766	249.44
451.986	244.44
452.207	265.44
452.428	252.44
452.648	255.44
452.869	252.44
453.089	249.44
453.31	255.44
453.53	261.44
453.751	243.44
453.971	255.44
454.192	257.44
454.412	256.44
454.633	239.44
454.853	242.44
455.073	255.44
455.294	261.44
455.514	293.44
455.734	286.44
455.955	255.44
456.175	240.44
456.395	221.44
456.616	239.44
456.836	231.44
457.056	227.44
457.276	231.44
457.497	232.44
457.717	231.44
457.937	243.44
458.157	220.44
458.377	236.44
458.598	253.44
458.818	299.44
459.038	357.44
459.258	340.44
459.478	292.44
459.698	275.44
459.918	252.44
460.138	249.44
460.358	264.44
460.578	272.44
460.798	280.44
461.018	273.44
461.238	253.44
461.458	260.44
461.678	249.44
461.898	259.44
462.118	252.44
462.338	279.44
462.558	268.44
462.777	251.44
462.997	270.44
463.217	297.44
463.437	286.44
463.657	284.44
463.876	263.44
464.096	274.44
464.316	284.44
464.536	280.44
464.755	291.44
464.975	291.44
465.195	338.44
465.414	354.44
465.634	311.44
465.854	273.44
466.073	259.44
466.293	237.44
466.512	275.44
466.732	242.44
466.951	259.44
467.171	271.44
467.391	264.44
467.61	268.44
467.829	278.44
468.049	275.44
468.268	259.44
468.488	283.44
468.707	251.44
468.927	235.44
469.146	235.44
469.365	250.44
469.585	270.44
469.804	242.44
470.023	237.44
470.243	269.44
470.462	267.44
470.681	275.44
470.901	274.44
471.12	261.44
471.339	252.44
471.558	252.44
471.777	253.44
471.997	248.44
472.216	270.44
472.435	283.44
472.654	275.44
472.873	241.44
473.092	240.44
473.311	247.44
473.53	267.44
473.749	275.44
473.968	290.44
474.187	334.44
474.406	335.44
474.625	277.44
474.844	269.44
475.063	251.44
475.282	234.44
475.501	258.44
475.72	258.44
475.939	257.44
476.158	267.44
476.377	253.44
476.596	249.44
476.814	269.44
477.033	275.44
477.252	250.44
477.471	273.44
477.69	264.44
477.908	260.44
478.127	269.44
478.346	286.44
478.564	280.44
478.783	271.44
479.002	280.44
479.22	289.44
479.439	287.44
479.658	304.44
479.876	300.44
480.095	307.44
480.313	306.44
480.532	290.44
480.751	298.44
480.969	332.44
481.188	382.44
481.406	428.44
481.624	325.44
481.843	289.44
482.061	301.44
482.28	286.44
482.498	290.44
482.717	290.44
482.935	284.44
483.153	303.44
483.372	307.44
483.59	286.44
483.808	271.44
484.027	303.44
484.245	264.44
484.463	300.44
484.681	312.44
484.9	297.44
485.118	279.44
485.336	292.44
485.554	288.44
485.772	291.44
485.99	285.44
486.209	295.44
486.427	285.44
486.645	314.44
486.863	333.44
487.081	324.44
487.299	313.44
487.517	315.44
487.735	307.44
487.953	307.44
488.171	304.44
488.389	325.44
488.607	320.44
488.825	305.44
489.043	305.44
489.261	312.44
489.479	319.44
489.696	307.44
489.914	311.44
490.132	314.44
490.35	319.44
490.568	334.44
490.786	322.44
491.003	334.44
491.221	356.44
491.439	364.44
491.657	376.44
491.874	343.44
492.092	372.44
492.31	354.44
492.527	365.44
492.745	356.44
492.963	365.44
493.18	382.44
493.398	391.44
493.615	368.44
493.833	367.44
494.05	369.44
494.268	376.44
494.485	375.44
494.703	393.44
494.92	377.44
495.138	361.44
495.355	373.44
495.573	398.44
495.79	357.44
496.008	368.44
496.225	372.44
496.442	360.44
496.66	369.44
496.877	369.44
497.094	365.44
497.312	351.44
497.529	363.44
497.746	353.44
497.963	385.44
498.181	388.44
498.398	385.44
498.615	388.44
498.832	379.44
499.049	396.44
499.267	380.44
499.484	400.44
499.701	420.44
499.918	430.44
500.135	461.44
500.352	470.44
500.569	483.44
500.786	485.44
501.003	473.44
501.22	455.44
501.437	433.44
501.654	445.44
501.871	451.44
502.088	417.44
502.305	411.44
