Data from 1966.PennyLincolnUp.Lamp.En5.5.200Scan.071719.P1._HRD10591_14-14-03-914.txt Node
Date: Thu Jul 18 14:14:03 EDT 2019
User: cochatt
Spectrometer: HR+D1059
Trigger mode: 1
Integration Time (sec): 1.000000E-1
Scans to average: 1
Electric dark correction enabled: true
Nonlinearity correction enabled: false
Boxcar width: 0
XAxis mode: Wavelengths
Number of Pixels in Spectrum: 2048
>>>>>Begin Spectral Data<<<<<
223.165	-10.44
223.4	-10.44
223.635	-10.44
223.869	-14.44
224.104	-15.44
224.338	-10.44
224.573	-24.44
224.808	-12.44
225.042	0.56
225.277	-16.44
225.511	3.56
225.746	-6.44
225.98	4.56
226.215	3.56
226.449	17.56
226.683	18.56
226.918	29.56
227.152	32.56
227.387	34.56
227.621	32.56
227.856	45.56
228.09	43.56
228.324	45.56
228.559	53.56
228.793	82.56
229.027	89.56
229.262	75.56
229.496	86.56
229.73	90.56
229.964	108.56
230.199	102.56
230.433	83.56
230.667	81.56
230.901	90.56
231.136	92.56
231.37	93.56
231.604	92.56
231.838	111.56
232.072	88.56
232.306	74.56
232.541	81.56
232.775	95.56
233.009	106.56
233.243	91.56
233.477	105.56
233.711	102.56
233.945	96.56
234.179	96.56
234.413	101.56
234.647	103.56
234.881	112.56
235.115	81.56
235.349	97.56
235.583	89.56
235.817	98.56
236.051	97.56
236.285	95.56
236.519	82.56
236.753	103.56
236.987	113.56
237.221	134.56
237.455	146.56
237.689	129.56
237.922	108.56
238.156	103.56
238.39	91.56
238.624	86.56
238.858	95.56
239.091	89.56
239.325	95.56
239.559	108.56
239.793	115.56
240.027	98.56
240.26	75.56
240.494	113.56
240.728	125.56
240.961	118.56
241.195	106.56
241.429	110.56
241.662	97.56
241.896	83.56
242.13	91.56
242.363	92.56
242.597	103.56
242.83	95.56
243.064	113.56
243.298	111.56
243.531	118.56
243.765	113.56
243.998	110.56
244.232	121.56
244.465	106.56
244.699	106.56
244.932	91.56
245.166	94.56
245.399	109.56
245.633	105.56
245.866	101.56
246.099	116.56
246.333	125.56
246.566	102.56
246.8	112.56
247.033	116.56
247.266	99.56
247.5	108.56
247.733	121.56
247.966	131.56
248.2	109.56
248.433	119.56
248.666	113.56
248.899	135.56
249.133	131.56
249.366	140.56
249.599	128.56
249.832	118.56
250.066	129.56
250.299	131.56
250.532	129.56
250.765	125.56
250.998	132.56
251.231	145.56
251.465	118.56
251.698	131.56
251.931	135.56
252.164	139.56
252.397	136.56
252.63	139.56
252.863	146.56
253.096	127.56
253.329	135.56
253.562	140.56
253.795	133.56
254.028	137.56
254.261	120.56
254.494	154.56
254.727	162.56
254.96	165.56
255.193	171.56
255.426	151.56
255.659	145.56
255.892	155.56
256.124	137.56
256.357	163.56
256.59	148.56
256.823	135.56
257.056	137.56
257.289	132.56
257.521	124.56
257.754	133.56
257.987	127.56
258.22	144.56
258.452	123.56
258.685	123.56
258.918	140.56
259.151	136.56
259.383	138.56
259.616	151.56
259.849	135.56
260.081	142.56
260.314	155.56
260.547	157.56
260.779	138.56
261.012	149.56
261.244	137.56
261.477	157.56
261.71	153.56
261.942	153.56
262.175	155.56
262.407	154.56
262.64	137.56
262.872	131.56
263.105	135.56
263.337	146.56
263.57	153.56
263.802	143.56
264.035	139.56
264.267	139.56
264.499	133.56
264.732	134.56
264.964	141.56
265.197	135.56
265.429	127.56
265.661	133.56
265.894	145.56
266.126	140.56
266.358	132.56
266.591	131.56
266.823	141.56
267.055	144.56
267.287	140.56
267.52	152.56
267.752	143.56
267.984	133.56
268.216	145.56
268.448	160.56
268.681	151.56
268.913	143.56
269.145	158.56
269.377	168.56
269.609	173.56
269.841	172.56
270.073	188.56
270.306	178.56
270.538	171.56
270.77	181.56
271.002	188.56
271.234	184.56
271.466	179.56
271.698	179.56
271.93	190.56
272.162	183.56
272.394	188.56
272.626	167.56
272.858	168.56
273.09	164.56
273.322	149.56
273.553	148.56
273.785	148.56
274.017	158.56
274.249	152.56
274.481	151.56
274.713	161.56
274.945	146.56
275.176	151.56
275.408	154.56
275.64	156.56
275.872	160.56
276.104	149.56
276.335	167.56
276.567	170.56
276.799	193.56
277.031	200.56
277.262	190.56
277.494	182.56
277.726	180.56
277.957	170.56
278.189	189.56
278.421	171.56
278.652	172.56
278.884	154.56
279.115	170.56
279.347	155.56
279.579	153.56
279.81	156.56
280.042	158.56
280.273	151.56
280.505	167.56
280.736	163.56
280.968	148.56
281.199	153.56
281.431	180.56
281.662	155.56
281.894	171.56
282.125	168.56
282.356	181.56
282.588	179.56
282.819	182.56
283.051	175.56
283.282	164.56
283.513	156.56
283.745	167.56
283.976	162.56
284.207	153.56
284.439	174.56
284.67	173.56
284.901	160.56
285.132	161.56
285.364	160.56
285.595	163.56
285.826	151.56
286.057	156.56
286.288	171.56
286.52	172.56
286.751	171.56
286.982	159.56
287.213	166.56
287.444	172.56
287.675	179.56
287.906	172.56
288.138	189.56
288.369	197.56
288.6	175.56
288.831	179.56
289.062	193.56
289.293	184.56
289.524	167.56
289.755	164.56
289.986	173.56
290.217	158.56
290.448	172.56
290.679	177.56
290.91	181.56
291.141	166.56
291.371	173.56
291.602	174.56
291.833	179.56
292.064	182.56
292.295	163.56
292.526	173.56
292.757	174.56
292.987	163.56
293.218	172.56
293.449	177.56
293.68	169.56
293.91	162.56
294.141	160.56
294.372	176.56
294.603	186.56
294.833	163.56
295.064	176.56
295.295	179.56
295.525	179.56
295.756	172.56
295.987	166.56
296.217	176.56
296.448	191.56
296.679	186.56
296.909	173.56
297.14	167.56
297.37	179.56
297.601	186.56
297.831	175.56
298.062	174.56
298.292	164.56
298.523	175.56
298.753	178.56
298.984	183.56
299.214	185.56
299.445	180.56
299.675	188.56
299.905	184.56
300.136	188.56
300.366	167.56
300.597	183.56
300.827	189.56
301.057	174.56
301.288	167.56
301.518	193.56
301.748	180.56
301.979	179.56
302.209	181.56
302.439	195.56
302.669	181.56
302.9	190.56
303.13	177.56
303.36	168.56
303.59	186.56
303.82	197.56
304.051	189.56
304.281	199.56
304.511	196.56
304.741	192.56
304.971	183.56
305.201	186.56
305.431	174.56
305.661	202.56
305.891	181.56
306.121	203.56
306.352	196.56
306.582	196.56
306.812	185.56
307.042	206.56
307.272	189.56
307.502	193.56
307.731	192.56
307.961	172.56
308.191	187.56
308.421	177.56
308.651	197.56
308.881	184.56
309.111	176.56
309.341	207.56
309.571	194.56
309.8	192.56
310.03	209.56
310.26	208.56
310.49	208.56
310.72	213.56
310.949	214.56
311.179	215.56
311.409	216.56
311.639	216.56
311.868	209.56
312.098	202.56
312.328	216.56
312.557	212.56
312.787	219.56
313.017	220.56
313.246	217.56
313.476	185.56
313.706	196.56
313.935	192.56
314.165	215.56
314.394	210.56
314.624	212.56
314.853	209.56
315.083	215.56
315.312	205.56
315.542	216.56
315.771	197.56
316.001	203.56
316.23	208.56
316.46	192.56
316.689	205.56
316.919	190.56
317.148	211.56
317.377	220.56
317.607	198.56
317.836	194.56
318.065	204.56
318.295	221.56
318.524	214.56
318.753	203.56
318.983	203.56
319.212	188.56
319.441	205.56
319.67	203.56
319.9	205.56
320.129	204.56
320.358	210.56
320.587	207.56
320.816	215.56
321.046	202.56
321.275	215.56
321.504	211.56
321.733	223.56
321.962	239.56
322.191	214.56
322.42	235.56
322.649	237.56
322.878	235.56
323.108	269.56
323.337	259.56
323.566	269.56
323.795	272.56
324.024	302.56
324.253	359.56
324.482	500.56
324.71	799.56
324.939	1029.56
325.168	845.56
325.397	443.56
325.626	301.56
325.855	271.56
326.084	254.56
326.313	234.56
326.542	240.56
326.77	287.56
326.999	333.56
327.228	472.56
327.457	669.56
327.686	770.56
327.914	512.56
328.143	363.56
328.372	307.56
328.6	304.56
328.829	292.56
329.058	309.56
329.287	336.56
329.515	283.56
329.744	263.56
329.972	272.56
330.201	293.56
330.43	319.56
330.658	325.56
330.887	332.56
331.115	340.56
331.344	280.56
331.572	278.56
331.801	266.56
332.03	273.56
332.258	265.56
332.486	247.56
332.715	228.56
332.943	231.56
333.172	253.56
333.4	256.56
333.629	249.56
333.857	249.56
334.085	263.56
334.314	288.56
334.542	315.56
334.771	315.56
334.999	294.56
335.227	259.56
335.455	241.56
335.684	243.56
335.912	227.56
336.14	219.56
336.369	224.56
336.597	232.56
336.825	229.56
337.053	258.56
337.281	229.56
337.51	230.56
337.738	235.56
337.966	231.56
338.194	235.56
338.422	252.56
338.65	250.56
338.878	233.56
339.106	234.56
339.334	217.56
339.562	219.56
339.79	228.56
340.018	228.56
340.246	236.56
340.474	243.56
340.702	246.56
340.93	250.56
341.158	218.56
341.386	234.56
341.614	230.56
341.842	226.56
342.07	225.56
342.298	231.56
342.526	223.56
342.754	212.56
342.981	218.56
343.209	215.56
343.437	218.56
343.665	227.56
343.893	230.56
344.12	247.56
344.348	223.56
344.576	247.56
344.804	211.56
345.031	231.56
345.259	254.56
345.487	222.56
345.714	223.56
345.942	212.56
346.17	215.56
346.397	208.56
346.625	216.56
346.853	232.56
347.08	212.56
347.308	222.56
347.535	232.56
347.763	229.56
347.99	233.56
348.218	233.56
348.445	228.56
348.673	217.56
348.9	220.56
349.128	224.56
349.355	220.56
349.583	203.56
349.81	209.56
350.037	223.56
350.265	221.56
350.492	237.56
350.72	217.56
350.947	222.56
351.174	239.56
351.402	244.56
351.629	228.56
351.856	221.56
352.083	238.56
352.311	238.56
352.538	231.56
352.765	220.56
352.992	231.56
353.22	216.56
353.447	219.56
353.674	205.56
353.901	214.56
354.128	205.56
354.355	194.56
354.583	211.56
354.81	198.56
355.037	221.56
355.264	215.56
355.491	187.56
355.718	208.56
355.945	214.56
356.172	213.56
356.399	217.56
356.626	208.56
356.853	206.56
357.08	223.56
357.307	196.56
357.534	193.56
357.761	191.56
357.988	207.56
358.215	209.56
358.441	185.56
358.668	214.56
358.895	222.56
359.122	208.56
359.349	211.56
359.576	205.56
359.802	232.56
360.029	248.56
360.256	259.56
360.483	230.56
360.709	221.56
360.936	214.56
361.163	229.56
361.39	228.56
361.616	231.56
361.843	216.56
362.07	221.56
362.296	214.56
362.523	212.56
362.749	216.56
362.976	222.56
363.203	209.56
363.429	217.56
363.656	224.56
363.882	210.56
364.109	205.56
364.335	207.56
364.562	212.56
364.788	209.56
365.015	220.56
365.241	204.56
365.468	201.56
365.694	212.56
365.92	216.56
366.147	215.56
366.373	186.56
366.599	208.56
366.826	222.56
367.052	218.56
367.278	220.56
367.505	215.56
367.731	203.56
367.957	225.56
368.184	209.56
368.41	201.56
368.636	206.56
368.862	208.56
369.089	224.56
369.315	215.56
369.541	221.56
369.767	207.56
369.993	192.56
370.219	214.56
370.445	211.56
370.672	205.56
370.898	203.56
371.124	197.56
371.35	221.56
371.576	214.56
371.802	213.56
372.028	195.56
372.254	211.56
372.48	213.56
372.706	213.56
372.932	207.56
373.158	199.56
373.384	223.56
373.61	198.56
373.835	199.56
374.061	203.56
374.287	194.56
374.513	223.56
374.739	217.56
374.965	207.56
375.191	208.56
375.416	203.56
375.642	213.56
375.868	215.56
376.094	210.56
376.319	215.56
376.545	224.56
376.771	191.56
376.997	192.56
377.222	192.56
377.448	189.56
377.674	197.56
377.899	200.56
378.125	212.56
378.35	209.56
378.576	202.56
378.802	192.56
379.027	192.56
379.253	212.56
379.478	199.56
379.704	201.56
379.929	189.56
380.155	217.56
380.38	201.56
380.606	209.56
380.831	214.56
381.057	230.56
381.282	204.56
381.507	199.56
381.733	205.56
381.958	216.56
382.184	222.56
382.409	192.56
382.634	195.56
382.86	231.56
383.085	199.56
383.31	222.56
383.535	222.56
383.761	218.56
383.986	199.56
384.211	222.56
384.436	210.56
384.662	213.56
384.887	231.56
385.112	203.56
385.337	199.56
385.562	228.56
385.787	212.56
386.013	235.56
386.238	227.56
386.463	220.56
386.688	226.56
386.913	207.56
387.138	221.56
387.363	229.56
387.588	229.56
387.813	212.56
388.038	213.56
388.263	203.56
388.488	209.56
388.713	216.56
388.938	228.56
389.163	216.56
389.387	214.56
389.612	215.56
389.837	219.56
390.062	212.56
390.287	210.56
390.512	214.56
390.736	220.56
390.961	215.56
391.186	220.56
391.411	234.56
391.636	219.56
391.86	216.56
392.085	217.56
392.31	239.56
392.534	225.56
392.759	207.56
392.984	206.56
393.208	230.56
393.433	233.56
393.658	244.56
393.882	226.56
394.107	222.56
394.331	203.56
394.556	226.56
394.78	208.56
395.005	218.56
395.229	227.56
395.454	224.56
395.678	233.56
395.903	229.56
396.127	254.56
396.352	235.56
396.576	231.56
396.801	225.56
397.025	235.56
397.249	236.56
397.474	232.56
397.698	232.56
397.922	243.56
398.147	229.56
398.371	252.56
398.595	248.56
398.82	264.56
399.044	276.56
399.268	245.56
399.492	287.56
399.717	307.56
399.941	284.56
400.165	303.56
400.389	299.56
400.613	269.56
400.837	274.56
401.062	260.56
401.286	265.56
401.51	249.56
401.734	244.56
401.958	243.56
402.182	254.56
402.406	264.56
402.63	261.56
402.854	259.56
403.078	272.56
403.302	270.56
403.526	259.56
403.75	265.56
403.974	259.56
404.198	272.56
404.422	278.56
404.645	258.56
404.869	245.56
405.093	275.56
405.317	276.56
405.541	312.56
405.765	295.56
405.988	297.56
406.212	293.56
406.436	293.56
406.66	306.56
406.883	285.56
407.107	293.56
407.331	316.56
407.555	323.56
407.778	322.56
408.002	318.56
408.226	295.56
408.449	280.56
408.673	268.56
408.896	265.56
409.12	305.56
409.344	284.56
409.567	270.56
409.791	270.56
410.014	260.56
410.238	263.56
410.461	280.56
410.685	262.56
410.908	266.56
411.132	266.56
411.355	289.56
411.578	271.56
411.802	255.56
412.025	257.56
412.249	271.56
412.472	257.56
412.695	294.56
412.919	296.56
413.142	269.56
413.365	268.56
413.589	262.56
413.812	245.56
414.035	269.56
414.258	257.56
414.482	240.56
414.705	233.56
414.928	236.56
415.151	260.56
415.374	259.56
415.597	241.56
415.821	243.56
416.044	267.56
416.267	253.56
416.49	250.56
416.713	247.56
416.936	257.56
417.159	262.56
417.382	243.56
417.605	255.56
417.828	262.56
418.051	275.56
418.274	265.56
418.497	244.56
418.72	264.56
418.943	277.56
419.166	244.56
419.389	264.56
419.611	250.56
419.834	260.56
420.057	273.56
420.28	279.56
420.503	273.56
420.726	254.56
420.948	273.56
421.171	273.56
421.394	297.56
421.617	258.56
421.839	266.56
422.062	256.56
422.285	291.56
422.507	283.56
422.73	331.56
422.953	300.56
423.175	283.56
423.398	255.56
423.621	283.56
423.843	266.56
424.066	275.56
424.288	271.56
424.511	293.56
424.733	302.56
424.956	358.56
425.178	333.56
425.401	323.56
425.623	328.56
425.846	285.56
426.068	281.56
426.291	257.56
426.513	292.56
426.735	263.56
426.958	299.56
427.18	361.56
427.402	386.56
427.625	402.56
427.847	391.56
428.069	321.56
428.292	298.56
428.514	285.56
428.736	263.56
428.958	267.56
429.181	239.56
429.403	255.56
429.625	259.56
429.847	289.56
430.069	304.56
430.292	314.56
430.514	260.56
430.736	269.56
430.958	245.56
431.18	251.56
431.402	253.56
431.624	244.56
431.846	240.56
432.068	246.56
432.29	252.56
432.512	231.56
432.734	249.56
432.956	256.56
433.178	258.56
433.4	261.56
433.622	260.56
433.844	236.56
434.066	234.56
434.287	244.56
434.509	246.56
434.731	261.56
434.953	261.56
435.175	249.56
435.397	281.56
435.618	278.56
435.84	297.56
436.062	311.56
436.284	341.56
436.505	300.56
436.727	292.56
436.949	261.56
437.17	256.56
437.392	275.56
437.614	278.56
437.835	287.56
438.057	314.56
438.278	357.56
438.5	355.56
438.721	373.56
438.943	372.56
439.165	295.56
439.386	303.56
439.608	273.56
439.829	277.56
440.05	298.56
440.272	315.56
440.493	282.56
440.715	281.56
440.936	272.56
441.158	258.56
441.379	241.56
441.6	265.56
441.822	287.56
442.043	295.56
442.264	327.56
442.486	337.56
442.707	296.56
442.928	288.56
443.149	285.56
443.371	313.56
443.592	317.56
443.813	348.56
444.034	372.56
444.255	311.56
444.476	283.56
444.698	294.56
444.919	281.56
445.14	361.56
445.361	347.56
445.582	309.56
445.803	341.56
446.024	376.56
446.245	364.56
446.466	336.56
446.687	304.56
446.908	289.56
447.129	260.56
447.35	264.56
447.571	250.56
447.792	253.56
448.013	261.56
448.234	273.56
448.455	289.56
448.675	336.56
448.896	377.56
449.117	320.56
449.338	322.56
449.559	369.56
449.779	399.56
450	318.56
450.221	269.56
450.442	252.56
450.662	245.56
450.883	267.56
451.104	288.56
451.324	263.56
451.545	249.56
451.766	241.56
451.986	252.56
452.207	245.56
452.428	223.56
452.648	231.56
452.869	225.56
453.089	240.56
453.31	263.56
453.53	215.56
453.751	238.56
453.971	240.56
454.192	248.56
454.412	251.56
454.633	228.56
454.853	234.56
455.073	235.56
455.294	248.56
455.514	277.56
455.734	267.56
455.955	257.56
456.175	223.56
456.395	227.56
456.616	222.56
456.836	207.56
457.056	220.56
457.276	222.56
457.497	228.56
457.717	207.56
457.937	233.56
458.157	220.56
458.377	218.56
458.598	239.56
458.818	264.56
459.038	309.56
459.258	324.56
459.478	277.56
459.698	261.56
459.918	238.56
460.138	259.56
460.358	245.56
460.578	250.56
460.798	245.56
461.018	251.56
461.238	234.56
461.458	257.56
461.678	243.56
461.898	246.56
462.118	268.56
462.338	259.56
462.558	262.56
462.777	256.56
462.997	285.56
463.217	253.56
463.437	281.56
463.657	248.56
463.876	271.56
464.096	262.56
464.316	268.56
464.536	251.56
464.755	270.56
464.975	277.56
465.195	294.56
465.414	343.56
465.634	303.56
465.854	246.56
466.073	251.56
466.293	233.56
466.512	261.56
466.732	255.56
466.951	239.56
467.171	227.56
467.391	253.56
467.61	243.56
467.829	267.56
468.049	236.56
468.268	248.56
468.488	239.56
468.707	222.56
468.927	245.56
469.146	234.56
469.365	238.56
469.585	224.56
469.804	248.56
470.023	237.56
470.243	247.56
470.462	250.56
470.681	261.56
470.901	254.56
471.12	241.56
471.339	244.56
471.558	243.56
471.777	223.56
471.997	240.56
472.216	262.56
472.435	293.56
472.654	250.56
472.873	246.56
473.092	254.56
473.311	231.56
473.53	255.56
473.749	244.56
473.968	274.56
474.187	332.56
474.406	319.56
474.625	262.56
474.844	243.56
475.063	225.56
475.282	245.56
475.501	229.56
475.72	260.56
475.939	245.56
476.158	239.56
476.377	244.56
476.596	245.56
476.814	263.56
477.033	257.56
477.252	269.56
477.471	262.56
477.69	250.56
477.908	260.56
478.127	268.56
478.346	271.56
478.564	259.56
478.783	269.56
479.002	264.56
479.22	260.56
479.439	281.56
479.658	298.56
479.876	294.56
480.095	287.56
480.313	298.56
480.532	312.56
480.751	296.56
480.969	324.56
481.188	349.56
481.406	375.56
481.624	318.56
481.843	287.56
482.061	274.56
482.28	294.56
482.498	280.56
482.717	297.56
482.935	266.56
483.153	281.56
483.372	269.56
483.59	277.56
483.808	270.56
484.027	282.56
484.245	267.56
484.463	283.56
484.681	297.56
484.9	273.56
485.118	286.56
485.336	288.56
485.554	302.56
485.772	264.56
485.99	293.56
486.209	294.56
486.427	299.56
486.645	304.56
486.863	299.56
487.081	314.56
487.299	289.56
487.517	303.56
487.735	279.56
487.953	293.56
488.171	296.56
488.389	301.56
488.607	310.56
488.825	299.56
489.043	273.56
489.261	303.56
489.479	319.56
489.696	323.56
489.914	316.56
490.132	317.56
490.35	320.56
490.568	311.56
490.786	310.56
491.003	323.56
491.221	336.56
491.439	333.56
491.657	330.56
491.874	385.56
492.092	360.56
492.31	375.56
492.527	339.56
492.745	354.56
492.963	342.56
493.18	339.56
493.398	351.56
493.615	365.56
493.833	356.56
494.05	360.56
494.268	364.56
494.485	349.56
494.703	346.56
494.92	342.56
495.138	359.56
495.355	344.56
495.573	353.56
495.79	356.56
496.008	356.56
496.225	327.56
496.442	355.56
496.66	352.56
496.877	355.56
497.094	344.56
497.312	352.56
497.529	347.56
497.746	340.56
497.963	352.56
498.181	379.56
498.398	359.56
498.615	373.56
498.832	381.56
499.049	402.56
499.267	390.56
499.484	396.56
499.701	414.56
499.918	432.56
500.135	431.56
500.352	458.56
500.569	443.56
500.786	468.56
501.003	463.56
501.22	437.56
501.437	443.56
501.654	433.56
501.871	432.56
502.088	407.56
502.305	391.56
502.522	369.56
