Data from 1966.PennyLincolnUp.Lamp.En5.5.200Scan.071719.P1._HRD10591_14-14-22-914.txt Node
Date: Thu Jul 18 14:14:22 EDT 2019
User: cochatt
Spectrometer: HR+D1059
Trigger mode: 1
Integration Time (sec): 1.000000E-1
Scans to average: 1
Electric dark correction enabled: true
Nonlinearity correction enabled: false
Boxcar width: 0
XAxis mode: Wavelengths
Number of Pixels in Spectrum: 2048
>>>>>Begin Spectral Data<<<<<
223.165	-10.19
223.4	-10.19
223.635	-10.19
223.869	-25.19
224.104	-0.19
224.338	-15.19
224.573	-10.19
224.808	-8.19
225.042	-18.19
225.277	4.81
225.511	-5.19
225.746	-6.19
225.98	9.81
226.215	9.81
226.449	21.81
226.683	4.81
226.918	20.81
227.152	26.81
227.387	44.81
227.621	33.81
227.856	37.81
228.09	35.81
228.324	42.81
228.559	45.81
228.793	67.81
229.027	76.81
229.262	74.81
229.496	74.81
229.73	101.81
229.964	101.81
230.199	99.81
230.433	100.81
230.667	92.81
230.901	88.81
231.136	70.81
231.37	85.81
231.604	97.81
231.838	76.81
232.072	90.81
232.306	93.81
232.541	105.81
232.775	94.81
233.009	89.81
233.243	93.81
233.477	85.81
233.711	98.81
233.945	94.81
234.179	87.81
234.413	98.81
234.647	96.81
234.881	90.81
235.115	95.81
235.349	102.81
235.583	97.81
235.817	91.81
236.051	99.81
236.285	94.81
236.519	105.81
236.753	92.81
236.987	107.81
237.221	113.81
237.455	155.81
237.689	114.81
237.922	97.81
238.156	104.81
238.39	107.81
238.624	100.81
238.858	104.81
239.091	84.81
239.325	94.81
239.559	94.81
239.793	105.81
240.027	94.81
240.26	107.81
240.494	112.81
240.728	105.81
240.961	109.81
241.195	107.81
241.429	98.81
241.662	99.81
241.896	81.81
242.13	91.81
242.363	81.81
242.597	88.81
242.83	105.81
243.064	115.81
243.298	113.81
243.531	95.81
243.765	108.81
243.998	104.81
244.232	98.81
244.465	104.81
244.699	98.81
244.932	102.81
245.166	114.81
245.399	110.81
245.633	117.81
245.866	96.81
246.099	107.81
246.333	109.81
246.566	109.81
246.8	117.81
247.033	102.81
247.266	117.81
247.5	116.81
247.733	112.81
247.966	123.81
248.2	116.81
248.433	122.81
248.666	126.81
248.899	121.81
249.133	140.81
249.366	136.81
249.599	117.81
249.832	128.81
250.066	107.81
250.299	115.81
250.532	132.81
250.765	151.81
250.998	139.81
251.231	149.81
251.465	130.81
251.698	134.81
251.931	130.81
252.164	146.81
252.397	128.81
252.63	121.81
252.863	131.81
253.096	133.81
253.329	164.81
253.562	152.81
253.795	149.81
254.028	149.81
254.261	130.81
254.494	151.81
254.727	152.81
254.96	180.81
255.193	177.81
255.426	148.81
255.659	142.81
255.892	133.81
256.124	153.81
256.357	145.81
256.59	131.81
256.823	129.81
257.056	138.81
257.289	137.81
257.521	140.81
257.754	131.81
257.987	127.81
258.22	143.81
258.452	142.81
258.685	136.81
258.918	127.81
259.151	127.81
259.383	138.81
259.616	138.81
259.849	136.81
260.081	149.81
260.314	177.81
260.547	176.81
260.779	152.81
261.012	137.81
261.244	143.81
261.477	133.81
261.71	136.81
261.942	134.81
262.175	151.81
262.407	139.81
262.64	142.81
262.872	142.81
263.105	132.81
263.337	137.81
263.57	128.81
263.802	138.81
264.035	138.81
264.267	142.81
264.499	129.81
264.732	134.81
264.964	131.81
265.197	124.81
265.429	140.81
265.661	130.81
265.894	133.81
266.126	156.81
266.358	136.81
266.591	117.81
266.823	140.81
267.055	144.81
267.287	141.81
267.52	140.81
267.752	137.81
267.984	146.81
268.216	134.81
268.448	154.81
268.681	159.81
268.913	146.81
269.145	173.81
269.377	192.81
269.609	165.81
269.841	163.81
270.073	163.81
270.306	171.81
270.538	188.81
270.77	191.81
271.002	171.81
271.234	180.81
271.466	161.81
271.698	183.81
271.93	172.81
272.162	187.81
272.394	186.81
272.626	148.81
272.858	160.81
273.09	152.81
273.322	146.81
273.553	171.81
273.785	155.81
274.017	154.81
274.249	158.81
274.481	169.81
274.713	171.81
274.945	170.81
275.176	149.81
275.408	153.81
275.64	168.81
275.872	164.81
276.104	157.81
276.335	168.81
276.567	172.81
276.799	168.81
277.031	190.81
277.262	173.81
277.494	205.81
277.726	176.81
277.957	178.81
278.189	158.81
278.421	155.81
278.652	167.81
278.884	169.81
279.115	162.81
279.347	152.81
279.579	152.81
279.81	171.81
280.042	160.81
280.273	171.81
280.505	161.81
280.736	171.81
280.968	167.81
281.199	180.81
281.431	157.81
281.662	157.81
281.894	168.81
282.125	168.81
282.356	181.81
282.588	171.81
282.819	172.81
283.051	173.81
283.282	146.81
283.513	140.81
283.745	170.81
283.976	173.81
284.207	170.81
284.439	171.81
284.67	159.81
284.901	148.81
285.132	167.81
285.364	156.81
285.595	168.81
285.826	160.81
286.057	161.81
286.288	166.81
286.52	162.81
286.751	164.81
286.982	144.81
287.213	168.81
287.444	164.81
287.675	170.81
287.906	176.81
288.138	192.81
288.369	177.81
288.6	178.81
288.831	171.81
289.062	178.81
289.293	182.81
289.524	170.81
289.755	158.81
289.986	164.81
290.217	179.81
290.448	156.81
290.679	166.81
290.91	172.81
291.141	173.81
291.371	169.81
291.602	168.81
291.833	160.81
292.064	184.81
292.295	165.81
292.526	173.81
292.757	164.81
292.987	176.81
293.218	160.81
293.449	180.81
293.68	176.81
293.91	173.81
294.141	163.81
294.372	168.81
294.603	168.81
294.833	183.81
295.064	163.81
295.295	168.81
295.525	185.81
295.756	174.81
295.987	178.81
296.217	188.81
296.448	201.81
296.679	170.81
296.909	164.81
297.14	172.81
297.37	180.81
297.601	182.81
297.831	176.81
298.062	184.81
298.292	157.81
298.523	172.81
298.753	193.81
298.984	180.81
299.214	176.81
299.445	169.81
299.675	180.81
299.905	181.81
300.136	178.81
300.366	170.81
300.597	174.81
300.827	205.81
301.057	181.81
301.288	204.81
301.518	180.81
301.748	186.81
301.979	163.81
302.209	206.81
302.439	203.81
302.669	192.81
302.9	190.81
303.13	196.81
303.36	204.81
303.59	181.81
303.82	190.81
304.051	180.81
304.281	205.81
304.511	178.81
304.741	181.81
304.971	185.81
305.201	173.81
305.431	203.81
305.661	186.81
305.891	190.81
306.121	186.81
306.352	183.81
306.582	197.81
306.812	192.81
307.042	172.81
307.272	186.81
307.502	193.81
307.731	178.81
307.961	186.81
308.191	188.81
308.421	194.81
308.651	200.81
308.881	195.81
309.111	197.81
309.341	196.81
309.571	218.81
309.8	200.81
310.03	215.81
310.26	223.81
310.49	211.81
310.72	202.81
310.949	214.81
311.179	235.81
311.409	210.81
311.639	220.81
311.868	216.81
312.098	206.81
312.328	213.81
312.557	221.81
312.787	246.81
313.017	223.81
313.246	212.81
313.476	209.81
313.706	222.81
313.935	214.81
314.165	214.81
314.394	229.81
314.624	228.81
314.853	224.81
315.083	219.81
315.312	207.81
315.542	206.81
315.771	211.81
316.001	202.81
316.23	216.81
316.46	203.81
316.689	202.81
316.919	210.81
317.148	211.81
317.377	209.81
317.607	218.81
317.836	195.81
318.065	206.81
318.295	211.81
318.524	206.81
318.753	225.81
318.983	230.81
319.212	221.81
319.441	220.81
319.67	214.81
319.9	217.81
320.129	207.81
320.358	206.81
320.587	203.81
320.816	224.81
321.046	227.81
321.275	215.81
321.504	225.81
321.733	199.81
321.962	221.81
322.191	235.81
322.42	228.81
322.649	234.81
322.878	220.81
323.108	256.81
323.337	272.81
323.566	277.81
323.795	298.81
324.024	315.81
324.253	371.81
324.482	535.81
324.71	795.81
324.939	1080.81
325.168	893.81
325.397	442.81
325.626	316.81
325.855	242.81
326.084	266.81
326.313	259.81
326.542	253.81
326.77	285.81
326.999	363.81
327.228	476.81
327.457	706.81
327.686	800.81
327.914	510.81
328.143	352.81
328.372	323.81
328.6	297.81
328.829	320.81
329.058	310.81
329.287	317.81
329.515	305.81
329.744	280.81
329.972	285.81
330.201	289.81
330.43	320.81
330.658	299.81
330.887	330.81
331.115	336.81
331.344	270.81
331.572	265.81
331.801	265.81
332.03	254.81
332.258	266.81
332.486	242.81
332.715	246.81
332.943	231.81
333.172	242.81
333.4	238.81
333.629	260.81
333.857	266.81
334.085	266.81
334.314	284.81
334.542	301.81
334.771	318.81
334.999	284.81
335.227	266.81
335.455	244.81
335.684	262.81
335.912	232.81
336.14	230.81
336.369	254.81
336.597	231.81
336.825	237.81
337.053	246.81
337.281	238.81
337.51	236.81
337.738	241.81
337.966	242.81
338.194	244.81
338.422	241.81
338.65	233.81
338.878	217.81
339.106	230.81
339.334	213.81
339.562	228.81
339.79	249.81
340.018	242.81
340.246	247.81
340.474	226.81
340.702	223.81
340.93	230.81
341.158	246.81
341.386	239.81
341.614	237.81
341.842	231.81
342.07	233.81
342.298	213.81
342.526	227.81
342.754	237.81
342.981	217.81
343.209	216.81
343.437	221.81
343.665	222.81
343.893	242.81
344.12	241.81
344.348	237.81
344.576	236.81
344.804	229.81
345.031	240.81
345.259	256.81
345.487	253.81
345.714	229.81
345.942	216.81
346.17	217.81
346.397	210.81
346.625	217.81
346.853	229.81
347.08	202.81
347.308	229.81
347.535	230.81
347.763	229.81
347.99	233.81
348.218	251.81
348.445	225.81
348.673	223.81
348.9	211.81
349.128	216.81
349.355	230.81
349.583	221.81
349.81	205.81
350.037	207.81
350.265	214.81
350.492	224.81
350.72	228.81
350.947	240.81
351.174	231.81
351.402	210.81
351.629	206.81
351.856	205.81
352.083	235.81
352.311	212.81
352.538	241.81
352.765	244.81
352.992	244.81
353.22	213.81
353.447	226.81
353.674	207.81
353.901	211.81
354.128	211.81
354.355	204.81
354.583	220.81
354.81	207.81
355.037	205.81
355.264	208.81
355.491	204.81
355.718	193.81
355.945	208.81
356.172	214.81
356.399	198.81
356.626	195.81
356.853	207.81
357.08	203.81
357.307	203.81
357.534	197.81
357.761	202.81
357.988	204.81
358.215	202.81
358.441	192.81
358.668	218.81
358.895	205.81
359.122	190.81
359.349	205.81
359.576	223.81
359.802	241.81
360.029	246.81
360.256	253.81
360.483	244.81
360.709	235.81
360.936	223.81
361.163	226.81
361.39	223.81
361.616	232.81
361.843	231.81
362.07	234.81
362.296	224.81
362.523	220.81
362.749	203.81
362.976	233.81
363.203	220.81
363.429	221.81
363.656	216.81
363.882	203.81
364.109	206.81
364.335	222.81
364.562	222.81
364.788	233.81
365.015	219.81
365.241	218.81
365.468	216.81
365.694	213.81
365.92	216.81
366.147	211.81
366.373	214.81
366.599	216.81
366.826	208.81
367.052	213.81
367.278	203.81
367.505	227.81
367.731	199.81
367.957	213.81
368.184	220.81
368.41	213.81
368.636	226.81
368.862	212.81
369.089	223.81
369.315	193.81
369.541	214.81
369.767	225.81
369.993	196.81
370.219	220.81
370.445	221.81
370.672	201.81
370.898	208.81
371.124	216.81
371.35	197.81
371.576	215.81
371.802	218.81
372.028	211.81
372.254	201.81
372.48	212.81
372.706	206.81
372.932	220.81
373.158	204.81
373.384	223.81
373.61	216.81
373.835	207.81
374.061	192.81
374.287	217.81
374.513	204.81
374.739	218.81
374.965	219.81
375.191	216.81
375.416	214.81
375.642	194.81
375.868	208.81
376.094	208.81
376.319	207.81
376.545	211.81
376.771	201.81
376.997	215.81
377.222	217.81
377.448	213.81
377.674	214.81
377.899	214.81
378.125	211.81
378.35	212.81
378.576	224.81
378.802	205.81
379.027	187.81
379.253	201.81
379.478	201.81
379.704	216.81
379.929	195.81
380.155	202.81
380.38	207.81
380.606	217.81
380.831	216.81
381.057	215.81
381.282	219.81
381.507	206.81
381.733	200.81
381.958	198.81
382.184	211.81
382.409	207.81
382.634	205.81
382.86	209.81
383.085	210.81
383.31	201.81
383.535	229.81
383.761	220.81
383.986	224.81
384.211	226.81
384.436	225.81
384.662	220.81
384.887	210.81
385.112	205.81
385.337	206.81
385.562	227.81
385.787	227.81
386.013	238.81
386.238	222.81
386.463	230.81
386.688	235.81
386.913	205.81
387.138	223.81
387.363	241.81
387.588	237.81
387.813	224.81
388.038	216.81
388.263	227.81
388.488	219.81
388.713	224.81
388.938	242.81
389.163	218.81
389.387	229.81
389.612	230.81
389.837	246.81
390.062	220.81
390.287	234.81
390.512	238.81
390.736	226.81
390.961	217.81
391.186	212.81
391.411	224.81
391.636	232.81
391.86	229.81
392.085	239.81
392.31	222.81
392.534	236.81
392.759	213.81
392.984	247.81
393.208	226.81
393.433	231.81
393.658	209.81
393.882	232.81
394.107	209.81
394.331	217.81
394.556	230.81
394.78	230.81
395.005	225.81
395.229	214.81
395.454	229.81
395.678	232.81
395.903	242.81
396.127	256.81
396.352	265.81
396.576	239.81
396.801	226.81
397.025	236.81
397.249	212.81
397.474	219.81
397.698	242.81
397.922	247.81
398.147	244.81
398.371	247.81
398.595	244.81
398.82	253.81
399.044	246.81
399.268	261.81
399.492	270.81
399.717	295.81
399.941	292.81
400.165	307.81
400.389	297.81
400.613	266.81
400.837	264.81
401.062	263.81
401.286	249.81
401.51	261.81
401.734	256.81
401.958	253.81
402.182	268.81
402.406	260.81
402.63	276.81
402.854	260.81
403.078	271.81
403.302	251.81
403.526	269.81
403.75	265.81
403.974	278.81
404.198	280.81
404.422	285.81
404.645	261.81
404.869	257.81
405.093	280.81
405.317	298.81
405.541	292.81
405.765	293.81
405.988	283.81
406.212	266.81
406.436	322.81
406.66	307.81
406.883	285.81
407.107	290.81
407.331	312.81
407.555	332.81
407.778	332.81
408.002	302.81
408.226	279.81
408.449	280.81
408.673	290.81
408.896	300.81
409.12	312.81
409.344	297.81
409.567	284.81
409.791	276.81
410.014	238.81
410.238	255.81
410.461	245.81
410.685	267.81
410.908	285.81
411.132	284.81
411.355	281.81
411.578	284.81
411.802	264.81
412.025	261.81
412.249	278.81
412.472	286.81
412.695	303.81
412.919	287.81
413.142	263.81
413.365	267.81
413.589	283.81
413.812	261.81
414.035	258.81
414.258	258.81
414.482	235.81
414.705	260.81
414.928	241.81
415.151	250.81
415.374	257.81
415.597	256.81
415.821	264.81
416.044	253.81
416.267	259.81
416.49	264.81
416.713	265.81
416.936	257.81
417.159	256.81
417.382	270.81
417.605	244.81
417.828	253.81
418.051	260.81
418.274	265.81
418.497	250.81
418.72	244.81
418.943	246.81
419.166	265.81
419.389	269.81
419.611	270.81
419.834	245.81
420.057	289.81
420.28	275.81
420.503	282.81
420.726	277.81
420.948	271.81
421.171	290.81
421.394	285.81
421.617	275.81
421.839	261.81
422.062	261.81
422.285	288.81
422.507	292.81
422.73	328.81
422.953	324.81
423.175	280.81
423.398	258.81
423.621	269.81
423.843	283.81
424.066	286.81
424.288	282.81
424.511	295.81
424.733	324.81
424.956	332.81
425.178	325.81
425.401	330.81
425.623	332.81
425.846	295.81
426.068	282.81
426.291	278.81
426.513	274.81
426.735	281.81
426.958	295.81
427.18	339.81
427.402	386.81
427.625	429.81
427.847	377.81
428.069	320.81
428.292	284.81
428.514	269.81
428.736	261.81
428.958	257.81
429.181	257.81
429.403	257.81
429.625	269.81
429.847	266.81
430.069	297.81
430.292	301.81
430.514	259.81
430.736	252.81
430.958	260.81
431.18	250.81
431.402	245.81
431.624	236.81
431.846	247.81
432.068	227.81
432.29	243.81
432.512	242.81
432.734	248.81
432.956	257.81
433.178	260.81
433.4	270.81
433.622	233.81
433.844	268.81
434.066	254.81
434.287	235.81
434.509	244.81
434.731	260.81
434.953	259.81
435.175	266.81
435.397	293.81
435.618	296.81
435.84	307.81
436.062	334.81
436.284	339.81
436.505	296.81
436.727	282.81
436.949	281.81
437.17	268.81
437.392	251.81
437.614	264.81
437.835	289.81
438.057	344.81
438.278	380.81
438.5	354.81
438.721	396.81
438.943	346.81
439.165	295.81
439.386	262.81
439.608	293.81
439.829	297.81
440.05	282.81
440.272	316.81
440.493	286.81
440.715	269.81
440.936	288.81
441.158	254.81
441.379	263.81
441.6	282.81
441.822	272.81
442.043	310.81
442.264	325.81
442.486	339.81
442.707	320.81
442.928	282.81
443.149	277.81
443.371	311.81
443.592	339.81
443.813	356.81
444.034	373.81
444.255	314.81
444.476	280.81
444.698	286.81
444.919	280.81
445.14	379.81
445.361	306.81
445.582	298.81
445.803	329.81
446.024	377.81
446.245	381.81
446.466	349.81
446.687	298.81
446.908	270.81
447.129	248.81
447.35	254.81
447.571	246.81
447.792	259.81
448.013	256.81
448.234	261.81
448.455	301.81
448.675	358.81
448.896	401.81
449.117	313.81
449.338	308.81
449.559	353.81
449.779	406.81
450	312.81
450.221	260.81
450.442	268.81
450.662	267.81
450.883	252.81
451.104	266.81
451.324	253.81
451.545	254.81
451.766	233.81
451.986	241.81
452.207	222.81
452.428	234.81
452.648	244.81
452.869	260.81
453.089	250.81
453.31	247.81
453.53	233.81
453.751	238.81
453.971	246.81
454.192	275.81
454.412	251.81
454.633	235.81
454.853	245.81
455.073	243.81
455.294	253.81
455.514	295.81
455.734	272.81
455.955	245.81
456.175	233.81
456.395	228.81
456.616	225.81
456.836	227.81
457.056	217.81
457.276	214.81
457.497	221.81
457.717	212.81
457.937	246.81
458.157	217.81
458.377	228.81
458.598	250.81
458.818	301.81
459.038	313.81
459.258	328.81
459.478	291.81
459.698	247.81
459.918	268.81
460.138	241.81
460.358	250.81
460.578	251.81
460.798	264.81
461.018	254.81
461.238	257.81
461.458	252.81
461.678	268.81
461.898	266.81
462.118	243.81
462.338	258.81
462.558	252.81
462.777	279.81
462.997	240.81
463.217	270.81
463.437	270.81
463.657	265.81
463.876	277.81
464.096	265.81
464.316	282.81
464.536	266.81
464.755	273.81
464.975	272.81
465.195	328.81
465.414	352.81
465.634	307.81
465.854	275.81
466.073	264.81
466.293	254.81
466.512	251.81
466.732	237.81
466.951	247.81
467.171	234.81
467.391	242.81
467.61	243.81
467.829	248.81
468.049	260.81
468.268	265.81
468.488	230.81
468.707	230.81
468.927	229.81
469.146	220.81
469.365	242.81
469.585	228.81
469.804	251.81
470.023	258.81
470.243	266.81
470.462	253.81
470.681	272.81
470.901	255.81
471.12	255.81
471.339	254.81
471.558	256.81
471.777	226.81
471.997	228.81
472.216	248.81
472.435	291.81
472.654	254.81
472.873	246.81
473.092	229.81
473.311	237.81
473.53	247.81
473.749	245.81
473.968	268.81
474.187	314.81
474.406	329.81
474.625	257.81
474.844	252.81
475.063	244.81
475.282	246.81
475.501	225.81
475.72	233.81
475.939	233.81
476.158	237.81
476.377	245.81
476.596	233.81
476.814	266.81
477.033	252.81
477.252	248.81
477.471	263.81
477.69	251.81
477.908	254.81
478.127	259.81
478.346	276.81
478.564	254.81
478.783	284.81
479.002	272.81
479.22	274.81
479.439	277.81
479.658	278.81
479.876	282.81
480.095	282.81
480.313	300.81
480.532	295.81
480.751	302.81
480.969	296.81
481.188	368.81
481.406	391.81
481.624	306.81
481.843	313.81
482.061	291.81
482.28	268.81
482.498	269.81
482.717	285.81
482.935	301.81
483.153	279.81
483.372	268.81
483.59	267.81
483.808	281.81
484.027	274.81
484.245	292.81
484.463	296.81
484.681	307.81
484.9	294.81
485.118	285.81
485.336	277.81
485.554	266.81
485.772	282.81
485.99	288.81
486.209	293.81
486.427	270.81
486.645	306.81
486.863	329.81
487.081	331.81
487.299	294.81
487.517	300.81
487.735	323.81
487.953	330.81
488.171	310.81
488.389	293.81
488.607	287.81
488.825	281.81
489.043	302.81
489.261	305.81
489.479	307.81
489.696	320.81
489.914	320.81
490.132	292.81
490.35	291.81
490.568	317.81
490.786	338.81
491.003	323.81
491.221	340.81
491.439	334.81
491.657	376.81
491.874	348.81
492.092	352.81
492.31	353.81
492.527	349.81
492.745	351.81
492.963	360.81
493.18	376.81
493.398	356.81
493.615	376.81
493.833	359.81
494.05	352.81
494.268	369.81
494.485	353.81
494.703	343.81
494.92	353.81
495.138	380.81
495.355	360.81
495.573	363.81
495.79	358.81
496.008	350.81
496.225	344.81
496.442	358.81
496.66	350.81
496.877	353.81
497.094	363.81
497.312	352.81
497.529	340.81
497.746	361.81
497.963	358.81
498.181	378.81
498.398	378.81
498.615	378.81
498.832	393.81
499.049	381.81
499.267	403.81
499.484	399.81
499.701	412.81
499.918	435.81
500.135	470.81
500.352	474.81
500.569	473.81
500.786	473.81
501.003	464.81
501.22	450.81
501.437	450.81
501.654	439.81
501.871	440.81
502.088	432.81
502.305	403.81
502.522	394.81
