Data from 1966.PennyLincolnUp.Lamp.En5.5.200Scan.071719.P1._HRD10591_14-12-23-913.txt Node
Date: Thu Jul 18 14:12:23 EDT 2019
User: cochatt
Spectrometer: HR+D1059
Trigger mode: 1
Integration Time (sec): 1.000000E-1
Scans to average: 1
Electric dark correction enabled: true
Nonlinearity correction enabled: false
Boxcar width: 0
XAxis mode: Wavelengths
Number of Pixels in Spectrum: 2048
>>>>>Begin Spectral Data<<<<<
223.165	-10.5
223.4	-10.5
223.635	-10.5
223.869	-27.5
224.104	-20.5
224.338	-12.5
224.573	-20.5
224.808	8.5
225.042	2.5
225.277	-8.5
225.511	-7.5
225.746	6.5
225.98	5.5
226.215	13.5
226.449	-5.5
226.683	21.5
226.918	21.5
227.152	33.5
227.387	27.5
227.621	39.5
227.856	34.5
228.09	39.5
228.324	44.5
228.559	53.5
228.793	50.5
229.027	77.5
229.262	78.5
229.496	87.5
229.73	91.5
229.964	88.5
230.199	74.5
230.433	69.5
230.667	71.5
230.901	94.5
231.136	84.5
231.37	85.5
231.604	98.5
231.838	80.5
232.072	83.5
232.306	83.5
232.541	86.5
232.775	93.5
233.009	93.5
233.243	89.5
233.477	104.5
233.711	86.5
233.945	93.5
234.179	89.5
234.413	110.5
234.647	96.5
234.881	90.5
235.115	92.5
235.349	98.5
235.583	79.5
235.817	99.5
236.051	100.5
236.285	110.5
236.519	99.5
236.753	92.5
236.987	97.5
237.221	108.5
237.455	131.5
237.689	119.5
237.922	107.5
238.156	82.5
238.39	90.5
238.624	84.5
238.858	82.5
239.091	105.5
239.325	103.5
239.559	98.5
239.793	99.5
240.027	90.5
240.26	93.5
240.494	106.5
240.728	106.5
240.961	103.5
241.195	91.5
241.429	104.5
241.662	94.5
241.896	85.5
242.13	85.5
242.363	74.5
242.597	84.5
242.83	88.5
243.064	84.5
243.298	106.5
243.531	89.5
243.765	101.5
243.998	108.5
244.232	107.5
244.465	101.5
244.699	101.5
244.932	88.5
245.166	107.5
245.399	110.5
245.633	101.5
245.866	89.5
246.099	112.5
246.333	103.5
246.566	95.5
246.8	108.5
247.033	100.5
247.266	96.5
247.5	111.5
247.733	119.5
247.966	106.5
248.2	118.5
248.433	116.5
248.666	124.5
248.899	121.5
249.133	116.5
249.366	131.5
249.599	114.5
249.832	120.5
250.066	119.5
250.299	99.5
250.532	117.5
250.765	124.5
250.998	132.5
251.231	133.5
251.465	114.5
251.698	115.5
251.931	124.5
252.164	109.5
252.397	108.5
252.63	110.5
252.863	125.5
253.096	123.5
253.329	145.5
253.562	135.5
253.795	125.5
254.028	125.5
254.261	125.5
254.494	132.5
254.727	155.5
254.96	156.5
255.193	133.5
255.426	127.5
255.659	125.5
255.892	132.5
256.124	121.5
256.357	129.5
256.59	126.5
256.823	135.5
257.056	121.5
257.289	105.5
257.521	118.5
257.754	119.5
257.987	110.5
258.22	123.5
258.452	121.5
258.685	126.5
258.918	126.5
259.151	119.5
259.383	126.5
259.616	132.5
259.849	124.5
260.081	138.5
260.314	140.5
260.547	133.5
260.779	123.5
261.012	130.5
261.244	116.5
261.477	133.5
261.71	120.5
261.942	120.5
262.175	125.5
262.407	128.5
262.64	129.5
262.872	114.5
263.105	115.5
263.337	133.5
263.57	108.5
263.802	121.5
264.035	123.5
264.267	123.5
264.499	118.5
264.732	122.5
264.964	121.5
265.197	128.5
265.429	118.5
265.661	117.5
265.894	129.5
266.126	110.5
266.358	131.5
266.591	128.5
266.823	131.5
267.055	130.5
267.287	137.5
267.52	107.5
267.752	119.5
267.984	123.5
268.216	148.5
268.448	147.5
268.681	129.5
268.913	127.5
269.145	145.5
269.377	157.5
269.609	140.5
269.841	138.5
270.073	138.5
270.306	158.5
270.538	165.5
270.77	167.5
271.002	146.5
271.234	148.5
271.466	162.5
271.698	161.5
271.93	154.5
272.162	167.5
272.394	165.5
272.626	149.5
272.858	142.5
273.09	131.5
273.322	148.5
273.553	165.5
273.785	123.5
274.017	126.5
274.249	138.5
274.481	154.5
274.713	156.5
274.945	141.5
275.176	143.5
275.408	151.5
275.64	142.5
275.872	140.5
276.104	156.5
276.335	151.5
276.567	157.5
276.799	145.5
277.031	162.5
277.262	163.5
277.494	168.5
277.726	168.5
277.957	156.5
278.189	145.5
278.421	143.5
278.652	142.5
278.884	134.5
279.115	159.5
279.347	141.5
279.579	141.5
279.81	143.5
280.042	136.5
280.273	143.5
280.505	142.5
280.736	144.5
280.968	142.5
281.199	149.5
281.431	139.5
281.662	148.5
281.894	151.5
282.125	143.5
282.356	142.5
282.588	171.5
282.819	155.5
283.051	142.5
283.282	155.5
283.513	150.5
283.745	135.5
283.976	142.5
284.207	148.5
284.439	153.5
284.67	145.5
284.901	150.5
285.132	145.5
285.364	135.5
285.595	144.5
285.826	145.5
286.057	145.5
286.288	153.5
286.52	156.5
286.751	154.5
286.982	150.5
287.213	157.5
287.444	153.5
287.675	149.5
287.906	150.5
288.138	153.5
288.369	157.5
288.6	153.5
288.831	160.5
289.062	147.5
289.293	164.5
289.524	143.5
289.755	152.5
289.986	135.5
290.217	136.5
290.448	145.5
290.679	142.5
290.91	144.5
291.141	165.5
291.371	155.5
291.602	138.5
291.833	167.5
292.064	129.5
292.295	156.5
292.526	153.5
292.757	156.5
292.987	151.5
293.218	149.5
293.449	157.5
293.68	149.5
293.91	161.5
294.141	170.5
294.372	155.5
294.603	155.5
294.833	147.5
295.064	153.5
295.295	167.5
295.525	155.5
295.756	150.5
295.987	178.5
296.217	163.5
296.448	161.5
296.679	166.5
296.909	157.5
297.14	146.5
297.37	153.5
297.601	157.5
297.831	156.5
298.062	155.5
298.292	148.5
298.523	148.5
298.753	154.5
298.984	156.5
299.214	152.5
299.445	156.5
299.675	152.5
299.905	164.5
300.136	164.5
300.366	160.5
300.597	158.5
300.827	168.5
301.057	155.5
301.288	166.5
301.518	155.5
301.748	163.5
301.979	151.5
302.209	159.5
302.439	152.5
302.669	165.5
302.9	177.5
303.13	162.5
303.36	152.5
303.59	149.5
303.82	155.5
304.051	164.5
304.281	177.5
304.511	162.5
304.741	159.5
304.971	164.5
305.201	171.5
305.431	163.5
305.661	165.5
305.891	161.5
306.121	163.5
306.352	166.5
306.582	175.5
306.812	162.5
307.042	162.5
307.272	147.5
307.502	162.5
307.731	185.5
307.961	177.5
308.191	163.5
308.421	161.5
308.651	144.5
308.881	166.5
309.111	162.5
309.341	153.5
309.571	167.5
309.8	189.5
310.03	185.5
310.26	199.5
310.49	193.5
310.72	166.5
310.949	164.5
311.179	192.5
311.409	176.5
311.639	177.5
311.868	175.5
312.098	186.5
312.328	172.5
312.557	194.5
312.787	195.5
313.017	190.5
313.246	189.5
313.476	182.5
313.706	177.5
313.935	185.5
314.165	205.5
314.394	198.5
314.624	200.5
314.853	206.5
315.083	176.5
315.312	181.5
315.542	184.5
315.771	165.5
316.001	165.5
316.23	181.5
316.46	167.5
316.689	163.5
316.919	173.5
317.148	191.5
317.377	189.5
317.607	184.5
317.836	184.5
318.065	182.5
318.295	179.5
318.524	157.5
318.753	166.5
318.983	193.5
319.212	181.5
319.441	197.5
319.67	171.5
319.9	186.5
320.129	177.5
320.358	179.5
320.587	154.5
320.816	183.5
321.046	189.5
321.275	190.5
321.504	177.5
321.733	190.5
321.962	191.5
322.191	190.5
322.42	212.5
322.649	215.5
322.878	222.5
323.108	216.5
323.337	206.5
323.566	226.5
323.795	238.5
324.024	255.5
324.253	315.5
324.482	441.5
324.71	626.5
324.939	840.5
325.168	708.5
325.397	354.5
325.626	265.5
325.855	222.5
326.084	206.5
326.313	217.5
326.542	199.5
326.77	222.5
326.999	304.5
327.228	380.5
327.457	557.5
327.686	636.5
327.914	419.5
328.143	290.5
328.372	247.5
328.6	258.5
328.829	245.5
329.058	263.5
329.287	270.5
329.515	258.5
329.744	222.5
329.972	226.5
330.201	238.5
330.43	272.5
330.658	271.5
330.887	284.5
331.115	269.5
331.344	222.5
331.572	225.5
331.801	219.5
332.03	218.5
332.258	211.5
332.486	206.5
332.715	221.5
332.943	217.5
333.172	206.5
333.4	204.5
333.629	206.5
333.857	222.5
334.085	217.5
334.314	227.5
334.542	249.5
334.771	265.5
334.999	219.5
335.227	217.5
335.455	194.5
335.684	210.5
335.912	220.5
336.14	205.5
336.369	202.5
336.597	198.5
336.825	204.5
337.053	204.5
337.281	209.5
337.51	203.5
337.738	203.5
337.966	189.5
338.194	199.5
338.422	220.5
338.65	199.5
338.878	192.5
339.106	192.5
339.334	209.5
339.562	192.5
339.79	198.5
340.018	195.5
340.246	216.5
340.474	197.5
340.702	195.5
340.93	201.5
341.158	200.5
341.386	205.5
341.614	197.5
341.842	195.5
342.07	206.5
342.298	177.5
342.526	192.5
342.754	183.5
342.981	191.5
343.209	202.5
343.437	207.5
343.665	202.5
343.893	209.5
344.12	215.5
344.348	197.5
344.576	203.5
344.804	196.5
345.031	205.5
345.259	207.5
345.487	209.5
345.714	195.5
345.942	182.5
346.17	192.5
346.397	173.5
346.625	191.5
346.853	188.5
347.08	179.5
347.308	185.5
347.535	214.5
347.763	216.5
347.99	194.5
348.218	218.5
348.445	198.5
348.673	197.5
348.9	206.5
349.128	177.5
349.355	161.5
349.583	181.5
349.81	188.5
350.037	177.5
350.265	193.5
350.492	178.5
350.72	187.5
350.947	201.5
351.174	189.5
351.402	200.5
351.629	210.5
351.856	201.5
352.083	189.5
352.311	201.5
352.538	208.5
352.765	197.5
352.992	206.5
353.22	203.5
353.447	194.5
353.674	191.5
353.901	181.5
354.128	192.5
354.355	188.5
354.583	186.5
354.81	194.5
355.037	180.5
355.264	190.5
355.491	190.5
355.718	172.5
355.945	189.5
356.172	168.5
356.399	162.5
356.626	174.5
356.853	194.5
357.08	189.5
357.307	189.5
357.534	173.5
357.761	176.5
357.988	177.5
358.215	165.5
358.441	176.5
358.668	196.5
358.895	173.5
359.122	181.5
359.349	198.5
359.576	188.5
359.802	204.5
360.029	212.5
360.256	224.5
360.483	188.5
360.709	203.5
360.936	198.5
361.163	191.5
361.39	200.5
361.616	200.5
361.843	197.5
362.07	192.5
362.296	198.5
362.523	189.5
362.749	192.5
362.976	177.5
363.203	187.5
363.429	208.5
363.656	178.5
363.882	188.5
364.109	182.5
364.335	187.5
364.562	190.5
364.788	187.5
365.015	187.5
365.241	172.5
365.468	179.5
365.694	181.5
365.92	198.5
366.147	205.5
366.373	179.5
366.599	197.5
366.826	174.5
367.052	181.5
367.278	173.5
367.505	181.5
367.731	191.5
367.957	175.5
368.184	181.5
368.41	184.5
368.636	194.5
368.862	189.5
369.089	193.5
369.315	196.5
369.541	170.5
369.767	182.5
369.993	190.5
370.219	188.5
370.445	189.5
370.672	182.5
370.898	186.5
371.124	182.5
371.35	202.5
371.576	181.5
371.802	166.5
372.028	191.5
372.254	180.5
372.48	191.5
372.706	189.5
372.932	175.5
373.158	203.5
373.384	197.5
373.61	188.5
373.835	185.5
374.061	176.5
374.287	175.5
374.513	183.5
374.739	193.5
374.965	194.5
375.191	182.5
375.416	185.5
375.642	183.5
375.868	180.5
376.094	184.5
376.319	178.5
376.545	175.5
376.771	177.5
376.997	187.5
377.222	195.5
377.448	195.5
377.674	198.5
377.899	179.5
378.125	162.5
378.35	179.5
378.576	184.5
378.802	186.5
379.027	193.5
379.253	178.5
379.478	187.5
379.704	187.5
379.929	188.5
380.155	184.5
380.38	178.5
380.606	194.5
380.831	189.5
381.057	181.5
381.282	189.5
381.507	193.5
381.733	174.5
381.958	165.5
382.184	185.5
382.409	190.5
382.634	185.5
382.86	184.5
383.085	194.5
383.31	200.5
383.535	202.5
383.761	193.5
383.986	197.5
384.211	188.5
384.436	192.5
384.662	205.5
384.887	203.5
385.112	202.5
385.337	202.5
385.562	197.5
385.787	191.5
386.013	222.5
386.238	195.5
386.463	203.5
386.688	207.5
386.913	172.5
387.138	184.5
387.363	187.5
387.588	195.5
387.813	194.5
388.038	181.5
388.263	191.5
388.488	202.5
388.713	194.5
388.938	190.5
389.163	218.5
389.387	181.5
389.612	179.5
389.837	203.5
390.062	193.5
390.287	200.5
390.512	196.5
390.736	190.5
390.961	193.5
391.186	195.5
391.411	206.5
391.636	194.5
391.86	181.5
392.085	210.5
392.31	192.5
392.534	197.5
392.759	182.5
392.984	191.5
393.208	195.5
393.433	210.5
393.658	217.5
393.882	201.5
394.107	190.5
394.331	204.5
394.556	195.5
394.78	186.5
395.005	195.5
395.229	203.5
395.454	201.5
395.678	203.5
395.903	196.5
396.127	206.5
396.352	226.5
396.576	197.5
396.801	225.5
397.025	212.5
397.249	219.5
397.474	195.5
397.698	216.5
397.922	195.5
398.147	205.5
398.371	221.5
398.595	215.5
398.82	219.5
399.044	205.5
399.268	222.5
399.492	234.5
399.717	244.5
399.941	286.5
400.165	271.5
400.389	238.5
400.613	246.5
400.837	233.5
401.062	227.5
401.286	235.5
401.51	222.5
401.734	213.5
401.958	229.5
402.182	215.5
402.406	235.5
402.63	231.5
402.854	223.5
403.078	220.5
403.302	232.5
403.526	227.5
403.75	234.5
403.974	237.5
404.198	236.5
404.422	228.5
404.645	226.5
404.869	224.5
405.093	250.5
405.317	260.5
405.541	270.5
405.765	241.5
405.988	234.5
406.212	253.5
406.436	258.5
406.66	270.5
406.883	255.5
407.107	244.5
407.331	275.5
407.555	289.5
407.778	270.5
408.002	271.5
408.226	234.5
408.449	245.5
408.673	231.5
408.896	265.5
409.12	262.5
409.344	246.5
409.567	226.5
409.791	221.5
410.014	226.5
410.238	214.5
410.461	240.5
410.685	225.5
410.908	233.5
411.132	243.5
411.355	277.5
411.578	245.5
411.802	244.5
412.025	222.5
412.249	231.5
412.472	226.5
412.695	249.5
412.919	245.5
413.142	239.5
413.365	222.5
413.589	222.5
413.812	206.5
414.035	207.5
414.258	221.5
414.482	227.5
414.705	233.5
414.928	231.5
415.151	205.5
415.374	219.5
415.597	223.5
415.821	208.5
416.044	214.5
416.267	242.5
416.49	219.5
416.713	232.5
416.936	216.5
417.159	216.5
417.382	217.5
417.605	228.5
417.828	237.5
418.051	234.5
418.274	224.5
418.497	227.5
418.72	226.5
418.943	217.5
419.166	236.5
419.389	239.5
419.611	222.5
419.834	230.5
420.057	207.5
420.28	232.5
420.503	236.5
420.726	228.5
420.948	242.5
421.171	255.5
421.394	261.5
421.617	236.5
421.839	247.5
422.062	233.5
422.285	241.5
422.507	250.5
422.73	275.5
422.953	265.5
423.175	242.5
423.398	238.5
423.621	246.5
423.843	262.5
424.066	261.5
424.288	250.5
424.511	248.5
424.733	258.5
424.956	313.5
425.178	301.5
425.401	291.5
425.623	300.5
425.846	259.5
426.068	247.5
426.291	243.5
426.513	257.5
426.735	229.5
426.958	255.5
427.18	285.5
427.402	331.5
427.625	347.5
427.847	323.5
428.069	269.5
428.292	242.5
428.514	246.5
428.736	240.5
428.958	238.5
429.181	227.5
429.403	210.5
429.625	229.5
429.847	231.5
430.069	265.5
430.292	274.5
430.514	235.5
430.736	217.5
430.958	213.5
431.18	241.5
431.402	217.5
431.624	224.5
431.846	206.5
432.068	205.5
432.29	221.5
432.512	225.5
432.734	222.5
432.956	218.5
433.178	227.5
433.4	232.5
433.622	220.5
433.844	221.5
434.066	223.5
434.287	221.5
434.509	214.5
434.731	233.5
434.953	216.5
435.175	242.5
435.397	242.5
435.618	244.5
435.84	263.5
436.062	271.5
436.284	297.5
436.505	252.5
436.727	243.5
436.949	243.5
437.17	224.5
437.392	218.5
437.614	233.5
437.835	233.5
438.057	291.5
438.278	321.5
438.5	299.5
438.721	348.5
438.943	345.5
439.165	257.5
439.386	226.5
439.608	242.5
439.829	230.5
440.05	275.5
440.272	279.5
440.493	260.5
440.715	245.5
440.936	236.5
441.158	219.5
441.379	226.5
441.6	217.5
441.822	257.5
442.043	259.5
442.264	285.5
442.486	298.5
442.707	248.5
442.928	239.5
443.149	256.5
443.371	263.5
443.592	266.5
443.813	318.5
444.034	318.5
444.255	268.5
444.476	250.5
444.698	214.5
444.919	229.5
445.14	347.5
445.361	282.5
445.582	254.5
445.803	278.5
446.024	326.5
446.245	339.5
446.466	295.5
446.687	270.5
446.908	239.5
447.129	238.5
447.35	225.5
447.571	199.5
447.792	227.5
448.013	241.5
448.234	221.5
448.455	230.5
448.675	289.5
448.896	329.5
449.117	271.5
449.338	277.5
449.559	319.5
449.779	324.5
450	281.5
450.221	243.5
450.442	238.5
450.662	221.5
450.883	214.5
451.104	218.5
451.324	217.5
451.545	222.5
451.766	214.5
451.986	213.5
452.207	214.5
452.428	197.5
452.648	209.5
452.869	204.5
453.089	211.5
453.31	218.5
453.53	218.5
453.751	226.5
453.971	212.5
454.192	228.5
454.412	229.5
454.633	210.5
454.853	194.5
455.073	206.5
455.294	206.5
455.514	237.5
455.734	229.5
455.955	201.5
456.175	180.5
456.395	188.5
456.616	194.5
456.836	193.5
457.056	202.5
457.276	177.5
457.497	192.5
457.717	187.5
457.937	204.5
458.157	206.5
458.377	207.5
458.598	203.5
458.818	237.5
459.038	277.5
459.258	270.5
459.478	227.5
459.698	225.5
459.918	217.5
460.138	209.5
460.358	211.5
460.578	228.5
460.798	226.5
461.018	230.5
461.238	226.5
461.458	223.5
461.678	222.5
461.898	217.5
462.118	217.5
462.338	228.5
462.558	217.5
462.777	229.5
462.997	226.5
463.217	222.5
463.437	241.5
463.657	229.5
463.876	225.5
464.096	218.5
464.316	230.5
464.536	230.5
464.755	237.5
464.975	227.5
465.195	245.5
465.414	288.5
465.634	247.5
465.854	251.5
466.073	218.5
466.293	193.5
466.512	219.5
466.732	208.5
466.951	211.5
467.171	206.5
467.391	204.5
467.61	204.5
467.829	234.5
468.049	233.5
468.268	215.5
468.488	202.5
468.707	203.5
468.927	200.5
469.146	204.5
469.365	220.5
469.585	214.5
469.804	207.5
470.023	234.5
470.243	212.5
470.462	226.5
470.681	236.5
470.901	213.5
471.12	213.5
471.339	208.5
471.558	213.5
471.777	219.5
471.997	209.5
472.216	237.5
472.435	248.5
472.654	235.5
472.873	201.5
473.092	209.5
473.311	204.5
473.53	217.5
473.749	218.5
473.968	238.5
474.187	274.5
474.406	266.5
474.625	222.5
474.844	219.5
475.063	198.5
475.282	205.5
475.501	213.5
475.72	228.5
475.939	224.5
476.158	222.5
476.377	219.5
476.596	207.5
476.814	232.5
477.033	221.5
477.252	217.5
477.471	215.5
477.69	231.5
477.908	225.5
478.127	251.5
478.346	240.5
478.564	245.5
478.783	228.5
479.002	235.5
479.22	250.5
479.439	252.5
479.658	257.5
479.876	250.5
480.095	236.5
480.313	263.5
480.532	263.5
480.751	261.5
480.969	252.5
481.188	285.5
481.406	315.5
481.624	262.5
481.843	259.5
482.061	229.5
482.28	247.5
482.498	254.5
482.717	233.5
482.935	227.5
483.153	247.5
483.372	250.5
483.59	244.5
483.808	254.5
484.027	250.5
484.245	264.5
484.463	231.5
484.681	233.5
484.9	257.5
485.118	243.5
485.336	245.5
485.554	238.5
485.772	250.5
485.99	256.5
486.209	243.5
486.427	246.5
486.645	257.5
486.863	260.5
487.081	268.5
487.299	246.5
487.517	250.5
487.735	261.5
487.953	257.5
488.171	264.5
488.389	260.5
488.607	268.5
488.825	264.5
489.043	257.5
489.261	257.5
489.479	263.5
489.696	271.5
489.914	274.5
490.132	286.5
490.35	283.5
490.568	297.5
490.786	292.5
491.003	311.5
491.221	284.5
491.439	281.5
491.657	299.5
491.874	291.5
492.092	305.5
492.31	322.5
492.527	295.5
492.745	305.5
492.963	307.5
493.18	310.5
493.398	317.5
493.615	335.5
493.833	301.5
494.05	308.5
494.268	328.5
494.485	285.5
494.703	305.5
494.92	297.5
495.138	299.5
495.355	311.5
495.573	301.5
495.79	290.5
496.008	301.5
496.225	313.5
496.442	302.5
496.66	303.5
496.877	290.5
497.094	310.5
497.312	277.5
497.529	315.5
497.746	317.5
497.963	321.5
498.181	317.5
498.398	302.5
498.615	338.5
498.832	317.5
499.049	336.5
499.267	345.5
499.484	346.5
499.701	328.5
499.918	382.5
500.135	377.5
500.352	380.5
500.569	391.5
500.786	389.5
501.003	403.5
501.22	381.5
501.437	387.5
501.654	371.5
501.871	364.5
502.088	353.5
502.305	330.5
502.522	323.5
502.739	325.5
502.956	308.5
503.172	305.5
503.389	317.5
503.606	323.5
503.823	313.5
504.04	315.5
504.256	285.5
504.473	321.5
504.69	286.5
504.907	301.5
505.123	292.5
505.34	296.5
505.557	279.5
505.773	286.5
505.99	300.5
506.207	293.5
506.423	269.5
506.64	284.5
506.856	285.5
507.073	281.5
507.289	268.5
507.506	286.5
507.722	288.5
507.939	301.5
508.155	286.5
508.372	273.5
508.588	270.5
508.805	267.5
509.021	283.5
509.238	286.5
509.454	270.5
509.67	267.5
509.887	271.5
510.103	276.5
510.319	277.5
510.536	312.5
510.752	567.5
510.968	441.5
511.184	280.5
511.401	284.5
511.617	262.5
511.833	257.5
512.049	260.5
512.265	238.5
512.481	243.5
512.698	268.5
512.914	269.5
513.13	249.5
513.346	255.5
513.562	241.5
513.778	242.5
513.994	253.5
514.21	257.5
514.426	253.5
514.642	301.5
514.858	307.5
515.074	307.5
515.29	412.5
515.506	628.5
515.721	499.5
515.937	323.5
516.153	285.5
516.369	270.5
516.585	255.5
516.801	265.5
517.016	277.5
517.232	260.5
517.448	268.5
517.664	263.5
517.879	277.5
518.095	259.5
518.311	249.5
518.527	277.5
518.742	247.5
518.958	257.5
519.173	240.5
519.389	259.5
519.605	247.5
519.82	236.5
520.036	263.5
520.251	283.5
520.467	285.5
520.682	285.5
