Data from 1966.PennyLincolnUp.Lamp.En5.5.200Scan.071719.P1._HRD10591_14-14-30-915.txt Node
Date: Thu Jul 18 14:14:30 EDT 2019
User: cochatt
Spectrometer: HR+D1059
Trigger mode: 1
Integration Time (sec): 1.000000E-1
Scans to average: 1
Electric dark correction enabled: true
Nonlinearity correction enabled: false
Boxcar width: 0
XAxis mode: Wavelengths
Number of Pixels in Spectrum: 2048
>>>>>Begin Spectral Data<<<<<
223.165	-6.25
223.4	-6.25
223.635	-6.25
223.869	-17.25
224.104	-21.25
224.338	-0.25
224.573	-18.25
224.808	-26.25
225.042	-11.25
225.277	-18.25
225.511	-11.25
225.746	13.75
225.98	-6.25
226.215	7.75
226.449	23.75
226.683	23.75
226.918	33.75
227.152	33.75
227.387	29.75
227.621	27.75
227.856	27.75
228.09	45.75
228.324	45.75
228.559	56.75
228.793	43.75
229.027	86.75
229.262	91.75
229.496	95.75
229.73	114.75
229.964	86.75
230.199	97.75
230.433	102.75
230.667	101.75
230.901	77.75
231.136	95.75
231.37	84.75
231.604	78.75
231.838	97.75
232.072	102.75
232.306	95.75
232.541	93.75
232.775	92.75
233.009	96.75
233.243	96.75
233.477	107.75
233.711	89.75
233.945	89.75
234.179	89.75
234.413	93.75
234.647	97.75
234.881	89.75
235.115	99.75
235.349	91.75
235.583	85.75
235.817	108.75
236.051	80.75
236.285	101.75
236.519	110.75
236.753	103.75
236.987	94.75
237.221	117.75
237.455	138.75
237.689	127.75
237.922	105.75
238.156	106.75
238.39	105.75
238.624	108.75
238.858	115.75
239.091	102.75
239.325	79.75
239.559	88.75
239.793	85.75
240.027	108.75
240.26	104.75
240.494	119.75
240.728	118.75
240.961	108.75
241.195	100.75
241.429	107.75
241.662	113.75
241.896	101.75
242.13	90.75
242.363	94.75
242.597	94.75
242.83	115.75
243.064	94.75
243.298	97.75
243.531	95.75
243.765	104.75
243.998	98.75
244.232	109.75
244.465	107.75
244.699	113.75
244.932	89.75
245.166	121.75
245.399	90.75
245.633	109.75
245.866	115.75
246.099	113.75
246.333	108.75
246.566	115.75
246.8	109.75
247.033	109.75
247.266	116.75
247.5	104.75
247.733	121.75
247.966	131.75
248.2	110.75
248.433	117.75
248.666	112.75
248.899	108.75
249.133	125.75
249.366	138.75
249.599	131.75
249.832	118.75
250.066	125.75
250.299	119.75
250.532	135.75
250.765	139.75
250.998	137.75
251.231	130.75
251.465	129.75
251.698	127.75
251.931	122.75
252.164	123.75
252.397	131.75
252.63	130.75
252.863	138.75
253.096	141.75
253.329	138.75
253.562	134.75
253.795	142.75
254.028	142.75
254.261	122.75
254.494	151.75
254.727	161.75
254.96	164.75
255.193	160.75
255.426	145.75
255.659	126.75
255.892	144.75
256.124	157.75
256.357	154.75
256.59	144.75
256.823	134.75
257.056	130.75
257.289	141.75
257.521	128.75
257.754	131.75
257.987	137.75
258.22	126.75
258.452	124.75
258.685	138.75
258.918	131.75
259.151	129.75
259.383	146.75
259.616	145.75
259.849	151.75
260.081	165.75
260.314	159.75
260.547	168.75
260.779	142.75
261.012	136.75
261.244	143.75
261.477	141.75
261.71	155.75
261.942	146.75
262.175	157.75
262.407	154.75
262.64	147.75
262.872	130.75
263.105	134.75
263.337	139.75
263.57	133.75
263.802	138.75
264.035	149.75
264.267	140.75
264.499	140.75
264.732	148.75
264.964	143.75
265.197	125.75
265.429	138.75
265.661	129.75
265.894	140.75
266.126	155.75
266.358	142.75
266.591	131.75
266.823	147.75
267.055	155.75
267.287	133.75
267.52	137.75
267.752	147.75
267.984	148.75
268.216	149.75
268.448	153.75
268.681	151.75
268.913	153.75
269.145	180.75
269.377	156.75
269.609	153.75
269.841	152.75
270.073	158.75
270.306	179.75
270.538	185.75
270.77	190.75
271.002	186.75
271.234	177.75
271.466	191.75
271.698	184.75
271.93	186.75
272.162	177.75
272.394	176.75
272.626	182.75
272.858	172.75
273.09	166.75
273.322	159.75
273.553	159.75
273.785	159.75
274.017	159.75
274.249	146.75
274.481	153.75
274.713	143.75
274.945	154.75
275.176	162.75
275.408	169.75
275.64	160.75
275.872	157.75
276.104	172.75
276.335	170.75
276.567	167.75
276.799	188.75
277.031	195.75
277.262	200.75
277.494	191.75
277.726	189.75
277.957	168.75
278.189	161.75
278.421	165.75
278.652	171.75
278.884	158.75
279.115	162.75
279.347	159.75
279.579	161.75
279.81	166.75
280.042	154.75
280.273	173.75
280.505	162.75
280.736	140.75
280.968	177.75
281.199	158.75
281.431	158.75
281.662	167.75
281.894	164.75
282.125	164.75
282.356	181.75
282.588	183.75
282.819	187.75
283.051	168.75
283.282	164.75
283.513	171.75
283.745	161.75
283.976	171.75
284.207	157.75
284.439	168.75
284.67	173.75
284.901	166.75
285.132	168.75
285.364	157.75
285.595	170.75
285.826	175.75
286.057	174.75
286.288	168.75
286.52	177.75
286.751	155.75
286.982	161.75
287.213	167.75
287.444	163.75
287.675	170.75
287.906	181.75
288.138	170.75
288.369	181.75
288.6	167.75
288.831	171.75
289.062	165.75
289.293	151.75
289.524	185.75
289.755	162.75
289.986	163.75
290.217	155.75
290.448	173.75
290.679	168.75
290.91	186.75
291.141	166.75
291.371	173.75
291.602	178.75
291.833	165.75
292.064	185.75
292.295	173.75
292.526	184.75
292.757	179.75
292.987	165.75
293.218	169.75
293.449	172.75
293.68	181.75
293.91	164.75
294.141	163.75
294.372	158.75
294.603	157.75
294.833	180.75
295.064	169.75
295.295	179.75
295.525	181.75
295.756	166.75
295.987	192.75
296.217	214.75
296.448	199.75
296.679	178.75
296.909	173.75
297.14	168.75
297.37	188.75
297.601	157.75
297.831	169.75
298.062	180.75
298.292	188.75
298.523	178.75
298.753	170.75
298.984	181.75
299.214	179.75
299.445	179.75
299.675	193.75
299.905	172.75
300.136	168.75
300.366	169.75
300.597	175.75
300.827	182.75
301.057	185.75
301.288	202.75
301.518	191.75
301.748	189.75
301.979	197.75
302.209	174.75
302.439	188.75
302.669	188.75
302.9	178.75
303.13	189.75
303.36	182.75
303.59	194.75
303.82	218.75
304.051	190.75
304.281	204.75
304.511	181.75
304.741	164.75
304.971	169.75
305.201	183.75
305.431	177.75
305.661	182.75
305.891	193.75
306.121	194.75
306.352	190.75
306.582	188.75
306.812	185.75
307.042	205.75
307.272	193.75
307.502	193.75
307.731	200.75
307.961	191.75
308.191	184.75
308.421	191.75
308.651	195.75
308.881	189.75
309.111	181.75
309.341	201.75
309.571	189.75
309.8	196.75
310.03	199.75
310.26	186.75
310.49	198.75
310.72	210.75
310.949	235.75
311.179	237.75
311.409	204.75
311.639	221.75
311.868	216.75
312.098	221.75
312.328	219.75
312.557	226.75
312.787	227.75
313.017	226.75
313.246	213.75
313.476	207.75
313.706	223.75
313.935	199.75
314.165	226.75
314.394	211.75
314.624	217.75
314.853	214.75
315.083	204.75
315.312	195.75
315.542	214.75
315.771	202.75
316.001	217.75
316.23	211.75
316.46	200.75
316.689	202.75
316.919	221.75
317.148	216.75
317.377	222.75
317.607	226.75
317.836	214.75
318.065	222.75
318.295	205.75
318.524	206.75
318.753	209.75
318.983	213.75
319.212	226.75
319.441	211.75
319.67	211.75
319.9	200.75
320.129	205.75
320.358	202.75
320.587	217.75
320.816	218.75
321.046	218.75
321.275	206.75
321.504	213.75
321.733	207.75
321.962	211.75
322.191	232.75
322.42	217.75
322.649	250.75
322.878	251.75
323.108	242.75
323.337	237.75
323.566	277.75
323.795	285.75
324.024	308.75
324.253	358.75
324.482	530.75
324.71	785.75
324.939	1030.75
325.168	867.75
325.397	445.75
325.626	323.75
325.855	275.75
326.084	246.75
326.313	247.75
326.542	256.75
326.77	293.75
326.999	342.75
327.228	482.75
327.457	701.75
327.686	799.75
327.914	516.75
328.143	354.75
328.372	328.75
328.6	316.75
328.829	300.75
329.058	309.75
329.287	301.75
329.515	286.75
329.744	275.75
329.972	260.75
330.201	275.75
330.43	315.75
330.658	357.75
330.887	335.75
331.115	326.75
331.344	285.75
331.572	269.75
331.801	278.75
332.03	255.75
332.258	249.75
332.486	220.75
332.715	239.75
332.943	243.75
333.172	249.75
333.4	258.75
333.629	262.75
333.857	264.75
334.085	258.75
334.314	286.75
334.542	303.75
334.771	325.75
334.999	276.75
335.227	257.75
335.455	243.75
335.684	237.75
335.912	218.75
336.14	239.75
336.369	236.75
336.597	249.75
336.825	247.75
337.053	236.75
337.281	238.75
337.51	227.75
337.738	239.75
337.966	226.75
338.194	249.75
338.422	234.75
338.65	242.75
338.878	219.75
339.106	223.75
339.334	220.75
339.562	231.75
339.79	230.75
340.018	227.75
340.246	211.75
340.474	241.75
340.702	220.75
340.93	227.75
341.158	215.75
341.386	231.75
341.614	225.75
341.842	226.75
342.07	241.75
342.298	220.75
342.526	221.75
342.754	216.75
342.981	224.75
343.209	211.75
343.437	225.75
343.665	227.75
343.893	228.75
344.12	230.75
344.348	233.75
344.576	239.75
344.804	222.75
345.031	237.75
345.259	238.75
345.487	228.75
345.714	229.75
345.942	228.75
346.17	221.75
346.397	235.75
346.625	232.75
346.853	210.75
347.08	215.75
347.308	215.75
347.535	230.75
347.763	246.75
347.99	237.75
348.218	236.75
348.445	234.75
348.673	218.75
348.9	224.75
349.128	223.75
349.355	185.75
349.583	202.75
349.81	222.75
350.037	207.75
350.265	220.75
350.492	218.75
350.72	218.75
350.947	233.75
351.174	233.75
351.402	232.75
351.629	219.75
351.856	229.75
352.083	228.75
352.311	274.75
352.538	221.75
352.765	243.75
352.992	230.75
353.22	221.75
353.447	239.75
353.674	213.75
353.901	230.75
354.128	216.75
354.355	201.75
354.583	199.75
354.81	211.75
355.037	198.75
355.264	215.75
355.491	192.75
355.718	206.75
355.945	199.75
356.172	206.75
356.399	211.75
356.626	186.75
356.853	205.75
357.08	198.75
357.307	210.75
357.534	204.75
357.761	196.75
357.988	207.75
358.215	224.75
358.441	206.75
358.668	193.75
358.895	219.75
359.122	202.75
359.349	205.75
359.576	214.75
359.802	222.75
360.029	233.75
360.256	251.75
360.483	243.75
360.709	216.75
360.936	225.75
361.163	221.75
361.39	218.75
361.616	208.75
361.843	218.75
362.07	216.75
362.296	208.75
362.523	218.75
362.749	221.75
362.976	205.75
363.203	207.75
363.429	209.75
363.656	189.75
363.882	215.75
364.109	203.75
364.335	219.75
364.562	200.75
364.788	203.75
365.015	202.75
365.241	203.75
365.468	207.75
365.694	225.75
365.92	235.75
366.147	223.75
366.373	204.75
366.599	226.75
366.826	216.75
367.052	200.75
367.278	200.75
367.505	198.75
367.731	207.75
367.957	207.75
368.184	208.75
368.41	217.75
368.636	223.75
368.862	213.75
369.089	208.75
369.315	200.75
369.541	206.75
369.767	202.75
369.993	211.75
370.219	206.75
370.445	210.75
370.672	211.75
370.898	217.75
371.124	216.75
371.35	221.75
371.576	201.75
371.802	199.75
372.028	177.75
372.254	217.75
372.48	191.75
372.706	216.75
372.932	211.75
373.158	212.75
373.384	228.75
373.61	204.75
373.835	223.75
374.061	189.75
374.287	207.75
374.513	215.75
374.739	220.75
374.965	213.75
375.191	197.75
375.416	206.75
375.642	222.75
375.868	206.75
376.094	227.75
376.319	203.75
376.545	221.75
376.771	196.75
376.997	214.75
377.222	206.75
377.448	183.75
377.674	208.75
377.899	199.75
378.125	207.75
378.35	206.75
378.576	206.75
378.802	208.75
379.027	203.75
379.253	203.75
379.478	190.75
379.704	204.75
379.929	195.75
380.155	196.75
380.38	203.75
380.606	191.75
380.831	201.75
381.057	212.75
381.282	218.75
381.507	231.75
381.733	203.75
381.958	196.75
382.184	224.75
382.409	211.75
382.634	188.75
382.86	200.75
383.085	210.75
383.31	201.75
383.535	225.75
383.761	216.75
383.986	207.75
384.211	234.75
384.436	220.75
384.662	210.75
384.887	225.75
385.112	207.75
385.337	216.75
385.562	215.75
385.787	227.75
386.013	236.75
386.238	230.75
386.463	222.75
386.688	211.75
386.913	218.75
387.138	215.75
387.363	214.75
387.588	221.75
387.813	220.75
388.038	210.75
388.263	216.75
388.488	211.75
388.713	214.75
388.938	219.75
389.163	231.75
389.387	202.75
389.612	206.75
389.837	214.75
390.062	220.75
390.287	219.75
390.512	219.75
390.736	232.75
390.961	216.75
391.186	212.75
391.411	229.75
391.636	228.75
391.86	228.75
392.085	230.75
392.31	228.75
392.534	229.75
392.759	213.75
392.984	204.75
393.208	226.75
393.433	214.75
393.658	221.75
393.882	216.75
394.107	214.75
394.331	213.75
394.556	238.75
394.78	232.75
395.005	225.75
395.229	228.75
395.454	217.75
395.678	225.75
395.903	231.75
396.127	242.75
396.352	235.75
396.576	230.75
396.801	228.75
397.025	237.75
397.249	229.75
397.474	239.75
397.698	235.75
397.922	262.75
398.147	241.75
398.371	243.75
398.595	237.75
398.82	242.75
399.044	245.75
399.268	243.75
399.492	278.75
399.717	308.75
399.941	290.75
400.165	295.75
400.389	299.75
400.613	275.75
400.837	251.75
401.062	263.75
401.286	247.75
401.51	237.75
401.734	259.75
401.958	246.75
402.182	254.75
402.406	261.75
402.63	273.75
402.854	245.75
403.078	262.75
403.302	255.75
403.526	274.75
403.75	255.75
403.974	271.75
404.198	254.75
404.422	248.75
404.645	283.75
404.869	261.75
405.093	280.75
405.317	309.75
405.541	293.75
405.765	296.75
405.988	294.75
406.212	269.75
406.436	281.75
406.66	307.75
406.883	301.75
407.107	298.75
407.331	307.75
407.555	334.75
407.778	349.75
408.002	293.75
408.226	284.75
408.449	274.75
408.673	286.75
408.896	300.75
409.12	282.75
409.344	283.75
409.567	253.75
409.791	263.75
410.014	259.75
410.238	269.75
410.461	259.75
410.685	260.75
410.908	272.75
411.132	290.75
411.355	297.75
411.578	254.75
411.802	267.75
412.025	262.75
412.249	254.75
412.472	298.75
412.695	291.75
412.919	285.75
413.142	279.75
413.365	282.75
413.589	252.75
413.812	237.75
414.035	258.75
414.258	234.75
414.482	252.75
414.705	261.75
414.928	226.75
415.151	255.75
415.374	244.75
415.597	237.75
415.821	261.75
416.044	238.75
416.267	245.75
416.49	257.75
416.713	240.75
416.936	261.75
417.159	264.75
417.382	265.75
417.605	269.75
417.828	260.75
418.051	269.75
418.274	264.75
418.497	256.75
418.72	245.75
418.943	245.75
419.166	257.75
419.389	269.75
419.611	253.75
419.834	251.75
420.057	258.75
420.28	265.75
420.503	257.75
420.726	260.75
420.948	273.75
421.171	319.75
421.394	298.75
421.617	247.75
421.839	245.75
422.062	261.75
422.285	264.75
422.507	290.75
422.73	317.75
422.953	316.75
423.175	278.75
423.398	274.75
423.621	279.75
423.843	287.75
424.066	270.75
424.288	276.75
424.511	287.75
424.733	289.75
424.956	323.75
425.178	311.75
425.401	319.75
425.623	318.75
425.846	280.75
426.068	289.75
426.291	279.75
426.513	269.75
426.735	300.75
426.958	283.75
427.18	339.75
427.402	397.75
427.625	427.75
427.847	391.75
428.069	340.75
428.292	299.75
428.514	275.75
428.736	261.75
428.958	263.75
429.181	251.75
429.403	259.75
429.625	263.75
429.847	276.75
430.069	293.75
430.292	313.75
430.514	275.75
430.736	268.75
430.958	246.75
431.18	222.75
431.402	250.75
431.624	233.75
431.846	241.75
432.068	241.75
432.29	251.75
432.512	244.75
432.734	261.75
432.956	250.75
433.178	249.75
433.4	258.75
433.622	247.75
433.844	234.75
434.066	257.75
434.287	254.75
434.509	251.75
434.731	248.75
434.953	263.75
435.175	269.75
435.397	271.75
435.618	267.75
435.84	269.75
436.062	328.75
436.284	354.75
436.505	302.75
436.727	267.75
436.949	263.75
437.17	259.75
437.392	259.75
437.614	253.75
437.835	275.75
438.057	341.75
438.278	369.75
438.5	363.75
438.721	381.75
438.943	373.75
439.165	309.75
439.386	289.75
439.608	283.75
439.829	283.75
440.05	300.75
440.272	312.75
440.493	299.75
440.715	272.75
440.936	269.75
441.158	266.75
441.379	257.75
441.6	269.75
441.822	261.75
442.043	313.75
442.264	330.75
442.486	341.75
442.707	309.75
442.928	281.75
443.149	292.75
443.371	285.75
443.592	320.75
443.813	373.75
444.034	391.75
444.255	318.75
444.476	300.75
444.698	262.75
444.919	277.75
445.14	340.75
445.361	313.75
445.582	295.75
445.803	339.75
446.024	385.75
446.245	367.75
446.466	341.75
446.687	297.75
446.908	287.75
447.129	267.75
447.35	258.75
447.571	263.75
447.792	248.75
448.013	264.75
448.234	262.75
448.455	281.75
448.675	337.75
448.896	370.75
449.117	327.75
449.338	321.75
449.559	370.75
449.779	401.75
450	323.75
450.221	271.75
450.442	257.75
450.662	255.75
450.883	273.75
451.104	267.75
451.324	266.75
451.545	258.75
451.766	260.75
451.986	248.75
452.207	231.75
452.428	225.75
452.648	233.75
452.869	239.75
453.089	262.75
453.31	259.75
453.53	238.75
453.751	241.75
453.971	232.75
454.192	259.75
454.412	247.75
454.633	236.75
454.853	246.75
455.073	238.75
455.294	242.75
455.514	275.75
455.734	270.75
455.955	228.75
456.175	234.75
456.395	216.75
456.616	199.75
456.836	204.75
457.056	214.75
457.276	216.75
457.497	198.75
457.717	221.75
457.937	203.75
458.157	246.75
458.377	227.75
458.598	240.75
458.818	283.75
459.038	329.75
459.258	315.75
459.478	267.75
459.698	243.75
459.918	243.75
460.138	241.75
460.358	232.75
460.578	246.75
460.798	277.75
461.018	238.75
461.238	263.75
461.458	253.75
461.678	248.75
461.898	265.75
462.118	253.75
462.338	246.75
462.558	255.75
462.777	248.75
462.997	277.75
463.217	264.75
463.437	274.75
463.657	247.75
463.876	277.75
464.096	243.75
464.316	263.75
464.536	261.75
464.755	276.75
464.975	296.75
465.195	305.75
465.414	363.75
465.634	280.75
465.854	246.75
466.073	236.75
466.293	236.75
466.512	252.75
466.732	247.75
466.951	234.75
467.171	265.75
467.391	250.75
467.61	253.75
467.829	263.75
468.049	272.75
468.268	254.75
468.488	237.75
468.707	235.75
468.927	238.75
469.146	244.75
469.365	236.75
469.585	246.75
469.804	227.75
470.023	252.75
470.243	261.75
470.462	248.75
470.681	265.75
470.901	258.75
471.12	226.75
471.339	255.75
471.558	257.75
471.777	241.75
471.997	241.75
472.216	270.75
472.435	300.75
472.654	255.75
472.873	262.75
473.092	239.75
473.311	246.75
473.53	242.75
473.749	234.75
473.968	271.75
474.187	330.75
474.406	337.75
474.625	255.75
474.844	234.75
475.063	251.75
475.282	251.75
475.501	244.75
475.72	250.75
475.939	255.75
476.158	255.75
476.377	235.75
476.596	250.75
476.814	255.75
477.033	253.75
477.252	260.75
477.471	240.75
477.69	244.75
477.908	249.75
478.127	266.75
478.346	249.75
478.564	265.75
478.783	278.75
479.002	282.75
479.22	285.75
479.439	277.75
479.658	297.75
479.876	302.75
480.095	298.75
480.313	311.75
480.532	293.75
480.751	316.75
480.969	329.75
481.188	364.75
481.406	376.75
481.624	307.75
481.843	293.75
482.061	298.75
482.28	285.75
482.498	277.75
482.717	268.75
482.935	274.75
483.153	281.75
483.372	271.75
483.59	280.75
483.808	281.75
484.027	270.75
484.245	270.75
484.463	278.75
484.681	300.75
484.9	286.75
485.118	289.75
485.336	279.75
485.554	276.75
485.772	280.75
485.99	277.75
486.209	295.75
486.427	288.75
486.645	301.75
486.863	301.75
487.081	311.75
487.299	302.75
487.517	309.75
487.735	284.75
487.953	305.75
488.171	297.75
488.389	312.75
488.607	286.75
488.825	295.75
489.043	322.75
489.261	299.75
489.479	305.75
489.696	315.75
489.914	296.75
490.132	322.75
490.35	335.75
490.568	302.75
490.786	323.75
491.003	309.75
491.221	336.75
491.439	353.75
491.657	347.75
491.874	336.75
492.092	355.75
492.31	373.75
492.527	335.75
492.745	349.75
492.963	349.75
493.18	353.75
493.398	358.75
493.615	373.75
493.833	353.75
494.05	363.75
494.268	358.75
494.485	357.75
494.703	344.75
494.92	356.75
495.138	354.75
495.355	354.75
495.573	347.75
495.79	358.75
496.008	374.75
496.225	356.75
496.442	363.75
496.66	362.75
496.877	342.75
497.094	350.75
497.312	333.75
497.529	366.75
497.746	361.75
497.963	378.75
498.181	371.75
498.398	370.75
498.615	366.75
498.832	374.75
499.049	397.75
499.267	386.75
499.484	419.75
499.701	421.75
499.918	436.75
500.135	423.75
500.352	463.75
500.569	470.75
500.786	455.75
501.003	456.75
501.22	435.75
501.437	434.75
501.654	420.75
501.871	421.75
502.088	421.75
502.305	391.75
502.522	379.75
