Data from 1966.PennyLincolnUp.Lamp.En5.5.200Scan.071719.P1._HRD10591_14-13-52-914.txt Node
Date: Thu Jul 18 14:13:52 EDT 2019
User: cochatt
Spectrometer: HR+D1059
Trigger mode: 1
Integration Time (sec): 1.000000E-1
Scans to average: 1
Electric dark correction enabled: true
Nonlinearity correction enabled: false
Boxcar width: 0
XAxis mode: Wavelengths
Number of Pixels in Spectrum: 2048
>>>>>Begin Spectral Data<<<<<
223.165	-24.06
223.4	-24.06
223.635	-24.06
223.869	-10.06
224.104	-23.06
224.338	-23.06
224.573	-12.06
224.808	-3.06
225.042	-6.06
225.277	-4.06
225.511	4.94
225.746	-0.06
225.98	2.94
226.215	12.94
226.449	13.94
226.683	26.94
226.918	21.94
227.152	21.94
227.387	21.94
227.621	19.94
227.856	39.94
228.09	44.94
228.324	41.94
228.559	58.94
228.793	41.94
229.027	65.94
229.262	77.94
229.496	93.94
229.73	94.94
229.964	85.94
230.199	91.94
230.433	91.94
230.667	85.94
230.901	80.94
231.136	76.94
231.37	89.94
231.604	101.94
231.838	90.94
232.072	89.94
232.306	87.94
232.541	89.94
232.775	112.94
233.009	96.94
233.243	102.94
233.477	98.94
233.711	100.94
233.945	97.94
234.179	105.94
234.413	95.94
234.647	90.94
234.881	99.94
235.115	87.94
235.349	82.94
235.583	89.94
235.817	98.94
236.051	116.94
236.285	104.94
236.519	95.94
236.753	86.94
236.987	100.94
237.221	130.94
237.455	147.94
237.689	109.94
237.922	92.94
238.156	97.94
238.39	104.94
238.624	101.94
238.858	92.94
239.091	90.94
239.325	107.94
239.559	95.94
239.793	94.94
240.027	97.94
240.26	116.94
240.494	112.94
240.728	114.94
240.961	100.94
241.195	108.94
241.429	123.94
241.662	101.94
241.896	94.94
242.13	83.94
242.363	88.94
242.597	90.94
242.83	98.94
243.064	92.94
243.298	97.94
243.531	100.94
243.765	90.94
243.998	105.94
244.232	108.94
244.465	97.94
244.699	87.94
244.932	102.94
245.166	102.94
245.399	102.94
245.633	100.94
245.866	94.94
246.099	96.94
246.333	105.94
246.566	101.94
246.8	101.94
247.033	98.94
247.266	92.94
247.5	104.94
247.733	103.94
247.966	127.94
248.2	122.94
248.433	110.94
248.666	115.94
248.899	131.94
249.133	125.94
249.366	113.94
249.599	133.94
249.832	114.94
250.066	116.94
250.299	115.94
250.532	122.94
250.765	148.94
250.998	133.94
251.231	128.94
251.465	132.94
251.698	145.94
251.931	132.94
252.164	110.94
252.397	119.94
252.63	134.94
252.863	124.94
253.096	135.94
253.329	135.94
253.562	143.94
253.795	132.94
254.028	128.94
254.261	126.94
254.494	129.94
254.727	146.94
254.96	148.94
255.193	158.94
255.426	135.94
255.659	146.94
255.892	142.94
256.124	134.94
256.357	133.94
256.59	139.94
256.823	143.94
257.056	131.94
257.289	129.94
257.521	129.94
257.754	131.94
257.987	136.94
258.22	132.94
258.452	136.94
258.685	128.94
258.918	133.94
259.151	141.94
259.383	132.94
259.616	146.94
259.849	134.94
260.081	122.94
260.314	165.94
260.547	157.94
260.779	144.94
261.012	143.94
261.244	126.94
261.477	129.94
261.71	140.94
261.942	143.94
262.175	152.94
262.407	130.94
262.64	122.94
262.872	133.94
263.105	142.94
263.337	135.94
263.57	131.94
263.802	122.94
264.035	125.94
264.267	141.94
264.499	143.94
264.732	129.94
264.964	144.94
265.197	143.94
265.429	119.94
265.661	128.94
265.894	128.94
266.126	133.94
266.358	127.94
266.591	143.94
266.823	139.94
267.055	130.94
267.287	136.94
267.52	142.94
267.752	123.94
267.984	128.94
268.216	131.94
268.448	129.94
268.681	146.94
268.913	143.94
269.145	163.94
269.377	166.94
269.609	153.94
269.841	161.94
270.073	164.94
270.306	177.94
270.538	175.94
270.77	188.94
271.002	187.94
271.234	161.94
271.466	165.94
271.698	169.94
271.93	182.94
272.162	161.94
272.394	185.94
272.626	167.94
272.858	146.94
273.09	162.94
273.322	164.94
273.553	153.94
273.785	169.94
274.017	140.94
274.249	162.94
274.481	156.94
274.713	145.94
274.945	150.94
275.176	152.94
275.408	154.94
275.64	160.94
275.872	140.94
276.104	148.94
276.335	162.94
276.567	181.94
276.799	158.94
277.031	178.94
277.262	188.94
277.494	182.94
277.726	170.94
277.957	163.94
278.189	156.94
278.421	166.94
278.652	155.94
278.884	161.94
279.115	156.94
279.347	153.94
279.579	156.94
279.81	156.94
280.042	155.94
280.273	153.94
280.505	169.94
280.736	147.94
280.968	149.94
281.199	150.94
281.431	151.94
281.662	152.94
281.894	173.94
282.125	166.94
282.356	172.94
282.588	181.94
282.819	174.94
283.051	141.94
283.282	161.94
283.513	156.94
283.745	179.94
283.976	163.94
284.207	163.94
284.439	153.94
284.67	161.94
284.901	165.94
285.132	168.94
285.364	171.94
285.595	143.94
285.826	157.94
286.057	168.94
286.288	155.94
286.52	154.94
286.751	157.94
286.982	157.94
287.213	160.94
287.444	156.94
287.675	179.94
287.906	188.94
288.138	190.94
288.369	170.94
288.6	179.94
288.831	185.94
289.062	179.94
289.293	153.94
289.524	163.94
289.755	154.94
289.986	151.94
290.217	163.94
290.448	154.94
290.679	159.94
290.91	155.94
291.141	176.94
291.371	175.94
291.602	161.94
291.833	171.94
292.064	178.94
292.295	178.94
292.526	150.94
292.757	137.94
292.987	179.94
293.218	153.94
293.449	162.94
293.68	150.94
293.91	173.94
294.141	151.94
294.372	144.94
294.603	155.94
294.833	155.94
295.064	163.94
295.295	167.94
295.525	156.94
295.756	167.94
295.987	170.94
296.217	193.94
296.448	192.94
296.679	181.94
296.909	176.94
297.14	161.94
297.37	156.94
297.601	158.94
297.831	149.94
298.062	160.94
298.292	166.94
298.523	171.94
298.753	182.94
298.984	173.94
299.214	190.94
299.445	173.94
299.675	166.94
299.905	181.94
300.136	166.94
300.366	185.94
300.597	199.94
300.827	198.94
301.057	166.94
301.288	190.94
301.518	185.94
301.748	187.94
301.979	190.94
302.209	172.94
302.439	178.94
302.669	173.94
302.9	178.94
303.13	181.94
303.36	162.94
303.59	178.94
303.82	188.94
304.051	187.94
304.281	194.94
304.511	172.94
304.741	177.94
304.971	202.94
305.201	182.94
305.431	178.94
305.661	181.94
305.891	188.94
306.121	173.94
306.352	180.94
306.582	173.94
306.812	178.94
307.042	178.94
307.272	187.94
307.502	178.94
307.731	182.94
307.961	186.94
308.191	162.94
308.421	161.94
308.651	187.94
308.881	197.94
309.111	188.94
309.341	191.94
309.571	195.94
309.8	165.94
310.03	199.94
310.26	193.94
310.49	203.94
310.72	206.94
310.949	216.94
311.179	206.94
311.409	209.94
311.639	204.94
311.868	186.94
312.098	212.94
312.328	200.94
312.557	212.94
312.787	216.94
313.017	213.94
313.246	191.94
313.476	206.94
313.706	193.94
313.935	208.94
314.165	189.94
314.394	206.94
314.624	203.94
314.853	188.94
315.083	188.94
315.312	192.94
315.542	204.94
315.771	195.94
316.001	178.94
316.23	185.94
316.46	201.94
316.689	196.94
316.919	208.94
317.148	206.94
317.377	202.94
317.607	198.94
317.836	213.94
318.065	184.94
318.295	194.94
318.524	202.94
318.753	196.94
318.983	198.94
319.212	202.94
319.441	212.94
319.67	210.94
319.9	185.94
320.129	201.94
320.358	189.94
320.587	191.94
320.816	216.94
321.046	197.94
321.275	203.94
321.504	209.94
321.733	208.94
321.962	207.94
322.191	218.94
322.42	221.94
322.649	217.94
322.878	224.94
323.108	222.94
323.337	238.94
323.566	256.94
323.795	262.94
324.024	296.94
324.253	363.94
324.482	517.94
324.71	742.94
324.939	1013.94
325.168	811.94
325.397	414.94
325.626	296.94
325.855	266.94
326.084	260.94
326.313	242.94
326.542	253.94
326.77	274.94
326.999	338.94
327.228	452.94
327.457	652.94
327.686	746.94
327.914	472.94
328.143	336.94
328.372	314.94
328.6	280.94
328.829	270.94
329.058	287.94
329.287	301.94
329.515	255.94
329.744	254.94
329.972	248.94
330.201	273.94
330.43	304.94
330.658	324.94
330.887	325.94
331.115	298.94
331.344	260.94
331.572	256.94
331.801	249.94
332.03	241.94
332.258	241.94
332.486	226.94
332.715	228.94
332.943	225.94
333.172	226.94
333.4	235.94
333.629	242.94
333.857	248.94
334.085	265.94
334.314	273.94
334.542	298.94
334.771	316.94
334.999	265.94
335.227	247.94
335.455	242.94
335.684	224.94
335.912	221.94
336.14	227.94
336.369	206.94
336.597	218.94
336.825	228.94
337.053	203.94
337.281	224.94
337.51	213.94
337.738	233.94
337.966	225.94
338.194	213.94
338.422	229.94
338.65	225.94
338.878	225.94
339.106	230.94
339.334	229.94
339.562	226.94
339.79	205.94
340.018	221.94
340.246	237.94
340.474	221.94
340.702	216.94
340.93	210.94
341.158	222.94
341.386	223.94
341.614	224.94
341.842	223.94
342.07	214.94
342.298	227.94
342.526	204.94
342.754	206.94
342.981	206.94
343.209	193.94
343.437	208.94
343.665	204.94
343.893	202.94
344.12	223.94
344.348	206.94
344.576	219.94
344.804	225.94
345.031	233.94
345.259	226.94
345.487	246.94
345.714	220.94
345.942	217.94
346.17	225.94
346.397	220.94
346.625	207.94
346.853	210.94
347.08	211.94
347.308	204.94
347.535	213.94
347.763	220.94
347.99	230.94
348.218	213.94
348.445	227.94
348.673	221.94
348.9	223.94
349.128	212.94
349.355	206.94
349.583	218.94
349.81	206.94
350.037	216.94
350.265	206.94
350.492	200.94
350.72	201.94
350.947	213.94
351.174	220.94
351.402	199.94
351.629	202.94
351.856	215.94
352.083	204.94
352.311	228.94
352.538	236.94
352.765	226.94
352.992	211.94
353.22	217.94
353.447	219.94
353.674	213.94
353.901	195.94
354.128	186.94
354.355	197.94
354.583	206.94
354.81	181.94
355.037	206.94
355.264	194.94
355.491	198.94
355.718	187.94
355.945	185.94
356.172	192.94
356.399	188.94
356.626	204.94
356.853	196.94
357.08	192.94
357.307	211.94
357.534	210.94
357.761	199.94
357.988	212.94
358.215	197.94
358.441	204.94
358.668	203.94
358.895	217.94
359.122	209.94
359.349	211.94
359.576	203.94
359.802	215.94
360.029	240.94
360.256	250.94
360.483	241.94
360.709	218.94
360.936	198.94
361.163	217.94
361.39	208.94
361.616	201.94
361.843	215.94
362.07	223.94
362.296	227.94
362.523	209.94
362.749	199.94
362.976	206.94
363.203	214.94
363.429	191.94
363.656	212.94
363.882	204.94
364.109	193.94
364.335	213.94
364.562	195.94
364.788	186.94
365.015	204.94
365.241	206.94
365.468	214.94
365.694	197.94
365.92	203.94
366.147	201.94
366.373	195.94
366.599	202.94
366.826	206.94
367.052	197.94
367.278	203.94
367.505	206.94
367.731	201.94
367.957	204.94
368.184	189.94
368.41	197.94
368.636	208.94
368.862	215.94
369.089	197.94
369.315	207.94
369.541	208.94
369.767	220.94
369.993	193.94
370.219	203.94
370.445	193.94
370.672	199.94
370.898	192.94
371.124	199.94
371.35	194.94
371.576	204.94
371.802	191.94
372.028	179.94
372.254	204.94
372.48	186.94
372.706	190.94
372.932	204.94
373.158	192.94
373.384	194.94
373.61	205.94
373.835	215.94
374.061	213.94
374.287	201.94
374.513	203.94
374.739	203.94
374.965	204.94
375.191	207.94
375.416	211.94
375.642	206.94
375.868	204.94
376.094	202.94
376.319	199.94
376.545	186.94
376.771	191.94
376.997	197.94
377.222	189.94
377.448	198.94
377.674	209.94
377.899	190.94
378.125	201.94
378.35	205.94
378.576	195.94
378.802	197.94
379.027	197.94
379.253	199.94
379.478	200.94
379.704	188.94
379.929	216.94
380.155	217.94
380.38	218.94
380.606	196.94
380.831	204.94
381.057	210.94
381.282	212.94
381.507	202.94
381.733	212.94
381.958	194.94
382.184	208.94
382.409	185.94
382.634	210.94
382.86	199.94
383.085	197.94
383.31	212.94
383.535	212.94
383.761	220.94
383.986	211.94
384.211	220.94
384.436	200.94
384.662	209.94
384.887	213.94
385.112	213.94
385.337	217.94
385.562	197.94
385.787	217.94
386.013	232.94
386.238	234.94
386.463	225.94
386.688	220.94
386.913	214.94
387.138	224.94
387.363	217.94
387.588	207.94
387.813	221.94
388.038	227.94
388.263	221.94
388.488	212.94
388.713	202.94
388.938	206.94
389.163	204.94
389.387	219.94
389.612	204.94
389.837	220.94
390.062	211.94
390.287	218.94
390.512	201.94
390.736	206.94
390.961	206.94
391.186	205.94
391.411	205.94
391.636	198.94
391.86	204.94
392.085	227.94
392.31	225.94
392.534	218.94
392.759	223.94
392.984	220.94
393.208	206.94
393.433	218.94
393.658	211.94
393.882	208.94
394.107	212.94
394.331	213.94
394.556	221.94
394.78	218.94
395.005	220.94
395.229	210.94
395.454	225.94
395.678	230.94
395.903	229.94
396.127	225.94
396.352	241.94
396.576	219.94
396.801	217.94
397.025	209.94
397.249	226.94
397.474	212.94
397.698	237.94
397.922	216.94
398.147	225.94
398.371	240.94
398.595	223.94
398.82	240.94
399.044	239.94
399.268	259.94
399.492	254.94
399.717	288.94
399.941	273.94
400.165	280.94
400.389	286.94
400.613	267.94
400.837	256.94
401.062	223.94
401.286	246.94
401.51	232.94
401.734	236.94
401.958	248.94
402.182	249.94
402.406	266.94
402.63	246.94
402.854	266.94
403.078	250.94
403.302	261.94
403.526	228.94
403.75	241.94
403.974	242.94
404.198	259.94
404.422	256.94
404.645	259.94
404.869	262.94
405.093	281.94
405.317	294.94
405.541	278.94
405.765	266.94
405.988	271.94
406.212	270.94
406.436	290.94
406.66	276.94
406.883	278.94
407.107	288.94
407.331	298.94
407.555	327.94
407.778	330.94
408.002	275.94
408.226	277.94
408.449	285.94
408.673	290.94
408.896	283.94
409.12	306.94
409.344	282.94
409.567	270.94
409.791	243.94
410.014	253.94
410.238	246.94
410.461	235.94
410.685	249.94
410.908	284.94
411.132	277.94
411.355	285.94
411.578	262.94
411.802	250.94
412.025	261.94
412.249	246.94
412.472	256.94
412.695	293.94
412.919	284.94
413.142	253.94
413.365	246.94
413.589	256.94
413.812	257.94
414.035	237.94
414.258	231.94
414.482	229.94
414.705	219.94
414.928	232.94
415.151	220.94
415.374	253.94
415.597	226.94
415.821	246.94
416.044	226.94
416.267	243.94
416.49	240.94
416.713	238.94
416.936	244.94
417.159	248.94
417.382	238.94
417.605	233.94
417.828	264.94
418.051	242.94
418.274	262.94
418.497	228.94
418.72	262.94
418.943	250.94
419.166	255.94
419.389	260.94
419.611	265.94
419.834	260.94
420.057	247.94
420.28	248.94
420.503	255.94
420.726	242.94
420.948	255.94
421.171	277.94
421.394	298.94
421.617	256.94
421.839	243.94
422.062	252.94
422.285	271.94
422.507	292.94
422.73	302.94
422.953	291.94
423.175	274.94
423.398	260.94
423.621	266.94
423.843	271.94
424.066	269.94
424.288	256.94
424.511	277.94
424.733	277.94
424.956	341.94
425.178	316.94
425.401	294.94
425.623	320.94
425.846	284.94
426.068	259.94
426.291	290.94
426.513	266.94
426.735	282.94
426.958	282.94
427.18	318.94
427.402	388.94
427.625	424.94
427.847	358.94
428.069	312.94
428.292	289.94
428.514	264.94
428.736	261.94
428.958	245.94
429.181	246.94
429.403	242.94
429.625	250.94
429.847	268.94
430.069	280.94
430.292	295.94
430.514	267.94
430.736	262.94
430.958	243.94
431.18	245.94
431.402	231.94
431.624	227.94
431.846	237.94
432.068	245.94
432.29	232.94
432.512	246.94
432.734	236.94
432.956	237.94
433.178	240.94
433.4	246.94
433.622	231.94
433.844	246.94
434.066	241.94
434.287	227.94
434.509	232.94
434.731	237.94
434.953	228.94
435.175	247.94
435.397	274.94
435.618	271.94
435.84	314.94
436.062	343.94
436.284	339.94
436.505	285.94
436.727	264.94
436.949	258.94
437.17	245.94
437.392	256.94
437.614	258.94
437.835	277.94
438.057	307.94
438.278	339.94
438.5	349.94
438.721	370.94
438.943	363.94
439.165	293.94
439.386	269.94
439.608	259.94
439.829	282.94
440.05	291.94
440.272	299.94
440.493	291.94
440.715	259.94
440.936	264.94
441.158	260.94
441.379	273.94
441.6	268.94
441.822	270.94
442.043	283.94
442.264	334.94
442.486	326.94
442.707	284.94
442.928	284.94
443.149	289.94
443.371	293.94
443.592	306.94
443.813	333.94
444.034	363.94
444.255	298.94
444.476	277.94
444.698	265.94
444.919	278.94
445.14	345.94
445.361	317.94
445.582	308.94
445.803	321.94
446.024	363.94
446.245	368.94
446.466	330.94
446.687	288.94
446.908	259.94
447.129	225.94
447.35	262.94
447.571	276.94
447.792	241.94
448.013	270.94
448.234	250.94
448.455	275.94
448.675	347.94
448.896	360.94
449.117	300.94
449.338	294.94
449.559	337.94
449.779	370.94
450	296.94
450.221	281.94
450.442	270.94
450.662	237.94
450.883	235.94
451.104	254.94
451.324	243.94
451.545	230.94
451.766	236.94
451.986	214.94
452.207	238.94
452.428	233.94
452.648	241.94
452.869	235.94
453.089	244.94
453.31	248.94
453.53	220.94
453.751	225.94
453.971	233.94
454.192	254.94
454.412	221.94
454.633	218.94
454.853	212.94
455.073	229.94
455.294	236.94
455.514	285.94
455.734	262.94
455.955	225.94
456.175	203.94
456.395	202.94
456.616	213.94
456.836	209.94
457.056	208.94
457.276	210.94
457.497	212.94
457.717	206.94
457.937	228.94
458.157	224.94
458.377	220.94
458.598	224.94
458.818	275.94
459.038	311.94
459.258	315.94
459.478	263.94
459.698	277.94
459.918	235.94
460.138	228.94
460.358	230.94
460.578	250.94
460.798	230.94
461.018	224.94
461.238	242.94
461.458	228.94
461.678	229.94
461.898	245.94
462.118	243.94
462.338	228.94
462.558	243.94
462.777	244.94
462.997	263.94
463.217	258.94
463.437	279.94
463.657	256.94
463.876	260.94
464.096	242.94
464.316	257.94
464.536	262.94
464.755	244.94
464.975	236.94
465.195	288.94
465.414	319.94
465.634	283.94
465.854	261.94
466.073	244.94
466.293	233.94
466.512	248.94
466.732	244.94
466.951	234.94
467.171	235.94
467.391	239.94
467.61	241.94
467.829	242.94
468.049	245.94
468.268	254.94
468.488	245.94
468.707	225.94
468.927	220.94
469.146	205.94
469.365	225.94
469.585	212.94
469.804	244.94
470.023	221.94
470.243	237.94
470.462	233.94
470.681	259.94
470.901	243.94
471.12	233.94
471.339	241.94
471.558	218.94
471.777	220.94
471.997	232.94
472.216	248.94
472.435	278.94
472.654	252.94
472.873	217.94
473.092	226.94
473.311	233.94
473.53	222.94
473.749	237.94
473.968	245.94
474.187	312.94
474.406	308.94
474.625	256.94
474.844	226.94
475.063	221.94
475.282	226.94
475.501	228.94
475.72	257.94
475.939	225.94
476.158	229.94
476.377	251.94
476.596	237.94
476.814	246.94
477.033	243.94
477.252	222.94
477.471	246.94
477.69	256.94
477.908	249.94
478.127	258.94
478.346	237.94
478.564	254.94
478.783	240.94
479.002	240.94
479.22	274.94
479.439	266.94
479.658	279.94
479.876	258.94
480.095	280.94
480.313	294.94
480.532	296.94
480.751	272.94
480.969	285.94
481.188	362.94
481.406	372.94
481.624	310.94
481.843	270.94
482.061	282.94
482.28	288.94
482.498	254.94
482.717	268.94
482.935	251.94
483.153	261.94
483.372	279.94
483.59	276.94
483.808	259.94
484.027	258.94
484.245	273.94
484.463	260.94
484.681	289.94
484.9	270.94
485.118	285.94
485.336	274.94
485.554	287.94
485.772	269.94
485.99	269.94
486.209	273.94
486.427	272.94
486.645	282.94
486.863	302.94
487.081	308.94
487.299	297.94
487.517	284.94
487.735	295.94
487.953	287.94
488.171	279.94
488.389	266.94
488.607	270.94
488.825	271.94
489.043	291.94
489.261	299.94
489.479	298.94
489.696	290.94
489.914	278.94
490.132	293.94
490.35	299.94
490.568	303.94
490.786	308.94
491.003	321.94
491.221	319.94
491.439	333.94
491.657	335.94
491.874	340.94
492.092	325.94
492.31	338.94
492.527	342.94
492.745	342.94
492.963	342.94
493.18	337.94
493.398	351.94
493.615	346.94
493.833	340.94
494.05	352.94
494.268	350.94
494.485	333.94
494.703	337.94
494.92	329.94
495.138	323.94
495.355	343.94
495.573	320.94
495.79	340.94
496.008	344.94
496.225	325.94
496.442	336.94
496.66	334.94
496.877	353.94
497.094	347.94
497.312	309.94
497.529	335.94
497.746	350.94
497.963	353.94
498.181	360.94
498.398	370.94
498.615	370.94
498.832	357.94
499.049	363.94
499.267	378.94
499.484	390.94
499.701	397.94
499.918	407.94
500.135	436.94
500.352	457.94
500.569	442.94
500.786	442.94
501.003	424.94
501.22	438.94
501.437	406.94
501.654	428.94
501.871	421.94
502.088	398.94
502.305	384.94
502.522	362.94
502.739	377.94
