Data from 1966.PennyLincolnUp.Lamp.En5.5.200Scan.071719.P1._HRD10591_14-12-57-913.txt Node
Date: Thu Jul 18 14:12:57 EDT 2019
User: cochatt
Spectrometer: HR+D1059
Trigger mode: 1
Integration Time (sec): 1.000000E-1
Scans to average: 1
Electric dark correction enabled: true
Nonlinearity correction enabled: false
Boxcar width: 0
XAxis mode: Wavelengths
Number of Pixels in Spectrum: 2048
>>>>>Begin Spectral Data<<<<<
223.165	-16.75
223.4	-16.75
223.635	-16.75
223.869	-19.75
224.104	-26.75
224.338	-11.75
224.573	-6.75
224.808	-8.75
225.042	-11.75
225.277	-12.75
225.511	4.25
225.746	12.25
225.98	7.25
226.215	12.25
226.449	17.25
226.683	8.25
226.918	18.25
227.152	35.25
227.387	31.25
227.621	32.25
227.856	53.25
228.09	44.25
228.324	47.25
228.559	53.25
228.793	60.25
229.027	76.25
229.262	75.25
229.496	72.25
229.73	93.25
229.964	91.25
230.199	89.25
230.433	84.25
230.667	96.25
230.901	101.25
231.136	91.25
231.37	81.25
231.604	103.25
231.838	89.25
232.072	82.25
232.306	89.25
232.541	87.25
232.775	80.25
233.009	84.25
233.243	99.25
233.477	94.25
233.711	89.25
233.945	85.25
234.179	93.25
234.413	77.25
234.647	90.25
234.881	91.25
235.115	90.25
235.349	91.25
235.583	93.25
235.817	93.25
236.051	84.25
236.285	100.25
236.519	97.25
236.753	99.25
236.987	87.25
237.221	139.25
237.455	138.25
237.689	123.25
237.922	104.25
238.156	106.25
238.39	100.25
238.624	101.25
238.858	91.25
239.091	97.25
239.325	101.25
239.559	85.25
239.793	92.25
240.027	88.25
240.26	98.25
240.494	106.25
240.728	110.25
240.961	100.25
241.195	95.25
241.429	100.25
241.662	101.25
241.896	92.25
242.13	97.25
242.363	102.25
242.597	96.25
242.83	105.25
243.064	85.25
243.298	102.25
243.531	102.25
243.765	92.25
243.998	96.25
244.232	97.25
244.465	105.25
244.699	112.25
244.932	107.25
245.166	97.25
245.399	102.25
245.633	102.25
245.866	105.25
246.099	108.25
246.333	97.25
246.566	111.25
246.8	111.25
247.033	107.25
247.266	118.25
247.5	104.25
247.733	117.25
247.966	117.25
248.2	112.25
248.433	110.25
248.666	117.25
248.899	127.25
249.133	135.25
249.366	135.25
249.599	116.25
249.832	120.25
250.066	116.25
250.299	117.25
250.532	128.25
250.765	135.25
250.998	118.25
251.231	131.25
251.465	123.25
251.698	112.25
251.931	125.25
252.164	122.25
252.397	125.25
252.63	133.25
252.863	121.25
253.096	140.25
253.329	135.25
253.562	125.25
253.795	129.25
254.028	135.25
254.261	133.25
254.494	131.25
254.727	160.25
254.96	162.25
255.193	169.25
255.426	144.25
255.659	142.25
255.892	125.25
256.124	141.25
256.357	140.25
256.59	137.25
256.823	142.25
257.056	123.25
257.289	131.25
257.521	129.25
257.754	128.25
257.987	128.25
258.22	123.25
258.452	128.25
258.685	136.25
258.918	122.25
259.151	127.25
259.383	123.25
259.616	133.25
259.849	123.25
260.081	137.25
260.314	149.25
260.547	151.25
260.779	151.25
261.012	135.25
261.244	144.25
261.477	125.25
261.71	119.25
261.942	143.25
262.175	152.25
262.407	130.25
262.64	133.25
262.872	126.25
263.105	131.25
263.337	136.25
263.57	124.25
263.802	132.25
264.035	127.25
264.267	127.25
264.499	125.25
264.732	138.25
264.964	145.25
265.197	117.25
265.429	136.25
265.661	139.25
265.894	123.25
266.126	133.25
266.358	120.25
266.591	135.25
266.823	147.25
267.055	147.25
267.287	135.25
267.52	132.25
267.752	132.25
267.984	132.25
268.216	141.25
268.448	128.25
268.681	136.25
268.913	135.25
269.145	152.25
269.377	172.25
269.609	162.25
269.841	159.25
270.073	148.25
270.306	176.25
270.538	180.25
270.77	162.25
271.002	190.25
271.234	177.25
271.466	179.25
271.698	181.25
271.93	167.25
272.162	181.25
272.394	177.25
272.626	157.25
272.858	171.25
273.09	168.25
273.322	151.25
273.553	170.25
273.785	152.25
274.017	155.25
274.249	155.25
274.481	154.25
274.713	163.25
274.945	160.25
275.176	144.25
275.408	143.25
275.64	139.25
275.872	145.25
276.104	147.25
276.335	155.25
276.567	162.25
276.799	152.25
277.031	165.25
277.262	182.25
277.494	181.25
277.726	172.25
277.957	162.25
278.189	153.25
278.421	150.25
278.652	159.25
278.884	150.25
279.115	167.25
279.347	142.25
279.579	153.25
279.81	155.25
280.042	145.25
280.273	143.25
280.505	139.25
280.736	155.25
280.968	164.25
281.199	153.25
281.431	146.25
281.662	151.25
281.894	142.25
282.125	142.25
282.356	160.25
282.588	186.25
282.819	180.25
283.051	160.25
283.282	159.25
283.513	161.25
283.745	171.25
283.976	165.25
284.207	160.25
284.439	162.25
284.67	164.25
284.901	146.25
285.132	165.25
285.364	158.25
285.595	165.25
285.826	170.25
286.057	149.25
286.288	160.25
286.52	157.25
286.751	164.25
286.982	159.25
287.213	163.25
287.444	156.25
287.675	156.25
287.906	172.25
288.138	162.25
288.369	169.25
288.6	170.25
288.831	172.25
289.062	182.25
289.293	173.25
289.524	141.25
289.755	170.25
289.986	172.25
290.217	153.25
290.448	173.25
290.679	155.25
290.91	159.25
291.141	169.25
291.371	168.25
291.602	159.25
291.833	157.25
292.064	165.25
292.295	167.25
292.526	164.25
292.757	149.25
292.987	170.25
293.218	155.25
293.449	163.25
293.68	168.25
293.91	169.25
294.141	170.25
294.372	147.25
294.603	162.25
294.833	169.25
295.064	153.25
295.295	164.25
295.525	181.25
295.756	167.25
295.987	160.25
296.217	183.25
296.448	173.25
296.679	173.25
296.909	167.25
297.14	158.25
297.37	168.25
297.601	167.25
297.831	162.25
298.062	183.25
298.292	166.25
298.523	185.25
298.753	155.25
298.984	167.25
299.214	168.25
299.445	166.25
299.675	172.25
299.905	175.25
300.136	168.25
300.366	182.25
300.597	176.25
300.827	163.25
301.057	164.25
301.288	174.25
301.518	187.25
301.748	166.25
301.979	157.25
302.209	161.25
302.439	176.25
302.669	176.25
302.9	180.25
303.13	181.25
303.36	175.25
303.59	183.25
303.82	189.25
304.051	196.25
304.281	169.25
304.511	181.25
304.741	179.25
304.971	170.25
305.201	177.25
305.431	173.25
305.661	173.25
305.891	197.25
306.121	173.25
306.352	173.25
306.582	175.25
306.812	186.25
307.042	165.25
307.272	170.25
307.502	166.25
307.731	173.25
307.961	172.25
308.191	175.25
308.421	168.25
308.651	190.25
308.881	176.25
309.111	190.25
309.341	186.25
309.571	194.25
309.8	198.25
310.03	196.25
310.26	193.25
310.49	187.25
310.72	209.25
310.949	205.25
311.179	209.25
311.409	199.25
311.639	189.25
311.868	169.25
312.098	187.25
312.328	207.25
312.557	207.25
312.787	226.25
313.017	215.25
313.246	201.25
313.476	198.25
313.706	178.25
313.935	203.25
314.165	219.25
314.394	207.25
314.624	206.25
314.853	223.25
315.083	199.25
315.312	174.25
315.542	184.25
315.771	196.25
316.001	195.25
316.23	185.25
316.46	196.25
316.689	178.25
316.919	193.25
317.148	195.25
317.377	205.25
317.607	202.25
317.836	197.25
318.065	183.25
318.295	193.25
318.524	190.25
318.753	185.25
318.983	198.25
319.212	200.25
319.441	194.25
319.67	212.25
319.9	196.25
320.129	206.25
320.358	191.25
320.587	208.25
320.816	198.25
321.046	193.25
321.275	208.25
321.504	204.25
321.733	190.25
321.962	205.25
322.191	217.25
322.42	215.25
322.649	206.25
322.878	227.25
323.108	231.25
323.337	219.25
323.566	243.25
323.795	273.25
324.024	280.25
324.253	343.25
324.482	464.25
324.71	693.25
324.939	934.25
325.168	741.25
325.397	380.25
325.626	279.25
325.855	239.25
326.084	223.25
326.313	243.25
326.542	262.25
326.77	250.25
326.999	292.25
327.228	425.25
327.457	616.25
327.686	700.25
327.914	455.25
328.143	320.25
328.372	306.25
328.6	279.25
328.829	258.25
329.058	286.25
329.287	287.25
329.515	265.25
329.744	245.25
329.972	257.25
330.201	263.25
330.43	308.25
330.658	298.25
330.887	304.25
331.115	292.25
331.344	240.25
331.572	240.25
331.801	240.25
332.03	236.25
332.258	239.25
332.486	231.25
332.715	220.25
332.943	209.25
333.172	219.25
333.4	231.25
333.629	228.25
333.857	244.25
334.085	246.25
334.314	246.25
334.542	285.25
334.771	294.25
334.999	259.25
335.227	240.25
335.455	236.25
335.684	221.25
335.912	232.25
336.14	234.25
336.369	222.25
336.597	228.25
336.825	224.25
337.053	221.25
337.281	228.25
337.51	217.25
337.738	223.25
337.966	237.25
338.194	225.25
338.422	213.25
338.65	208.25
338.878	222.25
339.106	215.25
339.334	221.25
339.562	201.25
339.79	206.25
340.018	212.25
340.246	220.25
340.474	222.25
340.702	235.25
340.93	209.25
341.158	216.25
341.386	213.25
341.614	224.25
341.842	224.25
342.07	221.25
342.298	212.25
342.526	211.25
342.754	208.25
342.981	193.25
343.209	206.25
343.437	222.25
343.665	220.25
343.893	229.25
344.12	232.25
344.348	217.25
344.576	224.25
344.804	226.25
345.031	216.25
345.259	233.25
345.487	212.25
345.714	224.25
345.942	208.25
346.17	206.25
346.397	220.25
346.625	213.25
346.853	225.25
347.08	209.25
347.308	219.25
347.535	215.25
347.763	220.25
347.99	219.25
348.218	228.25
348.445	215.25
348.673	215.25
348.9	201.25
349.128	207.25
349.355	195.25
349.583	182.25
349.81	201.25
350.037	195.25
350.265	201.25
350.492	215.25
350.72	207.25
350.947	187.25
351.174	232.25
351.402	214.25
351.629	219.25
351.856	223.25
352.083	231.25
352.311	220.25
352.538	214.25
352.765	227.25
352.992	217.25
353.22	208.25
353.447	221.25
353.674	213.25
353.901	208.25
354.128	198.25
354.355	199.25
354.583	197.25
354.81	198.25
355.037	199.25
355.264	190.25
355.491	190.25
355.718	194.25
355.945	187.25
356.172	185.25
356.399	183.25
356.626	179.25
356.853	181.25
357.08	188.25
357.307	215.25
357.534	191.25
357.761	191.25
357.988	201.25
358.215	187.25
358.441	192.25
358.668	188.25
358.895	217.25
359.122	194.25
359.349	212.25
359.576	206.25
359.802	223.25
360.029	238.25
360.256	229.25
360.483	210.25
360.709	213.25
360.936	200.25
361.163	222.25
361.39	220.25
361.616	193.25
361.843	207.25
362.07	191.25
362.296	203.25
362.523	198.25
362.749	200.25
362.976	208.25
363.203	203.25
363.429	190.25
363.656	208.25
363.882	202.25
364.109	197.25
364.335	206.25
364.562	198.25
364.788	214.25
365.015	192.25
365.241	187.25
365.468	195.25
365.694	194.25
365.92	199.25
366.147	192.25
366.373	196.25
366.599	193.25
366.826	184.25
367.052	185.25
367.278	178.25
367.505	194.25
367.731	217.25
367.957	211.25
368.184	196.25
368.41	215.25
368.636	199.25
368.862	210.25
369.089	199.25
369.315	198.25
369.541	201.25
369.767	197.25
369.993	192.25
370.219	212.25
370.445	204.25
370.672	200.25
370.898	196.25
371.124	190.25
371.35	191.25
371.576	206.25
371.802	212.25
372.028	197.25
372.254	188.25
372.48	177.25
372.706	200.25
372.932	202.25
373.158	191.25
373.384	203.25
373.61	211.25
373.835	192.25
374.061	189.25
374.287	204.25
374.513	197.25
374.739	206.25
374.965	215.25
375.191	185.25
375.416	203.25
375.642	190.25
375.868	205.25
376.094	211.25
376.319	191.25
376.545	181.25
376.771	187.25
376.997	201.25
377.222	190.25
377.448	195.25
377.674	199.25
377.899	200.25
378.125	180.25
378.35	186.25
378.576	195.25
378.802	190.25
379.027	202.25
379.253	208.25
379.478	202.25
379.704	200.25
379.929	198.25
380.155	199.25
380.38	196.25
380.606	205.25
380.831	193.25
381.057	202.25
381.282	197.25
381.507	200.25
381.733	195.25
381.958	201.25
382.184	199.25
382.409	210.25
382.634	221.25
382.86	190.25
383.085	183.25
383.31	201.25
383.535	209.25
383.761	211.25
383.986	187.25
384.211	211.25
384.436	214.25
384.662	219.25
384.887	225.25
385.112	210.25
385.337	213.25
385.562	221.25
385.787	203.25
386.013	221.25
386.238	223.25
386.463	217.25
386.688	215.25
386.913	212.25
387.138	216.25
387.363	217.25
387.588	192.25
387.813	207.25
388.038	215.25
388.263	193.25
388.488	201.25
388.713	219.25
388.938	206.25
389.163	207.25
389.387	193.25
389.612	214.25
389.837	200.25
390.062	209.25
390.287	222.25
390.512	193.25
390.736	224.25
390.961	212.25
391.186	206.25
391.411	201.25
391.636	211.25
391.86	205.25
392.085	232.25
392.31	207.25
392.534	213.25
392.759	220.25
392.984	205.25
393.208	223.25
393.433	221.25
393.658	212.25
393.882	214.25
394.107	219.25
394.331	202.25
394.556	208.25
394.78	212.25
395.005	214.25
395.229	217.25
395.454	219.25
395.678	216.25
395.903	238.25
396.127	240.25
396.352	255.25
396.576	226.25
396.801	215.25
397.025	214.25
397.249	222.25
397.474	216.25
397.698	217.25
397.922	219.25
398.147	222.25
398.371	238.25
398.595	218.25
398.82	242.25
399.044	243.25
399.268	259.25
399.492	274.25
399.717	269.25
399.941	265.25
400.165	270.25
400.389	278.25
400.613	263.25
400.837	261.25
401.062	244.25
401.286	229.25
401.51	246.25
401.734	249.25
401.958	250.25
402.182	239.25
402.406	257.25
402.63	243.25
402.854	249.25
403.078	237.25
403.302	252.25
403.526	252.25
403.75	248.25
403.974	245.25
404.198	247.25
404.422	259.25
404.645	236.25
404.869	254.25
405.093	257.25
405.317	286.25
405.541	295.25
405.765	266.25
405.988	271.25
406.212	264.25
406.436	280.25
406.66	280.25
406.883	259.25
407.107	277.25
407.331	284.25
407.555	323.25
407.778	313.25
408.002	291.25
408.226	271.25
408.449	274.25
408.673	284.25
408.896	282.25
409.12	288.25
409.344	273.25
409.567	259.25
409.791	245.25
410.014	233.25
410.238	233.25
410.461	243.25
410.685	265.25
410.908	245.25
411.132	280.25
411.355	288.25
411.578	271.25
411.802	237.25
412.025	255.25
412.249	239.25
412.472	259.25
412.695	269.25
412.919	264.25
413.142	251.25
413.365	239.25
413.589	238.25
413.812	230.25
414.035	221.25
414.258	219.25
414.482	247.25
414.705	243.25
414.928	235.25
415.151	233.25
415.374	235.25
415.597	242.25
415.821	258.25
416.044	248.25
416.267	227.25
416.49	229.25
416.713	245.25
416.936	235.25
417.159	248.25
417.382	249.25
417.605	241.25
417.828	267.25
418.051	253.25
418.274	238.25
418.497	238.25
418.72	229.25
418.943	238.25
419.166	244.25
419.389	263.25
419.611	245.25
419.834	256.25
420.057	251.25
420.28	245.25
420.503	247.25
420.726	224.25
420.948	239.25
421.171	275.25
421.394	290.25
421.617	264.25
421.839	238.25
422.062	249.25
422.285	253.25
422.507	273.25
422.73	300.25
422.953	288.25
423.175	245.25
423.398	249.25
423.621	268.25
423.843	243.25
424.066	276.25
424.288	271.25
424.511	277.25
424.733	300.25
424.956	322.25
425.178	305.25
425.401	321.25
425.623	313.25
425.846	281.25
426.068	273.25
426.291	275.25
426.513	267.25
426.735	267.25
426.958	277.25
427.18	302.25
427.402	360.25
427.625	373.25
427.847	364.25
428.069	327.25
428.292	281.25
428.514	277.25
428.736	236.25
428.958	251.25
429.181	235.25
429.403	265.25
429.625	249.25
429.847	262.25
430.069	288.25
430.292	281.25
430.514	256.25
430.736	230.25
430.958	226.25
431.18	240.25
431.402	250.25
431.624	247.25
431.846	222.25
432.068	224.25
432.29	230.25
432.512	230.25
432.734	229.25
432.956	260.25
433.178	243.25
433.4	236.25
433.622	237.25
433.844	247.25
434.066	229.25
434.287	236.25
434.509	234.25
434.731	244.25
434.953	250.25
435.175	250.25
435.397	276.25
435.618	263.25
435.84	277.25
436.062	309.25
436.284	337.25
436.505	273.25
436.727	261.25
436.949	266.25
437.17	222.25
437.392	252.25
437.614	259.25
437.835	267.25
438.057	317.25
438.278	333.25
438.5	328.25
438.721	359.25
438.943	340.25
439.165	300.25
439.386	261.25
439.608	265.25
439.829	260.25
440.05	273.25
440.272	294.25
440.493	278.25
440.715	264.25
440.936	251.25
441.158	248.25
441.379	251.25
441.6	247.25
441.822	264.25
442.043	273.25
442.264	295.25
442.486	326.25
442.707	266.25
442.928	254.25
443.149	250.25
443.371	283.25
443.592	293.25
443.813	313.25
444.034	350.25
444.255	291.25
444.476	263.25
444.698	273.25
444.919	268.25
445.14	355.25
445.361	303.25
445.582	272.25
445.803	325.25
446.024	369.25
446.245	352.25
446.466	326.25
446.687	276.25
446.908	264.25
447.129	265.25
447.35	238.25
447.571	255.25
447.792	240.25
448.013	228.25
448.234	247.25
448.455	278.25
448.675	305.25
448.896	355.25
449.117	307.25
449.338	267.25
449.559	320.25
449.779	374.25
450	293.25
450.221	251.25
450.442	245.25
450.662	236.25
450.883	224.25
451.104	249.25
451.324	252.25
451.545	239.25
451.766	221.25
451.986	236.25
452.207	233.25
452.428	235.25
452.648	224.25
452.869	226.25
453.089	239.25
453.31	231.25
453.53	227.25
453.751	215.25
453.971	212.25
454.192	213.25
454.412	210.25
454.633	237.25
454.853	209.25
455.073	219.25
455.294	237.25
455.514	271.25
455.734	262.25
455.955	218.25
456.175	220.25
456.395	214.25
456.616	206.25
456.836	196.25
457.056	216.25
457.276	205.25
457.497	189.25
457.717	216.25
457.937	212.25
458.157	211.25
458.377	206.25
458.598	236.25
458.818	268.25
459.038	298.25
459.258	286.25
459.478	244.25
459.698	230.25
459.918	238.25
460.138	211.25
460.358	234.25
460.578	236.25
460.798	238.25
461.018	248.25
461.238	221.25
461.458	226.25
461.678	237.25
461.898	233.25
462.118	220.25
462.338	262.25
462.558	266.25
462.777	240.25
462.997	243.25
463.217	271.25
463.437	239.25
463.657	255.25
463.876	245.25
464.096	235.25
464.316	232.25
464.536	260.25
464.755	264.25
464.975	250.25
465.195	281.25
465.414	330.25
465.634	281.25
465.854	254.25
466.073	232.25
466.293	232.25
466.512	224.25
466.732	213.25
466.951	233.25
467.171	225.25
467.391	233.25
467.61	235.25
467.829	245.25
468.049	237.25
468.268	227.25
468.488	228.25
468.707	230.25
468.927	214.25
469.146	219.25
469.365	214.25
469.585	226.25
469.804	224.25
470.023	225.25
470.243	232.25
470.462	227.25
470.681	235.25
470.901	259.25
471.12	223.25
471.339	238.25
471.558	210.25
471.777	224.25
471.997	244.25
472.216	222.25
472.435	252.25
472.654	245.25
472.873	238.25
473.092	224.25
473.311	214.25
473.53	229.25
473.749	229.25
473.968	247.25
474.187	312.25
474.406	335.25
474.625	249.25
474.844	244.25
475.063	232.25
475.282	244.25
475.501	230.25
475.72	239.25
475.939	236.25
476.158	227.25
476.377	247.25
476.596	237.25
476.814	248.25
477.033	230.25
477.252	244.25
477.471	245.25
477.69	238.25
477.908	234.25
478.127	247.25
478.346	240.25
478.564	251.25
478.783	251.25
479.002	254.25
479.22	261.25
479.439	279.25
479.658	265.25
479.876	280.25
480.095	270.25
480.313	295.25
480.532	285.25
480.751	278.25
480.969	285.25
481.188	319.25
481.406	350.25
481.624	287.25
481.843	283.25
482.061	274.25
482.28	278.25
482.498	266.25
482.717	257.25
482.935	253.25
483.153	271.25
483.372	265.25
483.59	257.25
483.808	261.25
484.027	260.25
484.245	277.25
484.463	250.25
484.681	279.25
484.9	264.25
485.118	263.25
485.336	273.25
485.554	267.25
485.772	269.25
485.99	277.25
486.209	271.25
486.427	284.25
486.645	289.25
486.863	305.25
487.081	288.25
487.299	280.25
487.517	286.25
487.735	285.25
487.953	284.25
488.171	273.25
488.389	283.25
488.607	273.25
488.825	296.25
489.043	291.25
489.261	284.25
489.479	299.25
489.696	299.25
489.914	297.25
490.132	293.25
490.35	287.25
490.568	297.25
490.786	294.25
491.003	299.25
491.221	314.25
491.439	302.25
491.657	317.25
491.874	319.25
492.092	318.25
492.31	311.25
492.527	355.25
492.745	329.25
492.963	331.25
493.18	335.25
493.398	317.25
493.615	331.25
493.833	323.25
494.05	299.25
494.268	323.25
494.485	334.25
494.703	328.25
494.92	328.25
495.138	337.25
495.355	319.25
495.573	333.25
495.79	323.25
496.008	338.25
496.225	334.25
496.442	327.25
496.66	325.25
496.877	337.25
497.094	341.25
497.312	331.25
497.529	347.25
497.746	331.25
497.963	331.25
498.181	346.25
498.398	368.25
498.615	344.25
498.832	352.25
499.049	364.25
499.267	373.25
499.484	381.25
499.701	374.25
499.918	409.25
500.135	418.25
500.352	441.25
500.569	430.25
500.786	446.25
501.003	441.25
501.22	408.25
501.437	410.25
501.654	394.25
501.871	397.25
502.088	395.25
502.305	352.25
502.522	354.25
502.739	341.25
