Data from 1966.PennyLincolnUp.Lamp.En5.5.200Scan.071719.P1.Scan2.head_HRD10591_14-18-46-214.txt Node
Date: Thu Jul 18 14:18:46 EDT 2019
User: cochatt
Spectrometer: HR+D1059
Trigger mode: 1
Integration Time (sec): 1.000000E-1
Scans to average: 1
Electric dark correction enabled: true
Nonlinearity correction enabled: false
Boxcar width: 0
XAxis mode: Wavelengths
Number of Pixels in Spectrum: 2048
>>>>>Begin Spectral Data<<<<<
223.165	-7.44
223.4	-7.44
223.635	-7.44
223.869	-6.44
224.104	-15.44
224.338	-18.44
224.573	-15.44
224.808	-24.44
225.042	-4.44
225.277	-4.44
225.511	-4.44
225.746	1.56
225.98	6.56
226.215	15.56
226.449	19.56
226.683	12.56
226.918	19.56
227.152	25.56
227.387	33.56
227.621	22.56
227.856	46.56
228.09	38.56
228.324	41.56
228.559	68.56
228.793	79.56
229.027	105.56
229.262	118.56
229.496	127.56
229.73	144.56
229.964	140.56
230.199	126.56
230.433	106.56
230.667	116.56
230.901	129.56
231.136	112.56
231.37	94.56
231.604	114.56
231.838	122.56
232.072	107.56
232.306	100.56
232.541	115.56
232.775	99.56
233.009	120.56
233.243	111.56
233.477	118.56
233.711	115.56
233.945	113.56
234.179	107.56
234.413	122.56
234.647	112.56
234.881	112.56
235.115	111.56
235.349	127.56
235.583	122.56
235.817	118.56
236.051	128.56
236.285	127.56
236.519	118.56
236.753	134.56
236.987	139.56
237.221	193.56
237.455	238.56
237.689	198.56
237.922	144.56
238.156	126.56
238.39	128.56
238.624	132.56
238.858	131.56
239.091	141.56
239.325	135.56
239.559	129.56
239.793	114.56
240.027	125.56
240.26	155.56
240.494	158.56
240.728	153.56
240.961	134.56
241.195	131.56
241.429	143.56
241.662	129.56
241.896	135.56
242.13	122.56
242.363	134.56
242.597	134.56
242.83	132.56
243.064	144.56
243.298	146.56
243.531	117.56
243.765	138.56
243.998	123.56
244.232	134.56
244.465	145.56
244.699	137.56
244.932	141.56
245.166	146.56
245.399	155.56
245.633	159.56
245.866	150.56
246.099	136.56
246.333	148.56
246.566	150.56
246.8	170.56
247.033	175.56
247.266	165.56
247.5	176.56
247.733	159.56
247.966	194.56
248.2	163.56
248.433	182.56
248.666	174.56
248.899	166.56
249.133	199.56
249.366	190.56
249.599	187.56
249.832	179.56
250.066	179.56
250.299	175.56
250.532	186.56
250.765	216.56
250.998	231.56
251.231	233.56
251.465	224.56
251.698	200.56
251.931	203.56
252.164	213.56
252.397	213.56
252.63	212.56
252.863	213.56
253.096	211.56
253.329	245.56
253.562	219.56
253.795	219.56
254.028	205.56
254.261	231.56
254.494	245.56
254.727	266.56
254.96	289.56
255.193	287.56
255.426	255.56
255.659	250.56
255.892	235.56
256.124	229.56
256.357	239.56
256.59	228.56
256.823	217.56
257.056	215.56
257.289	216.56
257.521	235.56
257.754	215.56
257.987	213.56
258.22	223.56
258.452	211.56
258.685	213.56
258.918	199.56
259.151	199.56
259.383	225.56
259.616	243.56
259.849	227.56
260.081	252.56
260.314	254.56
260.547	253.56
260.779	258.56
261.012	255.56
261.244	219.56
261.477	228.56
261.71	229.56
261.942	229.56
262.175	231.56
262.407	244.56
262.64	234.56
262.872	223.56
263.105	222.56
263.337	235.56
263.57	222.56
263.802	222.56
264.035	214.56
264.267	216.56
264.499	230.56
264.732	240.56
264.964	226.56
265.197	235.56
265.429	232.56
265.661	229.56
265.894	220.56
266.126	216.56
266.358	208.56
266.591	231.56
266.823	227.56
267.055	226.56
267.287	232.56
267.52	231.56
267.752	235.56
267.984	225.56
268.216	235.56
268.448	229.56
268.681	257.56
268.913	255.56
269.145	275.56
269.377	287.56
269.609	282.56
269.841	274.56
270.073	278.56
270.306	299.56
270.538	327.56
270.77	332.56
271.002	312.56
271.234	309.56
271.466	316.56
271.698	342.56
271.93	309.56
272.162	335.56
272.394	323.56
272.626	306.56
272.858	288.56
273.09	282.56
273.322	280.56
273.553	268.56
273.785	281.56
274.017	273.56
274.249	254.56
274.481	264.56
274.713	264.56
274.945	265.56
275.176	279.56
275.408	268.56
275.64	301.56
275.872	293.56
276.104	285.56
276.335	278.56
276.567	273.56
276.799	290.56
277.031	318.56
277.262	339.56
277.494	332.56
277.726	311.56
277.957	306.56
278.189	287.56
278.421	299.56
278.652	278.56
278.884	275.56
279.115	282.56
279.347	287.56
279.579	275.56
279.81	289.56
280.042	290.56
280.273	262.56
280.505	290.56
280.736	276.56
280.968	265.56
281.199	265.56
281.431	263.56
281.662	295.56
281.894	295.56
282.125	283.56
282.356	304.56
282.588	327.56
282.819	325.56
283.051	295.56
283.282	284.56
283.513	254.56
283.745	275.56
283.976	269.56
284.207	305.56
284.439	295.56
284.67	290.56
284.901	268.56
285.132	294.56
285.364	302.56
285.595	283.56
285.826	264.56
286.057	297.56
286.288	303.56
286.52	292.56
286.751	306.56
286.982	290.56
287.213	293.56
287.444	294.56
287.675	293.56
287.906	308.56
288.138	324.56
288.369	330.56
288.6	310.56
288.831	295.56
289.062	307.56
289.293	308.56
289.524	308.56
289.755	291.56
289.986	302.56
290.217	298.56
290.448	286.56
290.679	297.56
290.91	298.56
291.141	304.56
291.371	303.56
291.602	296.56
291.833	310.56
292.064	326.56
292.295	314.56
292.526	277.56
292.757	299.56
292.987	316.56
293.218	303.56
293.449	329.56
293.68	320.56
293.91	300.56
294.141	307.56
294.372	303.56
294.603	289.56
294.833	317.56
295.064	302.56
295.295	296.56
295.525	308.56
295.756	331.56
295.987	329.56
296.217	330.56
296.448	344.56
296.679	307.56
296.909	311.56
297.14	319.56
297.37	339.56
297.601	318.56
297.831	324.56
298.062	299.56
298.292	323.56
298.523	305.56
298.753	328.56
298.984	352.56
299.214	326.56
299.445	310.56
299.675	328.56
299.905	325.56
300.136	319.56
300.366	313.56
300.597	325.56
300.827	334.56
301.057	327.56
301.288	338.56
301.518	346.56
301.748	335.56
301.979	363.56
302.209	355.56
302.439	347.56
302.669	336.56
302.9	358.56
303.13	343.56
303.36	342.56
303.59	356.56
303.82	342.56
304.051	345.56
304.281	340.56
304.511	351.56
304.741	339.56
304.971	345.56
305.201	358.56
305.431	338.56
305.661	346.56
305.891	355.56
306.121	343.56
306.352	370.56
306.582	363.56
306.812	359.56
307.042	360.56
307.272	353.56
307.502	363.56
307.731	344.56
307.961	328.56
308.191	348.56
308.421	349.56
308.651	361.56
308.881	358.56
309.111	353.56
309.341	358.56
309.571	358.56
309.8	368.56
310.03	389.56
310.26	382.56
310.49	392.56
310.72	407.56
310.949	406.56
311.179	408.56
311.409	383.56
311.639	392.56
311.868	392.56
312.098	401.56
312.328	418.56
312.557	421.56
312.787	406.56
313.017	409.56
313.246	397.56
313.476	384.56
313.706	402.56
313.935	405.56
314.165	430.56
314.394	428.56
314.624	405.56
314.853	419.56
315.083	414.56
315.312	386.56
315.542	412.56
315.771	395.56
316.001	394.56
316.23	403.56
316.46	400.56
316.689	396.56
316.919	397.56
317.148	426.56
317.377	426.56
317.607	407.56
317.836	401.56
318.065	395.56
318.295	398.56
318.524	412.56
318.753	380.56
318.983	396.56
319.212	389.56
319.441	396.56
319.67	408.56
319.9	390.56
320.129	420.56
320.358	387.56
320.587	423.56
320.816	417.56
321.046	423.56
321.275	416.56
321.504	413.56
321.733	410.56
321.962	430.56
322.191	441.56
322.42	440.56
322.649	471.56
322.878	488.56
323.108	480.56
323.337	477.56
323.566	524.56
323.795	541.56
324.024	597.56
324.253	711.56
324.482	987.56
324.71	1531.56
324.939	2352.56
325.168	1984.56
325.397	987.56
325.626	683.56
325.855	573.56
326.084	548.56
326.313	529.56
326.542	527.56
326.77	552.56
326.999	651.56
327.228	898.56
327.457	1380.56
327.686	1755.56
327.914	1138.56
328.143	720.56
328.372	659.56
328.6	606.56
328.829	585.56
329.058	589.56
329.287	616.56
329.515	579.56
329.744	533.56
329.972	546.56
330.201	568.56
330.43	606.56
330.658	638.56
330.887	640.56
331.115	628.56
331.344	548.56
331.572	512.56
331.801	498.56
332.03	533.56
332.258	499.56
332.486	476.56
332.715	469.56
332.943	479.56
333.172	487.56
333.4	491.56
333.629	492.56
333.857	506.56
334.085	513.56
334.314	550.56
334.542	578.56
334.771	589.56
334.999	554.56
335.227	534.56
335.455	497.56
335.684	506.56
335.912	514.56
336.14	467.56
336.369	486.56
336.597	482.56
336.825	510.56
337.053	468.56
337.281	488.56
337.51	475.56
337.738	479.56
337.966	470.56
338.194	481.56
338.422	489.56
338.65	481.56
338.878	474.56
339.106	460.56
339.334	479.56
339.562	459.56
339.79	480.56
340.018	446.56
340.246	457.56
340.474	480.56
340.702	482.56
340.93	451.56
341.158	461.56
341.386	452.56
341.614	461.56
341.842	454.56
342.07	456.56
342.298	438.56
342.526	459.56
342.754	446.56
342.981	450.56
343.209	450.56
343.437	462.56
343.665	460.56
343.893	478.56
344.12	474.56
344.348	459.56
344.576	467.56
344.804	481.56
345.031	484.56
345.259	484.56
345.487	501.56
345.714	479.56
345.942	460.56
346.17	442.56
346.397	453.56
346.625	438.56
346.853	464.56
347.08	443.56
347.308	465.56
347.535	454.56
347.763	468.56
347.99	467.56
348.218	443.56
348.445	471.56
348.673	460.56
348.9	455.56
349.128	446.56
349.355	425.56
349.583	446.56
349.81	446.56
350.037	416.56
350.265	422.56
350.492	450.56
350.72	432.56
350.947	443.56
351.174	437.56
351.402	448.56
351.629	461.56
351.856	451.56
352.083	458.56
352.311	476.56
352.538	478.56
352.765	474.56
352.992	455.56
353.22	459.56
353.447	471.56
353.674	450.56
353.901	425.56
354.128	427.56
354.355	424.56
354.583	426.56
354.81	433.56
355.037	417.56
355.264	424.56
355.491	424.56
355.718	410.56
355.945	440.56
356.172	410.56
356.399	414.56
356.626	432.56
356.853	411.56
357.08	426.56
357.307	426.56
357.534	433.56
357.761	424.56
357.988	408.56
358.215	409.56
358.441	420.56
358.668	406.56
358.895	452.56
359.122	427.56
359.349	439.56
359.576	474.56
359.802	467.56
360.029	497.56
360.256	522.56
360.483	504.56
360.709	441.56
360.936	463.56
361.163	454.56
361.39	448.56
361.616	455.56
361.843	450.56
362.07	447.56
362.296	452.56
362.523	440.56
362.749	456.56
362.976	434.56
363.203	448.56
363.429	446.56
363.656	440.56
363.882	453.56
364.109	432.56
364.335	448.56
364.562	458.56
364.788	439.56
365.015	419.56
365.241	440.56
365.468	440.56
365.694	456.56
365.92	445.56
366.147	448.56
366.373	444.56
366.599	422.56
366.826	438.56
367.052	426.56
367.278	432.56
367.505	444.56
367.731	454.56
367.957	417.56
368.184	436.56
368.41	469.56
368.636	457.56
368.862	463.56
369.089	455.56
369.315	440.56
369.541	439.56
369.767	432.56
369.993	413.56
370.219	432.56
370.445	446.56
370.672	449.56
370.898	444.56
371.124	436.56
371.35	448.56
371.576	439.56
371.802	439.56
372.028	440.56
372.254	437.56
372.48	422.56
372.706	434.56
372.932	432.56
373.158	432.56
373.384	453.56
373.61	450.56
373.835	454.56
374.061	451.56
374.287	441.56
374.513	470.56
374.739	467.56
374.965	443.56
375.191	453.56
375.416	463.56
375.642	451.56
375.868	449.56
376.094	425.56
376.319	431.56
376.545	423.56
376.771	439.56
376.997	449.56
377.222	450.56
377.448	438.56
377.674	437.56
377.899	436.56
378.125	442.56
378.35	446.56
378.576	436.56
378.802	464.56
379.027	451.56
379.253	437.56
379.478	434.56
379.704	437.56
379.929	438.56
380.155	466.56
380.38	464.56
380.606	437.56
380.831	430.56
381.057	427.56
381.282	446.56
381.507	455.56
381.733	440.56
381.958	442.56
382.184	450.56
382.409	456.56
382.634	453.56
382.86	446.56
383.085	439.56
383.31	448.56
383.535	465.56
383.761	451.56
383.986	487.56
384.211	488.56
384.436	473.56
384.662	484.56
384.887	483.56
385.112	492.56
385.337	471.56
385.562	484.56
385.787	490.56
386.013	516.56
386.238	502.56
386.463	510.56
386.688	481.56
386.913	496.56
387.138	495.56
387.363	483.56
387.588	483.56
387.813	495.56
388.038	492.56
388.263	498.56
388.488	522.56
388.713	504.56
388.938	487.56
389.163	499.56
389.387	481.56
389.612	491.56
389.837	500.56
390.062	489.56
390.287	475.56
390.512	487.56
390.736	494.56
390.961	481.56
391.186	494.56
391.411	491.56
391.636	508.56
391.86	512.56
392.085	504.56
392.31	521.56
392.534	507.56
392.759	518.56
392.984	510.56
393.208	500.56
393.433	517.56
393.658	514.56
393.882	500.56
394.107	502.56
394.331	501.56
394.556	491.56
394.78	507.56
395.005	505.56
395.229	513.56
395.454	521.56
395.678	530.56
395.903	535.56
396.127	550.56
396.352	569.56
396.576	531.56
396.801	522.56
397.025	537.56
397.249	523.56
397.474	541.56
397.698	536.56
397.922	548.56
398.147	559.56
398.371	578.56
398.595	563.56
398.82	559.56
399.044	573.56
399.268	630.56
399.492	631.56
399.717	685.56
399.941	723.56
400.165	730.56
400.389	721.56
400.613	659.56
400.837	644.56
401.062	586.56
401.286	585.56
401.51	577.56
401.734	585.56
401.958	576.56
402.182	584.56
402.406	607.56
402.63	601.56
402.854	582.56
403.078	594.56
403.302	595.56
403.526	606.56
403.75	584.56
403.974	601.56
404.198	586.56
404.422	606.56
404.645	623.56
404.869	614.56
405.093	652.56
405.317	686.56
405.541	715.56
405.765	680.56
405.988	634.56
406.212	624.56
406.436	667.56
406.66	678.56
406.883	642.56
407.107	680.56
407.331	728.56
407.555	782.56
407.778	818.56
408.002	731.56
408.226	677.56
408.449	659.56
408.673	647.56
408.896	691.56
409.12	704.56
409.344	682.56
409.567	646.56
409.791	616.56
410.014	605.56
410.238	618.56
410.461	614.56
410.685	610.56
410.908	617.56
411.132	687.56
411.355	702.56
411.578	679.56
411.802	632.56
412.025	608.56
412.249	614.56
412.472	650.56
412.695	683.56
412.919	657.56
413.142	614.56
413.365	618.56
413.589	604.56
413.812	574.56
414.035	582.56
414.258	572.56
414.482	582.56
414.705	572.56
414.928	566.56
415.151	584.56
415.374	572.56
415.597	580.56
415.821	556.56
416.044	585.56
416.267	563.56
416.49	583.56
416.713	578.56
416.936	552.56
417.159	581.56
417.382	592.56
417.605	594.56
417.828	582.56
418.051	591.56
418.274	568.56
418.497	555.56
418.72	556.56
418.943	580.56
419.166	606.56
419.389	635.56
419.611	622.56
419.834	617.56
420.057	614.56
420.28	604.56
420.503	602.56
420.726	597.56
420.948	612.56
421.171	694.56
421.394	719.56
421.617	631.56
421.839	606.56
422.062	616.56
422.285	615.56
422.507	683.56
422.73	750.56
422.953	702.56
423.175	669.56
423.398	648.56
423.621	614.56
423.843	664.56
424.066	642.56
424.288	646.56
424.511	652.56
424.733	715.56
424.956	824.56
425.178	774.56
425.401	773.56
425.623	813.56
425.846	703.56
426.068	664.56
426.291	652.56
426.513	642.56
426.735	643.56
426.958	698.56
427.18	766.56
427.402	942.56
427.625	1028.56
427.847	889.56
428.069	772.56
428.292	680.56
428.514	642.56
428.736	622.56
428.958	624.56
429.181	587.56
429.403	603.56
429.625	616.56
429.847	650.56
430.069	731.56
430.292	716.56
430.514	618.56
430.736	603.56
430.958	592.56
431.18	584.56
431.402	567.56
431.624	551.56
431.846	560.56
432.068	582.56
432.29	553.56
432.512	550.56
432.734	599.56
432.956	574.56
433.178	577.56
433.4	591.56
433.622	552.56
433.844	578.56
434.066	585.56
434.287	572.56
434.509	587.56
434.731	594.56
434.953	588.56
435.175	624.56
435.397	648.56
435.618	645.56
435.84	692.56
436.062	799.56
436.284	859.56
436.505	725.56
436.727	644.56
436.949	610.56
437.17	605.56
437.392	611.56
437.614	626.56
437.835	671.56
438.057	762.56
438.278	896.56
438.5	844.56
438.721	931.56
438.943	935.56
439.165	719.56
439.386	642.56
439.608	628.56
439.829	646.56
440.05	695.56
440.272	724.56
440.493	678.56
440.715	648.56
440.936	607.56
441.158	624.56
441.379	603.56
441.6	618.56
441.822	615.56
442.043	681.56
442.264	790.56
442.486	840.56
442.707	683.56
442.928	683.56
443.149	689.56
443.371	695.56
443.592	712.56
443.813	853.56
444.034	920.56
444.255	768.56
444.476	680.56
444.698	667.56
444.919	651.56
445.14	753.56
445.361	718.56
445.582	658.56
445.803	773.56
446.024	900.56
446.245	911.56
446.466	837.56
446.687	683.56
446.908	630.56
447.129	611.56
447.35	586.56
447.571	617.56
447.792	598.56
448.013	599.56
448.234	613.56
448.455	683.56
448.675	831.56
448.896	936.56
449.117	789.56
449.338	757.56
449.559	846.56
449.779	994.56
450	787.56
450.221	634.56
450.442	593.56
450.662	582.56
450.883	593.56
451.104	603.56
451.324	575.56
451.545	580.56
451.766	542.56
451.986	534.56
452.207	535.56
452.428	541.56
452.648	543.56
452.869	538.56
453.089	550.56
453.31	546.56
453.53	542.56
453.751	520.56
453.971	497.56
454.192	548.56
454.412	530.56
454.633	522.56
454.853	527.56
455.073	546.56
455.294	550.56
455.514	644.56
455.734	635.56
455.955	521.56
456.175	529.56
456.395	482.56
456.616	482.56
456.836	489.56
457.056	503.56
457.276	498.56
457.497	500.56
457.717	510.56
457.937	518.56
458.157	534.56
458.377	539.56
458.598	530.56
458.818	610.56
459.038	691.56
459.258	711.56
459.478	636.56
459.698	575.56
459.918	567.56
460.138	566.56
460.358	562.56
460.578	566.56
460.798	585.56
461.018	582.56
461.238	586.56
461.458	554.56
461.678	577.56
461.898	555.56
462.118	583.56
462.338	600.56
462.558	632.56
462.777	606.56
462.997	642.56
463.217	627.56
463.437	648.56
463.657	615.56
463.876	617.56
464.096	610.56
464.316	638.56
464.536	623.56
464.755	614.56
464.975	616.56
465.195	644.56
465.414	704.56
465.634	630.56
465.854	619.56
466.073	560.56
466.293	554.56
466.512	554.56
466.732	549.56
466.951	536.56
467.171	518.56
467.391	536.56
467.61	560.56
467.829	578.56
468.049	570.56
468.268	555.56
468.488	552.56
468.707	562.56
468.927	518.56
469.146	535.56
469.365	513.56
469.585	517.56
469.804	535.56
470.023	559.56
470.243	532.56
470.462	546.56
470.681	576.56
470.901	566.56
471.12	575.56
471.339	552.56
471.558	547.56
471.777	551.56
471.997	542.56
472.216	548.56
472.435	586.56
472.654	595.56
472.873	557.56
473.092	577.56
473.311	558.56
473.53	552.56
473.749	588.56
473.968	611.56
474.187	726.56
474.406	734.56
474.625	626.56
474.844	588.56
475.063	565.56
475.282	556.56
475.501	564.56
475.72	580.56
475.939	579.56
476.158	561.56
476.377	584.56
476.596	565.56
476.814	615.56
477.033	580.56
477.252	585.56
477.471	612.56
477.69	605.56
477.908	611.56
478.127	622.56
478.346	624.56
478.564	631.56
478.783	638.56
479.002	636.56
479.22	657.56
479.439	663.56
479.658	672.56
479.876	671.56
480.095	701.56
480.313	725.56
480.532	698.56
480.751	659.56
480.969	678.56
481.188	768.56
481.406	806.56
481.624	739.56
481.843	702.56
482.061	661.56
482.28	670.56
482.498	679.56
482.717	649.56
482.935	659.56
483.153	653.56
483.372	649.56
483.59	649.56
483.808	630.56
484.027	666.56
484.245	667.56
484.463	656.56
484.681	653.56
484.9	682.56
485.118	681.56
485.336	660.56
485.554	687.56
485.772	679.56
485.99	701.56
486.209	675.56
486.427	667.56
486.645	682.56
486.863	723.56
487.081	705.56
487.299	693.56
487.517	689.56
487.735	663.56
487.953	682.56
488.171	710.56
488.389	718.56
488.607	708.56
488.825	699.56
489.043	714.56
489.261	715.56
489.479	716.56
489.696	738.56
489.914	697.56
490.132	714.56
490.35	725.56
490.568	749.56
490.786	769.56
491.003	750.56
491.221	773.56
491.439	800.56
491.657	794.56
491.874	807.56
492.092	807.56
492.31	827.56
492.527	818.56
492.745	819.56
492.963	818.56
493.18	791.56
493.398	827.56
493.615	844.56
493.833	863.56
494.05	816.56
494.268	837.56
494.485	835.56
494.703	847.56
494.92	816.56
495.138	826.56
495.355	818.56
495.573	843.56
495.79	838.56
496.008	836.56
496.225	847.56
496.442	850.56
496.66	870.56
496.877	855.56
497.094	867.56
497.312	855.56
497.529	858.56
497.746	882.56
497.963	868.56
498.181	936.56
498.398	904.56
498.615	936.56
498.832	978.56
499.049	951.56
499.267	1012.56
499.484	1019.56
499.701	1066.56
499.918	1112.56
500.135	1136.56
500.352	1217.56
500.569	1236.56
500.786	1215.56
501.003	1188.56
501.22	1188.56
501.437	1137.56
501.654	1123.56
