Data from 1966.PennyLincolnUp.Lamp.En5.5.200Scan.071719.P1._HRD10591_14-14-13-914.txt Node
Date: Thu Jul 18 14:14:13 EDT 2019
User: cochatt
Spectrometer: HR+D1059
Trigger mode: 1
Integration Time (sec): 1.000000E-1
Scans to average: 1
Electric dark correction enabled: true
Nonlinearity correction enabled: false
Boxcar width: 0
XAxis mode: Wavelengths
Number of Pixels in Spectrum: 2048
>>>>>Begin Spectral Data<<<<<
223.165	0.12
223.4	0.12
223.635	0.12
223.869	-16.88
224.104	-15.88
224.338	-18.88
224.573	-9.88
224.808	-14.88
225.042	-16.88
225.277	-7.88
225.511	-6.88
225.746	5.12
225.98	2.12
226.215	12.12
226.449	13.12
226.683	23.12
226.918	33.12
227.152	19.12
227.387	23.12
227.621	34.12
227.856	48.12
228.09	66.12
228.324	57.12
228.559	40.12
228.793	63.12
229.027	79.12
229.262	86.12
229.496	79.12
229.73	112.12
229.964	121.12
230.199	105.12
230.433	98.12
230.667	88.12
230.901	90.12
231.136	86.12
231.37	94.12
231.604	83.12
231.838	84.12
232.072	85.12
232.306	109.12
232.541	84.12
232.775	98.12
233.009	84.12
233.243	101.12
233.477	90.12
233.711	90.12
233.945	104.12
234.179	102.12
234.413	102.12
234.647	104.12
234.881	83.12
235.115	91.12
235.349	100.12
235.583	94.12
235.817	108.12
236.051	96.12
236.285	99.12
236.519	107.12
236.753	107.12
236.987	115.12
237.221	137.12
237.455	118.12
237.689	117.12
237.922	111.12
238.156	102.12
238.39	96.12
238.624	94.12
238.858	93.12
239.091	97.12
239.325	97.12
239.559	94.12
239.793	112.12
240.027	115.12
240.26	98.12
240.494	110.12
240.728	110.12
240.961	92.12
241.195	112.12
241.429	109.12
241.662	119.12
241.896	111.12
242.13	91.12
242.363	105.12
242.597	103.12
242.83	106.12
243.064	113.12
243.298	114.12
243.531	103.12
243.765	101.12
243.998	122.12
244.232	108.12
244.465	101.12
244.699	111.12
244.932	105.12
245.166	96.12
245.399	106.12
245.633	118.12
245.866	112.12
246.099	97.12
246.333	94.12
246.566	111.12
246.8	117.12
247.033	122.12
247.266	106.12
247.5	116.12
247.733	117.12
247.966	131.12
248.2	124.12
248.433	115.12
248.666	117.12
248.899	141.12
249.133	108.12
249.366	146.12
249.599	141.12
249.832	125.12
250.066	146.12
250.299	134.12
250.532	131.12
250.765	147.12
250.998	137.12
251.231	161.12
251.465	133.12
251.698	139.12
251.931	140.12
252.164	133.12
252.397	126.12
252.63	133.12
252.863	140.12
253.096	123.12
253.329	145.12
253.562	140.12
253.795	141.12
254.028	141.12
254.261	141.12
254.494	153.12
254.727	155.12
254.96	169.12
255.193	167.12
255.426	155.12
255.659	143.12
255.892	154.12
256.124	148.12
256.357	158.12
256.59	129.12
256.823	145.12
257.056	147.12
257.289	131.12
257.521	130.12
257.754	131.12
257.987	122.12
258.22	134.12
258.452	146.12
258.685	143.12
258.918	143.12
259.151	132.12
259.383	137.12
259.616	150.12
259.849	143.12
260.081	143.12
260.314	164.12
260.547	161.12
260.779	145.12
261.012	142.12
261.244	153.12
261.477	144.12
261.71	145.12
261.942	145.12
262.175	145.12
262.407	139.12
262.64	135.12
262.872	154.12
263.105	130.12
263.337	145.12
263.57	121.12
263.802	137.12
264.035	134.12
264.267	143.12
264.499	137.12
264.732	145.12
264.964	133.12
265.197	131.12
265.429	159.12
265.661	135.12
265.894	141.12
266.126	145.12
266.358	140.12
266.591	118.12
266.823	135.12
267.055	144.12
267.287	141.12
267.52	138.12
267.752	155.12
267.984	154.12
268.216	144.12
268.448	150.12
268.681	150.12
268.913	151.12
269.145	160.12
269.377	175.12
269.609	160.12
269.841	163.12
270.073	177.12
270.306	171.12
270.538	190.12
270.77	177.12
271.002	192.12
271.234	165.12
271.466	178.12
271.698	197.12
271.93	188.12
272.162	207.12
272.394	186.12
272.626	168.12
272.858	170.12
273.09	162.12
273.322	157.12
273.553	166.12
273.785	153.12
274.017	157.12
274.249	159.12
274.481	162.12
274.713	156.12
274.945	169.12
275.176	174.12
275.408	154.12
275.64	166.12
275.872	157.12
276.104	172.12
276.335	156.12
276.567	166.12
276.799	176.12
277.031	178.12
277.262	190.12
277.494	199.12
277.726	181.12
277.957	153.12
278.189	171.12
278.421	159.12
278.652	160.12
278.884	153.12
279.115	161.12
279.347	166.12
279.579	155.12
279.81	157.12
280.042	165.12
280.273	159.12
280.505	158.12
280.736	149.12
280.968	145.12
281.199	163.12
281.431	165.12
281.662	150.12
281.894	160.12
282.125	174.12
282.356	167.12
282.588	197.12
282.819	176.12
283.051	175.12
283.282	159.12
283.513	182.12
283.745	164.12
283.976	161.12
284.207	171.12
284.439	172.12
284.67	177.12
284.901	151.12
285.132	174.12
285.364	165.12
285.595	170.12
285.826	172.12
286.057	163.12
286.288	169.12
286.52	167.12
286.751	182.12
286.982	174.12
287.213	165.12
287.444	174.12
287.675	176.12
287.906	179.12
288.138	175.12
288.369	177.12
288.6	177.12
288.831	171.12
289.062	174.12
289.293	174.12
289.524	175.12
289.755	176.12
289.986	163.12
290.217	181.12
290.448	168.12
290.679	167.12
290.91	170.12
291.141	168.12
291.371	173.12
291.602	172.12
291.833	183.12
292.064	173.12
292.295	164.12
292.526	176.12
292.757	173.12
292.987	175.12
293.218	157.12
293.449	162.12
293.68	175.12
293.91	166.12
294.141	171.12
294.372	158.12
294.603	189.12
294.833	166.12
295.064	170.12
295.295	165.12
295.525	168.12
295.756	178.12
295.987	190.12
296.217	207.12
296.448	193.12
296.679	188.12
296.909	183.12
297.14	177.12
297.37	176.12
297.601	184.12
297.831	175.12
298.062	178.12
298.292	170.12
298.523	190.12
298.753	187.12
298.984	181.12
299.214	162.12
299.445	181.12
299.675	175.12
299.905	181.12
300.136	195.12
300.366	183.12
300.597	195.12
300.827	197.12
301.057	187.12
301.288	176.12
301.518	179.12
301.748	195.12
301.979	198.12
302.209	177.12
302.439	191.12
302.669	191.12
302.9	198.12
303.13	185.12
303.36	183.12
303.59	192.12
303.82	185.12
304.051	203.12
304.281	192.12
304.511	178.12
304.741	180.12
304.971	197.12
305.201	185.12
305.431	203.12
305.661	190.12
305.891	196.12
306.121	188.12
306.352	177.12
306.582	190.12
306.812	190.12
307.042	188.12
307.272	189.12
307.502	190.12
307.731	193.12
307.961	190.12
308.191	191.12
308.421	197.12
308.651	170.12
308.881	197.12
309.111	194.12
309.341	189.12
309.571	204.12
309.8	218.12
310.03	205.12
310.26	197.12
310.49	203.12
310.72	204.12
310.949	217.12
311.179	225.12
311.409	211.12
311.639	237.12
311.868	205.12
312.098	200.12
312.328	234.12
312.557	219.12
312.787	229.12
313.017	223.12
313.246	211.12
313.476	212.12
313.706	206.12
313.935	211.12
314.165	212.12
314.394	224.12
314.624	222.12
314.853	210.12
315.083	204.12
315.312	201.12
315.542	203.12
315.771	197.12
316.001	200.12
316.23	223.12
316.46	219.12
316.689	210.12
316.919	212.12
317.148	229.12
317.377	213.12
317.607	210.12
317.836	223.12
318.065	229.12
318.295	206.12
318.524	205.12
318.753	205.12
318.983	201.12
319.212	209.12
319.441	222.12
319.67	225.12
319.9	208.12
320.129	205.12
320.358	188.12
320.587	200.12
320.816	225.12
321.046	233.12
321.275	227.12
321.504	229.12
321.733	218.12
321.962	221.12
322.191	225.12
322.42	227.12
322.649	239.12
322.878	244.12
323.108	237.12
323.337	282.12
323.566	269.12
323.795	265.12
324.024	303.12
324.253	365.12
324.482	515.12
324.71	796.12
324.939	1055.12
325.168	837.12
325.397	427.12
325.626	313.12
325.855	279.12
326.084	271.12
326.313	265.12
326.542	251.12
326.77	311.12
326.999	350.12
327.228	462.12
327.457	696.12
327.686	789.12
327.914	520.12
328.143	373.12
328.372	337.12
328.6	313.12
328.829	306.12
329.058	316.12
329.287	306.12
329.515	297.12
329.744	281.12
329.972	274.12
330.201	283.12
330.43	311.12
330.658	338.12
330.887	350.12
331.115	334.12
331.344	282.12
331.572	289.12
331.801	253.12
332.03	265.12
332.258	253.12
332.486	246.12
332.715	229.12
332.943	234.12
333.172	239.12
333.4	249.12
333.629	250.12
333.857	278.12
334.085	278.12
334.314	293.12
334.542	319.12
334.771	318.12
334.999	285.12
335.227	255.12
335.455	255.12
335.684	250.12
335.912	226.12
336.14	243.12
336.369	256.12
336.597	234.12
336.825	243.12
337.053	253.12
337.281	236.12
337.51	241.12
337.738	251.12
337.966	239.12
338.194	235.12
338.422	234.12
338.65	234.12
338.878	223.12
339.106	210.12
339.334	237.12
339.562	226.12
339.79	229.12
340.018	229.12
340.246	238.12
340.474	247.12
340.702	234.12
340.93	219.12
341.158	229.12
341.386	222.12
341.614	240.12
341.842	224.12
342.07	234.12
342.298	217.12
342.526	233.12
342.754	234.12
342.981	220.12
343.209	233.12
343.437	221.12
343.665	206.12
343.893	229.12
344.12	224.12
344.348	222.12
344.576	238.12
344.804	226.12
345.031	259.12
345.259	239.12
345.487	251.12
345.714	227.12
345.942	231.12
346.17	221.12
346.397	225.12
346.625	210.12
346.853	220.12
347.08	205.12
347.308	222.12
347.535	243.12
347.763	235.12
347.99	227.12
348.218	239.12
348.445	250.12
348.673	223.12
348.9	223.12
349.128	230.12
349.355	223.12
349.583	226.12
349.81	227.12
350.037	220.12
350.265	211.12
350.492	227.12
350.72	213.12
350.947	223.12
351.174	207.12
351.402	225.12
351.629	219.12
351.856	223.12
352.083	222.12
352.311	239.12
352.538	246.12
352.765	234.12
352.992	229.12
353.22	235.12
353.447	223.12
353.674	216.12
353.901	224.12
354.128	216.12
354.355	208.12
354.583	214.12
354.81	207.12
355.037	219.12
355.264	198.12
355.491	202.12
355.718	198.12
355.945	217.12
356.172	209.12
356.399	209.12
356.626	207.12
356.853	207.12
357.08	192.12
357.307	224.12
357.534	207.12
357.761	205.12
357.988	206.12
358.215	206.12
358.441	198.12
358.668	222.12
358.895	218.12
359.122	212.12
359.349	203.12
359.576	218.12
359.802	219.12
360.029	261.12
360.256	255.12
360.483	251.12
360.709	239.12
360.936	206.12
361.163	233.12
361.39	232.12
361.616	233.12
361.843	226.12
362.07	232.12
362.296	216.12
362.523	215.12
362.749	229.12
362.976	225.12
363.203	198.12
363.429	201.12
363.656	214.12
363.882	225.12
364.109	239.12
364.335	219.12
364.562	220.12
364.788	196.12
365.015	223.12
365.241	223.12
365.468	234.12
365.694	205.12
365.92	203.12
366.147	211.12
366.373	198.12
366.599	224.12
366.826	219.12
367.052	190.12
367.278	217.12
367.505	216.12
367.731	225.12
367.957	208.12
368.184	206.12
368.41	225.12
368.636	229.12
368.862	222.12
369.089	217.12
369.315	199.12
369.541	204.12
369.767	209.12
369.993	213.12
370.219	211.12
370.445	219.12
370.672	203.12
370.898	208.12
371.124	217.12
371.35	215.12
371.576	200.12
371.802	215.12
372.028	209.12
372.254	204.12
372.48	204.12
372.706	205.12
372.932	225.12
373.158	215.12
373.384	209.12
373.61	217.12
373.835	215.12
374.061	209.12
374.287	199.12
374.513	208.12
374.739	217.12
374.965	197.12
375.191	208.12
375.416	203.12
375.642	211.12
375.868	219.12
376.094	206.12
376.319	210.12
376.545	215.12
376.771	218.12
376.997	199.12
377.222	208.12
377.448	207.12
377.674	215.12
377.899	205.12
378.125	211.12
378.35	207.12
378.576	210.12
378.802	210.12
379.027	213.12
379.253	216.12
379.478	220.12
379.704	215.12
379.929	202.12
380.155	211.12
380.38	209.12
380.606	214.12
380.831	197.12
381.057	196.12
381.282	197.12
381.507	191.12
381.733	196.12
381.958	219.12
382.184	212.12
382.409	221.12
382.634	209.12
382.86	234.12
383.085	237.12
383.31	219.12
383.535	226.12
383.761	214.12
383.986	217.12
384.211	222.12
384.436	223.12
384.662	205.12
384.887	223.12
385.112	234.12
385.337	220.12
385.562	226.12
385.787	221.12
386.013	238.12
386.238	235.12
386.463	224.12
386.688	235.12
386.913	222.12
387.138	215.12
387.363	215.12
387.588	227.12
387.813	219.12
388.038	231.12
388.263	224.12
388.488	221.12
388.713	219.12
388.938	234.12
389.163	233.12
389.387	230.12
389.612	205.12
389.837	219.12
390.062	224.12
390.287	209.12
390.512	208.12
390.736	215.12
390.961	232.12
391.186	233.12
391.411	218.12
391.636	242.12
391.86	222.12
392.085	230.12
392.31	219.12
392.534	234.12
392.759	233.12
392.984	231.12
393.208	225.12
393.433	238.12
393.658	239.12
393.882	241.12
394.107	225.12
394.331	224.12
394.556	206.12
394.78	233.12
395.005	222.12
395.229	222.12
395.454	225.12
395.678	227.12
395.903	237.12
396.127	233.12
396.352	256.12
396.576	250.12
396.801	234.12
397.025	230.12
397.249	249.12
397.474	226.12
397.698	248.12
397.922	225.12
398.147	246.12
398.371	251.12
398.595	239.12
398.82	225.12
399.044	271.12
399.268	250.12
399.492	270.12
399.717	277.12
399.941	299.12
400.165	305.12
400.389	301.12
400.613	282.12
400.837	272.12
401.062	249.12
401.286	261.12
401.51	255.12
401.734	240.12
401.958	250.12
402.182	258.12
402.406	272.12
402.63	274.12
402.854	272.12
403.078	275.12
403.302	265.12
403.526	283.12
403.75	273.12
403.974	247.12
404.198	254.12
404.422	264.12
404.645	256.12
404.869	285.12
405.093	297.12
405.317	325.12
405.541	314.12
405.765	289.12
405.988	254.12
406.212	291.12
406.436	294.12
406.66	297.12
406.883	281.12
407.107	283.12
407.331	309.12
407.555	350.12
407.778	328.12
408.002	325.12
408.226	287.12
408.449	285.12
408.673	295.12
408.896	291.12
409.12	315.12
409.344	287.12
409.567	278.12
409.791	262.12
410.014	265.12
410.238	275.12
410.461	264.12
410.685	273.12
410.908	277.12
411.132	282.12
411.355	304.12
411.578	297.12
411.802	271.12
412.025	261.12
412.249	265.12
412.472	290.12
412.695	289.12
412.919	286.12
413.142	269.12
413.365	275.12
413.589	256.12
413.812	242.12
414.035	261.12
414.258	256.12
414.482	257.12
414.705	266.12
414.928	246.12
415.151	258.12
415.374	258.12
415.597	232.12
415.821	270.12
416.044	235.12
416.267	251.12
416.49	238.12
416.713	260.12
416.936	265.12
417.159	249.12
417.382	257.12
417.605	266.12
417.828	266.12
418.051	264.12
418.274	258.12
418.497	254.12
418.72	257.12
418.943	248.12
419.166	270.12
419.389	269.12
419.611	266.12
419.834	269.12
420.057	269.12
420.28	266.12
420.503	279.12
420.726	266.12
420.948	273.12
421.171	290.12
421.394	291.12
421.617	294.12
421.839	271.12
422.062	272.12
422.285	263.12
422.507	301.12
422.73	322.12
422.953	317.12
423.175	272.12
423.398	262.12
423.621	277.12
423.843	290.12
424.066	305.12
424.288	289.12
424.511	291.12
424.733	313.12
424.956	349.12
425.178	342.12
425.401	329.12
425.623	358.12
425.846	290.12
426.068	263.12
426.291	277.12
426.513	257.12
426.735	276.12
426.958	281.12
427.18	338.12
427.402	398.12
427.625	419.12
427.847	385.12
428.069	313.12
428.292	303.12
428.514	272.12
428.736	259.12
428.958	269.12
429.181	245.12
429.403	251.12
429.625	257.12
429.847	292.12
430.069	309.12
430.292	302.12
430.514	283.12
430.736	271.12
430.958	248.12
431.18	230.12
431.402	258.12
431.624	236.12
431.846	265.12
432.068	253.12
432.29	246.12
432.512	238.12
432.734	248.12
432.956	245.12
433.178	245.12
433.4	279.12
433.622	250.12
433.844	259.12
434.066	252.12
434.287	259.12
434.509	261.12
434.731	243.12
434.953	261.12
435.175	269.12
435.397	272.12
435.618	279.12
435.84	281.12
436.062	327.12
436.284	381.12
436.505	297.12
436.727	279.12
436.949	245.12
437.17	239.12
437.392	271.12
437.614	275.12
437.835	270.12
438.057	334.12
438.278	381.12
438.5	368.12
438.721	403.12
438.943	369.12
439.165	304.12
439.386	289.12
439.608	288.12
439.829	299.12
440.05	290.12
440.272	314.12
440.493	290.12
440.715	275.12
440.936	273.12
441.158	270.12
441.379	270.12
441.6	272.12
441.822	284.12
442.043	311.12
442.264	329.12
442.486	347.12
442.707	305.12
442.928	285.12
443.149	295.12
443.371	315.12
443.592	315.12
443.813	378.12
444.034	365.12
444.255	325.12
444.476	289.12
444.698	267.12
444.919	269.12
445.14	377.12
445.361	343.12
445.582	293.12
445.803	335.12
446.024	381.12
446.245	379.12
446.466	326.12
446.687	292.12
446.908	269.12
447.129	273.12
447.35	271.12
447.571	247.12
447.792	247.12
448.013	274.12
448.234	281.12
448.455	282.12
448.675	335.12
448.896	393.12
449.117	331.12
449.338	322.12
449.559	366.12
449.779	396.12
450	322.12
450.221	256.12
450.442	253.12
450.662	261.12
450.883	247.12
451.104	295.12
451.324	297.12
451.545	256.12
451.766	228.12
451.986	245.12
452.207	242.12
452.428	245.12
452.648	230.12
452.869	245.12
453.089	267.12
453.31	243.12
453.53	248.12
453.751	233.12
453.971	236.12
454.192	251.12
454.412	258.12
454.633	235.12
454.853	223.12
455.073	258.12
455.294	250.12
455.514	282.12
455.734	296.12
455.955	257.12
456.175	226.12
456.395	241.12
456.616	234.12
456.836	230.12
457.056	217.12
457.276	213.12
457.497	225.12
457.717	217.12
457.937	221.12
458.157	230.12
458.377	217.12
458.598	241.12
458.818	289.12
459.038	317.12
459.258	304.12
459.478	270.12
459.698	254.12
459.918	249.12
460.138	240.12
460.358	231.12
460.578	255.12
460.798	257.12
461.018	241.12
461.238	235.12
461.458	239.12
461.678	241.12
461.898	239.12
462.118	248.12
462.338	254.12
462.558	265.12
462.777	250.12
462.997	256.12
463.217	274.12
463.437	265.12
463.657	265.12
463.876	266.12
464.096	260.12
464.316	246.12
464.536	285.12
464.755	273.12
464.975	279.12
465.195	313.12
465.414	341.12
465.634	298.12
465.854	249.12
466.073	261.12
466.293	273.12
466.512	249.12
466.732	251.12
466.951	252.12
467.171	240.12
467.391	247.12
467.61	274.12
467.829	266.12
468.049	253.12
468.268	261.12
468.488	236.12
468.707	246.12
468.927	249.12
469.146	237.12
469.365	231.12
469.585	230.12
469.804	247.12
470.023	247.12
470.243	259.12
470.462	260.12
470.681	266.12
470.901	254.12
471.12	242.12
471.339	233.12
471.558	258.12
471.777	257.12
471.997	228.12
472.216	242.12
472.435	304.12
472.654	296.12
472.873	251.12
473.092	244.12
473.311	238.12
473.53	227.12
473.749	263.12
473.968	257.12
474.187	315.12
474.406	306.12
474.625	273.12
474.844	252.12
475.063	247.12
475.282	227.12
475.501	230.12
475.72	260.12
475.939	250.12
476.158	247.12
476.377	259.12
476.596	253.12
476.814	247.12
477.033	261.12
477.252	261.12
477.471	249.12
477.69	245.12
477.908	262.12
478.127	274.12
478.346	274.12
478.564	267.12
478.783	269.12
479.002	282.12
479.22	275.12
479.439	287.12
479.658	295.12
479.876	311.12
480.095	297.12
480.313	304.12
480.532	306.12
480.751	298.12
480.969	310.12
481.188	358.12
481.406	391.12
481.624	313.12
481.843	302.12
482.061	282.12
482.28	264.12
482.498	291.12
482.717	275.12
482.935	281.12
483.153	289.12
483.372	278.12
483.59	297.12
483.808	269.12
484.027	283.12
484.245	279.12
484.463	268.12
484.681	270.12
484.9	287.12
485.118	286.12
485.336	282.12
485.554	283.12
485.772	275.12
485.99	289.12
486.209	297.12
486.427	285.12
486.645	309.12
486.863	319.12
487.081	299.12
487.299	300.12
487.517	301.12
487.735	315.12
487.953	302.12
488.171	285.12
488.389	289.12
488.607	293.12
488.825	295.12
489.043	316.12
489.261	314.12
489.479	309.12
489.696	313.12
489.914	294.12
490.132	304.12
490.35	321.12
490.568	320.12
490.786	331.12
491.003	330.12
491.221	344.12
491.439	339.12
491.657	347.12
491.874	351.12
492.092	362.12
492.31	353.12
492.527	346.12
492.745	356.12
492.963	366.12
493.18	353.12
493.398	348.12
493.615	357.12
493.833	342.12
494.05	360.12
494.268	358.12
494.485	352.12
494.703	346.12
494.92	354.12
495.138	356.12
495.355	362.12
495.573	349.12
495.79	351.12
496.008	354.12
496.225	367.12
496.442	370.12
496.66	361.12
496.877	357.12
497.094	353.12
497.312	365.12
497.529	350.12
497.746	389.12
497.963	374.12
498.181	375.12
498.398	366.12
498.615	369.12
498.832	378.12
499.049	392.12
499.267	382.12
499.484	400.12
499.701	390.12
499.918	418.12
500.135	457.12
500.352	447.12
500.569	466.12
500.786	482.12
501.003	450.12
501.22	443.12
501.437	430.12
501.654	448.12
501.871	424.12
502.088	398.12
502.305	363.12
502.522	367.12
