Data from 1966.PennyLincolnUp.Lamp.En5.5.200Scan.071719.P1._HRD10591_14-12-56-913.txt Node
Date: Thu Jul 18 14:12:56 EDT 2019
User: cochatt
Spectrometer: HR+D1059
Trigger mode: 1
Integration Time (sec): 1.000000E-1
Scans to average: 1
Electric dark correction enabled: true
Nonlinearity correction enabled: false
Boxcar width: 0
XAxis mode: Wavelengths
Number of Pixels in Spectrum: 2048
>>>>>Begin Spectral Data<<<<<
223.165	-5.62
223.4	-5.62
223.635	-5.62
223.869	-19.62
224.104	-15.62
224.338	-10.62
224.573	-21.62
224.808	-7.62
225.042	-1.62
225.277	-2.62
225.511	-13.62
225.746	3.38
225.98	6.38
226.215	-1.62
226.449	14.38
226.683	28.38
226.918	19.38
227.152	28.38
227.387	37.38
227.621	44.38
227.856	46.38
228.09	49.38
228.324	45.38
228.559	49.38
228.793	62.38
229.027	78.38
229.262	87.38
229.496	93.38
229.73	95.38
229.964	103.38
230.199	93.38
230.433	92.38
230.667	84.38
230.901	88.38
231.136	98.38
231.37	81.38
231.604	115.38
231.838	98.38
232.072	89.38
232.306	103.38
232.541	90.38
232.775	92.38
233.009	89.38
233.243	96.38
233.477	96.38
233.711	102.38
233.945	111.38
234.179	103.38
234.413	94.38
234.647	85.38
234.881	92.38
235.115	100.38
235.349	106.38
235.583	98.38
235.817	109.38
236.051	92.38
236.285	104.38
236.519	98.38
236.753	104.38
236.987	113.38
237.221	118.38
237.455	135.38
237.689	124.38
237.922	119.38
238.156	94.38
238.39	101.38
238.624	88.38
238.858	105.38
239.091	106.38
239.325	95.38
239.559	89.38
239.793	105.38
240.027	106.38
240.26	99.38
240.494	110.38
240.728	110.38
240.961	112.38
241.195	108.38
241.429	109.38
241.662	110.38
241.896	106.38
242.13	94.38
242.363	97.38
242.597	101.38
242.83	113.38
243.064	99.38
243.298	104.38
243.531	99.38
243.765	108.38
243.998	95.38
244.232	101.38
244.465	117.38
244.699	101.38
244.932	92.38
245.166	125.38
245.399	114.38
245.633	118.38
245.866	111.38
246.099	123.38
246.333	122.38
246.566	99.38
246.8	105.38
247.033	106.38
247.266	102.38
247.5	115.38
247.733	125.38
247.966	109.38
248.2	125.38
248.433	103.38
248.666	127.38
248.899	117.38
249.133	135.38
249.366	131.38
249.599	131.38
249.832	119.38
250.066	122.38
250.299	120.38
250.532	131.38
250.765	129.38
250.998	135.38
251.231	148.38
251.465	133.38
251.698	113.38
251.931	126.38
252.164	128.38
252.397	133.38
252.63	132.38
252.863	128.38
253.096	146.38
253.329	141.38
253.562	145.38
253.795	142.38
254.028	140.38
254.261	133.38
254.494	141.38
254.727	152.38
254.96	152.38
255.193	156.38
255.426	150.38
255.659	138.38
255.892	135.38
256.124	138.38
256.357	145.38
256.59	138.38
256.823	134.38
257.056	126.38
257.289	130.38
257.521	139.38
257.754	139.38
257.987	136.38
258.22	137.38
258.452	132.38
258.685	141.38
258.918	131.38
259.151	134.38
259.383	133.38
259.616	137.38
259.849	144.38
260.081	135.38
260.314	152.38
260.547	163.38
260.779	130.38
261.012	150.38
261.244	146.38
261.477	149.38
261.71	123.38
261.942	143.38
262.175	144.38
262.407	135.38
262.64	125.38
262.872	141.38
263.105	151.38
263.337	134.38
263.57	125.38
263.802	129.38
264.035	138.38
264.267	148.38
264.499	142.38
264.732	138.38
264.964	131.38
265.197	142.38
265.429	124.38
265.661	150.38
265.894	142.38
266.126	136.38
266.358	125.38
266.591	144.38
266.823	133.38
267.055	134.38
267.287	153.38
267.52	126.38
267.752	133.38
267.984	147.38
268.216	131.38
268.448	132.38
268.681	133.38
268.913	157.38
269.145	148.38
269.377	152.38
269.609	170.38
269.841	154.38
270.073	142.38
270.306	154.38
270.538	183.38
270.77	162.38
271.002	178.38
271.234	159.38
271.466	175.38
271.698	182.38
271.93	173.38
272.162	193.38
272.394	181.38
272.626	167.38
272.858	154.38
273.09	162.38
273.322	152.38
273.553	152.38
273.785	164.38
274.017	143.38
274.249	162.38
274.481	153.38
274.713	156.38
274.945	152.38
275.176	135.38
275.408	137.38
275.64	153.38
275.872	162.38
276.104	154.38
276.335	160.38
276.567	152.38
276.799	155.38
277.031	175.38
277.262	174.38
277.494	169.38
277.726	176.38
277.957	158.38
278.189	158.38
278.421	170.38
278.652	149.38
278.884	162.38
279.115	159.38
279.347	150.38
279.579	155.38
279.81	163.38
280.042	165.38
280.273	146.38
280.505	151.38
280.736	158.38
280.968	172.38
281.199	162.38
281.431	169.38
281.662	150.38
281.894	161.38
282.125	142.38
282.356	157.38
282.588	179.38
282.819	169.38
283.051	172.38
283.282	159.38
283.513	153.38
283.745	164.38
283.976	163.38
284.207	163.38
284.439	169.38
284.67	167.38
284.901	154.38
285.132	158.38
285.364	170.38
285.595	161.38
285.826	168.38
286.057	149.38
286.288	159.38
286.52	160.38
286.751	169.38
286.982	174.38
287.213	172.38
287.444	157.38
287.675	159.38
287.906	183.38
288.138	172.38
288.369	185.38
288.6	176.38
288.831	172.38
289.062	159.38
289.293	158.38
289.524	166.38
289.755	160.38
289.986	158.38
290.217	152.38
290.448	165.38
290.679	156.38
290.91	164.38
291.141	168.38
291.371	160.38
291.602	160.38
291.833	174.38
292.064	170.38
292.295	163.38
292.526	175.38
292.757	166.38
292.987	170.38
293.218	181.38
293.449	150.38
293.68	163.38
293.91	163.38
294.141	156.38
294.372	165.38
294.603	161.38
294.833	185.38
295.064	168.38
295.295	167.38
295.525	173.38
295.756	169.38
295.987	169.38
296.217	185.38
296.448	189.38
296.679	181.38
296.909	183.38
297.14	171.38
297.37	174.38
297.601	176.38
297.831	170.38
298.062	168.38
298.292	162.38
298.523	175.38
298.753	165.38
298.984	170.38
299.214	185.38
299.445	181.38
299.675	182.38
299.905	184.38
300.136	189.38
300.366	176.38
300.597	175.38
300.827	181.38
301.057	190.38
301.288	176.38
301.518	182.38
301.748	181.38
301.979	187.38
302.209	181.38
302.439	181.38
302.669	191.38
302.9	167.38
303.13	183.38
303.36	189.38
303.59	174.38
303.82	188.38
304.051	171.38
304.281	181.38
304.511	188.38
304.741	186.38
304.971	182.38
305.201	190.38
305.431	193.38
305.661	183.38
305.891	175.38
306.121	187.38
306.352	197.38
306.582	197.38
306.812	194.38
307.042	199.38
307.272	191.38
307.502	179.38
307.731	171.38
307.961	196.38
308.191	184.38
308.421	194.38
308.651	190.38
308.881	183.38
309.111	183.38
309.341	185.38
309.571	186.38
309.8	201.38
310.03	199.38
310.26	188.38
310.49	214.38
310.72	219.38
310.949	227.38
311.179	204.38
311.409	194.38
311.639	210.38
311.868	217.38
312.098	217.38
312.328	205.38
312.557	222.38
312.787	216.38
313.017	216.38
313.246	197.38
313.476	205.38
313.706	207.38
313.935	179.38
314.165	218.38
314.394	203.38
314.624	212.38
314.853	223.38
315.083	199.38
315.312	202.38
315.542	209.38
315.771	200.38
316.001	196.38
316.23	194.38
316.46	214.38
316.689	213.38
316.919	222.38
317.148	217.38
317.377	216.38
317.607	195.38
317.836	193.38
318.065	216.38
318.295	202.38
318.524	199.38
318.753	198.38
318.983	223.38
319.212	202.38
319.441	201.38
319.67	199.38
319.9	198.38
320.129	193.38
320.358	202.38
320.587	212.38
320.816	197.38
321.046	216.38
321.275	224.38
321.504	203.38
321.733	222.38
321.962	207.38
322.191	214.38
322.42	225.38
322.649	238.38
322.878	232.38
323.108	239.38
323.337	245.38
323.566	254.38
323.795	263.38
324.024	260.38
324.253	326.38
324.482	464.38
324.71	711.38
324.939	914.38
325.168	758.38
325.397	405.38
325.626	287.38
325.855	255.38
326.084	245.38
326.313	237.38
326.542	243.38
326.77	265.38
326.999	307.38
327.228	419.38
327.457	618.38
327.686	705.38
327.914	465.38
328.143	304.38
328.372	293.38
328.6	296.38
328.829	286.38
329.058	289.38
329.287	297.38
329.515	274.38
329.744	266.38
329.972	254.38
330.201	283.38
330.43	283.38
330.658	307.38
330.887	323.38
331.115	313.38
331.344	248.38
331.572	242.38
331.801	251.38
332.03	256.38
332.258	247.38
332.486	225.38
332.715	230.38
332.943	226.38
333.172	249.38
333.4	233.38
333.629	224.38
333.857	241.38
334.085	238.38
334.314	279.38
334.542	278.38
334.771	305.38
334.999	259.38
335.227	234.38
335.455	248.38
335.684	232.38
335.912	250.38
336.14	227.38
336.369	222.38
336.597	234.38
336.825	238.38
337.053	225.38
337.281	239.38
337.51	213.38
337.738	223.38
337.966	219.38
338.194	223.38
338.422	249.38
338.65	231.38
338.878	222.38
339.106	215.38
339.334	230.38
339.562	211.38
339.79	220.38
340.018	220.38
340.246	221.38
340.474	220.38
340.702	237.38
340.93	209.38
341.158	217.38
341.386	213.38
341.614	224.38
341.842	216.38
342.07	210.38
342.298	206.38
342.526	217.38
342.754	206.38
342.981	211.38
343.209	220.38
343.437	225.38
343.665	228.38
343.893	211.38
344.12	220.38
344.348	226.38
344.576	224.38
344.804	232.38
345.031	225.38
345.259	224.38
345.487	224.38
345.714	240.38
345.942	201.38
346.17	212.38
346.397	201.38
346.625	211.38
346.853	215.38
347.08	223.38
347.308	199.38
347.535	222.38
347.763	231.38
347.99	232.38
348.218	235.38
348.445	215.38
348.673	213.38
348.9	204.38
349.128	218.38
349.355	204.38
349.583	201.38
349.81	199.38
350.037	220.38
350.265	213.38
350.492	202.38
350.72	202.38
350.947	215.38
351.174	218.38
351.402	215.38
351.629	228.38
351.856	223.38
352.083	215.38
352.311	222.38
352.538	218.38
352.765	229.38
352.992	222.38
353.22	205.38
353.447	209.38
353.674	225.38
353.901	210.38
354.128	213.38
354.355	206.38
354.583	209.38
354.81	224.38
355.037	219.38
355.264	212.38
355.491	196.38
355.718	194.38
355.945	203.38
356.172	197.38
356.399	199.38
356.626	196.38
356.853	196.38
357.08	209.38
357.307	200.38
357.534	204.38
357.761	203.38
357.988	216.38
358.215	197.38
358.441	183.38
358.668	205.38
358.895	199.38
359.122	195.38
359.349	193.38
359.576	232.38
359.802	217.38
360.029	253.38
360.256	258.38
360.483	240.38
360.709	220.38
360.936	206.38
361.163	199.38
361.39	207.38
361.616	241.38
361.843	208.38
362.07	229.38
362.296	235.38
362.523	220.38
362.749	219.38
362.976	203.38
363.203	206.38
363.429	196.38
363.656	208.38
363.882	202.38
364.109	196.38
364.335	209.38
364.562	228.38
364.788	197.38
365.015	193.38
365.241	206.38
365.468	199.38
365.694	200.38
365.92	220.38
366.147	203.38
366.373	200.38
366.599	207.38
366.826	205.38
367.052	201.38
367.278	202.38
367.505	207.38
367.731	213.38
367.957	204.38
368.184	213.38
368.41	218.38
368.636	222.38
368.862	227.38
369.089	202.38
369.315	198.38
369.541	213.38
369.767	208.38
369.993	220.38
370.219	189.38
370.445	194.38
370.672	212.38
370.898	215.38
371.124	218.38
371.35	211.38
371.576	206.38
371.802	199.38
372.028	205.38
372.254	200.38
372.48	210.38
372.706	223.38
372.932	197.38
373.158	207.38
373.384	221.38
373.61	190.38
373.835	203.38
374.061	193.38
374.287	219.38
374.513	208.38
374.739	217.38
374.965	205.38
375.191	203.38
375.416	214.38
375.642	211.38
375.868	190.38
376.094	206.38
376.319	209.38
376.545	192.38
376.771	191.38
376.997	205.38
377.222	209.38
377.448	177.38
377.674	212.38
377.899	213.38
378.125	209.38
378.35	214.38
378.576	200.38
378.802	197.38
379.027	206.38
379.253	208.38
379.478	189.38
379.704	202.38
379.929	200.38
380.155	202.38
380.38	216.38
380.606	220.38
380.831	223.38
381.057	212.38
381.282	192.38
381.507	202.38
381.733	211.38
381.958	209.38
382.184	201.38
382.409	208.38
382.634	202.38
382.86	198.38
383.085	214.38
383.31	212.38
383.535	218.38
383.761	222.38
383.986	200.38
384.211	224.38
384.436	215.38
384.662	212.38
384.887	223.38
385.112	214.38
385.337	205.38
385.562	221.38
385.787	214.38
386.013	215.38
386.238	227.38
386.463	227.38
386.688	219.38
386.913	221.38
387.138	218.38
387.363	222.38
387.588	219.38
387.813	222.38
388.038	225.38
388.263	221.38
388.488	220.38
388.713	218.38
388.938	232.38
389.163	217.38
389.387	203.38
389.612	214.38
389.837	221.38
390.062	199.38
390.287	230.38
390.512	222.38
390.736	215.38
390.961	211.38
391.186	223.38
391.411	215.38
391.636	214.38
391.86	211.38
392.085	206.38
392.31	216.38
392.534	219.38
392.759	215.38
392.984	222.38
393.208	244.38
393.433	231.38
393.658	248.38
393.882	229.38
394.107	223.38
394.331	220.38
394.556	217.38
394.78	234.38
395.005	236.38
395.229	228.38
395.454	217.38
395.678	211.38
395.903	234.38
396.127	238.38
396.352	241.38
396.576	222.38
396.801	235.38
397.025	234.38
397.249	230.38
397.474	228.38
397.698	230.38
397.922	233.38
398.147	231.38
398.371	247.38
398.595	232.38
398.82	242.38
399.044	234.38
399.268	269.38
399.492	260.38
399.717	266.38
399.941	296.38
400.165	283.38
400.389	294.38
400.613	266.38
400.837	261.38
401.062	257.38
401.286	240.38
401.51	246.38
401.734	247.38
401.958	228.38
402.182	257.38
402.406	245.38
402.63	243.38
402.854	269.38
403.078	257.38
403.302	266.38
403.526	271.38
403.75	272.38
403.974	256.38
404.198	259.38
404.422	261.38
404.645	265.38
404.869	275.38
405.093	288.38
405.317	296.38
405.541	303.38
405.765	305.38
405.988	265.38
406.212	267.38
406.436	280.38
406.66	292.38
406.883	293.38
407.107	286.38
407.331	297.38
407.555	311.38
407.778	326.38
408.002	296.38
408.226	277.38
408.449	276.38
408.673	291.38
408.896	288.38
409.12	295.38
409.344	295.38
409.567	252.38
409.791	267.38
410.014	266.38
410.238	253.38
410.461	256.38
410.685	256.38
410.908	290.38
411.132	283.38
411.355	279.38
411.578	270.38
411.802	287.38
412.025	261.38
412.249	260.38
412.472	268.38
412.695	287.38
412.919	284.38
413.142	267.38
413.365	257.38
413.589	270.38
413.812	245.38
414.035	259.38
414.258	234.38
414.482	237.38
414.705	251.38
414.928	238.38
415.151	241.38
415.374	232.38
415.597	246.38
415.821	249.38
416.044	256.38
416.267	267.38
416.49	251.38
416.713	258.38
416.936	244.38
417.159	251.38
417.382	245.38
417.605	240.38
417.828	241.38
418.051	277.38
418.274	240.38
418.497	245.38
418.72	251.38
418.943	242.38
419.166	257.38
419.389	263.38
419.611	253.38
419.834	271.38
420.057	250.38
420.28	253.38
420.503	255.38
420.726	250.38
420.948	268.38
421.171	275.38
421.394	305.38
421.617	261.38
421.839	251.38
422.062	238.38
422.285	260.38
422.507	265.38
422.73	326.38
422.953	301.38
423.175	269.38
423.398	259.38
423.621	284.38
423.843	279.38
424.066	278.38
424.288	272.38
424.511	267.38
424.733	282.38
424.956	339.38
425.178	307.38
425.401	322.38
425.623	306.38
425.846	291.38
426.068	253.38
426.291	271.38
426.513	271.38
426.735	260.38
426.958	267.38
427.18	313.38
427.402	375.38
427.625	407.38
427.847	362.38
428.069	305.38
428.292	288.38
428.514	270.38
428.736	285.38
428.958	256.38
429.181	268.38
429.403	233.38
429.625	269.38
429.847	273.38
430.069	314.38
430.292	290.38
430.514	261.38
430.736	241.38
430.958	256.38
431.18	245.38
431.402	253.38
431.624	242.38
431.846	227.38
432.068	262.38
432.29	241.38
432.512	237.38
432.734	263.38
432.956	255.38
433.178	247.38
433.4	254.38
433.622	242.38
433.844	235.38
434.066	231.38
434.287	238.38
434.509	251.38
434.731	227.38
434.953	256.38
435.175	267.38
435.397	251.38
435.618	269.38
435.84	285.38
436.062	310.38
436.284	347.38
436.505	298.38
436.727	239.38
436.949	255.38
437.17	255.38
437.392	251.38
437.614	261.38
437.835	273.38
438.057	323.38
438.278	351.38
438.5	353.38
438.721	368.38
438.943	343.38
439.165	292.38
439.386	273.38
439.608	281.38
439.829	276.38
440.05	284.38
440.272	288.38
440.493	268.38
440.715	262.38
440.936	248.38
441.158	246.38
441.379	255.38
441.6	269.38
441.822	269.38
442.043	300.38
442.264	319.38
442.486	336.38
442.707	291.38
442.928	272.38
443.149	277.38
443.371	304.38
443.592	313.38
443.813	333.38
444.034	354.38
444.255	307.38
444.476	274.38
444.698	273.38
444.919	266.38
445.14	348.38
445.361	322.38
445.582	305.38
445.803	334.38
446.024	377.38
446.245	361.38
446.466	335.38
446.687	292.38
446.908	259.38
447.129	263.38
447.35	257.38
447.571	251.38
447.792	239.38
448.013	267.38
448.234	263.38
448.455	269.38
448.675	316.38
448.896	356.38
449.117	312.38
449.338	298.38
449.559	333.38
449.779	365.38
450	309.38
450.221	264.38
450.442	233.38
450.662	250.38
450.883	248.38
451.104	246.38
451.324	252.38
451.545	240.38
451.766	242.38
451.986	226.38
452.207	226.38
452.428	212.38
452.648	238.38
452.869	237.38
453.089	232.38
453.31	234.38
453.53	225.38
453.751	235.38
453.971	245.38
454.192	234.38
454.412	230.38
454.633	223.38
454.853	225.38
455.073	219.38
455.294	234.38
455.514	275.38
455.734	264.38
455.955	207.38
456.175	233.38
456.395	210.38
456.616	232.38
456.836	222.38
457.056	221.38
457.276	210.38
457.497	205.38
457.717	235.38
457.937	225.38
458.157	236.38
458.377	228.38
458.598	240.38
458.818	284.38
459.038	310.38
459.258	295.38
459.478	274.38
459.698	232.38
459.918	236.38
460.138	243.38
460.358	239.38
460.578	239.38
460.798	259.38
461.018	249.38
461.238	246.38
461.458	251.38
461.678	234.38
461.898	246.38
462.118	231.38
462.338	245.38
462.558	246.38
462.777	259.38
462.997	265.38
463.217	263.38
463.437	267.38
463.657	255.38
463.876	276.38
464.096	285.38
464.316	248.38
464.536	252.38
464.755	255.38
464.975	252.38
465.195	293.38
465.414	331.38
465.634	296.38
465.854	270.38
466.073	242.38
466.293	252.38
466.512	232.38
466.732	233.38
466.951	230.38
467.171	227.38
467.391	238.38
467.61	250.38
467.829	242.38
468.049	232.38
468.268	262.38
468.488	242.38
468.707	219.38
468.927	230.38
469.146	229.38
469.365	217.38
469.585	235.38
469.804	230.38
470.023	251.38
470.243	241.38
470.462	247.38
470.681	256.38
470.901	246.38
471.12	236.38
471.339	231.38
471.558	229.38
471.777	231.38
471.997	243.38
472.216	230.38
472.435	289.38
472.654	248.38
472.873	230.38
473.092	233.38
473.311	245.38
473.53	225.38
473.749	237.38
473.968	260.38
474.187	297.38
474.406	289.38
474.625	289.38
474.844	237.38
475.063	219.38
475.282	223.38
475.501	244.38
475.72	242.38
475.939	247.38
476.158	252.38
476.377	236.38
476.596	236.38
476.814	240.38
477.033	250.38
477.252	251.38
477.471	235.38
477.69	234.38
477.908	245.38
478.127	248.38
478.346	253.38
478.564	257.38
478.783	276.38
479.002	262.38
479.22	257.38
479.439	275.38
479.658	279.38
479.876	275.38
480.095	293.38
480.313	299.38
480.532	291.38
480.751	294.38
480.969	309.38
481.188	326.38
481.406	343.38
481.624	285.38
481.843	279.38
482.061	256.38
482.28	271.38
482.498	266.38
482.717	264.38
482.935	258.38
483.153	279.38
483.372	286.38
483.59	275.38
483.808	267.38
484.027	263.38
484.245	258.38
484.463	275.38
484.681	292.38
484.9	275.38
485.118	270.38
485.336	280.38
485.554	265.38
485.772	283.38
485.99	280.38
486.209	262.38
486.427	264.38
486.645	289.38
486.863	289.38
487.081	297.38
487.299	303.38
487.517	293.38
487.735	283.38
487.953	298.38
488.171	290.38
488.389	277.38
488.607	289.38
488.825	273.38
489.043	298.38
489.261	300.38
489.479	278.38
489.696	306.38
489.914	299.38
490.132	285.38
490.35	307.38
490.568	290.38
490.786	317.38
491.003	307.38
491.221	309.38
491.439	341.38
491.657	344.38
491.874	337.38
492.092	318.38
492.31	337.38
492.527	347.38
492.745	334.38
492.963	342.38
493.18	347.38
493.398	345.38
493.615	340.38
493.833	354.38
494.05	349.38
494.268	349.38
494.485	347.38
494.703	350.38
494.92	342.38
495.138	338.38
495.355	323.38
495.573	346.38
495.79	339.38
496.008	324.38
496.225	334.38
496.442	338.38
496.66	328.38
496.877	360.38
497.094	329.38
497.312	323.38
497.529	329.38
497.746	330.38
497.963	357.38
498.181	354.38
498.398	368.38
498.615	351.38
498.832	355.38
499.049	372.38
499.267	369.38
499.484	398.38
499.701	393.38
499.918	400.38
500.135	426.38
500.352	435.38
500.569	439.38
500.786	443.38
501.003	458.38
501.22	424.38
501.437	421.38
501.654	405.38
501.871	426.38
502.088	414.38
502.305	365.38
502.522	350.38
