Data from 1966.PennyLincolnUp.Lamp.En5.5.200Scan.071719.P1.Scan2.head_HRD10591_14-16-43-051.txt Node
Date: Thu Jul 18 14:16:43 EDT 2019
User: cochatt
Spectrometer: HR+D1059
Trigger mode: 1
Integration Time (sec): 1.000000E-1
Scans to average: 1
Electric dark correction enabled: true
Nonlinearity correction enabled: false
Boxcar width: 0
XAxis mode: Wavelengths
Number of Pixels in Spectrum: 2048
>>>>>Begin Spectral Data<<<<<
223.165	-3.56
223.4	-3.56
223.635	-3.56
223.869	-5.56
224.104	-11.56
224.338	-9.56
224.573	-15.56
224.808	-13.56
225.042	-3.56
225.277	-8.56
225.511	-9.56
225.746	6.44
225.98	-2.56
226.215	9.44
226.449	18.44
226.683	13.44
226.918	9.44
227.152	26.44
227.387	24.44
227.621	45.44
227.856	56.44
228.09	51.44
228.324	44.44
228.559	61.44
228.793	56.44
229.027	112.44
229.262	108.44
229.496	113.44
229.73	118.44
229.964	138.44
230.199	120.44
230.433	121.44
230.667	108.44
230.901	106.44
231.136	110.44
231.37	104.44
231.604	99.44
231.838	106.44
232.072	112.44
232.306	109.44
232.541	122.44
232.775	108.44
233.009	118.44
233.243	114.44
233.477	121.44
233.711	107.44
233.945	106.44
234.179	113.44
234.413	111.44
234.647	134.44
234.881	106.44
235.115	115.44
235.349	116.44
235.583	113.44
235.817	121.44
236.051	113.44
236.285	109.44
236.519	124.44
236.753	128.44
236.987	132.44
237.221	181.44
237.455	207.44
237.689	142.44
237.922	125.44
238.156	132.44
238.39	134.44
238.624	108.44
238.858	130.44
239.091	117.44
239.325	112.44
239.559	120.44
239.793	136.44
240.027	124.44
240.26	131.44
240.494	138.44
240.728	133.44
240.961	138.44
241.195	138.44
241.429	113.44
241.662	147.44
241.896	116.44
242.13	136.44
242.363	128.44
242.597	110.44
242.83	127.44
243.064	131.44
243.298	144.44
243.531	134.44
243.765	137.44
243.998	143.44
244.232	139.44
244.465	140.44
244.699	140.44
244.932	128.44
245.166	147.44
245.399	140.44
245.633	122.44
245.866	142.44
246.099	152.44
246.333	139.44
246.566	131.44
246.8	153.44
247.033	159.44
247.266	159.44
247.5	147.44
247.733	155.44
247.966	155.44
248.2	156.44
248.433	177.44
248.666	164.44
248.899	166.44
249.133	172.44
249.366	189.44
249.599	178.44
249.832	155.44
250.066	166.44
250.299	178.44
250.532	156.44
250.765	192.44
250.998	202.44
251.231	198.44
251.465	207.44
251.698	198.44
251.931	188.44
252.164	190.44
252.397	188.44
252.63	192.44
252.863	189.44
253.096	189.44
253.329	214.44
253.562	204.44
253.795	206.44
254.028	211.44
254.261	200.44
254.494	217.44
254.727	236.44
254.96	250.44
255.193	218.44
255.426	209.44
255.659	204.44
255.892	215.44
256.124	215.44
256.357	201.44
256.59	199.44
256.823	197.44
257.056	198.44
257.289	197.44
257.521	199.44
257.754	209.44
257.987	204.44
258.22	186.44
258.452	193.44
258.685	206.44
258.918	195.44
259.151	188.44
259.383	208.44
259.616	221.44
259.849	201.44
260.081	202.44
260.314	242.44
260.547	232.44
260.779	208.44
261.012	222.44
261.244	201.44
261.477	211.44
261.71	219.44
261.942	208.44
262.175	219.44
262.407	209.44
262.64	204.44
262.872	204.44
263.105	200.44
263.337	187.44
263.57	200.44
263.802	209.44
264.035	207.44
264.267	212.44
264.499	197.44
264.732	196.44
264.964	224.44
265.197	194.44
265.429	210.44
265.661	216.44
265.894	196.44
266.126	232.44
266.358	216.44
266.591	190.44
266.823	216.44
267.055	205.44
267.287	223.44
267.52	204.44
267.752	209.44
267.984	216.44
268.216	223.44
268.448	227.44
268.681	229.44
268.913	218.44
269.145	229.44
269.377	248.44
269.609	244.44
269.841	264.44
270.073	254.44
270.306	268.44
270.538	269.44
270.77	268.44
271.002	260.44
271.234	255.44
271.466	267.44
271.698	272.44
271.93	277.44
272.162	294.44
272.394	282.44
272.626	264.44
272.858	248.44
273.09	246.44
273.322	240.44
273.553	241.44
273.785	223.44
274.017	211.44
274.249	237.44
274.481	261.44
274.713	254.44
274.945	258.44
275.176	252.44
275.408	219.44
275.64	232.44
275.872	253.44
276.104	235.44
276.335	252.44
276.567	256.44
276.799	264.44
277.031	276.44
277.262	294.44
277.494	281.44
277.726	246.44
277.957	263.44
278.189	260.44
278.421	242.44
278.652	242.44
278.884	237.44
279.115	253.44
279.347	236.44
279.579	255.44
279.81	250.44
280.042	239.44
280.273	255.44
280.505	236.44
280.736	237.44
280.968	261.44
281.199	257.44
281.431	249.44
281.662	258.44
281.894	266.44
282.125	244.44
282.356	272.44
282.588	270.44
282.819	276.44
283.051	266.44
283.282	271.44
283.513	272.44
283.745	245.44
283.976	266.44
284.207	273.44
284.439	239.44
284.67	252.44
284.901	274.44
285.132	248.44
285.364	255.44
285.595	263.44
285.826	260.44
286.057	259.44
286.288	270.44
286.52	264.44
286.751	277.44
286.982	269.44
287.213	258.44
287.444	272.44
287.675	280.44
287.906	280.44
288.138	278.44
288.369	295.44
288.6	284.44
288.831	286.44
289.062	283.44
289.293	270.44
289.524	284.44
289.755	253.44
289.986	272.44
290.217	272.44
290.448	284.44
290.679	280.44
290.91	281.44
291.141	262.44
291.371	273.44
291.602	282.44
291.833	282.44
292.064	278.44
292.295	260.44
292.526	278.44
292.757	275.44
292.987	263.44
293.218	270.44
293.449	279.44
293.68	280.44
293.91	296.44
294.141	273.44
294.372	278.44
294.603	284.44
294.833	281.44
295.064	283.44
295.295	285.44
295.525	279.44
295.756	282.44
295.987	284.44
296.217	297.44
296.448	298.44
296.679	281.44
296.909	284.44
297.14	280.44
297.37	281.44
297.601	287.44
297.831	287.44
298.062	270.44
298.292	289.44
298.523	290.44
298.753	287.44
298.984	276.44
299.214	299.44
299.445	285.44
299.675	288.44
299.905	287.44
300.136	264.44
300.366	294.44
300.597	310.44
300.827	295.44
301.057	304.44
301.288	312.44
301.518	330.44
301.748	310.44
301.979	324.44
302.209	311.44
302.439	317.44
302.669	308.44
302.9	322.44
303.13	309.44
303.36	301.44
303.59	294.44
303.82	320.44
304.051	312.44
304.281	308.44
304.511	310.44
304.741	313.44
304.971	320.44
305.201	320.44
305.431	317.44
305.661	321.44
305.891	309.44
306.121	317.44
306.352	304.44
306.582	323.44
306.812	311.44
307.042	317.44
307.272	310.44
307.502	300.44
307.731	301.44
307.961	310.44
308.191	312.44
308.421	311.44
308.651	299.44
308.881	328.44
309.111	324.44
309.341	306.44
309.571	325.44
309.8	323.44
310.03	338.44
310.26	344.44
310.49	332.44
310.72	340.44
310.949	348.44
311.179	348.44
311.409	331.44
311.639	348.44
311.868	341.44
312.098	351.44
312.328	353.44
312.557	345.44
312.787	364.44
313.017	351.44
313.246	344.44
313.476	359.44
313.706	342.44
313.935	365.44
314.165	351.44
314.394	366.44
314.624	374.44
314.853	339.44
315.083	351.44
315.312	348.44
315.542	344.44
315.771	351.44
316.001	325.44
316.23	369.44
316.46	366.44
316.689	344.44
316.919	363.44
317.148	370.44
317.377	365.44
317.607	361.44
317.836	348.44
318.065	366.44
318.295	338.44
318.524	347.44
318.753	360.44
318.983	353.44
319.212	345.44
319.441	353.44
319.67	361.44
319.9	378.44
320.129	362.44
320.358	356.44
320.587	362.44
320.816	353.44
321.046	369.44
321.275	354.44
321.504	380.44
321.733	358.44
321.962	385.44
322.191	374.44
322.42	390.44
322.649	387.44
322.878	398.44
323.108	412.44
323.337	429.44
323.566	424.44
323.795	430.44
324.024	463.44
324.253	538.44
324.482	722.44
324.71	1145.44
324.939	1724.44
325.168	1527.44
325.397	754.44
325.626	542.44
325.855	477.44
326.084	430.44
326.313	420.44
326.542	425.44
326.77	456.44
326.999	564.44
327.228	711.44
327.457	1064.44
327.686	1320.44
327.914	853.44
328.143	564.44
328.372	510.44
328.6	496.44
328.829	472.44
329.058	472.44
329.287	504.44
329.515	449.44
329.744	428.44
329.972	436.44
330.201	452.44
330.43	481.44
330.658	496.44
330.887	511.44
331.115	494.44
331.344	458.44
331.572	419.44
331.801	428.44
332.03	440.44
332.258	429.44
332.486	416.44
332.715	417.44
332.943	433.44
333.172	429.44
333.4	421.44
333.629	437.44
333.857	447.44
334.085	459.44
334.314	453.44
334.542	453.44
334.771	493.44
334.999	442.44
335.227	446.44
335.455	428.44
335.684	427.44
335.912	415.44
336.14	400.44
336.369	438.44
336.597	418.44
336.825	421.44
337.053	413.44
337.281	429.44
337.51	409.44
337.738	413.44
337.966	432.44
338.194	408.44
338.422	440.44
338.65	409.44
338.878	414.44
339.106	398.44
339.334	401.44
339.562	390.44
339.79	404.44
340.018	421.44
340.246	428.44
340.474	389.44
340.702	423.44
340.93	398.44
341.158	399.44
341.386	403.44
341.614	411.44
341.842	402.44
342.07	394.44
342.298	402.44
342.526	407.44
342.754	397.44
342.981	398.44
343.209	402.44
343.437	424.44
343.665	411.44
343.893	418.44
344.12	425.44
344.348	422.44
344.576	422.44
344.804	409.44
345.031	410.44
345.259	424.44
345.487	421.44
345.714	411.44
345.942	407.44
346.17	409.44
346.397	402.44
346.625	401.44
346.853	413.44
347.08	396.44
347.308	402.44
347.535	399.44
347.763	411.44
347.99	402.44
348.218	399.44
348.445	403.44
348.673	407.44
348.9	417.44
349.128	403.44
349.355	392.44
349.583	384.44
349.81	407.44
350.037	409.44
350.265	393.44
350.492	385.44
350.72	386.44
350.947	389.44
351.174	409.44
351.402	421.44
351.629	393.44
351.856	406.44
352.083	423.44
352.311	412.44
352.538	395.44
352.765	404.44
352.992	402.44
353.22	403.44
353.447	384.44
353.674	406.44
353.901	378.44
354.128	386.44
354.355	379.44
354.583	386.44
354.81	387.44
355.037	386.44
355.264	393.44
355.491	372.44
355.718	376.44
355.945	380.44
356.172	389.44
356.399	355.44
356.626	377.44
356.853	361.44
357.08	364.44
357.307	396.44
357.534	364.44
357.761	410.44
357.988	380.44
358.215	386.44
358.441	395.44
358.668	378.44
358.895	392.44
359.122	381.44
359.349	396.44
359.576	385.44
359.802	431.44
360.029	431.44
360.256	432.44
360.483	448.44
360.709	411.44
360.936	384.44
361.163	393.44
361.39	405.44
361.616	403.44
361.843	396.44
362.07	396.44
362.296	406.44
362.523	400.44
362.749	417.44
362.976	399.44
363.203	384.44
363.429	391.44
363.656	416.44
363.882	404.44
364.109	409.44
364.335	398.44
364.562	382.44
364.788	398.44
365.015	406.44
365.241	407.44
365.468	400.44
365.694	394.44
365.92	390.44
366.147	380.44
366.373	381.44
366.599	378.44
366.826	395.44
367.052	382.44
367.278	390.44
367.505	395.44
367.731	400.44
367.957	417.44
368.184	390.44
368.41	403.44
368.636	406.44
368.862	407.44
369.089	388.44
369.315	399.44
369.541	398.44
369.767	406.44
369.993	392.44
370.219	406.44
370.445	396.44
370.672	422.44
370.898	401.44
371.124	390.44
371.35	412.44
371.576	401.44
371.802	399.44
372.028	389.44
372.254	396.44
372.48	384.44
372.706	389.44
372.932	403.44
373.158	402.44
373.384	412.44
373.61	416.44
373.835	426.44
374.061	418.44
374.287	433.44
374.513	398.44
374.739	438.44
374.965	414.44
375.191	426.44
375.416	407.44
375.642	383.44
375.868	422.44
376.094	420.44
376.319	399.44
376.545	399.44
376.771	426.44
376.997	402.44
377.222	386.44
377.448	409.44
377.674	397.44
377.899	416.44
378.125	410.44
378.35	394.44
378.576	408.44
378.802	394.44
379.027	412.44
379.253	403.44
379.478	390.44
379.704	398.44
379.929	407.44
380.155	392.44
380.38	397.44
380.606	402.44
380.831	396.44
381.057	409.44
381.282	380.44
381.507	407.44
381.733	413.44
381.958	421.44
382.184	420.44
382.409	423.44
382.634	426.44
382.86	416.44
383.085	446.44
383.31	409.44
383.535	420.44
383.761	430.44
383.986	439.44
384.211	443.44
384.436	436.44
384.662	439.44
384.887	433.44
385.112	436.44
385.337	448.44
385.562	458.44
385.787	460.44
386.013	461.44
386.238	454.44
386.463	461.44
386.688	455.44
386.913	453.44
387.138	460.44
387.363	460.44
387.588	458.44
387.813	463.44
388.038	448.44
388.263	468.44
388.488	448.44
388.713	447.44
388.938	450.44
389.163	439.44
389.387	448.44
389.612	436.44
389.837	458.44
390.062	443.44
390.287	448.44
390.512	444.44
390.736	432.44
390.961	446.44
391.186	479.44
391.411	458.44
391.636	451.44
391.86	435.44
392.085	486.44
392.31	481.44
392.534	476.44
392.759	479.44
392.984	475.44
393.208	472.44
393.433	482.44
393.658	494.44
393.882	481.44
394.107	453.44
394.331	456.44
394.556	449.44
394.78	453.44
395.005	466.44
395.229	465.44
395.454	452.44
395.678	482.44
395.903	466.44
396.127	485.44
396.352	521.44
396.576	503.44
396.801	506.44
397.025	503.44
397.249	519.44
397.474	494.44
397.698	487.44
397.922	514.44
398.147	536.44
398.371	518.44
398.595	516.44
398.82	512.44
399.044	526.44
399.268	546.44
399.492	582.44
399.717	607.44
399.941	648.44
400.165	639.44
400.389	667.44
400.613	586.44
400.837	578.44
401.062	527.44
401.286	543.44
401.51	543.44
401.734	510.44
401.958	527.44
402.182	522.44
402.406	541.44
402.63	535.44
402.854	538.44
403.078	558.44
403.302	568.44
403.526	524.44
403.75	559.44
403.974	538.44
404.198	518.44
404.422	556.44
404.645	572.44
404.869	564.44
405.093	589.44
405.317	609.44
405.541	644.44
405.765	596.44
405.988	582.44
406.212	581.44
406.436	583.44
406.66	586.44
406.883	570.44
407.107	592.44
407.331	626.44
407.555	714.44
407.778	699.44
408.002	660.44
408.226	608.44
408.449	592.44
408.673	602.44
408.896	591.44
409.12	640.44
409.344	626.44
409.567	592.44
409.791	572.44
410.014	556.44
410.238	553.44
410.461	525.44
410.685	561.44
410.908	576.44
411.132	575.44
411.355	624.44
411.578	589.44
411.802	567.44
412.025	576.44
412.249	567.44
412.472	572.44
412.695	619.44
412.919	612.44
413.142	573.44
413.365	548.44
413.589	524.44
413.812	513.44
414.035	540.44
414.258	537.44
414.482	515.44
414.705	541.44
414.928	530.44
415.151	520.44
415.374	520.44
415.597	531.44
415.821	499.44
416.044	526.44
416.267	514.44
416.49	522.44
416.713	530.44
416.936	505.44
417.159	517.44
417.382	520.44
417.605	505.44
417.828	550.44
418.051	559.44
418.274	524.44
418.497	510.44
418.72	518.44
418.943	525.44
419.166	547.44
419.389	565.44
419.611	543.44
419.834	560.44
420.057	553.44
420.28	541.44
420.503	539.44
420.726	527.44
420.948	555.44
421.171	588.44
421.394	612.44
421.617	548.44
421.839	547.44
422.062	537.44
422.285	565.44
422.507	608.44
422.73	674.44
422.953	657.44
423.175	565.44
423.398	566.44
423.621	551.44
423.843	566.44
424.066	561.44
424.288	574.44
424.511	602.44
424.733	659.44
424.956	699.44
425.178	665.44
425.401	696.44
425.623	714.44
425.846	605.44
426.068	589.44
426.291	561.44
426.513	541.44
426.735	577.44
426.958	604.44
427.18	683.44
427.402	806.44
427.625	889.44
427.847	773.44
428.069	657.44
428.292	608.44
428.514	559.44
428.736	525.44
428.958	537.44
429.181	510.44
429.403	545.44
429.625	537.44
429.847	569.44
430.069	624.44
430.292	618.44
430.514	532.44
430.736	514.44
430.958	529.44
431.18	524.44
431.402	510.44
431.624	508.44
431.846	505.44
432.068	496.44
432.29	520.44
432.512	510.44
432.734	536.44
432.956	515.44
433.178	509.44
433.4	525.44
433.622	514.44
433.844	520.44
434.066	486.44
434.287	501.44
434.509	529.44
434.731	529.44
434.953	504.44
435.175	536.44
435.397	558.44
435.618	566.44
435.84	619.44
436.062	657.44
436.284	758.44
436.505	648.44
436.727	603.44
436.949	534.44
437.17	527.44
437.392	532.44
437.614	524.44
437.835	552.44
438.057	654.44
438.278	724.44
438.5	737.44
438.721	826.44
438.943	780.44
439.165	641.44
439.386	576.44
439.608	562.44
439.829	572.44
440.05	588.44
440.272	619.44
440.493	604.44
440.715	540.44
440.936	557.44
441.158	553.44
441.379	540.44
441.6	554.44
441.822	554.44
442.043	630.44
442.264	684.44
442.486	724.44
442.707	612.44
442.928	594.44
443.149	562.44
443.371	584.44
443.592	644.44
443.813	744.44
444.034	802.44
444.255	668.44
444.476	586.44
444.698	588.44
444.919	600.44
445.14	689.44
445.361	625.44
445.582	618.44
445.803	665.44
446.024	753.44
446.245	779.44
446.466	729.44
446.687	608.44
446.908	551.44
447.129	532.44
447.35	525.44
447.571	526.44
447.792	516.44
448.013	534.44
448.234	536.44
448.455	590.44
448.675	669.44
448.896	812.44
449.117	694.44
449.338	644.44
449.559	766.44
449.779	863.44
450	668.44
450.221	569.44
450.442	497.44
450.662	495.44
450.883	524.44
451.104	502.44
451.324	506.44
451.545	496.44
451.766	475.44
451.986	467.44
452.207	460.44
452.428	467.44
452.648	476.44
452.869	475.44
453.089	478.44
453.31	506.44
453.53	486.44
453.751	458.44
453.971	459.44
454.192	488.44
454.412	476.44
454.633	466.44
454.853	469.44
455.073	446.44
455.294	480.44
455.514	549.44
455.734	556.44
455.955	481.44
456.175	474.44
456.395	463.44
456.616	459.44
456.836	464.44
457.056	433.44
457.276	433.44
457.497	454.44
457.717	433.44
457.937	442.44
458.157	460.44
458.377	471.44
458.598	501.44
458.818	530.44
459.038	597.44
459.258	609.44
459.478	536.44
459.698	504.44
459.918	500.44
460.138	489.44
460.358	527.44
460.578	522.44
460.798	528.44
461.018	525.44
461.238	531.44
461.458	538.44
461.678	514.44
461.898	550.44
462.118	526.44
462.338	546.44
462.558	543.44
462.777	537.44
462.997	546.44
463.217	585.44
463.437	592.44
463.657	571.44
463.876	565.44
464.096	551.44
464.316	572.44
464.536	586.44
464.755	571.44
464.975	558.44
465.195	591.44
465.414	639.44
465.634	578.44
465.854	528.44
466.073	500.44
466.293	523.44
466.512	510.44
466.732	500.44
466.951	504.44
467.171	493.44
467.391	511.44
467.61	490.44
467.829	488.44
468.049	501.44
468.268	503.44
468.488	479.44
468.707	468.44
468.927	467.44
469.146	486.44
469.365	488.44
469.585	462.44
469.804	490.44
470.023	516.44
470.243	495.44
470.462	504.44
470.681	494.44
470.901	534.44
471.12	506.44
471.339	502.44
471.558	497.44
471.777	484.44
471.997	502.44
472.216	494.44
472.435	527.44
472.654	516.44
472.873	510.44
473.092	492.44
473.311	480.44
473.53	484.44
473.749	513.44
473.968	535.44
474.187	618.44
474.406	628.44
474.625	537.44
474.844	502.44
475.063	518.44
475.282	516.44
475.501	520.44
475.72	490.44
475.939	507.44
476.158	515.44
476.377	516.44
476.596	521.44
476.814	505.44
477.033	529.44
477.252	552.44
477.471	543.44
477.69	555.44
477.908	542.44
478.127	541.44
478.346	554.44
478.564	567.44
478.783	564.44
479.002	583.44
479.22	584.44
479.439	599.44
479.658	581.44
479.876	625.44
480.095	592.44
480.313	629.44
480.532	632.44
480.751	623.44
480.969	625.44
481.188	645.44
481.406	667.44
481.624	622.44
481.843	605.44
482.061	610.44
482.28	617.44
482.498	599.44
482.717	584.44
482.935	586.44
483.153	585.44
483.372	597.44
483.59	617.44
483.808	575.44
484.027	626.44
484.245	592.44
484.463	602.44
484.681	605.44
484.9	602.44
485.118	612.44
485.336	596.44
485.554	617.44
485.772	606.44
485.99	590.44
486.209	625.44
486.427	624.44
486.645	636.44
486.863	630.44
487.081	623.44
487.299	623.44
487.517	621.44
487.735	617.44
487.953	623.44
488.171	615.44
488.389	645.44
488.607	637.44
488.825	614.44
489.043	635.44
489.261	640.44
489.479	644.44
489.696	673.44
489.914	646.44
490.132	652.44
490.35	636.44
490.568	663.44
490.786	654.44
491.003	665.44
491.221	682.44
491.439	694.44
491.657	687.44
491.874	694.44
492.092	684.44
492.31	694.44
492.527	710.44
492.745	698.44
492.963	730.44
493.18	746.44
493.398	728.44
493.615	711.44
493.833	720.44
494.05	739.44
494.268	717.44
494.485	726.44
494.703	738.44
494.92	719.44
495.138	712.44
495.355	737.44
495.573	734.44
495.79	736.44
496.008	720.44
496.225	729.44
496.442	733.44
496.66	737.44
496.877	734.44
497.094	741.44
497.312	750.44
497.529	757.44
497.746	779.44
497.963	792.44
498.181	814.44
498.398	845.44
498.615	816.44
498.832	854.44
499.049	848.44
499.267	890.44
499.484	937.44
499.701	945.44
499.918	1001.44
500.135	1058.44
500.352	1114.44
500.569	1110.44
500.786	1133.44
501.003	1084.44
501.22	1053.44
501.437	993.44
501.654	1009.44
501.871	959.44
