Data from 1966.PennyLincolnUp.Lamp.En5.5.200Scan.071719.P1._HRD10591_14-12-33-914.txt Node
Date: Thu Jul 18 14:12:33 EDT 2019
User: cochatt
Spectrometer: HR+D1059
Trigger mode: 1
Integration Time (sec): 1.000000E-1
Scans to average: 1
Electric dark correction enabled: true
Nonlinearity correction enabled: false
Boxcar width: 0
XAxis mode: Wavelengths
Number of Pixels in Spectrum: 2048
>>>>>Begin Spectral Data<<<<<
223.165	-9.56
223.4	-9.56
223.635	-9.56
223.869	-14.56
224.104	-32.56
224.338	-21.56
224.573	-20.56
224.808	-19.56
225.042	-17.56
225.277	1.44
225.511	-4.56
225.746	-1.56
225.98	7.44
226.215	14.44
226.449	20.44
226.683	30.44
226.918	30.44
227.152	37.44
227.387	21.44
227.621	22.44
227.856	42.44
228.09	49.44
228.324	49.44
228.559	40.44
228.793	61.44
229.027	75.44
229.262	73.44
229.496	101.44
229.73	86.44
229.964	85.44
230.199	78.44
230.433	105.44
230.667	76.44
230.901	89.44
231.136	84.44
231.37	79.44
231.604	92.44
231.838	102.44
232.072	92.44
232.306	102.44
232.541	92.44
232.775	101.44
233.009	88.44
233.243	82.44
233.477	96.44
233.711	93.44
233.945	90.44
234.179	99.44
234.413	89.44
234.647	101.44
234.881	88.44
235.115	98.44
235.349	93.44
235.583	93.44
235.817	102.44
236.051	92.44
236.285	92.44
236.519	84.44
236.753	96.44
236.987	110.44
237.221	130.44
237.455	131.44
237.689	110.44
237.922	96.44
238.156	96.44
238.39	83.44
238.624	84.44
238.858	83.44
239.091	95.44
239.325	78.44
239.559	102.44
239.793	102.44
240.027	113.44
240.26	114.44
240.494	112.44
240.728	114.44
240.961	119.44
241.195	100.44
241.429	105.44
241.662	90.44
241.896	97.44
242.13	91.44
242.363	82.44
242.597	97.44
242.83	70.44
243.064	88.44
243.298	90.44
243.531	93.44
243.765	99.44
243.998	101.44
244.232	96.44
244.465	97.44
244.699	109.44
244.932	107.44
245.166	93.44
245.399	97.44
245.633	105.44
245.866	100.44
246.099	100.44
246.333	117.44
246.566	106.44
246.8	107.44
247.033	112.44
247.266	106.44
247.5	123.44
247.733	120.44
247.966	103.44
248.2	104.44
248.433	96.44
248.666	113.44
248.899	125.44
249.133	125.44
249.366	124.44
249.599	119.44
249.832	118.44
250.066	136.44
250.299	125.44
250.532	118.44
250.765	128.44
250.998	138.44
251.231	130.44
251.465	114.44
251.698	116.44
251.931	116.44
252.164	115.44
252.397	121.44
252.63	130.44
252.863	117.44
253.096	119.44
253.329	150.44
253.562	138.44
253.795	128.44
254.028	150.44
254.261	123.44
254.494	134.44
254.727	165.44
254.96	151.44
255.193	155.44
255.426	151.44
255.659	125.44
255.892	135.44
256.124	144.44
256.357	140.44
256.59	129.44
256.823	130.44
257.056	124.44
257.289	119.44
257.521	124.44
257.754	111.44
257.987	125.44
258.22	116.44
258.452	121.44
258.685	127.44
258.918	124.44
259.151	118.44
259.383	140.44
259.616	138.44
259.849	121.44
260.081	149.44
260.314	156.44
260.547	165.44
260.779	154.44
261.012	142.44
261.244	132.44
261.477	137.44
261.71	125.44
261.942	141.44
262.175	136.44
262.407	138.44
262.64	138.44
262.872	128.44
263.105	119.44
263.337	136.44
263.57	130.44
263.802	124.44
264.035	120.44
264.267	123.44
264.499	133.44
264.732	112.44
264.964	128.44
265.197	148.44
265.429	137.44
265.661	115.44
265.894	133.44
266.126	125.44
266.358	130.44
266.591	129.44
266.823	124.44
267.055	121.44
267.287	161.44
267.52	141.44
267.752	145.44
267.984	119.44
268.216	133.44
268.448	143.44
268.681	146.44
268.913	147.44
269.145	146.44
269.377	158.44
269.609	132.44
269.841	148.44
270.073	152.44
270.306	161.44
270.538	178.44
270.77	165.44
271.002	176.44
271.234	171.44
271.466	167.44
271.698	172.44
271.93	173.44
272.162	152.44
272.394	166.44
272.626	161.44
272.858	155.44
273.09	155.44
273.322	149.44
273.553	135.44
273.785	143.44
274.017	146.44
274.249	151.44
274.481	149.44
274.713	156.44
274.945	157.44
275.176	146.44
275.408	155.44
275.64	150.44
275.872	133.44
276.104	153.44
276.335	158.44
276.567	148.44
276.799	166.44
277.031	183.44
277.262	178.44
277.494	171.44
277.726	166.44
277.957	176.44
278.189	153.44
278.421	156.44
278.652	150.44
278.884	145.44
279.115	152.44
279.347	152.44
279.579	156.44
279.81	157.44
280.042	140.44
280.273	156.44
280.505	153.44
280.736	148.44
280.968	133.44
281.199	160.44
281.431	144.44
281.662	144.44
281.894	142.44
282.125	148.44
282.356	160.44
282.588	161.44
282.819	179.44
283.051	161.44
283.282	150.44
283.513	145.44
283.745	150.44
283.976	170.44
284.207	140.44
284.439	145.44
284.67	155.44
284.901	148.44
285.132	143.44
285.364	170.44
285.595	174.44
285.826	147.44
286.057	157.44
286.288	146.44
286.52	161.44
286.751	157.44
286.982	171.44
287.213	169.44
287.444	154.44
287.675	153.44
287.906	162.44
288.138	160.44
288.369	172.44
288.6	162.44
288.831	162.44
289.062	165.44
289.293	163.44
289.524	166.44
289.755	169.44
289.986	167.44
290.217	158.44
290.448	153.44
290.679	147.44
290.91	168.44
291.141	156.44
291.371	173.44
291.602	158.44
291.833	165.44
292.064	154.44
292.295	153.44
292.526	149.44
292.757	167.44
292.987	179.44
293.218	160.44
293.449	168.44
293.68	156.44
293.91	157.44
294.141	171.44
294.372	166.44
294.603	157.44
294.833	163.44
295.064	161.44
295.295	156.44
295.525	153.44
295.756	160.44
295.987	153.44
296.217	171.44
296.448	185.44
296.679	147.44
296.909	174.44
297.14	166.44
297.37	154.44
297.601	157.44
297.831	166.44
298.062	171.44
298.292	161.44
298.523	188.44
298.753	154.44
298.984	162.44
299.214	182.44
299.445	166.44
299.675	164.44
299.905	162.44
300.136	164.44
300.366	152.44
300.597	187.44
300.827	156.44
301.057	150.44
301.288	177.44
301.518	188.44
301.748	165.44
301.979	171.44
302.209	177.44
302.439	190.44
302.669	183.44
302.9	178.44
303.13	188.44
303.36	179.44
303.59	184.44
303.82	175.44
304.051	182.44
304.281	173.44
304.511	185.44
304.741	182.44
304.971	164.44
305.201	168.44
305.431	173.44
305.661	172.44
305.891	161.44
306.121	186.44
306.352	180.44
306.582	179.44
306.812	185.44
307.042	173.44
307.272	173.44
307.502	184.44
307.731	174.44
307.961	174.44
308.191	174.44
308.421	172.44
308.651	185.44
308.881	189.44
309.111	196.44
309.341	176.44
309.571	169.44
309.8	196.44
310.03	172.44
310.26	208.44
310.49	203.44
310.72	198.44
310.949	204.44
311.179	201.44
311.409	211.44
311.639	188.44
311.868	189.44
312.098	169.44
312.328	195.44
312.557	203.44
312.787	216.44
313.017	226.44
313.246	223.44
313.476	187.44
313.706	194.44
313.935	202.44
314.165	200.44
314.394	208.44
314.624	199.44
314.853	194.44
315.083	197.44
315.312	201.44
315.542	202.44
315.771	197.44
316.001	206.44
316.23	183.44
316.46	174.44
316.689	193.44
316.919	201.44
317.148	190.44
317.377	208.44
317.607	199.44
317.836	193.44
318.065	197.44
318.295	188.44
318.524	180.44
318.753	192.44
318.983	194.44
319.212	189.44
319.441	184.44
319.67	201.44
319.9	198.44
320.129	178.44
320.358	204.44
320.587	201.44
320.816	216.44
321.046	204.44
321.275	195.44
321.504	191.44
321.733	197.44
321.962	203.44
322.191	210.44
322.42	212.44
322.649	235.44
322.878	233.44
323.108	224.44
323.337	223.44
323.566	233.44
323.795	254.44
324.024	262.44
324.253	338.44
324.482	461.44
324.71	692.44
324.939	916.44
325.168	747.44
325.397	396.44
325.626	266.44
325.855	236.44
326.084	235.44
326.313	229.44
326.542	231.44
326.77	258.44
326.999	316.44
327.228	436.44
327.457	628.44
327.686	686.44
327.914	446.44
328.143	326.44
328.372	291.44
328.6	274.44
328.829	276.44
329.058	270.44
329.287	266.44
329.515	262.44
329.744	249.44
329.972	252.44
330.201	276.44
330.43	295.44
330.658	296.44
330.887	308.44
331.115	294.44
331.344	236.44
331.572	236.44
331.801	234.44
332.03	228.44
332.258	235.44
332.486	230.44
332.715	224.44
332.943	212.44
333.172	228.44
333.4	214.44
333.629	219.44
333.857	249.44
334.085	242.44
334.314	258.44
334.542	279.44
334.771	264.44
334.999	255.44
335.227	235.44
335.455	219.44
335.684	209.44
335.912	231.44
336.14	204.44
336.369	222.44
336.597	222.44
336.825	228.44
337.053	224.44
337.281	207.44
337.51	202.44
337.738	228.44
337.966	230.44
338.194	222.44
338.422	215.44
338.65	231.44
338.878	225.44
339.106	213.44
339.334	228.44
339.562	210.44
339.79	225.44
340.018	215.44
340.246	213.44
340.474	223.44
340.702	217.44
340.93	214.44
341.158	204.44
341.386	215.44
341.614	202.44
341.842	220.44
342.07	212.44
342.298	194.44
342.526	212.44
342.754	196.44
342.981	201.44
343.209	222.44
343.437	210.44
343.665	196.44
343.893	212.44
344.12	231.44
344.348	210.44
344.576	217.44
344.804	210.44
345.031	206.44
345.259	239.44
345.487	215.44
345.714	212.44
345.942	223.44
346.17	215.44
346.397	173.44
346.625	186.44
346.853	215.44
347.08	190.44
347.308	214.44
347.535	201.44
347.763	209.44
347.99	223.44
348.218	222.44
348.445	221.44
348.673	196.44
348.9	206.44
349.128	204.44
349.355	203.44
349.583	196.44
349.81	186.44
350.037	180.44
350.265	201.44
350.492	192.44
350.72	197.44
350.947	219.44
351.174	212.44
351.402	216.44
351.629	186.44
351.856	219.44
352.083	210.44
352.311	216.44
352.538	212.44
352.765	216.44
352.992	208.44
353.22	200.44
353.447	199.44
353.674	193.44
353.901	188.44
354.128	198.44
354.355	195.44
354.583	184.44
354.81	218.44
355.037	199.44
355.264	212.44
355.491	194.44
355.718	190.44
355.945	203.44
356.172	196.44
356.399	201.44
356.626	198.44
356.853	193.44
357.08	195.44
357.307	186.44
357.534	204.44
357.761	201.44
357.988	209.44
358.215	189.44
358.441	199.44
358.668	210.44
358.895	193.44
359.122	200.44
359.349	179.44
359.576	205.44
359.802	209.44
360.029	239.44
360.256	225.44
360.483	226.44
360.709	205.44
360.936	194.44
361.163	200.44
361.39	214.44
361.616	214.44
361.843	222.44
362.07	200.44
362.296	225.44
362.523	214.44
362.749	205.44
362.976	214.44
363.203	191.44
363.429	180.44
363.656	196.44
363.882	204.44
364.109	183.44
364.335	206.44
364.562	174.44
364.788	202.44
365.015	190.44
365.241	205.44
365.468	213.44
365.694	199.44
365.92	206.44
366.147	189.44
366.373	197.44
366.599	195.44
366.826	204.44
367.052	194.44
367.278	202.44
367.505	220.44
367.731	186.44
367.957	189.44
368.184	203.44
368.41	202.44
368.636	218.44
368.862	204.44
369.089	218.44
369.315	195.44
369.541	197.44
369.767	201.44
369.993	197.44
370.219	176.44
370.445	196.44
370.672	190.44
370.898	188.44
371.124	188.44
371.35	196.44
371.576	204.44
371.802	198.44
372.028	196.44
372.254	198.44
372.48	190.44
372.706	188.44
372.932	199.44
373.158	206.44
373.384	202.44
373.61	206.44
373.835	181.44
374.061	187.44
374.287	211.44
374.513	210.44
374.739	215.44
374.965	206.44
375.191	190.44
375.416	190.44
375.642	195.44
375.868	198.44
376.094	190.44
376.319	200.44
376.545	197.44
376.771	195.44
376.997	207.44
377.222	201.44
377.448	173.44
377.674	186.44
377.899	207.44
378.125	188.44
378.35	197.44
378.576	186.44
378.802	189.44
379.027	189.44
379.253	203.44
379.478	204.44
379.704	184.44
379.929	187.44
380.155	194.44
380.38	189.44
380.606	189.44
380.831	187.44
381.057	208.44
381.282	188.44
381.507	193.44
381.733	202.44
381.958	201.44
382.184	210.44
382.409	201.44
382.634	200.44
382.86	186.44
383.085	191.44
383.31	185.44
383.535	215.44
383.761	199.44
383.986	197.44
384.211	201.44
384.436	197.44
384.662	215.44
384.887	207.44
385.112	206.44
385.337	213.44
385.562	208.44
385.787	211.44
386.013	220.44
386.238	221.44
386.463	203.44
386.688	228.44
386.913	206.44
387.138	209.44
387.363	204.44
387.588	217.44
387.813	197.44
388.038	204.44
388.263	200.44
388.488	200.44
388.713	215.44
388.938	224.44
389.163	215.44
389.387	214.44
389.612	212.44
389.837	216.44
390.062	218.44
390.287	227.44
390.512	211.44
390.736	210.44
390.961	199.44
391.186	203.44
391.411	196.44
391.636	217.44
391.86	213.44
392.085	213.44
392.31	225.44
392.534	214.44
392.759	219.44
392.984	218.44
393.208	226.44
393.433	232.44
393.658	235.44
393.882	218.44
394.107	219.44
394.331	223.44
394.556	217.44
394.78	215.44
395.005	202.44
395.229	217.44
395.454	219.44
395.678	226.44
395.903	217.44
396.127	237.44
396.352	223.44
396.576	231.44
396.801	201.44
397.025	212.44
397.249	233.44
397.474	229.44
397.698	228.44
397.922	236.44
398.147	214.44
398.371	223.44
398.595	231.44
398.82	246.44
399.044	229.44
399.268	251.44
399.492	253.44
399.717	258.44
399.941	296.44
400.165	288.44
400.389	301.44
400.613	264.44
400.837	237.44
401.062	258.44
401.286	247.44
401.51	253.44
401.734	230.44
401.958	240.44
402.182	248.44
402.406	260.44
402.63	235.44
402.854	229.44
403.078	230.44
403.302	242.44
403.526	250.44
403.75	244.44
403.974	242.44
404.198	244.44
404.422	243.44
404.645	250.44
404.869	262.44
405.093	270.44
405.317	297.44
405.541	290.44
405.765	270.44
405.988	263.44
406.212	284.44
406.436	290.44
406.66	283.44
406.883	283.44
407.107	288.44
407.331	288.44
407.555	308.44
407.778	291.44
408.002	273.44
408.226	252.44
408.449	270.44
408.673	257.44
408.896	276.44
409.12	302.44
409.344	266.44
409.567	269.44
409.791	260.44
410.014	250.44
410.238	260.44
410.461	261.44
410.685	253.44
410.908	241.44
411.132	265.44
411.355	260.44
411.578	276.44
411.802	250.44
412.025	234.44
412.249	233.44
412.472	260.44
412.695	271.44
412.919	279.44
413.142	263.44
413.365	263.44
413.589	246.44
413.812	241.44
414.035	229.44
414.258	236.44
414.482	261.44
414.705	236.44
414.928	232.44
415.151	252.44
415.374	235.44
415.597	244.44
415.821	244.44
416.044	245.44
416.267	240.44
416.49	248.44
416.713	245.44
416.936	235.44
417.159	242.44
417.382	240.44
417.605	235.44
417.828	236.44
418.051	269.44
418.274	256.44
418.497	253.44
418.72	237.44
418.943	240.44
419.166	239.44
419.389	260.44
419.611	250.44
419.834	261.44
420.057	256.44
420.28	259.44
420.503	261.44
420.726	259.44
420.948	277.44
421.171	265.44
421.394	278.44
421.617	262.44
421.839	242.44
422.062	237.44
422.285	268.44
422.507	265.44
422.73	297.44
422.953	308.44
423.175	267.44
423.398	252.44
423.621	266.44
423.843	274.44
424.066	276.44
424.288	250.44
424.511	267.44
424.733	304.44
424.956	320.44
425.178	304.44
425.401	306.44
425.623	305.44
425.846	259.44
426.068	275.44
426.291	257.44
426.513	237.44
426.735	260.44
426.958	281.44
427.18	335.44
427.402	373.44
427.625	409.44
427.847	363.44
428.069	299.44
428.292	265.44
428.514	252.44
428.736	227.44
428.958	256.44
429.181	253.44
429.403	217.44
429.625	237.44
429.847	260.44
430.069	302.44
430.292	287.44
430.514	262.44
430.736	237.44
430.958	246.44
431.18	234.44
431.402	235.44
431.624	230.44
431.846	236.44
432.068	257.44
432.29	232.44
432.512	236.44
432.734	239.44
432.956	240.44
433.178	225.44
433.4	238.44
433.622	249.44
433.844	249.44
434.066	241.44
434.287	245.44
434.509	235.44
434.731	232.44
434.953	263.44
435.175	236.44
435.397	269.44
435.618	265.44
435.84	283.44
436.062	314.44
436.284	334.44
436.505	289.44
436.727	243.44
436.949	244.44
437.17	246.44
437.392	245.44
437.614	257.44
437.835	262.44
438.057	293.44
438.278	352.44
438.5	344.44
438.721	372.44
438.943	320.44
439.165	288.44
439.386	270.44
439.608	276.44
439.829	270.44
440.05	282.44
440.272	304.44
440.493	270.44
440.715	265.44
440.936	243.44
441.158	237.44
441.379	245.44
441.6	260.44
441.822	266.44
442.043	288.44
442.264	312.44
442.486	328.44
442.707	281.44
442.928	270.44
443.149	270.44
443.371	305.44
443.592	292.44
443.813	329.44
444.034	363.44
444.255	302.44
444.476	272.44
444.698	272.44
444.919	260.44
445.14	349.44
445.361	321.44
445.582	271.44
445.803	317.44
446.024	363.44
446.245	355.44
446.466	339.44
446.687	264.44
446.908	264.44
447.129	242.44
447.35	228.44
447.571	226.44
447.792	237.44
448.013	228.44
448.234	256.44
448.455	260.44
448.675	308.44
448.896	378.44
449.117	299.44
449.338	294.44
449.559	351.44
449.779	371.44
450	292.44
450.221	244.44
450.442	220.44
450.662	248.44
450.883	231.44
451.104	272.44
451.324	239.44
451.545	242.44
451.766	226.44
451.986	214.44
452.207	217.44
452.428	225.44
452.648	220.44
452.869	234.44
453.089	221.44
453.31	232.44
453.53	235.44
453.751	220.44
453.971	237.44
454.192	234.44
454.412	232.44
454.633	208.44
454.853	206.44
455.073	234.44
455.294	240.44
455.514	265.44
455.734	264.44
455.955	212.44
456.175	218.44
456.395	197.44
456.616	212.44
456.836	203.44
457.056	215.44
457.276	200.44
457.497	226.44
457.717	234.44
457.937	239.44
458.157	200.44
458.377	232.44
458.598	235.44
458.818	244.44
459.038	296.44
459.258	282.44
459.478	257.44
459.698	229.44
459.918	222.44
460.138	232.44
460.358	234.44
460.578	232.44
460.798	242.44
461.018	232.44
461.238	237.44
461.458	244.44
461.678	219.44
461.898	221.44
462.118	226.44
462.338	245.44
462.558	246.44
462.777	237.44
462.997	247.44
463.217	262.44
463.437	275.44
463.657	228.44
463.876	273.44
464.096	261.44
464.316	232.44
464.536	246.44
464.755	260.44
464.975	266.44
465.195	286.44
465.414	311.44
465.634	270.44
465.854	251.44
466.073	238.44
466.293	233.44
466.512	216.44
466.732	221.44
466.951	223.44
467.171	224.44
467.391	226.44
467.61	246.44
467.829	228.44
468.049	234.44
468.268	222.44
468.488	218.44
468.707	219.44
468.927	222.44
469.146	219.44
469.365	212.44
469.585	214.44
469.804	221.44
470.023	238.44
470.243	230.44
470.462	244.44
470.681	240.44
470.901	254.44
471.12	233.44
471.339	233.44
471.558	226.44
471.777	240.44
471.997	216.44
472.216	237.44
472.435	261.44
472.654	241.44
472.873	230.44
473.092	225.44
473.311	224.44
473.53	221.44
473.749	229.44
473.968	247.44
474.187	303.44
474.406	294.44
474.625	256.44
474.844	253.44
475.063	232.44
475.282	233.44
475.501	240.44
475.72	231.44
475.939	250.44
476.158	238.44
476.377	223.44
476.596	235.44
476.814	243.44
477.033	231.44
477.252	229.44
477.471	240.44
477.69	242.44
477.908	262.44
478.127	231.44
478.346	264.44
478.564	258.44
478.783	240.44
479.002	259.44
479.22	261.44
479.439	280.44
479.658	280.44
479.876	266.44
480.095	280.44
480.313	270.44
480.532	302.44
480.751	289.44
480.969	293.44
481.188	337.44
481.406	339.44
481.624	311.44
481.843	283.44
482.061	252.44
482.28	262.44
482.498	247.44
482.717	266.44
482.935	268.44
483.153	275.44
483.372	260.44
483.59	248.44
483.808	264.44
484.027	274.44
484.245	280.44
484.463	256.44
484.681	272.44
484.9	270.44
485.118	254.44
485.336	258.44
485.554	288.44
485.772	275.44
485.99	264.44
486.209	268.44
486.427	278.44
486.645	259.44
486.863	296.44
487.081	276.44
487.299	288.44
487.517	274.44
487.735	265.44
487.953	282.44
488.171	295.44
488.389	293.44
488.607	273.44
488.825	268.44
489.043	276.44
489.261	294.44
489.479	274.44
489.696	284.44
489.914	289.44
490.132	300.44
490.35	280.44
490.568	286.44
490.786	319.44
491.003	302.44
491.221	318.44
491.439	335.44
491.657	328.44
491.874	336.44
492.092	328.44
492.31	331.44
492.527	328.44
492.745	345.44
492.963	331.44
493.18	334.44
493.398	340.44
493.615	345.44
493.833	335.44
494.05	332.44
494.268	338.44
494.485	328.44
494.703	322.44
494.92	325.44
495.138	328.44
495.355	323.44
495.573	311.44
495.79	322.44
496.008	338.44
496.225	324.44
496.442	327.44
496.66	347.44
496.877	338.44
497.094	334.44
497.312	332.44
497.529	332.44
497.746	344.44
497.963	357.44
498.181	343.44
498.398	347.44
498.615	369.44
498.832	377.44
499.049	380.44
499.267	371.44
499.484	361.44
499.701	382.44
499.918	406.44
500.135	424.44
500.352	436.44
500.569	434.44
500.786	444.44
501.003	452.44
501.22	435.44
501.437	413.44
501.654	416.44
501.871	388.44
502.088	405.44
502.305	368.44
502.522	358.44
502.739	358.44
