Data from 1966.PennyLincolnUp.Lamp.En5.5.200Scan.071719.P1.Scan2.head_HRD10591_14-19-46-293.txt Node
Date: Thu Jul 18 14:19:46 EDT 2019
User: cochatt
Spectrometer: HR+D1059
Trigger mode: 1
Integration Time (sec): 1.000000E-1
Scans to average: 1
Electric dark correction enabled: true
Nonlinearity correction enabled: false
Boxcar width: 0
XAxis mode: Wavelengths
Number of Pixels in Spectrum: 2048
>>>>>Begin Spectral Data<<<<<
223.165	-12.38
223.4	-12.38
223.635	-12.38
223.869	-15.38
224.104	-21.38
224.338	-23.38
224.573	-7.38
224.808	-21.38
225.042	1.62
225.277	-18.38
225.511	-3.38
225.746	0.62
225.98	15.62
226.215	1.62
226.449	15.62
226.683	17.62
226.918	37.62
227.152	32.62
227.387	28.62
227.621	33.62
227.856	40.62
228.09	44.62
228.324	64.62
228.559	56.62
228.793	69.62
229.027	103.62
229.262	117.62
229.496	122.62
229.73	136.62
229.964	154.62
230.199	139.62
230.433	124.62
230.667	122.62
230.901	116.62
231.136	126.62
231.37	122.62
231.604	128.62
231.838	118.62
232.072	120.62
232.306	127.62
232.541	119.62
232.775	124.62
233.009	118.62
233.243	120.62
233.477	125.62
233.711	116.62
233.945	113.62
234.179	126.62
234.413	135.62
234.647	125.62
234.881	124.62
235.115	117.62
235.349	110.62
235.583	130.62
235.817	121.62
236.051	129.62
236.285	125.62
236.519	134.62
236.753	143.62
236.987	165.62
237.221	210.62
237.455	249.62
237.689	220.62
237.922	138.62
238.156	156.62
238.39	140.62
238.624	129.62
238.858	136.62
239.091	126.62
239.325	117.62
239.559	123.62
239.793	133.62
240.027	142.62
240.26	161.62
240.494	179.62
240.728	162.62
240.961	163.62
241.195	164.62
241.429	152.62
241.662	148.62
241.896	153.62
242.13	153.62
242.363	147.62
242.597	151.62
242.83	149.62
243.064	143.62
243.298	149.62
243.531	152.62
243.765	142.62
243.998	140.62
244.232	156.62
244.465	149.62
244.699	144.62
244.932	172.62
245.166	157.62
245.399	153.62
245.633	140.62
245.866	148.62
246.099	156.62
246.333	159.62
246.566	162.62
246.8	183.62
247.033	161.62
247.266	160.62
247.5	180.62
247.733	168.62
247.966	185.62
248.2	188.62
248.433	198.62
248.666	206.62
248.899	196.62
249.133	227.62
249.366	220.62
249.599	209.62
249.832	193.62
250.066	192.62
250.299	182.62
250.532	196.62
250.765	224.62
250.998	242.62
251.231	245.62
251.465	236.62
251.698	219.62
251.931	209.62
252.164	219.62
252.397	211.62
252.63	213.62
252.863	226.62
253.096	232.62
253.329	237.62
253.562	228.62
253.795	218.62
254.028	225.62
254.261	224.62
254.494	233.62
254.727	278.62
254.96	294.62
255.193	289.62
255.426	266.62
255.659	264.62
255.892	246.62
256.124	266.62
256.357	234.62
256.59	232.62
256.823	231.62
257.056	222.62
257.289	215.62
257.521	233.62
257.754	224.62
257.987	223.62
258.22	218.62
258.452	211.62
258.685	232.62
258.918	252.62
259.151	212.62
259.383	224.62
259.616	232.62
259.849	230.62
260.081	253.62
260.314	260.62
260.547	260.62
260.779	244.62
261.012	251.62
261.244	242.62
261.477	241.62
261.71	244.62
261.942	256.62
262.175	260.62
262.407	242.62
262.64	244.62
262.872	231.62
263.105	224.62
263.337	214.62
263.57	214.62
263.802	226.62
264.035	219.62
264.267	232.62
264.499	230.62
264.732	225.62
264.964	218.62
265.197	229.62
265.429	231.62
265.661	238.62
265.894	219.62
266.126	227.62
266.358	224.62
266.591	225.62
266.823	236.62
267.055	257.62
267.287	254.62
267.52	256.62
267.752	256.62
267.984	230.62
268.216	245.62
268.448	250.62
268.681	260.62
268.913	261.62
269.145	274.62
269.377	282.62
269.609	285.62
269.841	271.62
270.073	298.62
270.306	312.62
270.538	334.62
270.77	346.62
271.002	322.62
271.234	325.62
271.466	311.62
271.698	334.62
271.93	336.62
272.162	332.62
272.394	326.62
272.626	319.62
272.858	325.62
273.09	303.62
273.322	301.62
273.553	279.62
273.785	281.62
274.017	279.62
274.249	287.62
274.481	277.62
274.713	283.62
274.945	283.62
275.176	264.62
275.408	288.62
275.64	303.62
275.872	284.62
276.104	285.62
276.335	269.62
276.567	292.62
276.799	301.62
277.031	310.62
277.262	336.62
277.494	334.62
277.726	318.62
277.957	302.62
278.189	289.62
278.421	286.62
278.652	283.62
278.884	305.62
279.115	294.62
279.347	269.62
279.579	276.62
279.81	266.62
280.042	278.62
280.273	294.62
280.505	284.62
280.736	288.62
280.968	293.62
281.199	290.62
281.431	278.62
281.662	300.62
281.894	278.62
282.125	289.62
282.356	291.62
282.588	339.62
282.819	316.62
283.051	304.62
283.282	278.62
283.513	276.62
283.745	293.62
283.976	297.62
284.207	302.62
284.439	296.62
284.67	302.62
284.901	291.62
285.132	300.62
285.364	289.62
285.595	287.62
285.826	296.62
286.057	288.62
286.288	285.62
286.52	298.62
286.751	316.62
286.982	315.62
287.213	295.62
287.444	289.62
287.675	296.62
287.906	306.62
288.138	328.62
288.369	333.62
288.6	322.62
288.831	296.62
289.062	318.62
289.293	288.62
289.524	312.62
289.755	320.62
289.986	321.62
290.217	319.62
290.448	315.62
290.679	330.62
290.91	307.62
291.141	307.62
291.371	298.62
291.602	332.62
291.833	314.62
292.064	298.62
292.295	320.62
292.526	308.62
292.757	320.62
292.987	306.62
293.218	292.62
293.449	305.62
293.68	315.62
293.91	292.62
294.141	308.62
294.372	315.62
294.603	311.62
294.833	328.62
295.064	308.62
295.295	312.62
295.525	317.62
295.756	334.62
295.987	324.62
296.217	338.62
296.448	363.62
296.679	324.62
296.909	319.62
297.14	305.62
297.37	330.62
297.601	328.62
297.831	319.62
298.062	339.62
298.292	333.62
298.523	330.62
298.753	321.62
298.984	325.62
299.214	320.62
299.445	341.62
299.675	337.62
299.905	338.62
300.136	337.62
300.366	333.62
300.597	331.62
300.827	335.62
301.057	338.62
301.288	344.62
301.518	363.62
301.748	349.62
301.979	337.62
302.209	376.62
302.439	349.62
302.669	332.62
302.9	347.62
303.13	355.62
303.36	357.62
303.59	378.62
303.82	353.62
304.051	363.62
304.281	354.62
304.511	352.62
304.741	345.62
304.971	372.62
305.201	342.62
305.431	377.62
305.661	353.62
305.891	344.62
306.121	347.62
306.352	356.62
306.582	354.62
306.812	350.62
307.042	353.62
307.272	348.62
307.502	367.62
307.731	364.62
307.961	356.62
308.191	343.62
308.421	358.62
308.651	356.62
308.881	378.62
309.111	376.62
309.341	377.62
309.571	381.62
309.8	392.62
310.03	382.62
310.26	382.62
310.49	375.62
310.72	388.62
310.949	408.62
311.179	426.62
311.409	390.62
311.639	413.62
311.868	401.62
312.098	422.62
312.328	412.62
312.557	427.62
312.787	450.62
313.017	431.62
313.246	406.62
313.476	411.62
313.706	412.62
313.935	404.62
314.165	420.62
314.394	428.62
314.624	415.62
314.853	443.62
315.083	393.62
315.312	400.62
315.542	399.62
315.771	384.62
316.001	398.62
316.23	396.62
316.46	400.62
316.689	408.62
316.919	389.62
317.148	401.62
317.377	433.62
317.607	408.62
317.836	394.62
318.065	390.62
318.295	381.62
318.524	392.62
318.753	404.62
318.983	411.62
319.212	412.62
319.441	406.62
319.67	427.62
319.9	425.62
320.129	384.62
320.358	425.62
320.587	417.62
320.816	415.62
321.046	420.62
321.275	414.62
321.504	429.62
321.733	431.62
321.962	456.62
322.191	447.62
322.42	449.62
322.649	487.62
322.878	465.62
323.108	498.62
323.337	489.62
323.566	550.62
323.795	570.62
324.024	594.62
324.253	704.62
324.482	1046.62
324.71	1568.62
324.939	2436.62
325.168	2036.62
325.397	1025.62
325.626	673.62
325.855	556.62
326.084	550.62
326.313	518.62
326.542	535.62
326.77	575.62
326.999	702.62
327.228	928.62
327.457	1462.62
327.686	1804.62
327.914	1175.62
328.143	756.62
328.372	655.62
328.6	630.62
328.829	611.62
329.058	612.62
329.287	636.62
329.515	608.62
329.744	545.62
329.972	544.62
330.201	567.62
330.43	628.62
330.658	645.62
330.887	647.62
331.115	622.62
331.344	572.62
331.572	526.62
331.801	530.62
332.03	526.62
332.258	515.62
332.486	497.62
332.715	489.62
332.943	500.62
333.172	485.62
333.4	513.62
333.629	500.62
333.857	533.62
334.085	558.62
334.314	558.62
334.542	590.62
334.771	623.62
334.999	572.62
335.227	543.62
335.455	493.62
335.684	486.62
335.912	475.62
336.14	488.62
336.369	484.62
336.597	496.62
336.825	494.62
337.053	492.62
337.281	486.62
337.51	480.62
337.738	473.62
337.966	480.62
338.194	493.62
338.422	475.62
338.65	474.62
338.878	482.62
339.106	455.62
339.334	488.62
339.562	465.62
339.79	461.62
340.018	474.62
340.246	470.62
340.474	477.62
340.702	467.62
340.93	472.62
341.158	454.62
341.386	474.62
341.614	479.62
341.842	464.62
342.07	449.62
342.298	450.62
342.526	472.62
342.754	462.62
342.981	484.62
343.209	449.62
343.437	474.62
343.665	476.62
343.893	468.62
344.12	492.62
344.348	500.62
344.576	484.62
344.804	486.62
345.031	486.62
345.259	505.62
345.487	490.62
345.714	472.62
345.942	460.62
346.17	449.62
346.397	443.62
346.625	455.62
346.853	464.62
347.08	437.62
347.308	446.62
347.535	441.62
347.763	460.62
347.99	471.62
348.218	460.62
348.445	449.62
348.673	475.62
348.9	452.62
349.128	459.62
349.355	470.62
349.583	465.62
349.81	448.62
350.037	424.62
350.265	454.62
350.492	430.62
350.72	418.62
350.947	447.62
351.174	466.62
351.402	481.62
351.629	472.62
351.856	471.62
352.083	463.62
352.311	482.62
352.538	481.62
352.765	478.62
352.992	472.62
353.22	466.62
353.447	442.62
353.674	432.62
353.901	449.62
354.128	436.62
354.355	424.62
354.583	426.62
354.81	446.62
355.037	442.62
355.264	425.62
355.491	433.62
355.718	423.62
355.945	426.62
356.172	426.62
356.399	414.62
356.626	424.62
356.853	404.62
357.08	426.62
357.307	406.62
357.534	425.62
357.761	418.62
357.988	436.62
358.215	431.62
358.441	426.62
358.668	433.62
358.895	432.62
359.122	439.62
359.349	455.62
359.576	465.62
359.802	468.62
360.029	522.62
360.256	526.62
360.483	522.62
360.709	487.62
360.936	472.62
361.163	476.62
361.39	447.62
361.616	461.62
361.843	462.62
362.07	457.62
362.296	476.62
362.523	448.62
362.749	462.62
362.976	468.62
363.203	438.62
363.429	469.62
363.656	454.62
363.882	464.62
364.109	452.62
364.335	449.62
364.562	446.62
364.788	451.62
365.015	448.62
365.241	454.62
365.468	449.62
365.694	450.62
365.92	459.62
366.147	457.62
366.373	443.62
366.599	450.62
366.826	442.62
367.052	430.62
367.278	428.62
367.505	450.62
367.731	432.62
367.957	455.62
368.184	466.62
368.41	453.62
368.636	468.62
368.862	485.62
369.089	467.62
369.315	452.62
369.541	463.62
369.767	457.62
369.993	462.62
370.219	448.62
370.445	437.62
370.672	457.62
370.898	446.62
371.124	442.62
371.35	444.62
371.576	444.62
371.802	436.62
372.028	445.62
372.254	444.62
372.48	465.62
372.706	457.62
372.932	464.62
373.158	476.62
373.384	438.62
373.61	468.62
373.835	461.62
374.061	453.62
374.287	460.62
374.513	449.62
374.739	450.62
374.965	475.62
375.191	469.62
375.416	459.62
375.642	446.62
375.868	470.62
376.094	454.62
376.319	470.62
376.545	434.62
376.771	448.62
376.997	456.62
377.222	437.62
377.448	453.62
377.674	429.62
377.899	446.62
378.125	454.62
378.35	446.62
378.576	456.62
378.802	456.62
379.027	440.62
379.253	451.62
379.478	443.62
379.704	456.62
379.929	456.62
380.155	451.62
380.38	453.62
380.606	452.62
380.831	456.62
381.057	466.62
381.282	468.62
381.507	456.62
381.733	466.62
381.958	438.62
382.184	470.62
382.409	464.62
382.634	478.62
382.86	450.62
383.085	479.62
383.31	475.62
383.535	493.62
383.761	486.62
383.986	483.62
384.211	477.62
384.436	481.62
384.662	483.62
384.887	496.62
385.112	486.62
385.337	502.62
385.562	486.62
385.787	496.62
386.013	520.62
386.238	538.62
386.463	530.62
386.688	521.62
386.913	506.62
387.138	492.62
387.363	524.62
387.588	508.62
387.813	516.62
388.038	485.62
388.263	487.62
388.488	501.62
388.713	489.62
388.938	485.62
389.163	502.62
389.387	511.62
389.612	502.62
389.837	494.62
390.062	495.62
390.287	490.62
390.512	503.62
390.736	500.62
390.961	486.62
391.186	518.62
391.411	513.62
391.636	540.62
391.86	528.62
392.085	526.62
392.31	522.62
392.534	530.62
392.759	525.62
392.984	526.62
393.208	516.62
393.433	527.62
393.658	496.62
393.882	526.62
394.107	536.62
394.331	526.62
394.556	500.62
394.78	516.62
395.005	492.62
395.229	510.62
395.454	526.62
395.678	522.62
395.903	544.62
396.127	573.62
396.352	546.62
396.576	542.62
396.801	542.62
397.025	545.62
397.249	530.62
397.474	532.62
397.698	550.62
397.922	548.62
398.147	558.62
398.371	583.62
398.595	593.62
398.82	588.62
399.044	619.62
399.268	611.62
399.492	630.62
399.717	671.62
399.941	700.62
400.165	730.62
400.389	764.62
400.613	671.62
400.837	632.62
401.062	618.62
401.286	586.62
401.51	606.62
401.734	578.62
401.958	574.62
402.182	594.62
402.406	612.62
402.63	607.62
402.854	586.62
403.078	593.62
403.302	607.62
403.526	628.62
403.75	626.62
403.974	613.62
404.198	602.62
404.422	604.62
404.645	621.62
404.869	640.62
405.093	674.62
405.317	723.62
405.541	736.62
405.765	682.62
405.988	642.62
406.212	653.62
406.436	673.62
406.66	677.62
406.883	671.62
407.107	688.62
407.331	731.62
407.555	836.62
407.778	815.62
408.002	747.62
408.226	695.62
408.449	674.62
408.673	665.62
408.896	698.62
409.12	756.62
409.344	723.62
409.567	639.62
409.791	634.62
410.014	617.62
410.238	624.62
410.461	628.62
410.685	634.62
410.908	597.62
411.132	667.62
411.355	726.62
411.578	694.62
411.802	614.62
412.025	576.62
412.249	621.62
412.472	658.62
412.695	694.62
412.919	678.62
413.142	648.62
413.365	617.62
413.589	596.62
413.812	619.62
414.035	578.62
414.258	602.62
414.482	593.62
414.705	573.62
414.928	574.62
415.151	598.62
415.374	568.62
415.597	575.62
415.821	560.62
416.044	593.62
416.267	574.62
416.49	580.62
416.713	576.62
416.936	598.62
417.159	589.62
417.382	590.62
417.605	584.62
417.828	590.62
418.051	617.62
418.274	615.62
418.497	586.62
418.72	566.62
418.943	601.62
419.166	589.62
419.389	605.62
419.611	621.62
419.834	615.62
420.057	620.62
420.28	622.62
420.503	612.62
420.726	612.62
420.948	602.62
421.171	689.62
421.394	720.62
421.617	638.62
421.839	609.62
422.062	621.62
422.285	638.62
422.507	703.62
422.73	772.62
422.953	749.62
423.175	696.62
423.398	621.62
423.621	620.62
423.843	632.62
424.066	680.62
424.288	668.62
424.511	682.62
424.733	744.62
424.956	846.62
425.178	806.62
425.401	811.62
425.623	812.62
425.846	705.62
426.068	648.62
426.291	648.62
426.513	637.62
426.735	681.62
426.958	740.62
427.18	823.62
427.402	967.62
427.625	1057.62
427.847	902.62
428.069	805.62
428.292	697.62
428.514	637.62
428.736	612.62
428.958	619.62
429.181	596.62
429.403	598.62
429.625	636.62
429.847	644.62
430.069	751.62
430.292	733.62
430.514	631.62
430.736	614.62
430.958	580.62
431.18	600.62
431.402	589.62
431.624	555.62
431.846	594.62
432.068	562.62
432.29	581.62
432.512	579.62
432.734	586.62
432.956	596.62
433.178	593.62
433.4	569.62
433.622	588.62
433.844	587.62
434.066	600.62
434.287	565.62
434.509	594.62
434.731	583.62
434.953	607.62
435.175	609.62
435.397	641.62
435.618	662.62
435.84	705.62
436.062	808.62
436.284	876.62
436.505	713.62
436.727	654.62
436.949	642.62
437.17	609.62
437.392	578.62
437.614	634.62
437.835	672.62
438.057	779.62
438.278	879.62
438.5	851.62
438.721	993.62
438.943	952.62
439.165	737.62
439.386	668.62
439.608	683.62
439.829	664.62
440.05	700.62
440.272	737.62
440.493	700.62
440.715	646.62
440.936	607.62
441.158	620.62
441.379	608.62
441.6	620.62
441.822	646.62
442.043	683.62
442.264	802.62
442.486	841.62
442.707	745.62
442.928	667.62
443.149	680.62
443.371	713.62
443.592	734.62
443.813	869.62
444.034	951.62
444.255	761.62
444.476	703.62
444.698	669.62
444.919	677.62
445.14	766.62
445.361	720.62
445.582	720.62
445.803	768.62
446.024	870.62
446.245	920.62
446.466	859.62
446.687	690.62
446.908	649.62
447.129	595.62
447.35	620.62
447.571	577.62
447.792	594.62
448.013	600.62
448.234	626.62
448.455	674.62
448.675	850.62
448.896	977.62
449.117	795.62
449.338	753.62
449.559	894.62
449.779	1008.62
450	798.62
450.221	652.62
450.442	613.62
450.662	603.62
450.883	594.62
451.104	617.62
451.324	599.62
451.545	580.62
451.766	568.62
451.986	540.62
452.207	537.62
452.428	552.62
452.648	564.62
452.869	550.62
453.089	543.62
453.31	577.62
453.53	552.62
453.751	546.62
453.971	531.62
454.192	562.62
454.412	556.62
454.633	543.62
454.853	539.62
455.073	524.62
455.294	588.62
455.514	648.62
455.734	636.62
455.955	521.62
456.175	538.62
456.395	514.62
456.616	517.62
456.836	491.62
457.056	523.62
457.276	494.62
457.497	516.62
457.717	527.62
457.937	518.62
458.157	522.62
458.377	510.62
458.598	563.62
458.818	613.62
459.038	712.62
459.258	736.62
459.478	659.62
459.698	574.62
459.918	580.62
460.138	574.62
460.358	588.62
460.578	566.62
460.798	586.62
461.018	598.62
461.238	573.62
461.458	581.62
461.678	591.62
461.898	606.62
462.118	578.62
462.338	616.62
462.558	634.62
462.777	612.62
462.997	642.62
463.217	632.62
463.437	656.62
463.657	640.62
463.876	632.62
464.096	624.62
464.316	617.62
464.536	646.62
464.755	618.62
464.975	640.62
465.195	654.62
465.414	725.62
465.634	658.62
465.854	648.62
466.073	585.62
466.293	598.62
466.512	567.62
466.732	557.62
466.951	522.62
467.171	556.62
467.391	576.62
467.61	564.62
467.829	577.62
468.049	554.62
468.268	580.62
468.488	570.62
468.707	525.62
468.927	552.62
469.146	574.62
469.365	563.62
469.585	553.62
469.804	562.62
470.023	570.62
470.243	561.62
470.462	576.62
470.681	585.62
470.901	580.62
471.12	581.62
471.339	557.62
471.558	544.62
471.777	585.62
471.997	557.62
472.216	576.62
472.435	635.62
472.654	592.62
472.873	566.62
473.092	556.62
473.311	547.62
473.53	551.62
473.749	571.62
473.968	634.62
474.187	721.62
474.406	742.62
474.625	637.62
474.844	584.62
475.063	581.62
475.282	574.62
475.501	584.62
475.72	578.62
475.939	576.62
476.158	548.62
476.377	583.62
476.596	572.62
476.814	597.62
477.033	598.62
477.252	588.62
477.471	618.62
477.69	601.62
477.908	605.62
478.127	609.62
478.346	600.62
478.564	615.62
478.783	641.62
479.002	628.62
479.22	663.62
479.439	650.62
479.658	688.62
479.876	695.62
480.095	685.62
480.313	706.62
480.532	710.62
480.751	687.62
480.969	707.62
481.188	784.62
481.406	832.62
481.624	726.62
481.843	710.62
482.061	680.62
482.28	696.62
482.498	660.62
482.717	674.62
482.935	666.62
483.153	670.62
483.372	662.62
483.59	651.62
483.808	657.62
484.027	680.62
484.245	676.62
484.463	664.62
484.681	684.62
484.9	643.62
485.118	670.62
485.336	681.62
485.554	688.62
485.772	711.62
485.99	699.62
486.209	671.62
486.427	696.62
486.645	713.62
486.863	721.62
487.081	724.62
487.299	690.62
487.517	719.62
487.735	721.62
487.953	726.62
488.171	702.62
488.389	725.62
488.607	724.62
488.825	710.62
489.043	729.62
489.261	738.62
489.479	722.62
489.696	723.62
489.914	726.62
490.132	736.62
490.35	737.62
490.568	776.62
490.786	776.62
491.003	769.62
491.221	773.62
491.439	778.62
491.657	821.62
491.874	817.62
492.092	816.62
492.31	810.62
492.527	809.62
492.745	862.62
492.963	840.62
493.18	840.62
493.398	848.62
493.615	848.62
493.833	858.62
494.05	855.62
494.268	863.62
494.485	827.62
494.703	830.62
494.92	831.62
495.138	833.62
495.355	841.62
495.573	854.62
495.79	884.62
496.008	848.62
496.225	861.62
496.442	880.62
496.66	870.62
496.877	867.62
497.094	906.62
497.312	886.62
497.529	871.62
497.746	879.62
497.963	897.62
498.181	923.62
498.398	952.62
498.615	997.62
498.832	980.62
499.049	969.62
499.267	1042.62
499.484	1065.62
499.701	1073.62
499.918	1073.62
500.135	1161.62
500.352	1224.62
500.569	1221.62
500.786	1280.62
501.003	1218.62
501.22	1161.62
501.437	1138.62
501.654	1115.62
