Data from 1966.PennyLincolnUp.Lamp.En5.5.200Scan.071719.P1.Scan2.head_HRD10591_14-17-20-100.txt Node
Date: Thu Jul 18 14:17:20 EDT 2019
User: cochatt
Spectrometer: HR+D1059
Trigger mode: 1
Integration Time (sec): 1.000000E-1
Scans to average: 1
Electric dark correction enabled: true
Nonlinearity correction enabled: false
Boxcar width: 0
XAxis mode: Wavelengths
Number of Pixels in Spectrum: 2048
>>>>>Begin Spectral Data<<<<<
223.165	-10.06
223.4	-10.06
223.635	-10.06
223.869	-20.06
224.104	-16.06
224.338	-2.06
224.573	-14.06
224.808	-18.06
225.042	-5.06
225.277	8.94
225.511	-22.06
225.746	2.94
225.98	12.94
226.215	11.94
226.449	6.94
226.683	15.94
226.918	21.94
227.152	25.94
227.387	44.94
227.621	35.94
227.856	42.94
228.09	43.94
228.324	60.94
228.559	54.94
228.793	56.94
229.027	97.94
229.262	95.94
229.496	115.94
229.73	125.94
229.964	155.94
230.199	136.94
230.433	123.94
230.667	123.94
230.901	115.94
231.136	110.94
231.37	109.94
231.604	118.94
231.838	117.94
232.072	106.94
232.306	113.94
232.541	125.94
232.775	110.94
233.009	104.94
233.243	106.94
233.477	113.94
233.711	105.94
233.945	118.94
234.179	113.94
234.413	113.94
234.647	121.94
234.881	122.94
235.115	122.94
235.349	106.94
235.583	121.94
235.817	125.94
236.051	111.94
236.285	121.94
236.519	124.94
236.753	123.94
236.987	162.94
237.221	170.94
237.455	238.94
237.689	196.94
237.922	140.94
238.156	133.94
238.39	120.94
238.624	132.94
238.858	131.94
239.091	135.94
239.325	118.94
239.559	121.94
239.793	126.94
240.027	123.94
240.26	139.94
240.494	146.94
240.728	142.94
240.961	145.94
241.195	141.94
241.429	148.94
241.662	130.94
241.896	136.94
242.13	129.94
242.363	126.94
242.597	131.94
242.83	138.94
243.064	138.94
243.298	147.94
243.531	135.94
243.765	142.94
243.998	143.94
244.232	151.94
244.465	148.94
244.699	148.94
244.932	148.94
245.166	162.94
245.399	153.94
245.633	143.94
245.866	146.94
246.099	133.94
246.333	137.94
246.566	146.94
246.8	163.94
247.033	148.94
247.266	153.94
247.5	171.94
247.733	166.94
247.966	183.94
248.2	173.94
248.433	166.94
248.666	182.94
248.899	167.94
249.133	182.94
249.366	199.94
249.599	207.94
249.832	190.94
250.066	179.94
250.299	164.94
250.532	186.94
250.765	193.94
250.998	227.94
251.231	231.94
251.465	225.94
251.698	200.94
251.931	201.94
252.164	202.94
252.397	189.94
252.63	204.94
252.863	204.94
253.096	219.94
253.329	229.94
253.562	224.94
253.795	205.94
254.028	216.94
254.261	196.94
254.494	226.94
254.727	247.94
254.96	266.94
255.193	250.94
255.426	234.94
255.659	234.94
255.892	226.94
256.124	226.94
256.357	230.94
256.59	204.94
256.823	221.94
257.056	211.94
257.289	229.94
257.521	204.94
257.754	208.94
257.987	211.94
258.22	209.94
258.452	222.94
258.685	213.94
258.918	205.94
259.151	214.94
259.383	215.94
259.616	227.94
259.849	225.94
260.081	230.94
260.314	250.94
260.547	273.94
260.779	249.94
261.012	232.94
261.244	223.94
261.477	214.94
261.71	235.94
261.942	210.94
262.175	228.94
262.407	229.94
262.64	218.94
262.872	205.94
263.105	221.94
263.337	209.94
263.57	217.94
263.802	190.94
264.035	221.94
264.267	225.94
264.499	215.94
264.732	211.94
264.964	202.94
265.197	222.94
265.429	213.94
265.661	207.94
265.894	225.94
266.126	215.94
266.358	199.94
266.591	235.94
266.823	227.94
267.055	194.94
267.287	224.94
267.52	212.94
267.752	222.94
267.984	222.94
268.216	247.94
268.448	248.94
268.681	221.94
268.913	247.94
269.145	262.94
269.377	279.94
269.609	259.94
269.841	276.94
270.073	261.94
270.306	270.94
270.538	301.94
270.77	296.94
271.002	295.94
271.234	284.94
271.466	294.94
271.698	287.94
271.93	295.94
272.162	285.94
272.394	275.94
272.626	286.94
272.858	289.94
273.09	293.94
273.322	270.94
273.553	267.94
273.785	263.94
274.017	270.94
274.249	250.94
274.481	258.94
274.713	261.94
274.945	257.94
275.176	275.94
275.408	269.94
275.64	274.94
275.872	262.94
276.104	239.94
276.335	259.94
276.567	273.94
276.799	276.94
277.031	300.94
277.262	309.94
277.494	332.94
277.726	292.94
277.957	276.94
278.189	270.94
278.421	257.94
278.652	263.94
278.884	270.94
279.115	286.94
279.347	274.94
279.579	281.94
279.81	247.94
280.042	261.94
280.273	272.94
280.505	281.94
280.736	258.94
280.968	271.94
281.199	257.94
281.431	279.94
281.662	258.94
281.894	269.94
282.125	273.94
282.356	286.94
282.588	291.94
282.819	307.94
283.051	289.94
283.282	269.94
283.513	270.94
283.745	263.94
283.976	269.94
284.207	303.94
284.439	289.94
284.67	277.94
284.901	290.94
285.132	276.94
285.364	270.94
285.595	273.94
285.826	289.94
286.057	272.94
286.288	283.94
286.52	288.94
286.751	279.94
286.982	286.94
287.213	292.94
287.444	273.94
287.675	291.94
287.906	270.94
288.138	294.94
288.369	310.94
288.6	303.94
288.831	297.94
289.062	290.94
289.293	299.94
289.524	314.94
289.755	289.94
289.986	289.94
290.217	295.94
290.448	292.94
290.679	295.94
290.91	284.94
291.141	278.94
291.371	309.94
291.602	300.94
291.833	290.94
292.064	293.94
292.295	289.94
292.526	296.94
292.757	282.94
292.987	293.94
293.218	289.94
293.449	301.94
293.68	275.94
293.91	288.94
294.141	310.94
294.372	289.94
294.603	299.94
294.833	290.94
295.064	307.94
295.295	302.94
295.525	287.94
295.756	286.94
295.987	304.94
296.217	325.94
296.448	306.94
296.679	294.94
296.909	284.94
297.14	279.94
297.37	305.94
297.601	308.94
297.831	305.94
298.062	290.94
298.292	291.94
298.523	307.94
298.753	317.94
298.984	334.94
299.214	309.94
299.445	316.94
299.675	310.94
299.905	311.94
300.136	307.94
300.366	317.94
300.597	314.94
300.827	305.94
301.057	347.94
301.288	338.94
301.518	325.94
301.748	313.94
301.979	332.94
302.209	313.94
302.439	328.94
302.669	331.94
302.9	345.94
303.13	325.94
303.36	343.94
303.59	336.94
303.82	322.94
304.051	332.94
304.281	346.94
304.511	350.94
304.741	335.94
304.971	334.94
305.201	352.94
305.431	329.94
305.661	343.94
305.891	325.94
306.121	314.94
306.352	320.94
306.582	347.94
306.812	318.94
307.042	337.94
307.272	317.94
307.502	332.94
307.731	344.94
307.961	334.94
308.191	335.94
308.421	343.94
308.651	342.94
308.881	326.94
309.111	339.94
309.341	350.94
309.571	358.94
309.8	354.94
310.03	349.94
310.26	379.94
310.49	364.94
310.72	358.94
310.949	393.94
311.179	377.94
311.409	365.94
311.639	361.94
311.868	373.94
312.098	378.94
312.328	365.94
312.557	387.94
312.787	380.94
313.017	377.94
313.246	381.94
313.476	362.94
313.706	366.94
313.935	386.94
314.165	375.94
314.394	395.94
314.624	387.94
314.853	376.94
315.083	387.94
315.312	385.94
315.542	391.94
315.771	371.94
316.001	371.94
316.23	378.94
316.46	394.94
316.689	370.94
316.919	392.94
317.148	373.94
317.377	377.94
317.607	360.94
317.836	378.94
318.065	370.94
318.295	372.94
318.524	390.94
318.753	381.94
318.983	379.94
319.212	367.94
319.441	376.94
319.67	377.94
319.9	388.94
320.129	373.94
320.358	379.94
320.587	401.94
320.816	381.94
321.046	392.94
321.275	391.94
321.504	401.94
321.733	396.94
321.962	399.94
322.191	414.94
322.42	423.94
322.649	444.94
322.878	435.94
323.108	453.94
323.337	458.94
323.566	475.94
323.795	509.94
324.024	556.94
324.253	618.94
324.482	874.94
324.71	1325.94
324.939	2025.94
325.168	1761.94
325.397	901.94
325.626	609.94
325.855	511.94
326.084	484.94
326.313	466.94
326.542	476.94
326.77	521.94
326.999	605.94
327.228	809.94
327.457	1246.94
327.686	1541.94
327.914	997.94
328.143	688.94
328.372	610.94
328.6	555.94
328.829	546.94
329.058	557.94
329.287	566.94
329.515	498.94
329.744	482.94
329.972	486.94
330.201	515.94
330.43	563.94
330.658	558.94
330.887	577.94
331.115	567.94
331.344	518.94
331.572	473.94
331.801	491.94
332.03	499.94
332.258	471.94
332.486	450.94
332.715	441.94
332.943	442.94
333.172	463.94
333.4	468.94
333.629	478.94
333.857	493.94
334.085	489.94
334.314	501.94
334.542	531.94
334.771	554.94
334.999	493.94
335.227	474.94
335.455	466.94
335.684	478.94
335.912	443.94
336.14	462.94
336.369	454.94
336.597	458.94
336.825	470.94
337.053	446.94
337.281	452.94
337.51	456.94
337.738	430.94
337.966	451.94
338.194	460.94
338.422	450.94
338.65	455.94
338.878	445.94
339.106	429.94
339.334	448.94
339.562	427.94
339.79	422.94
340.018	426.94
340.246	429.94
340.474	457.94
340.702	435.94
340.93	450.94
341.158	428.94
341.386	428.94
341.614	433.94
341.842	441.94
342.07	455.94
342.298	425.94
342.526	426.94
342.754	415.94
342.981	425.94
343.209	427.94
343.437	451.94
343.665	423.94
343.893	473.94
344.12	459.94
344.348	462.94
344.576	473.94
344.804	459.94
345.031	453.94
345.259	462.94
345.487	467.94
345.714	437.94
345.942	460.94
346.17	419.94
346.397	439.94
346.625	435.94
346.853	434.94
347.08	418.94
347.308	418.94
347.535	441.94
347.763	420.94
347.99	437.94
348.218	421.94
348.445	427.94
348.673	445.94
348.9	422.94
349.128	433.94
349.355	420.94
349.583	415.94
349.81	427.94
350.037	409.94
350.265	404.94
350.492	429.94
350.72	425.94
350.947	423.94
351.174	439.94
351.402	438.94
351.629	462.94
351.856	433.94
352.083	421.94
352.311	425.94
352.538	439.94
352.765	430.94
352.992	445.94
353.22	439.94
353.447	442.94
353.674	426.94
353.901	402.94
354.128	424.94
354.355	409.94
354.583	407.94
354.81	396.94
355.037	391.94
355.264	402.94
355.491	385.94
355.718	420.94
355.945	390.94
356.172	406.94
356.399	419.94
356.626	410.94
356.853	382.94
357.08	405.94
357.307	406.94
357.534	406.94
357.761	410.94
357.988	401.94
358.215	393.94
358.441	413.94
358.668	405.94
358.895	421.94
359.122	413.94
359.349	421.94
359.576	427.94
359.802	432.94
360.029	439.94
360.256	496.94
360.483	486.94
360.709	437.94
360.936	434.94
361.163	425.94
361.39	437.94
361.616	425.94
361.843	425.94
362.07	427.94
362.296	443.94
362.523	420.94
362.749	443.94
362.976	409.94
363.203	422.94
363.429	428.94
363.656	411.94
363.882	422.94
364.109	429.94
364.335	421.94
364.562	417.94
364.788	414.94
365.015	417.94
365.241	421.94
365.468	421.94
365.694	413.94
365.92	415.94
366.147	415.94
366.373	415.94
366.599	438.94
366.826	415.94
367.052	412.94
367.278	419.94
367.505	432.94
367.731	429.94
367.957	432.94
368.184	439.94
368.41	450.94
368.636	430.94
368.862	442.94
369.089	434.94
369.315	433.94
369.541	433.94
369.767	421.94
369.993	420.94
370.219	429.94
370.445	433.94
370.672	403.94
370.898	434.94
371.124	427.94
371.35	429.94
371.576	419.94
371.802	416.94
372.028	426.94
372.254	424.94
372.48	433.94
372.706	419.94
372.932	439.94
373.158	451.94
373.384	436.94
373.61	446.94
373.835	425.94
374.061	413.94
374.287	450.94
374.513	426.94
374.739	427.94
374.965	445.94
375.191	460.94
375.416	433.94
375.642	459.94
375.868	433.94
376.094	432.94
376.319	420.94
376.545	417.94
376.771	425.94
376.997	426.94
377.222	428.94
377.448	423.94
377.674	427.94
377.899	426.94
378.125	445.94
378.35	421.94
378.576	433.94
378.802	421.94
379.027	425.94
379.253	436.94
379.478	437.94
379.704	432.94
379.929	435.94
380.155	425.94
380.38	431.94
380.606	415.94
380.831	431.94
381.057	428.94
381.282	419.94
381.507	415.94
381.733	418.94
381.958	427.94
382.184	438.94
382.409	439.94
382.634	439.94
382.86	434.94
383.085	444.94
383.31	445.94
383.535	436.94
383.761	449.94
383.986	456.94
384.211	466.94
384.436	463.94
384.662	478.94
384.887	482.94
385.112	449.94
385.337	484.94
385.562	497.94
385.787	468.94
386.013	482.94
386.238	490.94
386.463	483.94
386.688	485.94
386.913	470.94
387.138	466.94
387.363	490.94
387.588	484.94
387.813	491.94
388.038	489.94
388.263	466.94
388.488	477.94
388.713	481.94
388.938	473.94
389.163	485.94
389.387	500.94
389.612	467.94
389.837	492.94
390.062	487.94
390.287	475.94
390.512	486.94
390.736	471.94
390.961	472.94
391.186	499.94
391.411	481.94
391.636	486.94
391.86	510.94
392.085	501.94
392.31	520.94
392.534	508.94
392.759	494.94
392.984	497.94
393.208	504.94
393.433	508.94
393.658	517.94
393.882	493.94
394.107	499.94
394.331	503.94
394.556	476.94
394.78	502.94
395.005	492.94
395.229	511.94
395.454	507.94
395.678	504.94
395.903	540.94
396.127	536.94
396.352	532.94
396.576	524.94
396.801	492.94
397.025	518.94
397.249	526.94
397.474	511.94
397.698	510.94
397.922	516.94
398.147	565.94
398.371	575.94
398.595	551.94
398.82	545.94
399.044	563.94
399.268	581.94
399.492	617.94
399.717	666.94
399.941	681.94
400.165	710.94
400.389	722.94
400.613	643.94
400.837	602.94
401.062	585.94
401.286	551.94
401.51	582.94
401.734	560.94
401.958	565.94
402.182	562.94
402.406	581.94
402.63	590.94
402.854	594.94
403.078	569.94
403.302	558.94
403.526	576.94
403.75	564.94
403.974	586.94
404.198	569.94
404.422	577.94
404.645	618.94
404.869	609.94
405.093	633.94
405.317	677.94
405.541	715.94
405.765	651.94
405.988	612.94
406.212	623.94
406.436	619.94
406.66	646.94
406.883	629.94
407.107	658.94
407.331	677.94
407.555	771.94
407.778	744.94
408.002	717.94
408.226	652.94
408.449	669.94
408.673	620.94
408.896	672.94
409.12	704.94
409.344	674.94
409.567	634.94
409.791	618.94
410.014	606.94
410.238	578.94
410.461	578.94
410.685	610.94
410.908	625.94
411.132	644.94
411.355	707.94
411.578	629.94
411.802	605.94
412.025	600.94
412.249	581.94
412.472	597.94
412.695	645.94
412.919	661.94
413.142	597.94
413.365	598.94
413.589	572.94
413.812	568.94
414.035	586.94
414.258	554.94
414.482	556.94
414.705	553.94
414.928	545.94
415.151	546.94
415.374	554.94
415.597	567.94
415.821	553.94
416.044	533.94
416.267	564.94
416.49	555.94
416.713	541.94
416.936	545.94
417.159	552.94
417.382	555.94
417.605	553.94
417.828	553.94
418.051	574.94
418.274	557.94
418.497	540.94
418.72	579.94
418.943	554.94
419.166	546.94
419.389	601.94
419.611	600.94
419.834	584.94
420.057	596.94
420.28	578.94
420.503	560.94
420.726	565.94
420.948	588.94
421.171	633.94
421.394	649.94
421.617	594.94
421.839	543.94
422.062	586.94
422.285	585.94
422.507	658.94
422.73	762.94
422.953	691.94
423.175	630.94
423.398	622.94
423.621	619.94
423.843	608.94
424.066	602.94
424.288	618.94
424.511	641.94
424.733	689.94
424.956	775.94
425.178	741.94
425.401	730.94
425.623	761.94
425.846	655.94
426.068	626.94
426.291	621.94
426.513	587.94
426.735	647.94
426.958	653.94
427.18	738.94
427.402	885.94
427.625	950.94
427.847	837.94
428.069	731.94
428.292	653.94
428.514	614.94
428.736	569.94
428.958	605.94
429.181	562.94
429.403	567.94
429.625	597.94
429.847	611.94
430.069	669.94
430.292	670.94
430.514	599.94
430.736	569.94
430.958	542.94
431.18	551.94
431.402	549.94
431.624	546.94
431.846	531.94
432.068	544.94
432.29	551.94
432.512	539.94
432.734	571.94
432.956	566.94
433.178	565.94
433.4	554.94
433.622	545.94
433.844	551.94
434.066	528.94
434.287	563.94
434.509	542.94
434.731	573.94
434.953	574.94
435.175	575.94
435.397	596.94
435.618	613.94
435.84	626.94
436.062	751.94
436.284	818.94
436.505	685.94
436.727	643.94
436.949	593.94
437.17	600.94
437.392	571.94
437.614	578.94
437.835	625.94
438.057	695.94
438.278	824.94
438.5	793.94
438.721	904.94
438.943	871.94
439.165	689.94
439.386	636.94
439.608	631.94
439.829	612.94
440.05	648.94
440.272	708.94
440.493	643.94
440.715	608.94
440.936	565.94
441.158	566.94
441.379	571.94
441.6	601.94
441.822	626.94
442.043	652.94
442.264	725.94
442.486	781.94
442.707	680.94
442.928	630.94
443.149	656.94
443.371	665.94
443.592	712.94
443.813	802.94
444.034	871.94
444.255	715.94
444.476	659.94
444.698	653.94
444.919	626.94
445.14	704.94
445.361	667.94
445.582	639.94
445.803	735.94
446.024	830.94
446.245	846.94
446.466	761.94
446.687	689.94
446.908	615.94
447.129	577.94
447.35	568.94
447.571	572.94
447.792	559.94
448.013	562.94
448.234	567.94
448.455	638.94
448.675	733.94
448.896	873.94
449.117	743.94
449.338	712.94
449.559	799.94
449.779	938.94
450	745.94
450.221	615.94
450.442	573.94
450.662	570.94
450.883	573.94
451.104	565.94
451.324	551.94
451.545	538.94
451.766	515.94
451.986	529.94
452.207	522.94
452.428	507.94
452.648	504.94
452.869	514.94
453.089	532.94
453.31	515.94
453.53	523.94
453.751	497.94
453.971	511.94
454.192	516.94
454.412	513.94
454.633	500.94
454.853	526.94
455.073	490.94
455.294	530.94
455.514	599.94
455.734	601.94
455.955	522.94
456.175	475.94
456.395	511.94
456.616	471.94
456.836	493.94
457.056	471.94
457.276	463.94
457.497	497.94
457.717	482.94
457.937	476.94
458.157	483.94
458.377	506.94
458.598	519.94
458.818	576.94
459.038	649.94
459.258	693.94
459.478	586.94
459.698	565.94
459.918	532.94
460.138	552.94
460.358	570.94
460.578	552.94
460.798	590.94
461.018	579.94
461.238	575.94
461.458	559.94
461.678	568.94
461.898	567.94
462.118	552.94
462.338	567.94
462.558	598.94
462.777	580.94
462.997	618.94
463.217	617.94
463.437	634.94
463.657	639.94
463.876	598.94
464.096	592.94
464.316	603.94
464.536	602.94
464.755	610.94
464.975	612.94
465.195	623.94
465.414	673.94
465.634	650.94
465.854	585.94
466.073	587.94
466.293	553.94
466.512	526.94
466.732	538.94
466.951	538.94
467.171	517.94
467.391	532.94
467.61	545.94
467.829	572.94
468.049	533.94
468.268	535.94
468.488	517.94
468.707	501.94
468.927	543.94
469.146	509.94
469.365	516.94
469.585	499.94
469.804	525.94
470.023	528.94
470.243	523.94
470.462	545.94
470.681	572.94
470.901	535.94
471.12	547.94
471.339	556.94
471.558	535.94
471.777	530.94
471.997	530.94
472.216	546.94
472.435	570.94
472.654	544.94
472.873	563.94
473.092	533.94
473.311	548.94
473.53	542.94
473.749	531.94
473.968	573.94
474.187	669.94
474.406	699.94
474.625	599.94
474.844	566.94
475.063	517.94
475.282	561.94
475.501	535.94
475.72	555.94
475.939	561.94
476.158	556.94
476.377	551.94
476.596	533.94
476.814	568.94
477.033	572.94
477.252	563.94
477.471	571.94
477.69	578.94
477.908	596.94
478.127	594.94
478.346	583.94
478.564	588.94
478.783	593.94
479.002	598.94
479.22	638.94
479.439	634.94
479.658	637.94
479.876	658.94
480.095	665.94
480.313	687.94
480.532	650.94
480.751	663.94
480.969	682.94
481.188	710.94
481.406	737.94
481.624	680.94
481.843	655.94
482.061	643.94
482.28	649.94
482.498	627.94
482.717	634.94
482.935	630.94
483.153	623.94
483.372	633.94
483.59	639.94
483.808	614.94
484.027	645.94
484.245	628.94
484.463	620.94
484.681	649.94
484.9	651.94
485.118	647.94
485.336	654.94
485.554	671.94
485.772	667.94
485.99	634.94
486.209	648.94
486.427	646.94
486.645	680.94
486.863	667.94
487.081	664.94
487.299	670.94
487.517	672.94
487.735	666.94
487.953	660.94
488.171	661.94
488.389	670.94
488.607	659.94
488.825	689.94
489.043	669.94
489.261	674.94
489.479	659.94
489.696	677.94
489.914	693.94
490.132	704.94
490.35	695.94
490.568	713.94
490.786	702.94
491.003	733.94
491.221	738.94
491.439	730.94
491.657	729.94
491.874	770.94
492.092	737.94
492.31	756.94
492.527	785.94
492.745	751.94
492.963	799.94
493.18	784.94
493.398	769.94
493.615	803.94
493.833	778.94
494.05	812.94
494.268	810.94
494.485	811.94
494.703	803.94
494.92	772.94
495.138	773.94
495.355	815.94
495.573	813.94
495.79	780.94
496.008	798.94
496.225	803.94
496.442	797.94
496.66	808.94
496.877	784.94
497.094	823.94
497.312	854.94
497.529	824.94
497.746	834.94
497.963	836.94
498.181	873.94
498.398	885.94
498.615	902.94
498.832	912.94
499.049	937.94
499.267	949.94
499.484	1003.94
499.701	1040.94
499.918	1068.94
500.135	1107.94
500.352	1170.94
500.569	1195.94
500.786	1193.94
501.003	1187.94
501.22	1146.94
501.437	1110.94
501.654	1063.94
