Data from 1966.PennyLincolnUp.Lamp.En5.5.200Scan.071719.P1._HRD10591_14-13-43-914.txt Node
Date: Thu Jul 18 14:13:43 EDT 2019
User: cochatt
Spectrometer: HR+D1059
Trigger mode: 1
Integration Time (sec): 1.000000E-1
Scans to average: 1
Electric dark correction enabled: true
Nonlinearity correction enabled: false
Boxcar width: 0
XAxis mode: Wavelengths
Number of Pixels in Spectrum: 2048
>>>>>Begin Spectral Data<<<<<
223.165	-21.75
223.4	-21.75
223.635	-21.75
223.869	-15.75
224.104	-13.75
224.338	-21.75
224.573	-21.75
224.808	-9.75
225.042	-20.75
225.277	12.25
225.511	6.25
225.746	5.25
225.98	3.25
226.215	18.25
226.449	25.25
226.683	16.25
226.918	21.25
227.152	17.25
227.387	26.25
227.621	41.25
227.856	37.25
228.09	48.25
228.324	63.25
228.559	55.25
228.793	49.25
229.027	81.25
229.262	85.25
229.496	83.25
229.73	95.25
229.964	104.25
230.199	79.25
230.433	102.25
230.667	95.25
230.901	86.25
231.136	78.25
231.37	79.25
231.604	107.25
231.838	81.25
232.072	101.25
232.306	97.25
232.541	103.25
232.775	89.25
233.009	83.25
233.243	95.25
233.477	101.25
233.711	91.25
233.945	95.25
234.179	104.25
234.413	99.25
234.647	88.25
234.881	96.25
235.115	101.25
235.349	99.25
235.583	94.25
235.817	85.25
236.051	104.25
236.285	100.25
236.519	97.25
236.753	103.25
236.987	104.25
237.221	120.25
237.455	145.25
237.689	129.25
237.922	109.25
238.156	98.25
238.39	97.25
238.624	98.25
238.858	105.25
239.091	90.25
239.325	95.25
239.559	90.25
239.793	106.25
240.027	76.25
240.26	91.25
240.494	120.25
240.728	106.25
240.961	98.25
241.195	99.25
241.429	106.25
241.662	100.25
241.896	113.25
242.13	98.25
242.363	96.25
242.597	86.25
242.83	102.25
243.064	112.25
243.298	101.25
243.531	104.25
243.765	102.25
243.998	102.25
244.232	96.25
244.465	101.25
244.699	100.25
244.932	92.25
245.166	116.25
245.399	115.25
245.633	108.25
245.866	103.25
246.099	97.25
246.333	111.25
246.566	109.25
246.8	101.25
247.033	109.25
247.266	97.25
247.5	88.25
247.733	101.25
247.966	116.25
248.2	115.25
248.433	124.25
248.666	124.25
248.899	112.25
249.133	133.25
249.366	139.25
249.599	143.25
249.832	115.25
250.066	126.25
250.299	124.25
250.532	120.25
250.765	148.25
250.998	135.25
251.231	141.25
251.465	125.25
251.698	144.25
251.931	123.25
252.164	125.25
252.397	125.25
252.63	120.25
252.863	132.25
253.096	127.25
253.329	137.25
253.562	142.25
253.795	133.25
254.028	143.25
254.261	142.25
254.494	144.25
254.727	146.25
254.96	151.25
255.193	155.25
255.426	136.25
255.659	137.25
255.892	159.25
256.124	156.25
256.357	148.25
256.59	151.25
256.823	133.25
257.056	141.25
257.289	120.25
257.521	143.25
257.754	141.25
257.987	145.25
258.22	124.25
258.452	131.25
258.685	134.25
258.918	135.25
259.151	135.25
259.383	142.25
259.616	124.25
259.849	147.25
260.081	149.25
260.314	162.25
260.547	155.25
260.779	151.25
261.012	148.25
261.244	147.25
261.477	131.25
261.71	133.25
261.942	145.25
262.175	146.25
262.407	143.25
262.64	107.25
262.872	136.25
263.105	137.25
263.337	137.25
263.57	115.25
263.802	135.25
264.035	122.25
264.267	129.25
264.499	133.25
264.732	127.25
264.964	135.25
265.197	141.25
265.429	119.25
265.661	129.25
265.894	135.25
266.126	144.25
266.358	134.25
266.591	139.25
266.823	141.25
267.055	131.25
267.287	157.25
267.52	132.25
267.752	137.25
267.984	142.25
268.216	140.25
268.448	159.25
268.681	142.25
268.913	155.25
269.145	163.25
269.377	169.25
269.609	164.25
269.841	167.25
270.073	160.25
270.306	187.25
270.538	187.25
270.77	164.25
271.002	183.25
271.234	179.25
271.466	162.25
271.698	182.25
271.93	179.25
272.162	170.25
272.394	182.25
272.626	176.25
272.858	155.25
273.09	169.25
273.322	155.25
273.553	169.25
273.785	155.25
274.017	160.25
274.249	161.25
274.481	152.25
274.713	160.25
274.945	155.25
275.176	163.25
275.408	171.25
275.64	159.25
275.872	151.25
276.104	164.25
276.335	159.25
276.567	176.25
276.799	187.25
277.031	170.25
277.262	187.25
277.494	179.25
277.726	175.25
277.957	160.25
278.189	147.25
278.421	160.25
278.652	171.25
278.884	172.25
279.115	168.25
279.347	149.25
279.579	155.25
279.81	136.25
280.042	145.25
280.273	143.25
280.505	148.25
280.736	145.25
280.968	162.25
281.199	153.25
281.431	164.25
281.662	155.25
281.894	159.25
282.125	165.25
282.356	172.25
282.588	170.25
282.819	170.25
283.051	161.25
283.282	155.25
283.513	173.25
283.745	161.25
283.976	167.25
284.207	156.25
284.439	183.25
284.67	158.25
284.901	159.25
285.132	167.25
285.364	170.25
285.595	174.25
285.826	163.25
286.057	163.25
286.288	177.25
286.52	171.25
286.751	145.25
286.982	175.25
287.213	156.25
287.444	162.25
287.675	172.25
287.906	174.25
288.138	156.25
288.369	173.25
288.6	161.25
288.831	138.25
289.062	166.25
289.293	156.25
289.524	161.25
289.755	188.25
289.986	174.25
290.217	162.25
290.448	158.25
290.679	165.25
290.91	169.25
291.141	157.25
291.371	164.25
291.602	165.25
291.833	167.25
292.064	173.25
292.295	160.25
292.526	174.25
292.757	173.25
292.987	165.25
293.218	166.25
293.449	163.25
293.68	167.25
293.91	178.25
294.141	164.25
294.372	179.25
294.603	166.25
294.833	167.25
295.064	179.25
295.295	171.25
295.525	152.25
295.756	179.25
295.987	181.25
296.217	172.25
296.448	180.25
296.679	174.25
296.909	167.25
297.14	186.25
297.37	185.25
297.601	171.25
297.831	169.25
298.062	153.25
298.292	161.25
298.523	167.25
298.753	180.25
298.984	175.25
299.214	167.25
299.445	174.25
299.675	168.25
299.905	197.25
300.136	199.25
300.366	172.25
300.597	177.25
300.827	181.25
301.057	196.25
301.288	179.25
301.518	190.25
301.748	183.25
301.979	184.25
302.209	171.25
302.439	183.25
302.669	168.25
302.9	183.25
303.13	192.25
303.36	179.25
303.59	187.25
303.82	181.25
304.051	173.25
304.281	182.25
304.511	175.25
304.741	161.25
304.971	180.25
305.201	177.25
305.431	183.25
305.661	204.25
305.891	187.25
306.121	171.25
306.352	184.25
306.582	199.25
306.812	179.25
307.042	187.25
307.272	167.25
307.502	180.25
307.731	207.25
307.961	190.25
308.191	186.25
308.421	177.25
308.651	194.25
308.881	186.25
309.111	194.25
309.341	193.25
309.571	202.25
309.8	208.25
310.03	200.25
310.26	207.25
310.49	192.25
310.72	211.25
310.949	241.25
311.179	219.25
311.409	196.25
311.639	185.25
311.868	220.25
312.098	206.25
312.328	208.25
312.557	222.25
312.787	236.25
313.017	218.25
313.246	222.25
313.476	215.25
313.706	203.25
313.935	206.25
314.165	221.25
314.394	218.25
314.624	214.25
314.853	213.25
315.083	218.25
315.312	207.25
315.542	213.25
315.771	208.25
316.001	203.25
316.23	198.25
316.46	202.25
316.689	207.25
316.919	209.25
317.148	220.25
317.377	208.25
317.607	220.25
317.836	208.25
318.065	213.25
318.295	224.25
318.524	190.25
318.753	191.25
318.983	215.25
319.212	194.25
319.441	197.25
319.67	205.25
319.9	209.25
320.129	204.25
320.358	207.25
320.587	209.25
320.816	199.25
321.046	214.25
321.275	224.25
321.504	220.25
321.733	211.25
321.962	217.25
322.191	235.25
322.42	224.25
322.649	232.25
322.878	228.25
323.108	243.25
323.337	247.25
323.566	252.25
323.795	281.25
324.024	301.25
324.253	355.25
324.482	538.25
324.71	774.25
324.939	992.25
325.168	815.25
325.397	422.25
325.626	299.25
325.855	265.25
326.084	270.25
326.313	255.25
326.542	268.25
326.77	280.25
326.999	328.25
327.228	448.25
327.457	662.25
327.686	760.25
327.914	491.25
328.143	341.25
328.372	322.25
328.6	296.25
328.829	271.25
329.058	299.25
329.287	330.25
329.515	302.25
329.744	278.25
329.972	281.25
330.201	277.25
330.43	292.25
330.658	319.25
330.887	333.25
331.115	307.25
331.344	294.25
331.572	255.25
331.801	251.25
332.03	249.25
332.258	240.25
332.486	249.25
332.715	241.25
332.943	244.25
333.172	243.25
333.4	253.25
333.629	236.25
333.857	261.25
334.085	267.25
334.314	297.25
334.542	299.25
334.771	293.25
334.999	272.25
335.227	243.25
335.455	251.25
335.684	245.25
335.912	225.25
336.14	230.25
336.369	231.25
336.597	228.25
336.825	230.25
337.053	223.25
337.281	230.25
337.51	219.25
337.738	235.25
337.966	241.25
338.194	237.25
338.422	248.25
338.65	233.25
338.878	246.25
339.106	232.25
339.334	229.25
339.562	213.25
339.79	224.25
340.018	211.25
340.246	238.25
340.474	227.25
340.702	203.25
340.93	223.25
341.158	225.25
341.386	231.25
341.614	228.25
341.842	240.25
342.07	231.25
342.298	223.25
342.526	215.25
342.754	225.25
342.981	215.25
343.209	224.25
343.437	219.25
343.665	223.25
343.893	232.25
344.12	232.25
344.348	223.25
344.576	249.25
344.804	224.25
345.031	220.25
345.259	259.25
345.487	228.25
345.714	221.25
345.942	206.25
346.17	230.25
346.397	221.25
346.625	213.25
346.853	216.25
347.08	224.25
347.308	224.25
347.535	229.25
347.763	232.25
347.99	236.25
348.218	221.25
348.445	214.25
348.673	225.25
348.9	208.25
349.128	215.25
349.355	208.25
349.583	213.25
349.81	196.25
350.037	217.25
350.265	198.25
350.492	207.25
350.72	196.25
350.947	224.25
351.174	228.25
351.402	213.25
351.629	219.25
351.856	228.25
352.083	214.25
352.311	233.25
352.538	232.25
352.765	231.25
352.992	237.25
353.22	229.25
353.447	225.25
353.674	209.25
353.901	204.25
354.128	207.25
354.355	209.25
354.583	191.25
354.81	199.25
355.037	200.25
355.264	210.25
355.491	196.25
355.718	201.25
355.945	201.25
356.172	209.25
356.399	189.25
356.626	192.25
356.853	205.25
357.08	193.25
357.307	215.25
357.534	185.25
357.761	200.25
357.988	200.25
358.215	213.25
358.441	204.25
358.668	214.25
358.895	217.25
359.122	206.25
359.349	208.25
359.576	212.25
359.802	227.25
360.029	235.25
360.256	252.25
360.483	250.25
360.709	209.25
360.936	205.25
361.163	213.25
361.39	212.25
361.616	231.25
361.843	211.25
362.07	212.25
362.296	238.25
362.523	215.25
362.749	216.25
362.976	219.25
363.203	196.25
363.429	206.25
363.656	194.25
363.882	220.25
364.109	220.25
364.335	214.25
364.562	208.25
364.788	207.25
365.015	213.25
365.241	219.25
365.468	208.25
365.694	217.25
365.92	210.25
366.147	207.25
366.373	203.25
366.599	220.25
366.826	202.25
367.052	203.25
367.278	208.25
367.505	209.25
367.731	211.25
367.957	198.25
368.184	203.25
368.41	219.25
368.636	219.25
368.862	219.25
369.089	212.25
369.315	209.25
369.541	214.25
369.767	191.25
369.993	201.25
370.219	188.25
370.445	206.25
370.672	196.25
370.898	204.25
371.124	204.25
371.35	194.25
371.576	211.25
371.802	202.25
372.028	218.25
372.254	208.25
372.48	205.25
372.706	220.25
372.932	213.25
373.158	201.25
373.384	207.25
373.61	204.25
373.835	215.25
374.061	191.25
374.287	195.25
374.513	205.25
374.739	211.25
374.965	206.25
375.191	215.25
375.416	210.25
375.642	227.25
375.868	203.25
376.094	213.25
376.319	220.25
376.545	206.25
376.771	198.25
376.997	199.25
377.222	205.25
377.448	202.25
377.674	199.25
377.899	196.25
378.125	197.25
378.35	207.25
378.576	199.25
378.802	209.25
379.027	217.25
379.253	208.25
379.478	204.25
379.704	220.25
379.929	211.25
380.155	221.25
380.38	186.25
380.606	210.25
380.831	219.25
381.057	225.25
381.282	200.25
381.507	188.25
381.733	212.25
381.958	200.25
382.184	221.25
382.409	205.25
382.634	189.25
382.86	205.25
383.085	207.25
383.31	200.25
383.535	218.25
383.761	215.25
383.986	217.25
384.211	207.25
384.436	207.25
384.662	221.25
384.887	218.25
385.112	222.25
385.337	215.25
385.562	233.25
385.787	211.25
386.013	250.25
386.238	223.25
386.463	228.25
386.688	219.25
386.913	229.25
387.138	222.25
387.363	216.25
387.588	203.25
387.813	221.25
388.038	222.25
388.263	231.25
388.488	218.25
388.713	215.25
388.938	212.25
389.163	215.25
389.387	220.25
389.612	200.25
389.837	220.25
390.062	229.25
390.287	217.25
390.512	219.25
390.736	209.25
390.961	214.25
391.186	239.25
391.411	215.25
391.636	223.25
391.86	214.25
392.085	227.25
392.31	221.25
392.534	213.25
392.759	214.25
392.984	210.25
393.208	212.25
393.433	233.25
393.658	224.25
393.882	218.25
394.107	211.25
394.331	230.25
394.556	219.25
394.78	211.25
395.005	215.25
395.229	206.25
395.454	211.25
395.678	227.25
395.903	226.25
396.127	243.25
396.352	240.25
396.576	223.25
396.801	238.25
397.025	229.25
397.249	220.25
397.474	233.25
397.698	235.25
397.922	240.25
398.147	265.25
398.371	259.25
398.595	234.25
398.82	235.25
399.044	237.25
399.268	267.25
399.492	262.25
399.717	277.25
399.941	287.25
400.165	303.25
400.389	296.25
400.613	286.25
400.837	273.25
401.062	245.25
401.286	254.25
401.51	245.25
401.734	244.25
401.958	247.25
402.182	265.25
402.406	277.25
402.63	252.25
402.854	265.25
403.078	250.25
403.302	273.25
403.526	268.25
403.75	244.25
403.974	261.25
404.198	275.25
404.422	269.25
404.645	291.25
404.869	284.25
405.093	264.25
405.317	296.25
405.541	297.25
405.765	283.25
405.988	267.25
406.212	283.25
406.436	295.25
406.66	304.25
406.883	290.25
407.107	295.25
407.331	304.25
407.555	330.25
407.778	326.25
408.002	280.25
408.226	297.25
408.449	283.25
408.673	283.25
408.896	297.25
409.12	300.25
409.344	292.25
409.567	273.25
409.791	269.25
410.014	280.25
410.238	240.25
410.461	257.25
410.685	269.25
410.908	269.25
411.132	284.25
411.355	303.25
411.578	264.25
411.802	267.25
412.025	257.25
412.249	267.25
412.472	267.25
412.695	289.25
412.919	287.25
413.142	267.25
413.365	260.25
413.589	244.25
413.812	254.25
414.035	244.25
414.258	247.25
414.482	272.25
414.705	240.25
414.928	236.25
415.151	255.25
415.374	243.25
415.597	257.25
415.821	228.25
416.044	248.25
416.267	257.25
416.49	269.25
416.713	266.25
416.936	243.25
417.159	253.25
417.382	263.25
417.605	247.25
417.828	257.25
418.051	278.25
418.274	252.25
418.497	238.25
418.72	262.25
418.943	251.25
419.166	231.25
419.389	267.25
419.611	281.25
419.834	277.25
420.057	264.25
420.28	272.25
420.503	263.25
420.726	258.25
420.948	263.25
421.171	291.25
421.394	293.25
421.617	249.25
421.839	264.25
422.062	271.25
422.285	261.25
422.507	300.25
422.73	335.25
422.953	320.25
423.175	286.25
423.398	254.25
423.621	267.25
423.843	278.25
424.066	293.25
424.288	292.25
424.511	281.25
424.733	301.25
424.956	342.25
425.178	330.25
425.401	327.25
425.623	321.25
425.846	279.25
426.068	268.25
426.291	266.25
426.513	270.25
426.735	268.25
426.958	293.25
427.18	332.25
427.402	377.25
427.625	423.25
427.847	383.25
428.069	328.25
428.292	284.25
428.514	259.25
428.736	271.25
428.958	255.25
429.181	272.25
429.403	250.25
429.625	250.25
429.847	293.25
430.069	300.25
430.292	285.25
430.514	260.25
430.736	256.25
430.958	268.25
431.18	238.25
431.402	245.25
431.624	220.25
431.846	248.25
432.068	247.25
432.29	224.25
432.512	244.25
432.734	245.25
432.956	262.25
433.178	259.25
433.4	245.25
433.622	265.25
433.844	246.25
434.066	248.25
434.287	238.25
434.509	235.25
434.731	267.25
434.953	255.25
435.175	265.25
435.397	293.25
435.618	273.25
435.84	289.25
436.062	339.25
436.284	344.25
436.505	311.25
436.727	273.25
436.949	277.25
437.17	250.25
437.392	260.25
437.614	263.25
437.835	283.25
438.057	328.25
438.278	355.25
438.5	373.25
438.721	377.25
438.943	336.25
439.165	286.25
439.386	281.25
439.608	287.25
439.829	277.25
440.05	295.25
440.272	321.25
440.493	312.25
440.715	265.25
440.936	279.25
441.158	287.25
441.379	237.25
441.6	273.25
441.822	285.25
442.043	295.25
442.264	320.25
442.486	332.25
442.707	287.25
442.928	278.25
443.149	304.25
443.371	291.25
443.592	306.25
443.813	344.25
444.034	355.25
444.255	299.25
444.476	263.25
444.698	281.25
444.919	271.25
445.14	359.25
445.361	326.25
445.582	306.25
445.803	322.25
446.024	385.25
446.245	363.25
446.466	349.25
446.687	279.25
446.908	281.25
447.129	258.25
447.35	249.25
447.571	270.25
447.792	254.25
448.013	243.25
448.234	265.25
448.455	277.25
448.675	339.25
448.896	376.25
449.117	322.25
449.338	310.25
449.559	371.25
449.779	389.25
450	312.25
450.221	255.25
450.442	250.25
450.662	255.25
450.883	255.25
451.104	259.25
451.324	260.25
451.545	232.25
451.766	239.25
451.986	246.25
452.207	235.25
452.428	226.25
452.648	232.25
452.869	229.25
453.089	238.25
453.31	264.25
453.53	237.25
453.751	237.25
453.971	224.25
454.192	245.25
454.412	247.25
454.633	240.25
454.853	225.25
455.073	221.25
455.294	243.25
455.514	292.25
455.734	265.25
455.955	241.25
456.175	223.25
456.395	220.25
456.616	220.25
456.836	216.25
457.056	205.25
457.276	217.25
457.497	218.25
457.717	214.25
457.937	217.25
458.157	214.25
458.377	230.25
458.598	224.25
458.818	270.25
459.038	312.25
459.258	315.25
459.478	267.25
459.698	253.25
459.918	239.25
460.138	223.25
460.358	254.25
460.578	228.25
460.798	242.25
461.018	251.25
461.238	246.25
461.458	235.25
461.678	241.25
461.898	259.25
462.118	245.25
462.338	265.25
462.558	259.25
462.777	236.25
462.997	259.25
463.217	275.25
463.437	283.25
463.657	281.25
463.876	271.25
464.096	256.25
464.316	272.25
464.536	272.25
464.755	266.25
464.975	263.25
465.195	305.25
465.414	350.25
465.634	277.25
465.854	269.25
466.073	248.25
466.293	227.25
466.512	225.25
466.732	239.25
466.951	234.25
467.171	255.25
467.391	229.25
467.61	255.25
467.829	257.25
468.049	248.25
468.268	249.25
468.488	248.25
468.707	231.25
468.927	225.25
469.146	230.25
469.365	239.25
469.585	229.25
469.804	226.25
470.023	246.25
470.243	246.25
470.462	246.25
470.681	266.25
470.901	238.25
471.12	222.25
471.339	245.25
471.558	247.25
471.777	239.25
471.997	243.25
472.216	251.25
472.435	266.25
472.654	270.25
472.873	249.25
473.092	255.25
473.311	221.25
473.53	238.25
473.749	225.25
473.968	254.25
474.187	315.25
474.406	319.25
474.625	266.25
474.844	248.25
475.063	240.25
475.282	236.25
475.501	254.25
475.72	251.25
475.939	244.25
476.158	226.25
476.377	262.25
476.596	255.25
476.814	255.25
477.033	257.25
477.252	251.25
477.471	257.25
477.69	274.25
477.908	265.25
478.127	263.25
478.346	271.25
478.564	245.25
478.783	252.25
479.002	275.25
479.22	273.25
479.439	295.25
479.658	291.25
479.876	262.25
480.095	298.25
480.313	302.25
480.532	299.25
480.751	295.25
480.969	288.25
481.188	345.25
481.406	380.25
481.624	296.25
481.843	290.25
482.061	261.25
482.28	271.25
482.498	253.25
482.717	273.25
482.935	265.25
483.153	280.25
483.372	288.25
483.59	271.25
483.808	285.25
484.027	273.25
484.245	267.25
484.463	277.25
484.681	263.25
484.9	275.25
485.118	273.25
485.336	263.25
485.554	286.25
485.772	284.25
485.99	272.25
486.209	279.25
486.427	290.25
486.645	285.25
486.863	300.25
487.081	298.25
487.299	293.25
487.517	286.25
487.735	307.25
487.953	287.25
488.171	293.25
488.389	299.25
488.607	300.25
488.825	287.25
489.043	288.25
489.261	287.25
489.479	306.25
489.696	307.25
489.914	279.25
490.132	283.25
490.35	320.25
490.568	298.25
490.786	315.25
491.003	320.25
491.221	333.25
491.439	339.25
491.657	328.25
491.874	335.25
492.092	350.25
492.31	338.25
492.527	339.25
492.745	348.25
492.963	359.25
493.18	353.25
493.398	346.25
493.615	368.25
493.833	345.25
494.05	350.25
494.268	341.25
494.485	336.25
494.703	354.25
494.92	347.25
495.138	345.25
495.355	343.25
495.573	344.25
495.79	348.25
496.008	368.25
496.225	345.25
496.442	352.25
496.66	348.25
496.877	340.25
497.094	330.25
497.312	358.25
497.529	340.25
497.746	331.25
497.963	345.25
498.181	335.25
498.398	355.25
498.615	366.25
498.832	382.25
499.049	389.25
499.267	380.25
499.484	392.25
499.701	399.25
499.918	415.25
500.135	405.25
500.352	449.25
500.569	440.25
500.786	439.25
501.003	455.25
501.22	445.25
501.437	406.25
501.654	438.25
501.871	407.25
502.088	410.25
502.305	380.25
502.522	372.25
