Data from 1966.PennyLincolnUp.Lamp.En5.5.200Scan.071719.P1.Scan2.head_HRD10591_14-17-18-098.txt Node
Date: Thu Jul 18 14:17:18 EDT 2019
User: cochatt
Spectrometer: HR+D1059
Trigger mode: 1
Integration Time (sec): 1.000000E-1
Scans to average: 1
Electric dark correction enabled: true
Nonlinearity correction enabled: false
Boxcar width: 0
XAxis mode: Wavelengths
Number of Pixels in Spectrum: 2048
>>>>>Begin Spectral Data<<<<<
223.165	-12.75
223.4	-12.75
223.635	-12.75
223.869	-14.75
224.104	-3.75
224.338	-16.75
224.573	5.25
224.808	-25.75
225.042	-16.75
225.277	-14.75
225.511	-4.75
225.746	7.25
225.98	5.25
226.215	4.25
226.449	29.25
226.683	14.25
226.918	25.25
227.152	19.25
227.387	36.25
227.621	41.25
227.856	47.25
228.09	45.25
228.324	39.25
228.559	61.25
228.793	79.25
229.027	80.25
229.262	106.25
229.496	111.25
229.73	121.25
229.964	151.25
230.199	125.25
230.433	129.25
230.667	135.25
230.901	119.25
231.136	108.25
231.37	124.25
231.604	108.25
231.838	104.25
232.072	94.25
232.306	107.25
232.541	109.25
232.775	110.25
233.009	111.25
233.243	108.25
233.477	120.25
233.711	122.25
233.945	112.25
234.179	111.25
234.413	119.25
234.647	122.25
234.881	107.25
235.115	115.25
235.349	126.25
235.583	123.25
235.817	123.25
236.051	126.25
236.285	139.25
236.519	127.25
236.753	142.25
236.987	151.25
237.221	166.25
237.455	241.25
237.689	200.25
237.922	129.25
238.156	141.25
238.39	133.25
238.624	127.25
238.858	126.25
239.091	118.25
239.325	126.25
239.559	117.25
239.793	134.25
240.027	145.25
240.26	136.25
240.494	135.25
240.728	147.25
240.961	152.25
241.195	145.25
241.429	128.25
241.662	135.25
241.896	135.25
242.13	118.25
242.363	129.25
242.597	135.25
242.83	150.25
243.064	153.25
243.298	144.25
243.531	152.25
243.765	145.25
243.998	143.25
244.232	144.25
244.465	150.25
244.699	140.25
244.932	144.25
245.166	143.25
245.399	150.25
245.633	158.25
245.866	145.25
246.099	152.25
246.333	148.25
246.566	152.25
246.8	152.25
247.033	160.25
247.266	143.25
247.5	160.25
247.733	159.25
247.966	178.25
248.2	175.25
248.433	171.25
248.666	175.25
248.899	192.25
249.133	172.25
249.366	201.25
249.599	201.25
249.832	183.25
250.066	183.25
250.299	169.25
250.532	184.25
250.765	200.25
250.998	215.25
251.231	205.25
251.465	233.25
251.698	205.25
251.931	206.25
252.164	197.25
252.397	198.25
252.63	201.25
252.863	205.25
253.096	225.25
253.329	212.25
253.562	229.25
253.795	218.25
254.028	208.25
254.261	209.25
254.494	236.25
254.727	253.25
254.96	265.25
255.193	239.25
255.426	251.25
255.659	232.25
255.892	234.25
256.124	216.25
256.357	235.25
256.59	216.25
256.823	201.25
257.056	227.25
257.289	230.25
257.521	211.25
257.754	213.25
257.987	192.25
258.22	207.25
258.452	205.25
258.685	212.25
258.918	200.25
259.151	220.25
259.383	201.25
259.616	220.25
259.849	204.25
260.081	217.25
260.314	236.25
260.547	245.25
260.779	228.25
261.012	232.25
261.244	202.25
261.477	217.25
261.71	223.25
261.942	225.25
262.175	219.25
262.407	226.25
262.64	213.25
262.872	225.25
263.105	213.25
263.337	203.25
263.57	225.25
263.802	224.25
264.035	217.25
264.267	214.25
264.499	205.25
264.732	201.25
264.964	211.25
265.197	210.25
265.429	206.25
265.661	214.25
265.894	227.25
266.126	205.25
266.358	212.25
266.591	213.25
266.823	208.25
267.055	233.25
267.287	218.25
267.52	227.25
267.752	208.25
267.984	219.25
268.216	224.25
268.448	224.25
268.681	224.25
268.913	250.25
269.145	267.25
269.377	273.25
269.609	285.25
269.841	256.25
270.073	263.25
270.306	270.25
270.538	298.25
270.77	295.25
271.002	287.25
271.234	274.25
271.466	303.25
271.698	301.25
271.93	303.25
272.162	316.25
272.394	320.25
272.626	299.25
272.858	267.25
273.09	276.25
273.322	247.25
273.553	245.25
273.785	253.25
274.017	246.25
274.249	272.25
274.481	271.25
274.713	274.25
274.945	265.25
275.176	259.25
275.408	250.25
275.64	255.25
275.872	252.25
276.104	254.25
276.335	249.25
276.567	270.25
276.799	275.25
277.031	287.25
277.262	299.25
277.494	301.25
277.726	297.25
277.957	302.25
278.189	286.25
278.421	263.25
278.652	270.25
278.884	276.25
279.115	277.25
279.347	277.25
279.579	271.25
279.81	281.25
280.042	274.25
280.273	288.25
280.505	278.25
280.736	265.25
280.968	254.25
281.199	271.25
281.431	277.25
281.662	266.25
281.894	261.25
282.125	289.25
282.356	285.25
282.588	294.25
282.819	294.25
283.051	279.25
283.282	279.25
283.513	273.25
283.745	271.25
283.976	273.25
284.207	288.25
284.439	276.25
284.67	258.25
284.901	268.25
285.132	275.25
285.364	267.25
285.595	282.25
285.826	285.25
286.057	296.25
286.288	274.25
286.52	277.25
286.751	280.25
286.982	276.25
287.213	280.25
287.444	269.25
287.675	288.25
287.906	302.25
288.138	299.25
288.369	292.25
288.6	283.25
288.831	288.25
289.062	304.25
289.293	302.25
289.524	287.25
289.755	273.25
289.986	278.25
290.217	266.25
290.448	295.25
290.679	311.25
290.91	289.25
291.141	293.25
291.371	261.25
291.602	283.25
291.833	281.25
292.064	306.25
292.295	289.25
292.526	309.25
292.757	290.25
292.987	299.25
293.218	273.25
293.449	284.25
293.68	305.25
293.91	277.25
294.141	291.25
294.372	282.25
294.603	289.25
294.833	281.25
295.064	293.25
295.295	311.25
295.525	326.25
295.756	283.25
295.987	302.25
296.217	308.25
296.448	325.25
296.679	301.25
296.909	299.25
297.14	289.25
297.37	303.25
297.601	304.25
297.831	319.25
298.062	305.25
298.292	301.25
298.523	311.25
298.753	323.25
298.984	297.25
299.214	320.25
299.445	301.25
299.675	312.25
299.905	315.25
300.136	317.25
300.366	326.25
300.597	310.25
300.827	314.25
301.057	317.25
301.288	327.25
301.518	327.25
301.748	328.25
301.979	316.25
302.209	327.25
302.439	333.25
302.669	328.25
302.9	333.25
303.13	324.25
303.36	320.25
303.59	337.25
303.82	338.25
304.051	331.25
304.281	332.25
304.511	315.25
304.741	345.25
304.971	324.25
305.201	323.25
305.431	332.25
305.661	327.25
305.891	310.25
306.121	340.25
306.352	332.25
306.582	336.25
306.812	317.25
307.042	336.25
307.272	333.25
307.502	326.25
307.731	326.25
307.961	333.25
308.191	337.25
308.421	350.25
308.651	327.25
308.881	343.25
309.111	340.25
309.341	333.25
309.571	355.25
309.8	371.25
310.03	369.25
310.26	367.25
310.49	349.25
310.72	371.25
310.949	381.25
311.179	383.25
311.409	375.25
311.639	379.25
311.868	363.25
312.098	372.25
312.328	368.25
312.557	374.25
312.787	398.25
313.017	395.25
313.246	369.25
313.476	370.25
313.706	383.25
313.935	376.25
314.165	387.25
314.394	403.25
314.624	397.25
314.853	378.25
315.083	360.25
315.312	357.25
315.542	377.25
315.771	358.25
316.001	373.25
316.23	367.25
316.46	352.25
316.689	379.25
316.919	375.25
317.148	403.25
317.377	396.25
317.607	394.25
317.836	376.25
318.065	379.25
318.295	387.25
318.524	351.25
318.753	372.25
318.983	361.25
319.212	379.25
319.441	397.25
319.67	383.25
319.9	383.25
320.129	373.25
320.358	379.25
320.587	401.25
320.816	387.25
321.046	395.25
321.275	412.25
321.504	376.25
321.733	394.25
321.962	401.25
322.191	411.25
322.42	416.25
322.649	441.25
322.878	424.25
323.108	440.25
323.337	448.25
323.566	459.25
323.795	480.25
324.024	525.25
324.253	631.25
324.482	867.25
324.71	1323.25
324.939	1987.25
325.168	1719.25
325.397	868.25
325.626	590.25
325.855	515.25
326.084	471.25
326.313	466.25
326.542	470.25
326.77	504.25
326.999	601.25
327.228	774.25
327.457	1223.25
327.686	1489.25
327.914	985.25
328.143	674.25
328.372	584.25
328.6	558.25
328.829	519.25
329.058	535.25
329.287	553.25
329.515	531.25
329.744	484.25
329.972	488.25
330.201	489.25
330.43	539.25
330.658	539.25
330.887	575.25
331.115	540.25
331.344	506.25
331.572	479.25
331.801	485.25
332.03	458.25
332.258	456.25
332.486	464.25
332.715	453.25
332.943	462.25
333.172	460.25
333.4	470.25
333.629	471.25
333.857	480.25
334.085	476.25
334.314	503.25
334.542	516.25
334.771	537.25
334.999	512.25
335.227	470.25
335.455	465.25
335.684	462.25
335.912	454.25
336.14	456.25
336.369	445.25
336.597	458.25
336.825	455.25
337.053	487.25
337.281	442.25
337.51	439.25
337.738	453.25
337.966	440.25
338.194	454.25
338.422	450.25
338.65	452.25
338.878	446.25
339.106	422.25
339.334	446.25
339.562	430.25
339.79	437.25
340.018	443.25
340.246	445.25
340.474	428.25
340.702	438.25
340.93	431.25
341.158	426.25
341.386	423.25
341.614	415.25
341.842	418.25
342.07	419.25
342.298	417.25
342.526	425.25
342.754	428.25
342.981	438.25
343.209	431.25
343.437	424.25
343.665	437.25
343.893	448.25
344.12	459.25
344.348	458.25
344.576	443.25
344.804	449.25
345.031	455.25
345.259	459.25
345.487	442.25
345.714	420.25
345.942	406.25
346.17	440.25
346.397	439.25
346.625	419.25
346.853	432.25
347.08	402.25
347.308	430.25
347.535	431.25
347.763	436.25
347.99	443.25
348.218	439.25
348.445	444.25
348.673	429.25
348.9	438.25
349.128	428.25
349.355	414.25
349.583	414.25
349.81	412.25
350.037	417.25
350.265	405.25
350.492	408.25
350.72	410.25
350.947	409.25
351.174	429.25
351.402	425.25
351.629	428.25
351.856	428.25
352.083	420.25
352.311	432.25
352.538	421.25
352.765	421.25
352.992	432.25
353.22	436.25
353.447	450.25
353.674	432.25
353.901	411.25
354.128	419.25
354.355	395.25
354.583	393.25
354.81	404.25
355.037	392.25
355.264	404.25
355.491	398.25
355.718	421.25
355.945	392.25
356.172	402.25
356.399	408.25
356.626	412.25
356.853	384.25
357.08	382.25
357.307	405.25
357.534	380.25
357.761	401.25
357.988	419.25
358.215	415.25
358.441	402.25
358.668	401.25
358.895	421.25
359.122	412.25
359.349	427.25
359.576	435.25
359.802	447.25
360.029	445.25
360.256	466.25
360.483	465.25
360.709	444.25
360.936	429.25
361.163	443.25
361.39	409.25
361.616	447.25
361.843	423.25
362.07	437.25
362.296	436.25
362.523	434.25
362.749	431.25
362.976	429.25
363.203	434.25
363.429	405.25
363.656	422.25
363.882	414.25
364.109	413.25
364.335	425.25
364.562	429.25
364.788	413.25
365.015	423.25
365.241	423.25
365.468	419.25
365.694	421.25
365.92	420.25
366.147	433.25
366.373	436.25
366.599	423.25
366.826	407.25
367.052	426.25
367.278	403.25
367.505	418.25
367.731	423.25
367.957	432.25
368.184	429.25
368.41	431.25
368.636	423.25
368.862	436.25
369.089	425.25
369.315	435.25
369.541	446.25
369.767	446.25
369.993	416.25
370.219	429.25
370.445	425.25
370.672	425.25
370.898	404.25
371.124	413.25
371.35	429.25
371.576	436.25
371.802	442.25
372.028	424.25
372.254	429.25
372.48	439.25
372.706	427.25
372.932	415.25
373.158	422.25
373.384	427.25
373.61	437.25
373.835	415.25
374.061	437.25
374.287	423.25
374.513	429.25
374.739	421.25
374.965	441.25
375.191	437.25
375.416	448.25
375.642	442.25
375.868	429.25
376.094	419.25
376.319	430.25
376.545	419.25
376.771	434.25
376.997	440.25
377.222	425.25
377.448	419.25
377.674	425.25
377.899	448.25
378.125	424.25
378.35	431.25
378.576	432.25
378.802	415.25
379.027	428.25
379.253	393.25
379.478	435.25
379.704	408.25
379.929	430.25
380.155	417.25
380.38	418.25
380.606	422.25
380.831	416.25
381.057	438.25
381.282	437.25
381.507	455.25
381.733	429.25
381.958	446.25
382.184	455.25
382.409	450.25
382.634	453.25
382.86	433.25
383.085	458.25
383.31	450.25
383.535	433.25
383.761	437.25
383.986	467.25
384.211	449.25
384.436	468.25
384.662	471.25
384.887	471.25
385.112	443.25
385.337	487.25
385.562	472.25
385.787	470.25
386.013	483.25
386.238	478.25
386.463	480.25
386.688	480.25
386.913	480.25
387.138	473.25
387.363	477.25
387.588	485.25
387.813	489.25
388.038	487.25
388.263	460.25
388.488	478.25
388.713	493.25
388.938	475.25
389.163	480.25
389.387	483.25
389.612	483.25
389.837	471.25
390.062	492.25
390.287	481.25
390.512	491.25
390.736	465.25
390.961	478.25
391.186	484.25
391.411	478.25
391.636	478.25
391.86	489.25
392.085	489.25
392.31	499.25
392.534	485.25
392.759	504.25
392.984	496.25
393.208	492.25
393.433	497.25
393.658	500.25
393.882	511.25
394.107	500.25
394.331	501.25
394.556	468.25
394.78	501.25
395.005	480.25
395.229	468.25
395.454	477.25
395.678	519.25
395.903	522.25
396.127	530.25
396.352	521.25
396.576	512.25
396.801	503.25
397.025	511.25
397.249	495.25
397.474	547.25
397.698	508.25
397.922	550.25
398.147	526.25
398.371	552.25
398.595	545.25
398.82	561.25
399.044	544.25
399.268	584.25
399.492	608.25
399.717	657.25
399.941	677.25
400.165	683.25
400.389	706.25
400.613	631.25
400.837	596.25
401.062	557.25
401.286	554.25
401.51	567.25
401.734	546.25
401.958	565.25
402.182	559.25
402.406	591.25
402.63	587.25
402.854	590.25
403.078	583.25
403.302	590.25
403.526	589.25
403.75	573.25
403.974	581.25
404.198	569.25
404.422	584.25
404.645	589.25
404.869	563.25
405.093	605.25
405.317	674.25
405.541	667.25
405.765	659.25
405.988	612.25
406.212	629.25
406.436	612.25
406.66	651.25
406.883	621.25
407.107	651.25
407.331	681.25
407.555	727.25
407.778	765.25
408.002	709.25
408.226	652.25
408.449	636.25
408.673	626.25
408.896	663.25
409.12	714.25
409.344	667.25
409.567	611.25
409.791	606.25
410.014	591.25
410.238	601.25
410.461	591.25
410.685	590.25
410.908	610.25
411.132	643.25
411.355	665.25
411.578	629.25
411.802	576.25
412.025	579.25
412.249	601.25
412.472	603.25
412.695	668.25
412.919	635.25
413.142	612.25
413.365	574.25
413.589	589.25
413.812	574.25
414.035	556.25
414.258	562.25
414.482	553.25
414.705	552.25
414.928	542.25
415.151	544.25
415.374	537.25
415.597	523.25
415.821	556.25
416.044	558.25
416.267	552.25
416.49	547.25
416.713	536.25
416.936	558.25
417.159	548.25
417.382	578.25
417.605	568.25
417.828	559.25
418.051	585.25
418.274	541.25
418.497	553.25
418.72	569.25
418.943	536.25
419.166	572.25
419.389	618.25
419.611	609.25
419.834	599.25
420.057	597.25
420.28	569.25
420.503	571.25
420.726	574.25
420.948	581.25
421.171	629.25
421.394	662.25
421.617	600.25
421.839	560.25
422.062	566.25
422.285	565.25
422.507	631.25
422.73	719.25
422.953	683.25
423.175	612.25
423.398	604.25
423.621	578.25
423.843	637.25
424.066	630.25
424.288	590.25
424.511	624.25
424.733	700.25
424.956	769.25
425.178	730.25
425.401	716.25
425.623	765.25
425.846	663.25
426.068	608.25
426.291	613.25
426.513	628.25
426.735	594.25
426.958	637.25
427.18	745.25
427.402	859.25
427.625	949.25
427.847	815.25
428.069	744.25
428.292	649.25
428.514	600.25
428.736	575.25
428.958	569.25
429.181	582.25
429.403	542.25
429.625	565.25
429.847	608.25
430.069	654.25
430.292	679.25
430.514	572.25
430.736	557.25
430.958	555.25
431.18	541.25
431.402	551.25
431.624	521.25
431.846	544.25
432.068	557.25
432.29	542.25
432.512	525.25
432.734	554.25
432.956	541.25
433.178	550.25
433.4	558.25
433.622	553.25
433.844	542.25
434.066	549.25
434.287	561.25
434.509	558.25
434.731	560.25
434.953	558.25
435.175	595.25
435.397	607.25
435.618	621.25
435.84	650.25
436.062	747.25
436.284	822.25
436.505	688.25
436.727	609.25
436.949	584.25
437.17	558.25
437.392	581.25
437.614	571.25
437.835	619.25
438.057	730.25
438.278	783.25
438.5	810.25
438.721	910.25
438.943	849.25
439.165	695.25
439.386	605.25
439.608	598.25
439.829	616.25
440.05	641.25
440.272	668.25
440.493	630.25
440.715	599.25
440.936	595.25
441.158	567.25
441.379	582.25
441.6	579.25
441.822	609.25
442.043	653.25
442.264	698.25
442.486	772.25
442.707	647.25
442.928	599.25
443.149	611.25
443.371	657.25
443.592	686.25
443.813	777.25
444.034	844.25
444.255	713.25
444.476	642.25
444.698	623.25
444.919	631.25
445.14	709.25
445.361	662.25
445.582	649.25
445.803	713.25
446.024	845.25
446.245	853.25
446.466	747.25
446.687	661.25
446.908	619.25
447.129	568.25
447.35	574.25
447.571	575.25
447.792	556.25
448.013	561.25
448.234	584.25
448.455	629.25
448.675	754.25
448.896	870.25
449.117	716.25
449.338	693.25
449.559	804.25
449.779	911.25
450	727.25
450.221	620.25
450.442	564.25
450.662	534.25
450.883	554.25
451.104	576.25
451.324	552.25
451.545	527.25
451.766	524.25
451.986	505.25
452.207	513.25
452.428	489.25
452.648	496.25
452.869	496.25
453.089	518.25
453.31	507.25
453.53	497.25
453.751	523.25
453.971	504.25
454.192	501.25
454.412	505.25
454.633	492.25
454.853	501.25
455.073	486.25
455.294	515.25
455.514	593.25
455.734	560.25
455.955	503.25
456.175	487.25
456.395	476.25
456.616	480.25
456.836	504.25
457.056	487.25
457.276	451.25
457.497	464.25
457.717	485.25
457.937	500.25
458.157	513.25
458.377	505.25
458.598	521.25
458.818	584.25
459.038	651.25
459.258	683.25
459.478	595.25
459.698	535.25
459.918	524.25
460.138	541.25
460.358	539.25
460.578	565.25
460.798	558.25
461.018	554.25
461.238	558.25
461.458	561.25
461.678	572.25
461.898	560.25
462.118	562.25
462.338	569.25
462.558	584.25
462.777	590.25
462.997	603.25
463.217	639.25
463.437	627.25
463.657	594.25
463.876	599.25
464.096	603.25
464.316	582.25
464.536	593.25
464.755	629.25
464.975	609.25
465.195	639.25
465.414	640.25
465.634	624.25
465.854	595.25
466.073	560.25
466.293	558.25
466.512	523.25
466.732	523.25
466.951	520.25
467.171	505.25
467.391	523.25
467.61	508.25
467.829	522.25
468.049	520.25
468.268	535.25
468.488	528.25
468.707	494.25
468.927	510.25
469.146	517.25
469.365	513.25
469.585	503.25
469.804	492.25
470.023	523.25
470.243	526.25
470.462	574.25
470.681	544.25
470.901	564.25
471.12	509.25
471.339	533.25
471.558	544.25
471.777	528.25
471.997	527.25
472.216	536.25
472.435	567.25
472.654	543.25
472.873	533.25
473.092	521.25
473.311	539.25
473.53	534.25
473.749	558.25
473.968	558.25
474.187	672.25
474.406	692.25
474.625	570.25
474.844	552.25
475.063	525.25
475.282	544.25
475.501	528.25
475.72	557.25
475.939	546.25
476.158	560.25
476.377	542.25
476.596	521.25
476.814	551.25
477.033	560.25
477.252	564.25
477.471	610.25
477.69	567.25
477.908	579.25
478.127	593.25
478.346	587.25
478.564	594.25
478.783	600.25
479.002	596.25
479.22	581.25
479.439	617.25
479.658	656.25
479.876	631.25
480.095	645.25
480.313	673.25
480.532	675.25
480.751	658.25
480.969	665.25
481.188	702.25
481.406	732.25
481.624	642.25
481.843	657.25
482.061	653.25
482.28	635.25
482.498	656.25
482.717	643.25
482.935	633.25
483.153	630.25
483.372	619.25
483.59	606.25
483.808	625.25
484.027	620.25
484.245	627.25
484.463	627.25
484.681	648.25
484.9	641.25
485.118	646.25
485.336	643.25
485.554	637.25
485.772	624.25
485.99	641.25
486.209	639.25
486.427	636.25
486.645	660.25
486.863	687.25
487.081	689.25
487.299	657.25
487.517	682.25
487.735	669.25
487.953	656.25
488.171	665.25
488.389	659.25
488.607	671.25
488.825	673.25
489.043	683.25
489.261	668.25
489.479	685.25
489.696	692.25
489.914	693.25
490.132	700.25
490.35	698.25
490.568	708.25
490.786	719.25
491.003	727.25
491.221	701.25
491.439	730.25
491.657	725.25
491.874	751.25
492.092	738.25
492.31	742.25
492.527	782.25
492.745	741.25
492.963	775.25
493.18	766.25
493.398	795.25
493.615	778.25
493.833	803.25
494.05	773.25
494.268	776.25
494.485	783.25
494.703	776.25
494.92	768.25
495.138	807.25
495.355	777.25
495.573	813.25
495.79	781.25
496.008	792.25
496.225	805.25
496.442	816.25
496.66	789.25
496.877	795.25
497.094	814.25
497.312	798.25
497.529	812.25
497.746	805.25
497.963	860.25
498.181	876.25
498.398	878.25
498.615	903.25
498.832	909.25
499.049	913.25
499.267	958.25
499.484	979.25
499.701	1024.25
499.918	1056.25
500.135	1098.25
500.352	1168.25
500.569	1169.25
500.786	1189.25
501.003	1127.25
501.22	1152.25
501.437	1071.25
501.654	1061.25
