Data from 1966.PennyLincolnUp.Lamp.En5.5.200Scan.071719.P1.Scan2.head_HRD10591_14-18-53-225.txt Node
Date: Thu Jul 18 14:18:53 EDT 2019
User: cochatt
Spectrometer: HR+D1059
Trigger mode: 1
Integration Time (sec): 1.000000E-1
Scans to average: 1
Electric dark correction enabled: true
Nonlinearity correction enabled: false
Boxcar width: 0
XAxis mode: Wavelengths
Number of Pixels in Spectrum: 2048
>>>>>Begin Spectral Data<<<<<
223.165	-24.44
223.4	-24.44
223.635	-24.44
223.869	-12.44
224.104	-24.44
224.338	-17.44
224.573	-5.44
224.808	-10.44
225.042	-9.44
225.277	-5.44
225.511	11.56
225.746	-1.44
225.98	-8.44
226.215	16.56
226.449	8.56
226.683	35.56
226.918	20.56
227.152	26.56
227.387	44.56
227.621	40.56
227.856	40.56
228.09	43.56
228.324	65.56
228.559	57.56
228.793	62.56
229.027	91.56
229.262	101.56
229.496	112.56
229.73	150.56
229.964	165.56
230.199	141.56
230.433	126.56
230.667	105.56
230.901	124.56
231.136	104.56
231.37	120.56
231.604	119.56
231.838	115.56
232.072	106.56
232.306	126.56
232.541	105.56
232.775	118.56
233.009	128.56
233.243	107.56
233.477	119.56
233.711	116.56
233.945	117.56
234.179	114.56
234.413	132.56
234.647	116.56
234.881	132.56
235.115	117.56
235.349	115.56
235.583	133.56
235.817	132.56
236.051	124.56
236.285	126.56
236.519	122.56
236.753	116.56
236.987	142.56
237.221	196.56
237.455	244.56
237.689	191.56
237.922	162.56
238.156	141.56
238.39	134.56
238.624	120.56
238.858	133.56
239.091	131.56
239.325	127.56
239.559	116.56
239.793	113.56
240.027	140.56
240.26	135.56
240.494	166.56
240.728	158.56
240.961	155.56
241.195	141.56
241.429	132.56
241.662	119.56
241.896	143.56
242.13	130.56
242.363	136.56
242.597	133.56
242.83	154.56
243.064	140.56
243.298	145.56
243.531	142.56
243.765	150.56
243.998	144.56
244.232	148.56
244.465	162.56
244.699	150.56
244.932	144.56
245.166	175.56
245.399	141.56
245.633	148.56
245.866	146.56
246.099	141.56
246.333	149.56
246.566	165.56
246.8	157.56
247.033	156.56
247.266	162.56
247.5	180.56
247.733	164.56
247.966	158.56
248.2	185.56
248.433	171.56
248.666	166.56
248.899	205.56
249.133	196.56
249.366	208.56
249.599	202.56
249.832	190.56
250.066	193.56
250.299	193.56
250.532	208.56
250.765	203.56
250.998	236.56
251.231	238.56
251.465	230.56
251.698	223.56
251.931	202.56
252.164	192.56
252.397	195.56
252.63	212.56
252.863	219.56
253.096	227.56
253.329	233.56
253.562	234.56
253.795	211.56
254.028	218.56
254.261	222.56
254.494	215.56
254.727	244.56
254.96	280.56
255.193	290.56
255.426	257.56
255.659	234.56
255.892	232.56
256.124	234.56
256.357	249.56
256.59	238.56
256.823	218.56
257.056	213.56
257.289	205.56
257.521	206.56
257.754	210.56
257.987	210.56
258.22	231.56
258.452	204.56
258.685	202.56
258.918	221.56
259.151	228.56
259.383	215.56
259.616	230.56
259.849	232.56
260.081	258.56
260.314	272.56
260.547	259.56
260.779	253.56
261.012	238.56
261.244	230.56
261.477	245.56
261.71	228.56
261.942	232.56
262.175	240.56
262.407	214.56
262.64	222.56
262.872	239.56
263.105	231.56
263.337	216.56
263.57	217.56
263.802	206.56
264.035	227.56
264.267	227.56
264.499	214.56
264.732	217.56
264.964	222.56
265.197	218.56
265.429	232.56
265.661	215.56
265.894	228.56
266.126	224.56
266.358	218.56
266.591	236.56
266.823	234.56
267.055	237.56
267.287	239.56
267.52	234.56
267.752	231.56
267.984	227.56
268.216	244.56
268.448	256.56
268.681	240.56
268.913	266.56
269.145	260.56
269.377	291.56
269.609	261.56
269.841	272.56
270.073	285.56
270.306	294.56
270.538	316.56
270.77	321.56
271.002	324.56
271.234	297.56
271.466	292.56
271.698	322.56
271.93	333.56
272.162	323.56
272.394	318.56
272.626	303.56
272.858	293.56
273.09	325.56
273.322	291.56
273.553	286.56
273.785	272.56
274.017	270.56
274.249	266.56
274.481	294.56
274.713	280.56
274.945	271.56
275.176	278.56
275.408	270.56
275.64	265.56
275.872	289.56
276.104	284.56
276.335	281.56
276.567	274.56
276.799	278.56
277.031	327.56
277.262	316.56
277.494	330.56
277.726	308.56
277.957	288.56
278.189	287.56
278.421	273.56
278.652	302.56
278.884	282.56
279.115	255.56
279.347	278.56
279.579	269.56
279.81	264.56
280.042	272.56
280.273	286.56
280.505	270.56
280.736	286.56
280.968	247.56
281.199	284.56
281.431	286.56
281.662	273.56
281.894	292.56
282.125	282.56
282.356	288.56
282.588	299.56
282.819	311.56
283.051	292.56
283.282	288.56
283.513	294.56
283.745	290.56
283.976	303.56
284.207	289.56
284.439	288.56
284.67	282.56
284.901	295.56
285.132	277.56
285.364	283.56
285.595	298.56
285.826	284.56
286.057	284.56
286.288	281.56
286.52	288.56
286.751	287.56
286.982	287.56
287.213	310.56
287.444	292.56
287.675	322.56
287.906	314.56
288.138	311.56
288.369	325.56
288.6	316.56
288.831	304.56
289.062	303.56
289.293	297.56
289.524	298.56
289.755	302.56
289.986	282.56
290.217	309.56
290.448	300.56
290.679	315.56
290.91	300.56
291.141	320.56
291.371	304.56
291.602	298.56
291.833	298.56
292.064	293.56
292.295	297.56
292.526	318.56
292.757	297.56
292.987	303.56
293.218	319.56
293.449	318.56
293.68	308.56
293.91	317.56
294.141	307.56
294.372	313.56
294.603	290.56
294.833	311.56
295.064	298.56
295.295	316.56
295.525	312.56
295.756	313.56
295.987	282.56
296.217	346.56
296.448	361.56
296.679	313.56
296.909	305.56
297.14	315.56
297.37	322.56
297.601	297.56
297.831	310.56
298.062	311.56
298.292	313.56
298.523	316.56
298.753	327.56
298.984	318.56
299.214	322.56
299.445	321.56
299.675	322.56
299.905	319.56
300.136	345.56
300.366	321.56
300.597	317.56
300.827	325.56
301.057	318.56
301.288	340.56
301.518	330.56
301.748	351.56
301.979	338.56
302.209	323.56
302.439	349.56
302.669	338.56
302.9	340.56
303.13	328.56
303.36	351.56
303.59	339.56
303.82	358.56
304.051	345.56
304.281	356.56
304.511	336.56
304.741	333.56
304.971	345.56
305.201	343.56
305.431	358.56
305.661	329.56
305.891	341.56
306.121	322.56
306.352	360.56
306.582	335.56
306.812	333.56
307.042	340.56
307.272	336.56
307.502	345.56
307.731	353.56
307.961	328.56
308.191	348.56
308.421	325.56
308.651	353.56
308.881	351.56
309.111	364.56
309.341	350.56
309.571	376.56
309.8	359.56
310.03	380.56
310.26	384.56
310.49	400.56
310.72	390.56
310.949	424.56
311.179	417.56
311.409	396.56
311.639	390.56
311.868	404.56
312.098	403.56
312.328	389.56
312.557	404.56
312.787	422.56
313.017	401.56
313.246	381.56
313.476	383.56
313.706	388.56
313.935	402.56
314.165	400.56
314.394	414.56
314.624	405.56
314.853	407.56
315.083	417.56
315.312	402.56
315.542	394.56
315.771	389.56
316.001	376.56
316.23	378.56
316.46	396.56
316.689	419.56
316.919	386.56
317.148	410.56
317.377	416.56
317.607	408.56
317.836	404.56
318.065	394.56
318.295	395.56
318.524	400.56
318.753	402.56
318.983	383.56
319.212	395.56
319.441	398.56
319.67	407.56
319.9	388.56
320.129	374.56
320.358	391.56
320.587	385.56
320.816	410.56
321.046	430.56
321.275	428.56
321.504	426.56
321.733	424.56
321.962	405.56
322.191	421.56
322.42	440.56
322.649	456.56
322.878	474.56
323.108	464.56
323.337	491.56
323.566	481.56
323.795	542.56
324.024	572.56
324.253	701.56
324.482	978.56
324.71	1515.56
324.939	2278.56
325.168	1968.56
325.397	991.56
325.626	665.56
325.855	560.56
326.084	506.56
326.313	510.56
326.542	510.56
326.77	560.56
326.999	658.56
327.228	905.56
327.457	1344.56
327.686	1732.56
327.914	1123.56
328.143	726.56
328.372	662.56
328.6	605.56
328.829	571.56
329.058	588.56
329.287	605.56
329.515	566.56
329.744	525.56
329.972	536.56
330.201	573.56
330.43	588.56
330.658	608.56
330.887	628.56
331.115	629.56
331.344	552.56
331.572	520.56
331.801	530.56
332.03	518.56
332.258	504.56
332.486	477.56
332.715	483.56
332.943	486.56
333.172	489.56
333.4	472.56
333.629	482.56
333.857	497.56
334.085	530.56
334.314	541.56
334.542	575.56
334.771	602.56
334.999	556.56
335.227	502.56
335.455	512.56
335.684	495.56
335.912	474.56
336.14	474.56
336.369	464.56
336.597	487.56
336.825	475.56
337.053	488.56
337.281	458.56
337.51	457.56
337.738	462.56
337.966	471.56
338.194	469.56
338.422	474.56
338.65	466.56
338.878	456.56
339.106	449.56
339.334	463.56
339.562	442.56
339.79	438.56
340.018	446.56
340.246	444.56
340.474	457.56
340.702	469.56
340.93	456.56
341.158	485.56
341.386	450.56
341.614	455.56
341.842	470.56
342.07	460.56
342.298	466.56
342.526	443.56
342.754	447.56
342.981	442.56
343.209	437.56
343.437	461.56
343.665	445.56
343.893	465.56
344.12	458.56
344.348	461.56
344.576	474.56
344.804	474.56
345.031	472.56
345.259	497.56
345.487	487.56
345.714	448.56
345.942	464.56
346.17	443.56
346.397	429.56
346.625	447.56
346.853	441.56
347.08	436.56
347.308	442.56
347.535	446.56
347.763	473.56
347.99	473.56
348.218	462.56
348.445	482.56
348.673	474.56
348.9	456.56
349.128	442.56
349.355	427.56
349.583	429.56
349.81	424.56
350.037	427.56
350.265	421.56
350.492	438.56
350.72	443.56
350.947	439.56
351.174	455.56
351.402	464.56
351.629	468.56
351.856	461.56
352.083	458.56
352.311	453.56
352.538	454.56
352.765	454.56
352.992	475.56
353.22	446.56
353.447	432.56
353.674	447.56
353.901	440.56
354.128	449.56
354.355	424.56
354.583	397.56
354.81	445.56
355.037	408.56
355.264	382.56
355.491	408.56
355.718	420.56
355.945	413.56
356.172	404.56
356.399	422.56
356.626	415.56
356.853	414.56
357.08	428.56
357.307	420.56
357.534	414.56
357.761	414.56
357.988	427.56
358.215	443.56
358.441	438.56
358.668	417.56
358.895	417.56
359.122	448.56
359.349	441.56
359.576	451.56
359.802	467.56
360.029	487.56
360.256	510.56
360.483	503.56
360.709	468.56
360.936	416.56
361.163	432.56
361.39	431.56
361.616	449.56
361.843	429.56
362.07	455.56
362.296	442.56
362.523	448.56
362.749	453.56
362.976	438.56
363.203	431.56
363.429	425.56
363.656	432.56
363.882	428.56
364.109	424.56
364.335	420.56
364.562	435.56
364.788	439.56
365.015	430.56
365.241	424.56
365.468	430.56
365.694	431.56
365.92	441.56
366.147	450.56
366.373	431.56
366.599	436.56
366.826	437.56
367.052	425.56
367.278	434.56
367.505	441.56
367.731	412.56
367.957	454.56
368.184	446.56
368.41	428.56
368.636	453.56
368.862	457.56
369.089	442.56
369.315	431.56
369.541	438.56
369.767	426.56
369.993	440.56
370.219	431.56
370.445	419.56
370.672	459.56
370.898	448.56
371.124	423.56
371.35	426.56
371.576	453.56
371.802	434.56
372.028	469.56
372.254	440.56
372.48	441.56
372.706	436.56
372.932	439.56
373.158	460.56
373.384	460.56
373.61	458.56
373.835	445.56
374.061	433.56
374.287	447.56
374.513	462.56
374.739	451.56
374.965	453.56
375.191	452.56
375.416	420.56
375.642	441.56
375.868	454.56
376.094	438.56
376.319	458.56
376.545	449.56
376.771	466.56
376.997	447.56
377.222	439.56
377.448	436.56
377.674	442.56
377.899	443.56
378.125	424.56
378.35	444.56
378.576	414.56
378.802	450.56
379.027	449.56
379.253	437.56
379.478	436.56
379.704	436.56
379.929	457.56
380.155	452.56
380.38	441.56
380.606	436.56
380.831	450.56
381.057	435.56
381.282	444.56
381.507	438.56
381.733	451.56
381.958	454.56
382.184	470.56
382.409	452.56
382.634	467.56
382.86	448.56
383.085	454.56
383.31	464.56
383.535	458.56
383.761	457.56
383.986	495.56
384.211	482.56
384.436	468.56
384.662	468.56
384.887	485.56
385.112	492.56
385.337	503.56
385.562	486.56
385.787	480.56
386.013	495.56
386.238	508.56
386.463	494.56
386.688	485.56
386.913	495.56
387.138	492.56
387.363	482.56
387.588	488.56
387.813	483.56
388.038	465.56
388.263	478.56
388.488	499.56
388.713	488.56
388.938	504.56
389.163	501.56
389.387	492.56
389.612	502.56
389.837	484.56
390.062	474.56
390.287	501.56
390.512	495.56
390.736	500.56
390.961	495.56
391.186	482.56
391.411	500.56
391.636	504.56
391.86	496.56
392.085	489.56
392.31	503.56
392.534	493.56
392.759	496.56
392.984	505.56
393.208	487.56
393.433	501.56
393.658	514.56
393.882	496.56
394.107	518.56
394.331	502.56
394.556	500.56
394.78	482.56
395.005	501.56
395.229	502.56
395.454	495.56
395.678	524.56
395.903	529.56
396.127	551.56
396.352	540.56
396.576	513.56
396.801	527.56
397.025	509.56
397.249	534.56
397.474	536.56
397.698	554.56
397.922	556.56
398.147	573.56
398.371	568.56
398.595	585.56
398.82	556.56
399.044	566.56
399.268	584.56
399.492	642.56
399.717	662.56
399.941	699.56
400.165	718.56
400.389	697.56
400.613	677.56
400.837	606.56
401.062	596.56
401.286	561.56
401.51	570.56
401.734	578.56
401.958	573.56
402.182	581.56
402.406	583.56
402.63	587.56
402.854	590.56
403.078	571.56
403.302	611.56
403.526	607.56
403.75	584.56
403.974	572.56
404.198	595.56
404.422	605.56
404.645	602.56
404.869	610.56
405.093	646.56
405.317	676.56
405.541	735.56
405.765	682.56
405.988	640.56
406.212	638.56
406.436	639.56
406.66	677.56
406.883	658.56
407.107	662.56
407.331	714.56
407.555	785.56
407.778	790.56
408.002	732.56
408.226	655.56
408.449	659.56
408.673	684.56
408.896	703.56
409.12	722.56
409.344	680.56
409.567	644.56
409.791	610.56
410.014	615.56
410.238	600.56
410.461	582.56
410.685	584.56
410.908	616.56
411.132	642.56
411.355	696.56
411.578	651.56
411.802	634.56
412.025	578.56
412.249	588.56
412.472	636.56
412.695	670.56
412.919	681.56
413.142	615.56
413.365	608.56
413.589	569.56
413.812	580.56
414.035	574.56
414.258	558.56
414.482	566.56
414.705	576.56
414.928	557.56
415.151	564.56
415.374	568.56
415.597	566.56
415.821	574.56
416.044	573.56
416.267	582.56
416.49	561.56
416.713	551.56
416.936	556.56
417.159	553.56
417.382	554.56
417.605	562.56
417.828	573.56
418.051	589.56
418.274	572.56
418.497	554.56
418.72	540.56
418.943	565.56
419.166	580.56
419.389	598.56
419.611	603.56
419.834	610.56
420.057	598.56
420.28	586.56
420.503	576.56
420.726	561.56
420.948	586.56
421.171	655.56
421.394	681.56
421.617	620.56
421.839	572.56
422.062	610.56
422.285	605.56
422.507	678.56
422.73	758.56
422.953	738.56
423.175	623.56
423.398	605.56
423.621	587.56
423.843	640.56
424.066	638.56
424.288	628.56
424.511	659.56
424.733	733.56
424.956	820.56
425.178	760.56
425.401	737.56
425.623	799.56
425.846	676.56
426.068	614.56
426.291	640.56
426.513	612.56
426.735	625.56
426.958	673.56
427.18	782.56
427.402	939.56
427.625	991.56
427.847	868.56
428.069	761.56
428.292	694.56
428.514	616.56
428.736	630.56
428.958	618.56
429.181	579.56
429.403	567.56
429.625	601.56
429.847	616.56
430.069	696.56
430.292	681.56
430.514	622.56
430.736	586.56
430.958	600.56
431.18	579.56
431.402	550.56
431.624	544.56
431.846	532.56
432.068	561.56
432.29	556.56
432.512	571.56
432.734	575.56
432.956	572.56
433.178	577.56
433.4	590.56
433.622	536.56
433.844	571.56
434.066	556.56
434.287	529.56
434.509	549.56
434.731	565.56
434.953	570.56
435.175	605.56
435.397	609.56
435.618	644.56
435.84	672.56
436.062	801.56
436.284	856.56
436.505	705.56
436.727	661.56
436.949	589.56
437.17	588.56
437.392	580.56
437.614	605.56
437.835	632.56
438.057	748.56
438.278	852.56
438.5	860.56
438.721	937.56
438.943	895.56
439.165	721.56
439.386	667.56
439.608	640.56
439.829	635.56
440.05	684.56
440.272	714.56
440.493	669.56
440.715	614.56
440.936	594.56
441.158	588.56
441.379	597.56
441.6	607.56
441.822	621.56
442.043	673.56
442.264	767.56
442.486	841.56
442.707	698.56
442.928	645.56
443.149	672.56
443.371	670.56
443.592	757.56
443.813	834.56
444.034	911.56
444.255	735.56
444.476	662.56
444.698	636.56
444.919	636.56
445.14	728.56
445.361	681.56
445.582	698.56
445.803	750.56
446.024	888.56
446.245	896.56
446.466	812.56
446.687	673.56
446.908	615.56
447.129	623.56
447.35	594.56
447.571	565.56
447.792	576.56
448.013	597.56
448.234	581.56
448.455	633.56
448.675	784.56
448.896	929.56
449.117	780.56
449.338	717.56
449.559	862.56
449.779	972.56
450	782.56
450.221	639.56
450.442	621.56
450.662	597.56
450.883	574.56
451.104	588.56
451.324	559.56
451.545	543.56
451.766	545.56
451.986	530.56
452.207	524.56
452.428	514.56
452.648	524.56
452.869	543.56
453.089	526.56
453.31	555.56
453.53	516.56
453.751	513.56
453.971	524.56
454.192	528.56
454.412	534.56
454.633	529.56
454.853	505.56
455.073	539.56
455.294	548.56
455.514	614.56
455.734	635.56
455.955	521.56
456.175	496.56
456.395	492.56
456.616	503.56
456.836	494.56
457.056	500.56
457.276	473.56
457.497	490.56
457.717	510.56
457.937	516.56
458.157	518.56
458.377	519.56
458.598	536.56
458.818	611.56
459.038	700.56
459.258	692.56
459.478	602.56
459.698	575.56
459.918	542.56
460.138	554.56
460.358	578.56
460.578	568.56
460.798	593.56
461.018	599.56
461.238	576.56
461.458	561.56
461.678	578.56
461.898	581.56
462.118	570.56
462.338	571.56
462.558	584.56
462.777	620.56
462.997	613.56
463.217	655.56
463.437	635.56
463.657	622.56
463.876	616.56
464.096	613.56
464.316	621.56
464.536	626.56
464.755	601.56
464.975	625.56
465.195	655.56
465.414	719.56
465.634	639.56
465.854	606.56
466.073	582.56
466.293	561.56
466.512	550.56
466.732	550.56
466.951	536.56
467.171	528.56
467.391	546.56
467.61	584.56
467.829	550.56
468.049	555.56
468.268	552.56
468.488	556.56
468.707	535.56
468.927	512.56
469.146	520.56
469.365	519.56
469.585	528.56
469.804	529.56
470.023	559.56
470.243	549.56
470.462	573.56
470.681	558.56
470.901	577.56
471.12	546.56
471.339	545.56
471.558	544.56
471.777	540.56
471.997	536.56
472.216	558.56
472.435	592.56
472.654	588.56
472.873	565.56
473.092	549.56
473.311	530.56
473.53	544.56
473.749	549.56
473.968	582.56
474.187	693.56
474.406	723.56
474.625	593.56
474.844	546.56
475.063	576.56
475.282	553.56
475.501	564.56
475.72	559.56
475.939	548.56
476.158	588.56
476.377	547.56
476.596	538.56
476.814	573.56
477.033	558.56
477.252	583.56
477.471	573.56
477.69	585.56
477.908	562.56
478.127	613.56
478.346	593.56
478.564	599.56
478.783	643.56
479.002	632.56
479.22	615.56
479.439	670.56
479.658	684.56
479.876	664.56
480.095	646.56
480.313	701.56
480.532	663.56
480.751	667.56
480.969	686.56
481.188	764.56
481.406	770.56
481.624	722.56
481.843	695.56
482.061	660.56
482.28	665.56
482.498	641.56
482.717	665.56
482.935	630.56
483.153	657.56
483.372	642.56
483.59	630.56
483.808	637.56
484.027	635.56
484.245	638.56
484.463	638.56
484.681	669.56
484.9	677.56
485.118	658.56
485.336	666.56
485.554	675.56
485.772	666.56
485.99	683.56
486.209	654.56
486.427	698.56
486.645	681.56
486.863	704.56
487.081	692.56
487.299	694.56
487.517	701.56
487.735	696.56
487.953	712.56
488.171	666.56
488.389	698.56
488.607	720.56
488.825	681.56
489.043	700.56
489.261	713.56
489.479	704.56
489.696	702.56
489.914	730.56
490.132	743.56
490.35	731.56
490.568	733.56
490.786	723.56
491.003	764.56
491.221	774.56
491.439	780.56
491.657	782.56
491.874	797.56
492.092	779.56
492.31	817.56
492.527	792.56
492.745	806.56
492.963	787.56
493.18	823.56
493.398	829.56
493.615	822.56
493.833	819.56
494.05	813.56
494.268	794.56
494.485	828.56
494.703	806.56
494.92	817.56
495.138	830.56
495.355	822.56
495.573	814.56
495.79	817.56
496.008	831.56
496.225	842.56
496.442	822.56
496.66	849.56
496.877	817.56
497.094	851.56
497.312	856.56
497.529	828.56
497.746	857.56
497.963	844.56
498.181	904.56
498.398	913.56
498.615	917.56
498.832	922.56
499.049	950.56
499.267	983.56
499.484	1022.56
499.701	1055.56
499.918	1088.56
500.135	1136.56
500.352	1188.56
500.569	1214.56
500.786	1176.56
501.003	1164.56
501.22	1166.56
501.437	1116.56
501.654	1088.56
