Data from 1966.PennyLincolnUp.Lamp.En5.5.200Scan.071719.P1._HRD10591_14-15-29-953.txt Node
Date: Thu Jul 18 14:15:29 EDT 2019
User: cochatt
Spectrometer: HR+D1059
Trigger mode: 1
Integration Time (sec): 1.000000E-1
Scans to average: 1
Electric dark correction enabled: true
Nonlinearity correction enabled: false
Boxcar width: 0
XAxis mode: Wavelengths
Number of Pixels in Spectrum: 2048
>>>>>Begin Spectral Data<<<<<
223.165	-13.31
223.4	-13.31
223.635	-13.31
223.869	-9.31
224.104	-20.31
224.338	-16.31
224.573	-24.31
224.808	-6.31
225.042	-11.31
225.277	-20.31
225.511	-4.31
225.746	12.69
225.98	2.69
226.215	9.69
226.449	19.69
226.683	26.69
226.918	18.69
227.152	35.69
227.387	32.69
227.621	48.69
227.856	40.69
228.09	44.69
228.324	55.69
228.559	54.69
228.793	61.69
229.027	61.69
229.262	73.69
229.496	85.69
229.73	93.69
229.964	101.69
230.199	84.69
230.433	80.69
230.667	89.69
230.901	88.69
231.136	82.69
231.37	87.69
231.604	89.69
231.838	93.69
232.072	77.69
232.306	84.69
232.541	90.69
232.775	97.69
233.009	102.69
233.243	86.69
233.477	96.69
233.711	81.69
233.945	91.69
234.179	100.69
234.413	96.69
234.647	85.69
234.881	86.69
235.115	104.69
235.349	92.69
235.583	89.69
235.817	99.69
236.051	85.69
236.285	103.69
236.519	104.69
236.753	105.69
236.987	117.69
237.221	120.69
237.455	131.69
237.689	127.69
237.922	87.69
238.156	100.69
238.39	102.69
238.624	89.69
238.858	99.69
239.091	90.69
239.325	99.69
239.559	110.69
239.793	94.69
240.027	102.69
240.26	116.69
240.494	113.69
240.728	105.69
240.961	113.69
241.195	106.69
241.429	111.69
241.662	103.69
241.896	98.69
242.13	109.69
242.363	80.69
242.597	87.69
242.83	100.69
243.064	93.69
243.298	105.69
243.531	111.69
243.765	95.69
243.998	92.69
244.232	108.69
244.465	103.69
244.699	108.69
244.932	92.69
245.166	94.69
245.399	98.69
245.633	118.69
245.866	115.69
246.099	95.69
246.333	101.69
246.566	106.69
246.8	104.69
247.033	108.69
247.266	108.69
247.5	113.69
247.733	97.69
247.966	103.69
248.2	128.69
248.433	108.69
248.666	114.69
248.899	133.69
249.133	122.69
249.366	133.69
249.599	131.69
249.832	137.69
250.066	124.69
250.299	120.69
250.532	130.69
250.765	142.69
250.998	163.69
251.231	141.69
251.465	126.69
251.698	135.69
251.931	135.69
252.164	121.69
252.397	125.69
252.63	127.69
252.863	136.69
253.096	128.69
253.329	135.69
253.562	153.69
253.795	140.69
254.028	135.69
254.261	135.69
254.494	156.69
254.727	160.69
254.96	176.69
255.193	159.69
255.426	167.69
255.659	153.69
255.892	149.69
256.124	131.69
256.357	140.69
256.59	138.69
256.823	136.69
257.056	134.69
257.289	127.69
257.521	141.69
257.754	133.69
257.987	128.69
258.22	133.69
258.452	125.69
258.685	136.69
258.918	143.69
259.151	129.69
259.383	132.69
259.616	138.69
259.849	140.69
260.081	134.69
260.314	159.69
260.547	155.69
260.779	157.69
261.012	139.69
261.244	142.69
261.477	148.69
261.71	132.69
261.942	154.69
262.175	170.69
262.407	144.69
262.64	134.69
262.872	118.69
263.105	131.69
263.337	123.69
263.57	135.69
263.802	137.69
264.035	137.69
264.267	144.69
264.499	128.69
264.732	140.69
264.964	143.69
265.197	127.69
265.429	146.69
265.661	137.69
265.894	138.69
266.126	133.69
266.358	147.69
266.591	132.69
266.823	139.69
267.055	132.69
267.287	141.69
267.52	141.69
267.752	155.69
267.984	134.69
268.216	149.69
268.448	129.69
268.681	141.69
268.913	148.69
269.145	149.69
269.377	172.69
269.609	177.69
269.841	167.69
270.073	161.69
270.306	161.69
270.538	212.69
270.77	181.69
271.002	182.69
271.234	176.69
271.466	186.69
271.698	191.69
271.93	188.69
272.162	186.69
272.394	192.69
272.626	183.69
272.858	176.69
273.09	159.69
273.322	170.69
273.553	168.69
273.785	164.69
274.017	153.69
274.249	156.69
274.481	150.69
274.713	152.69
274.945	158.69
275.176	159.69
275.408	175.69
275.64	151.69
275.872	151.69
276.104	172.69
276.335	175.69
276.567	177.69
276.799	181.69
277.031	187.69
277.262	204.69
277.494	184.69
277.726	198.69
277.957	183.69
278.189	167.69
278.421	169.69
278.652	153.69
278.884	165.69
279.115	173.69
279.347	155.69
279.579	157.69
279.81	154.69
280.042	168.69
280.273	169.69
280.505	176.69
280.736	160.69
280.968	162.69
281.199	159.69
281.431	162.69
281.662	175.69
281.894	177.69
282.125	162.69
282.356	179.69
282.588	183.69
282.819	178.69
283.051	165.69
283.282	165.69
283.513	160.69
283.745	168.69
283.976	174.69
284.207	163.69
284.439	162.69
284.67	157.69
284.901	177.69
285.132	171.69
285.364	159.69
285.595	181.69
285.826	170.69
286.057	164.69
286.288	185.69
286.52	161.69
286.751	171.69
286.982	174.69
287.213	159.69
287.444	184.69
287.675	186.69
287.906	181.69
288.138	196.69
288.369	186.69
288.6	176.69
288.831	172.69
289.062	180.69
289.293	166.69
289.524	184.69
289.755	176.69
289.986	167.69
290.217	176.69
290.448	166.69
290.679	183.69
290.91	172.69
291.141	159.69
291.371	157.69
291.602	158.69
291.833	147.69
292.064	177.69
292.295	176.69
292.526	185.69
292.757	172.69
292.987	153.69
293.218	171.69
293.449	179.69
293.68	178.69
293.91	178.69
294.141	157.69
294.372	164.69
294.603	177.69
294.833	168.69
295.064	170.69
295.295	169.69
295.525	157.69
295.756	157.69
295.987	164.69
296.217	191.69
296.448	197.69
296.679	183.69
296.909	186.69
297.14	168.69
297.37	183.69
297.601	168.69
297.831	159.69
298.062	187.69
298.292	179.69
298.523	173.69
298.753	170.69
298.984	181.69
299.214	181.69
299.445	176.69
299.675	171.69
299.905	183.69
300.136	177.69
300.366	183.69
300.597	208.69
300.827	181.69
301.057	186.69
301.288	186.69
301.518	210.69
301.748	193.69
301.979	195.69
302.209	197.69
302.439	172.69
302.669	191.69
302.9	181.69
303.13	194.69
303.36	198.69
303.59	188.69
303.82	187.69
304.051	202.69
304.281	199.69
304.511	186.69
304.741	174.69
304.971	187.69
305.201	195.69
305.431	185.69
305.661	179.69
305.891	187.69
306.121	181.69
306.352	199.69
306.582	183.69
306.812	168.69
307.042	173.69
307.272	171.69
307.502	184.69
307.731	191.69
307.961	193.69
308.191	189.69
308.421	198.69
308.651	194.69
308.881	186.69
309.111	199.69
309.341	189.69
309.571	194.69
309.8	231.69
310.03	201.69
310.26	212.69
310.49	212.69
310.72	219.69
310.949	236.69
311.179	235.69
311.409	211.69
311.639	192.69
311.868	194.69
312.098	195.69
312.328	215.69
312.557	222.69
312.787	241.69
313.017	219.69
313.246	209.69
313.476	204.69
313.706	198.69
313.935	223.69
314.165	211.69
314.394	236.69
314.624	223.69
314.853	210.69
315.083	216.69
315.312	204.69
315.542	207.69
315.771	210.69
316.001	212.69
316.23	211.69
316.46	189.69
316.689	217.69
316.919	222.69
317.148	232.69
317.377	229.69
317.607	211.69
317.836	204.69
318.065	211.69
318.295	222.69
318.524	215.69
318.753	195.69
318.983	203.69
319.212	212.69
319.441	209.69
319.67	220.69
319.9	220.69
320.129	210.69
320.358	211.69
320.587	217.69
320.816	205.69
321.046	215.69
321.275	224.69
321.504	215.69
321.733	235.69
321.962	227.69
322.191	231.69
322.42	258.69
322.649	251.69
322.878	258.69
323.108	255.69
323.337	272.69
323.566	279.69
323.795	298.69
324.024	327.69
324.253	389.69
324.482	540.69
324.71	826.69
324.939	1109.69
325.168	882.69
325.397	450.69
325.626	320.69
325.855	273.69
326.084	276.69
326.313	262.69
326.542	265.69
326.77	295.69
326.999	377.69
327.228	496.69
327.457	746.69
327.686	821.69
327.914	537.69
328.143	384.69
328.372	333.69
328.6	339.69
328.829	310.69
329.058	320.69
329.287	338.69
329.515	307.69
329.744	291.69
329.972	295.69
330.201	301.69
330.43	326.69
330.658	349.69
330.887	357.69
331.115	367.69
331.344	294.69
331.572	268.69
331.801	280.69
332.03	265.69
332.258	255.69
332.486	243.69
332.715	241.69
332.943	267.69
333.172	259.69
333.4	240.69
333.629	270.69
333.857	260.69
334.085	272.69
334.314	309.69
334.542	306.69
334.771	338.69
334.999	307.69
335.227	274.69
335.455	247.69
335.684	242.69
335.912	245.69
336.14	241.69
336.369	251.69
336.597	251.69
336.825	259.69
337.053	252.69
337.281	247.69
337.51	235.69
337.738	234.69
337.966	235.69
338.194	257.69
338.422	248.69
338.65	247.69
338.878	247.69
339.106	223.69
339.334	251.69
339.562	234.69
339.79	232.69
340.018	228.69
340.246	231.69
340.474	213.69
340.702	228.69
340.93	236.69
341.158	226.69
341.386	218.69
341.614	212.69
341.842	233.69
342.07	224.69
342.298	225.69
342.526	228.69
342.754	213.69
342.981	226.69
343.209	223.69
343.437	229.69
343.665	224.69
343.893	232.69
344.12	242.69
344.348	237.69
344.576	239.69
344.804	231.69
345.031	259.69
345.259	247.69
345.487	247.69
345.714	232.69
345.942	237.69
346.17	229.69
346.397	209.69
346.625	224.69
346.853	220.69
347.08	219.69
347.308	240.69
347.535	241.69
347.763	242.69
347.99	236.69
348.218	244.69
348.445	237.69
348.673	233.69
348.9	237.69
349.128	225.69
349.355	213.69
349.583	220.69
349.81	216.69
350.037	207.69
350.265	202.69
350.492	221.69
350.72	207.69
350.947	210.69
351.174	221.69
351.402	232.69
351.629	216.69
351.856	226.69
352.083	233.69
352.311	233.69
352.538	255.69
352.765	248.69
352.992	240.69
353.22	233.69
353.447	225.69
353.674	226.69
353.901	218.69
354.128	217.69
354.355	201.69
354.583	208.69
354.81	219.69
355.037	217.69
355.264	196.69
355.491	211.69
355.718	218.69
355.945	186.69
356.172	209.69
356.399	217.69
356.626	211.69
356.853	226.69
357.08	198.69
357.307	200.69
357.534	192.69
357.761	203.69
357.988	205.69
358.215	204.69
358.441	221.69
358.668	211.69
358.895	210.69
359.122	219.69
359.349	239.69
359.576	234.69
359.802	257.69
360.029	253.69
360.256	264.69
360.483	249.69
360.709	232.69
360.936	231.69
361.163	228.69
361.39	236.69
361.616	235.69
361.843	237.69
362.07	208.69
362.296	219.69
362.523	213.69
362.749	232.69
362.976	225.69
363.203	223.69
363.429	196.69
363.656	228.69
363.882	215.69
364.109	216.69
364.335	215.69
364.562	213.69
364.788	223.69
365.015	212.69
365.241	204.69
365.468	209.69
365.694	233.69
365.92	216.69
366.147	211.69
366.373	202.69
366.599	213.69
366.826	225.69
367.052	223.69
367.278	223.69
367.505	215.69
367.731	205.69
367.957	197.69
368.184	201.69
368.41	216.69
368.636	225.69
368.862	230.69
369.089	221.69
369.315	225.69
369.541	213.69
369.767	210.69
369.993	221.69
370.219	225.69
370.445	216.69
370.672	203.69
370.898	195.69
371.124	211.69
371.35	217.69
371.576	217.69
371.802	212.69
372.028	201.69
372.254	218.69
372.48	210.69
372.706	199.69
372.932	228.69
373.158	201.69
373.384	212.69
373.61	203.69
373.835	215.69
374.061	212.69
374.287	212.69
374.513	217.69
374.739	235.69
374.965	215.69
375.191	221.69
375.416	220.69
375.642	208.69
375.868	219.69
376.094	211.69
376.319	219.69
376.545	211.69
376.771	204.69
376.997	212.69
377.222	230.69
377.448	186.69
377.674	210.69
377.899	213.69
378.125	209.69
378.35	219.69
378.576	210.69
378.802	211.69
379.027	211.69
379.253	213.69
379.478	200.69
379.704	198.69
379.929	216.69
380.155	211.69
380.38	212.69
380.606	201.69
380.831	197.69
381.057	209.69
381.282	206.69
381.507	208.69
381.733	212.69
381.958	217.69
382.184	221.69
382.409	217.69
382.634	229.69
382.86	214.69
383.085	216.69
383.31	209.69
383.535	209.69
383.761	212.69
383.986	222.69
384.211	221.69
384.436	219.69
384.662	219.69
384.887	213.69
385.112	224.69
385.337	232.69
385.562	211.69
385.787	228.69
386.013	225.69
386.238	231.69
386.463	227.69
386.688	227.69
386.913	214.69
387.138	220.69
387.363	236.69
387.588	241.69
387.813	215.69
388.038	215.69
388.263	221.69
388.488	231.69
388.713	227.69
388.938	222.69
389.163	224.69
389.387	237.69
389.612	221.69
389.837	221.69
390.062	225.69
390.287	236.69
390.512	204.69
390.736	230.69
390.961	235.69
391.186	221.69
391.411	218.69
391.636	223.69
391.86	222.69
392.085	222.69
392.31	228.69
392.534	235.69
392.759	230.69
392.984	221.69
393.208	228.69
393.433	215.69
393.658	220.69
393.882	234.69
394.107	220.69
394.331	231.69
394.556	234.69
394.78	225.69
395.005	227.69
395.229	224.69
395.454	219.69
395.678	228.69
395.903	241.69
396.127	251.69
396.352	243.69
396.576	229.69
396.801	256.69
397.025	241.69
397.249	215.69
397.474	239.69
397.698	238.69
397.922	255.69
398.147	257.69
398.371	248.69
398.595	244.69
398.82	256.69
399.044	240.69
399.268	256.69
399.492	271.69
399.717	280.69
399.941	303.69
400.165	295.69
400.389	325.69
400.613	287.69
400.837	267.69
401.062	251.69
401.286	254.69
401.51	245.69
401.734	284.69
401.958	258.69
402.182	238.69
402.406	262.69
402.63	258.69
402.854	255.69
403.078	252.69
403.302	265.69
403.526	252.69
403.75	264.69
403.974	256.69
404.198	275.69
404.422	297.69
404.645	269.69
404.869	293.69
405.093	283.69
405.317	294.69
405.541	322.69
405.765	287.69
405.988	265.69
406.212	285.69
406.436	308.69
406.66	315.69
406.883	294.69
407.107	289.69
407.331	322.69
407.555	341.69
407.778	317.69
408.002	299.69
408.226	294.69
408.449	264.69
408.673	285.69
408.896	292.69
409.12	313.69
409.344	291.69
409.567	260.69
409.791	275.69
410.014	257.69
410.238	261.69
410.461	260.69
410.685	268.69
410.908	273.69
411.132	300.69
411.355	288.69
411.578	293.69
411.802	244.69
412.025	256.69
412.249	264.69
412.472	289.69
412.695	282.69
412.919	280.69
413.142	283.69
413.365	277.69
413.589	274.69
413.812	247.69
414.035	243.69
414.258	257.69
414.482	224.69
414.705	256.69
414.928	256.69
415.151	240.69
415.374	259.69
415.597	248.69
415.821	245.69
416.044	253.69
416.267	256.69
416.49	252.69
416.713	226.69
416.936	239.69
417.159	267.69
417.382	259.69
417.605	247.69
417.828	251.69
418.051	269.69
418.274	269.69
418.497	257.69
418.72	247.69
418.943	233.69
419.166	261.69
419.389	292.69
419.611	285.69
419.834	265.69
420.057	283.69
420.28	259.69
420.503	260.69
420.726	260.69
420.948	259.69
421.171	295.69
421.394	306.69
421.617	285.69
421.839	263.69
422.062	268.69
422.285	266.69
422.507	283.69
422.73	317.69
422.953	323.69
423.175	285.69
423.398	278.69
423.621	270.69
423.843	290.69
424.066	295.69
424.288	276.69
424.511	278.69
424.733	307.69
424.956	340.69
425.178	342.69
425.401	315.69
425.623	351.69
425.846	309.69
426.068	271.69
426.291	292.69
426.513	276.69
426.735	289.69
426.958	298.69
427.18	345.69
427.402	385.69
427.625	447.69
427.847	402.69
428.069	346.69
428.292	289.69
428.514	279.69
428.736	266.69
428.958	273.69
429.181	258.69
429.403	258.69
429.625	264.69
429.847	287.69
430.069	305.69
430.292	308.69
430.514	255.69
430.736	256.69
430.958	260.69
431.18	242.69
431.402	243.69
431.624	271.69
431.846	245.69
432.068	248.69
432.29	236.69
432.512	236.69
432.734	240.69
432.956	231.69
433.178	270.69
433.4	247.69
433.622	259.69
433.844	254.69
434.066	254.69
434.287	253.69
434.509	266.69
434.731	262.69
434.953	249.69
435.175	259.69
435.397	273.69
435.618	298.69
435.84	298.69
436.062	330.69
436.284	368.69
436.505	297.69
436.727	279.69
436.949	284.69
437.17	286.69
437.392	263.69
437.614	283.69
437.835	299.69
438.057	319.69
438.278	369.69
438.5	371.69
438.721	391.69
438.943	358.69
439.165	309.69
439.386	291.69
439.608	293.69
439.829	287.69
440.05	301.69
440.272	304.69
440.493	300.69
440.715	284.69
440.936	269.69
441.158	264.69
441.379	269.69
441.6	279.69
441.822	273.69
442.043	295.69
442.264	341.69
442.486	329.69
442.707	321.69
442.928	307.69
443.149	300.69
443.371	303.69
443.592	327.69
443.813	358.69
444.034	379.69
444.255	326.69
444.476	283.69
444.698	291.69
444.919	292.69
445.14	379.69
445.361	344.69
445.582	323.69
445.803	350.69
446.024	391.69
446.245	389.69
446.466	336.69
446.687	285.69
446.908	288.69
447.129	250.69
447.35	275.69
447.571	241.69
447.792	259.69
448.013	256.69
448.234	256.69
448.455	298.69
448.675	347.69
448.896	380.69
449.117	337.69
449.338	323.69
449.559	377.69
449.779	395.69
450	312.69
450.221	281.69
450.442	262.69
450.662	260.69
450.883	249.69
451.104	285.69
451.324	273.69
451.545	252.69
451.766	243.69
451.986	241.69
452.207	239.69
452.428	261.69
452.648	234.69
452.869	260.69
453.089	245.69
453.31	228.69
453.53	236.69
453.751	237.69
453.971	252.69
454.192	265.69
454.412	250.69
454.633	242.69
454.853	238.69
455.073	221.69
455.294	259.69
455.514	306.69
455.734	285.69
455.955	236.69
456.175	226.69
456.395	225.69
456.616	224.69
456.836	222.69
457.056	220.69
457.276	215.69
457.497	232.69
457.717	228.69
457.937	225.69
458.157	236.69
458.377	218.69
458.598	259.69
458.818	305.69
459.038	338.69
459.258	326.69
459.478	275.69
459.698	256.69
459.918	262.69
460.138	256.69
460.358	251.69
460.578	249.69
460.798	258.69
461.018	257.69
461.238	253.69
461.458	254.69
461.678	264.69
461.898	261.69
462.118	267.69
462.338	250.69
462.558	240.69
462.777	252.69
462.997	267.69
463.217	273.69
463.437	283.69
463.657	271.69
463.876	261.69
464.096	260.69
464.316	283.69
464.536	274.69
464.755	282.69
464.975	282.69
465.195	308.69
465.414	351.69
465.634	329.69
465.854	290.69
466.073	267.69
466.293	243.69
466.512	244.69
466.732	237.69
466.951	227.69
467.171	255.69
467.391	265.69
467.61	259.69
467.829	268.69
468.049	248.69
468.268	260.69
468.488	239.69
468.707	231.69
468.927	231.69
469.146	243.69
469.365	236.69
469.585	220.69
469.804	235.69
470.023	241.69
470.243	262.69
470.462	257.69
470.681	259.69
470.901	236.69
471.12	251.69
471.339	231.69
471.558	255.69
471.777	245.69
471.997	261.69
472.216	255.69
472.435	288.69
472.654	269.69
472.873	251.69
473.092	231.69
473.311	228.69
473.53	246.69
473.749	263.69
473.968	283.69
474.187	344.69
474.406	330.69
474.625	271.69
474.844	257.69
475.063	241.69
475.282	245.69
475.501	252.69
475.72	264.69
475.939	256.69
476.158	272.69
476.377	248.69
476.596	234.69
476.814	265.69
477.033	251.69
477.252	262.69
477.471	255.69
477.69	261.69
477.908	240.69
478.127	267.69
478.346	261.69
478.564	270.69
478.783	273.69
479.002	273.69
479.22	275.69
479.439	279.69
479.658	305.69
479.876	305.69
480.095	300.69
480.313	297.69
480.532	327.69
480.751	297.69
480.969	315.69
481.188	365.69
481.406	405.69
481.624	332.69
481.843	305.69
482.061	294.69
482.28	284.69
482.498	281.69
482.717	290.69
482.935	264.69
483.153	266.69
483.372	274.69
483.59	283.69
483.808	290.69
484.027	272.69
484.245	293.69
484.463	294.69
484.681	290.69
484.9	283.69
485.118	293.69
485.336	286.69
485.554	289.69
485.772	274.69
485.99	293.69
486.209	300.69
486.427	273.69
486.645	283.69
486.863	309.69
487.081	303.69
487.299	318.69
487.517	301.69
487.735	300.69
487.953	304.69
488.171	325.69
488.389	299.69
488.607	303.69
488.825	292.69
489.043	305.69
489.261	303.69
489.479	321.69
489.696	307.69
489.914	319.69
490.132	311.69
490.35	312.69
490.568	317.69
490.786	343.69
491.003	333.69
491.221	333.69
491.439	354.69
491.657	364.69
491.874	369.69
492.092	349.69
492.31	375.69
492.527	376.69
492.745	377.69
492.963	364.69
493.18	346.69
493.398	360.69
493.615	364.69
493.833	364.69
494.05	355.69
494.268	349.69
494.485	362.69
494.703	359.69
494.92	378.69
495.138	387.69
495.355	344.69
495.573	361.69
495.79	356.69
496.008	354.69
496.225	353.69
496.442	348.69
496.66	360.69
496.877	359.69
497.094	349.69
497.312	347.69
497.529	373.69
497.746	370.69
497.963	349.69
498.181	365.69
498.398	357.69
498.615	379.69
498.832	401.69
499.049	376.69
499.267	396.69
499.484	418.69
499.701	417.69
499.918	442.69
500.135	424.69
500.352	460.69
500.569	488.69
500.786	463.69
501.003	482.69
501.22	467.69
501.437	442.69
501.654	417.69
501.871	433.69
502.088	398.69
502.305	388.69
502.522	365.69
