Data from 1966.PennyLincolnUp.Lamp.En5.5.200Scan.071719.P1.Scan2.head_HRD10591_14-17-36-121.txt Node
Date: Thu Jul 18 14:17:36 EDT 2019
User: cochatt
Spectrometer: HR+D1059
Trigger mode: 1
Integration Time (sec): 1.000000E-1
Scans to average: 1
Electric dark correction enabled: true
Nonlinearity correction enabled: false
Boxcar width: 0
XAxis mode: Wavelengths
Number of Pixels in Spectrum: 2048
>>>>>Begin Spectral Data<<<<<
223.165	-22.12
223.4	-22.12
223.635	-22.12
223.869	-9.12
224.104	-7.12
224.338	-24.12
224.573	0.88
224.808	-14.12
225.042	10.88
225.277	-12.12
225.511	-3.12
225.746	-3.12
225.98	4.88
226.215	11.88
226.449	6.88
226.683	14.88
226.918	19.88
227.152	24.88
227.387	34.88
227.621	29.88
227.856	41.88
228.09	34.88
228.324	40.88
228.559	54.88
228.793	84.88
229.027	88.88
229.262	118.88
229.496	103.88
229.73	109.88
229.964	167.88
230.199	125.88
230.433	112.88
230.667	116.88
230.901	121.88
231.136	97.88
231.37	108.88
231.604	100.88
231.838	102.88
232.072	117.88
232.306	100.88
232.541	130.88
232.775	118.88
233.009	109.88
233.243	116.88
233.477	114.88
233.711	90.88
233.945	106.88
234.179	118.88
234.413	130.88
234.647	116.88
234.881	112.88
235.115	110.88
235.349	130.88
235.583	114.88
235.817	109.88
236.051	116.88
236.285	118.88
236.519	116.88
236.753	122.88
236.987	124.88
237.221	188.88
237.455	222.88
237.689	192.88
237.922	135.88
238.156	132.88
238.39	121.88
238.624	132.88
238.858	117.88
239.091	115.88
239.325	100.88
239.559	135.88
239.793	132.88
240.027	134.88
240.26	141.88
240.494	163.88
240.728	158.88
240.961	153.88
241.195	149.88
241.429	138.88
241.662	130.88
241.896	139.88
242.13	127.88
242.363	129.88
242.597	126.88
242.83	128.88
243.064	150.88
243.298	137.88
243.531	126.88
243.765	148.88
243.998	135.88
244.232	138.88
244.465	140.88
244.699	141.88
244.932	149.88
245.166	145.88
245.399	132.88
245.633	142.88
245.866	145.88
246.099	142.88
246.333	145.88
246.566	155.88
246.8	152.88
247.033	146.88
247.266	155.88
247.5	150.88
247.733	171.88
247.966	172.88
248.2	154.88
248.433	164.88
248.666	182.88
248.899	182.88
249.133	194.88
249.366	191.88
249.599	186.88
249.832	186.88
250.066	170.88
250.299	169.88
250.532	206.88
250.765	185.88
250.998	196.88
251.231	221.88
251.465	224.88
251.698	193.88
251.931	207.88
252.164	185.88
252.397	196.88
252.63	205.88
252.863	196.88
253.096	203.88
253.329	212.88
253.562	236.88
253.795	214.88
254.028	210.88
254.261	200.88
254.494	225.88
254.727	242.88
254.96	265.88
255.193	259.88
255.426	224.88
255.659	242.88
255.892	228.88
256.124	228.88
256.357	249.88
256.59	216.88
256.823	215.88
257.056	208.88
257.289	204.88
257.521	200.88
257.754	212.88
257.987	207.88
258.22	195.88
258.452	196.88
258.685	208.88
258.918	195.88
259.151	213.88
259.383	209.88
259.616	226.88
259.849	231.88
260.081	223.88
260.314	228.88
260.547	256.88
260.779	228.88
261.012	227.88
261.244	224.88
261.477	220.88
261.71	199.88
261.942	212.88
262.175	224.88
262.407	224.88
262.64	198.88
262.872	196.88
263.105	226.88
263.337	220.88
263.57	211.88
263.802	222.88
264.035	210.88
264.267	199.88
264.499	208.88
264.732	213.88
264.964	215.88
265.197	205.88
265.429	214.88
265.661	222.88
265.894	227.88
266.126	219.88
266.358	209.88
266.591	216.88
266.823	205.88
267.055	229.88
267.287	226.88
267.52	212.88
267.752	228.88
267.984	217.88
268.216	219.88
268.448	224.88
268.681	241.88
268.913	248.88
269.145	259.88
269.377	276.88
269.609	276.88
269.841	263.88
270.073	258.88
270.306	275.88
270.538	306.88
270.77	313.88
271.002	289.88
271.234	276.88
271.466	304.88
271.698	305.88
271.93	295.88
272.162	294.88
272.394	304.88
272.626	285.88
272.858	288.88
273.09	262.88
273.322	261.88
273.553	249.88
273.785	260.88
274.017	267.88
274.249	259.88
274.481	264.88
274.713	256.88
274.945	258.88
275.176	270.88
275.408	263.88
275.64	265.88
275.872	254.88
276.104	260.88
276.335	253.88
276.567	258.88
276.799	276.88
277.031	293.88
277.262	308.88
277.494	315.88
277.726	282.88
277.957	272.88
278.189	290.88
278.421	310.88
278.652	277.88
278.884	258.88
279.115	256.88
279.347	246.88
279.579	263.88
279.81	265.88
280.042	258.88
280.273	255.88
280.505	265.88
280.736	258.88
280.968	270.88
281.199	268.88
281.431	267.88
281.662	267.88
281.894	278.88
282.125	268.88
282.356	270.88
282.588	287.88
282.819	286.88
283.051	267.88
283.282	274.88
283.513	260.88
283.745	267.88
283.976	282.88
284.207	279.88
284.439	270.88
284.67	277.88
284.901	260.88
285.132	265.88
285.364	286.88
285.595	274.88
285.826	284.88
286.057	310.88
286.288	287.88
286.52	257.88
286.751	286.88
286.982	280.88
287.213	284.88
287.444	276.88
287.675	289.88
287.906	295.88
288.138	290.88
288.369	301.88
288.6	294.88
288.831	284.88
289.062	288.88
289.293	293.88
289.524	295.88
289.755	281.88
289.986	280.88
290.217	284.88
290.448	300.88
290.679	284.88
290.91	280.88
291.141	287.88
291.371	286.88
291.602	278.88
291.833	295.88
292.064	299.88
292.295	292.88
292.526	285.88
292.757	312.88
292.987	296.88
293.218	266.88
293.449	298.88
293.68	282.88
293.91	287.88
294.141	283.88
294.372	285.88
294.603	300.88
294.833	296.88
295.064	297.88
295.295	292.88
295.525	292.88
295.756	307.88
295.987	308.88
296.217	316.88
296.448	317.88
296.679	296.88
296.909	304.88
297.14	317.88
297.37	297.88
297.601	321.88
297.831	288.88
298.062	302.88
298.292	291.88
298.523	315.88
298.753	312.88
298.984	312.88
299.214	317.88
299.445	320.88
299.675	300.88
299.905	322.88
300.136	300.88
300.366	306.88
300.597	320.88
300.827	312.88
301.057	318.88
301.288	322.88
301.518	318.88
301.748	327.88
301.979	336.88
302.209	340.88
302.439	324.88
302.669	316.88
302.9	311.88
303.13	316.88
303.36	349.88
303.59	348.88
303.82	348.88
304.051	330.88
304.281	327.88
304.511	309.88
304.741	340.88
304.971	328.88
305.201	313.88
305.431	317.88
305.661	341.88
305.891	322.88
306.121	332.88
306.352	328.88
306.582	358.88
306.812	328.88
307.042	306.88
307.272	323.88
307.502	342.88
307.731	349.88
307.961	328.88
308.191	325.88
308.421	354.88
308.651	333.88
308.881	337.88
309.111	340.88
309.341	345.88
309.571	366.88
309.8	354.88
310.03	332.88
310.26	354.88
310.49	342.88
310.72	359.88
310.949	401.88
311.179	384.88
311.409	380.88
311.639	383.88
311.868	374.88
312.098	390.88
312.328	392.88
312.557	394.88
312.787	393.88
313.017	414.88
313.246	387.88
313.476	376.88
313.706	367.88
313.935	381.88
314.165	387.88
314.394	384.88
314.624	392.88
314.853	379.88
315.083	371.88
315.312	364.88
315.542	406.88
315.771	375.88
316.001	376.88
316.23	365.88
316.46	386.88
316.689	381.88
316.919	378.88
317.148	389.88
317.377	386.88
317.607	375.88
317.836	382.88
318.065	364.88
318.295	364.88
318.524	374.88
318.753	365.88
318.983	360.88
319.212	380.88
319.441	404.88
319.67	363.88
319.9	372.88
320.129	394.88
320.358	394.88
320.587	390.88
320.816	372.88
321.046	388.88
321.275	385.88
321.504	382.88
321.733	392.88
321.962	399.88
322.191	398.88
322.42	420.88
322.649	404.88
322.878	448.88
323.108	437.88
323.337	459.88
323.566	478.88
323.795	496.88
324.024	527.88
324.253	652.88
324.482	915.88
324.71	1401.88
324.939	2052.88
325.168	1819.88
325.397	884.88
325.626	595.88
325.855	501.88
326.084	489.88
326.313	463.88
326.542	484.88
326.77	498.88
326.999	611.88
327.228	818.88
327.457	1239.88
327.686	1550.88
327.914	1033.88
328.143	669.88
328.372	580.88
328.6	548.88
328.829	517.88
329.058	541.88
329.287	550.88
329.515	524.88
329.744	484.88
329.972	473.88
330.201	522.88
330.43	546.88
330.658	573.88
330.887	588.88
331.115	570.88
331.344	512.88
331.572	492.88
331.801	466.88
332.03	496.88
332.258	454.88
332.486	459.88
332.715	444.88
332.943	446.88
333.172	458.88
333.4	481.88
333.629	459.88
333.857	480.88
334.085	479.88
334.314	492.88
334.542	515.88
334.771	540.88
334.999	504.88
335.227	471.88
335.455	477.88
335.684	462.88
335.912	452.88
336.14	460.88
336.369	457.88
336.597	457.88
336.825	461.88
337.053	459.88
337.281	440.88
337.51	436.88
337.738	444.88
337.966	461.88
338.194	432.88
338.422	430.88
338.65	440.88
338.878	432.88
339.106	420.88
339.334	448.88
339.562	462.88
339.79	436.88
340.018	452.88
340.246	453.88
340.474	437.88
340.702	450.88
340.93	450.88
341.158	438.88
341.386	416.88
341.614	452.88
341.842	446.88
342.07	442.88
342.298	413.88
342.526	429.88
342.754	431.88
342.981	429.88
343.209	432.88
343.437	447.88
343.665	423.88
343.893	461.88
344.12	448.88
344.348	450.88
344.576	440.88
344.804	451.88
345.031	452.88
345.259	469.88
345.487	461.88
345.714	432.88
345.942	430.88
346.17	435.88
346.397	434.88
346.625	411.88
346.853	412.88
347.08	442.88
347.308	430.88
347.535	435.88
347.763	420.88
347.99	429.88
348.218	445.88
348.445	442.88
348.673	458.88
348.9	413.88
349.128	434.88
349.355	423.88
349.583	431.88
349.81	435.88
350.037	428.88
350.265	426.88
350.492	430.88
350.72	418.88
350.947	405.88
351.174	420.88
351.402	422.88
351.629	429.88
351.856	434.88
352.083	443.88
352.311	438.88
352.538	443.88
352.765	457.88
352.992	421.88
353.22	433.88
353.447	404.88
353.674	419.88
353.901	445.88
354.128	406.88
354.355	398.88
354.583	428.88
354.81	415.88
355.037	419.88
355.264	401.88
355.491	402.88
355.718	386.88
355.945	395.88
356.172	401.88
356.399	406.88
356.626	399.88
356.853	407.88
357.08	405.88
357.307	413.88
357.534	414.88
357.761	404.88
357.988	418.88
358.215	404.88
358.441	418.88
358.668	417.88
358.895	399.88
359.122	412.88
359.349	413.88
359.576	432.88
359.802	421.88
360.029	465.88
360.256	481.88
360.483	465.88
360.709	430.88
360.936	425.88
361.163	421.88
361.39	425.88
361.616	416.88
361.843	427.88
362.07	434.88
362.296	420.88
362.523	434.88
362.749	423.88
362.976	417.88
363.203	416.88
363.429	412.88
363.656	406.88
363.882	420.88
364.109	421.88
364.335	424.88
364.562	414.88
364.788	436.88
365.015	413.88
365.241	398.88
365.468	429.88
365.694	436.88
365.92	382.88
366.147	434.88
366.373	432.88
366.599	403.88
366.826	404.88
367.052	428.88
367.278	424.88
367.505	402.88
367.731	423.88
367.957	430.88
368.184	405.88
368.41	421.88
368.636	429.88
368.862	443.88
369.089	445.88
369.315	429.88
369.541	408.88
369.767	415.88
369.993	431.88
370.219	412.88
370.445	430.88
370.672	441.88
370.898	408.88
371.124	430.88
371.35	438.88
371.576	414.88
371.802	410.88
372.028	424.88
372.254	424.88
372.48	443.88
372.706	441.88
372.932	419.88
373.158	428.88
373.384	437.88
373.61	438.88
373.835	439.88
374.061	427.88
374.287	418.88
374.513	445.88
374.739	449.88
374.965	418.88
375.191	423.88
375.416	424.88
375.642	425.88
375.868	437.88
376.094	425.88
376.319	422.88
376.545	432.88
376.771	440.88
376.997	413.88
377.222	417.88
377.448	410.88
377.674	441.88
377.899	421.88
378.125	392.88
378.35	422.88
378.576	417.88
378.802	396.88
379.027	428.88
379.253	422.88
379.478	427.88
379.704	414.88
379.929	431.88
380.155	410.88
380.38	425.88
380.606	429.88
380.831	432.88
381.057	418.88
381.282	418.88
381.507	434.88
381.733	414.88
381.958	424.88
382.184	441.88
382.409	426.88
382.634	454.88
382.86	436.88
383.085	434.88
383.31	445.88
383.535	448.88
383.761	448.88
383.986	441.88
384.211	472.88
384.436	451.88
384.662	468.88
384.887	471.88
385.112	466.88
385.337	439.88
385.562	466.88
385.787	480.88
386.013	469.88
386.238	482.88
386.463	465.88
386.688	476.88
386.913	479.88
387.138	445.88
387.363	474.88
387.588	465.88
387.813	480.88
388.038	480.88
388.263	469.88
388.488	466.88
388.713	457.88
388.938	461.88
389.163	470.88
389.387	486.88
389.612	470.88
389.837	466.88
390.062	480.88
390.287	468.88
390.512	467.88
390.736	466.88
390.961	478.88
391.186	493.88
391.411	470.88
391.636	471.88
391.86	481.88
392.085	476.88
392.31	497.88
392.534	488.88
392.759	484.88
392.984	469.88
393.208	498.88
393.433	489.88
393.658	493.88
393.882	506.88
394.107	487.88
394.331	491.88
394.556	489.88
394.78	494.88
395.005	502.88
395.229	470.88
395.454	488.88
395.678	488.88
395.903	508.88
396.127	535.88
396.352	519.88
396.576	516.88
396.801	514.88
397.025	516.88
397.249	507.88
397.474	509.88
397.698	505.88
397.922	538.88
398.147	544.88
398.371	565.88
398.595	534.88
398.82	543.88
399.044	568.88
399.268	577.88
399.492	605.88
399.717	638.88
399.941	691.88
400.165	687.88
400.389	694.88
400.613	616.88
400.837	589.88
401.062	565.88
401.286	561.88
401.51	556.88
401.734	552.88
401.958	547.88
402.182	552.88
402.406	556.88
402.63	558.88
402.854	569.88
403.078	573.88
403.302	574.88
403.526	580.88
403.75	589.88
403.974	572.88
404.198	572.88
404.422	599.88
404.645	567.88
404.869	605.88
405.093	624.88
405.317	668.88
405.541	711.88
405.765	670.88
405.988	582.88
406.212	587.88
406.436	626.88
406.66	634.88
406.883	626.88
407.107	666.88
407.331	702.88
407.555	747.88
407.778	745.88
408.002	681.88
408.226	644.88
408.449	636.88
408.673	634.88
408.896	651.88
409.12	701.88
409.344	655.88
409.567	609.88
409.791	609.88
410.014	604.88
410.238	604.88
410.461	590.88
410.685	603.88
410.908	595.88
411.132	632.88
411.355	690.88
411.578	652.88
411.802	596.88
412.025	599.88
412.249	613.88
412.472	620.88
412.695	660.88
412.919	674.88
413.142	589.88
413.365	581.88
413.589	563.88
413.812	570.88
414.035	562.88
414.258	550.88
414.482	549.88
414.705	569.88
414.928	579.88
415.151	533.88
415.374	540.88
415.597	564.88
415.821	550.88
416.044	544.88
416.267	526.88
416.49	557.88
416.713	557.88
416.936	555.88
417.159	564.88
417.382	561.88
417.605	544.88
417.828	553.88
418.051	561.88
418.274	568.88
418.497	556.88
418.72	564.88
418.943	538.88
419.166	565.88
419.389	609.88
419.611	580.88
419.834	581.88
420.057	589.88
420.28	577.88
420.503	564.88
420.726	544.88
420.948	585.88
421.171	636.88
421.394	664.88
421.617	605.88
421.839	556.88
422.062	577.88
422.285	585.88
422.507	653.88
422.73	729.88
422.953	694.88
423.175	613.88
423.398	600.88
423.621	566.88
423.843	618.88
424.066	592.88
424.288	599.88
424.511	632.88
424.733	696.88
424.956	760.88
425.178	746.88
425.401	722.88
425.623	752.88
425.846	622.88
426.068	617.88
426.291	577.88
426.513	631.88
426.735	618.88
426.958	646.88
427.18	731.88
427.402	902.88
427.625	956.88
427.847	835.88
428.069	738.88
428.292	661.88
428.514	598.88
428.736	577.88
428.958	588.88
429.181	555.88
429.403	556.88
429.625	562.88
429.847	602.88
430.069	673.88
430.292	661.88
430.514	572.88
430.736	570.88
430.958	552.88
431.18	537.88
431.402	538.88
431.624	532.88
431.846	546.88
432.068	536.88
432.29	538.88
432.512	531.88
432.734	533.88
432.956	553.88
433.178	556.88
433.4	571.88
433.622	562.88
433.844	550.88
434.066	548.88
434.287	516.88
434.509	551.88
434.731	553.88
434.953	555.88
435.175	576.88
435.397	626.88
435.618	613.88
435.84	660.88
436.062	756.88
436.284	841.88
436.505	682.88
436.727	623.88
436.949	590.88
437.17	562.88
437.392	578.88
437.614	603.88
437.835	634.88
438.057	716.88
438.278	820.88
438.5	808.88
438.721	922.88
438.943	857.88
439.165	708.88
439.386	646.88
439.608	615.88
439.829	646.88
440.05	638.88
440.272	693.88
440.493	650.88
440.715	599.88
440.936	580.88
441.158	596.88
441.379	569.88
441.6	572.88
441.822	621.88
442.043	638.88
442.264	736.88
442.486	766.88
442.707	674.88
442.928	635.88
443.149	636.88
443.371	648.88
443.592	696.88
443.813	801.88
444.034	864.88
444.255	723.88
444.476	670.88
444.698	627.88
444.919	613.88
445.14	723.88
445.361	706.88
445.582	669.88
445.803	717.88
446.024	838.88
446.245	847.88
446.466	778.88
446.687	650.88
446.908	604.88
447.129	567.88
447.35	582.88
447.571	573.88
447.792	550.88
448.013	552.88
448.234	582.88
448.455	654.88
448.675	786.88
448.896	891.88
449.117	739.88
449.338	690.88
449.559	809.88
449.779	930.88
450	726.88
450.221	603.88
450.442	566.88
450.662	564.88
450.883	526.88
451.104	542.88
451.324	563.88
451.545	548.88
451.766	534.88
451.986	506.88
452.207	510.88
452.428	496.88
452.648	492.88
452.869	487.88
453.089	496.88
453.31	514.88
453.53	501.88
453.751	515.88
453.971	515.88
454.192	524.88
454.412	521.88
454.633	508.88
454.853	524.88
455.073	501.88
455.294	549.88
455.514	611.88
455.734	580.88
455.955	513.88
456.175	482.88
456.395	464.88
456.616	479.88
456.836	462.88
457.056	428.88
457.276	453.88
457.497	456.88
457.717	474.88
457.937	484.88
458.157	494.88
458.377	508.88
458.598	541.88
458.818	559.88
459.038	660.88
459.258	668.88
459.478	598.88
459.698	555.88
459.918	537.88
460.138	547.88
460.358	530.88
460.578	538.88
460.798	559.88
461.018	561.88
461.238	556.88
461.458	574.88
461.678	562.88
461.898	551.88
462.118	565.88
462.338	567.88
462.558	600.88
462.777	595.88
462.997	610.88
463.217	626.88
463.437	635.88
463.657	609.88
463.876	610.88
464.096	619.88
464.316	573.88
464.536	598.88
464.755	594.88
464.975	577.88
465.195	652.88
465.414	708.88
465.634	633.88
465.854	583.88
466.073	546.88
466.293	540.88
466.512	521.88
466.732	526.88
466.951	491.88
467.171	522.88
467.391	526.88
467.61	535.88
467.829	548.88
468.049	540.88
468.268	533.88
468.488	515.88
468.707	505.88
468.927	502.88
469.146	487.88
469.365	509.88
469.585	510.88
469.804	531.88
470.023	527.88
470.243	534.88
470.462	524.88
470.681	536.88
470.901	542.88
471.12	518.88
471.339	550.88
471.558	526.88
471.777	511.88
471.997	521.88
472.216	515.88
472.435	563.88
472.654	549.88
472.873	521.88
473.092	538.88
473.311	518.88
473.53	548.88
473.749	535.88
473.968	553.88
474.187	659.88
474.406	707.88
474.625	586.88
474.844	542.88
475.063	537.88
475.282	525.88
475.501	536.88
475.72	539.88
475.939	561.88
476.158	553.88
476.377	534.88
476.596	557.88
476.814	552.88
477.033	553.88
477.252	586.88
477.471	563.88
477.69	549.88
477.908	578.88
478.127	570.88
478.346	583.88
478.564	609.88
478.783	593.88
479.002	620.88
479.22	611.88
479.439	622.88
479.658	608.88
479.876	630.88
480.095	628.88
480.313	699.88
480.532	656.88
480.751	672.88
480.969	649.88
481.188	723.88
481.406	735.88
481.624	674.88
481.843	652.88
482.061	629.88
482.28	626.88
482.498	629.88
482.717	625.88
482.935	639.88
483.153	611.88
483.372	618.88
483.59	646.88
483.808	626.88
484.027	625.88
484.245	612.88
484.463	615.88
484.681	641.88
484.9	640.88
485.118	622.88
485.336	644.88
485.554	654.88
485.772	636.88
485.99	641.88
486.209	647.88
486.427	669.88
486.645	673.88
486.863	663.88
487.081	658.88
487.299	687.88
487.517	672.88
487.735	663.88
487.953	677.88
488.171	682.88
488.389	681.88
488.607	692.88
488.825	676.88
489.043	669.88
489.261	694.88
489.479	691.88
489.696	706.88
489.914	680.88
490.132	693.88
490.35	696.88
490.568	702.88
490.786	701.88
491.003	721.88
491.221	725.88
491.439	731.88
491.657	760.88
491.874	738.88
492.092	786.88
492.31	773.88
492.527	779.88
492.745	764.88
492.963	788.88
493.18	782.88
493.398	794.88
493.615	817.88
493.833	792.88
494.05	778.88
494.268	791.88
494.485	761.88
494.703	772.88
494.92	812.88
495.138	791.88
495.355	785.88
495.573	782.88
495.79	790.88
496.008	811.88
496.225	824.88
496.442	797.88
496.66	828.88
496.877	798.88
497.094	800.88
497.312	813.88
497.529	849.88
497.746	838.88
497.963	864.88
498.181	873.88
498.398	871.88
498.615	878.88
498.832	901.88
499.049	950.88
499.267	974.88
499.484	992.88
499.701	1020.88
499.918	1059.88
500.135	1116.88
500.352	1158.88
500.569	1159.88
500.786	1139.88
501.003	1145.88
501.22	1120.88
501.437	1104.88
501.654	1049.88
