Data from 1966.PennyLincolnUp.Lamp.En5.5.200Scan.071719.P1.Scan2.head_HRD10591_14-17-11-088.txt Node
Date: Thu Jul 18 14:17:11 EDT 2019
User: cochatt
Spectrometer: HR+D1059
Trigger mode: 1
Integration Time (sec): 1.000000E-1
Scans to average: 1
Electric dark correction enabled: true
Nonlinearity correction enabled: false
Boxcar width: 0
XAxis mode: Wavelengths
Number of Pixels in Spectrum: 2048
>>>>>Begin Spectral Data<<<<<
223.165	-16.56
223.4	-16.56
223.635	-16.56
223.869	-9.56
224.104	-20.56
224.338	-25.56
224.573	-26.56
224.808	-21.56
225.042	-5.56
225.277	-1.56
225.511	3.44
225.746	7.44
225.98	13.44
226.215	12.44
226.449	22.44
226.683	12.44
226.918	32.44
227.152	23.44
227.387	43.44
227.621	45.44
227.856	35.44
228.09	42.44
228.324	54.44
228.559	49.44
228.793	53.44
229.027	104.44
229.262	104.44
229.496	114.44
229.73	139.44
229.964	142.44
230.199	116.44
230.433	102.44
230.667	101.44
230.901	109.44
231.136	125.44
231.37	110.44
231.604	111.44
231.838	124.44
232.072	114.44
232.306	104.44
232.541	101.44
232.775	122.44
233.009	116.44
233.243	116.44
233.477	126.44
233.711	124.44
233.945	103.44
234.179	122.44
234.413	128.44
234.647	127.44
234.881	118.44
235.115	133.44
235.349	120.44
235.583	114.44
235.817	130.44
236.051	128.44
236.285	108.44
236.519	111.44
236.753	123.44
236.987	139.44
237.221	173.44
237.455	226.44
237.689	184.44
237.922	130.44
238.156	141.44
238.39	133.44
238.624	112.44
238.858	124.44
239.091	125.44
239.325	121.44
239.559	125.44
239.793	127.44
240.027	130.44
240.26	136.44
240.494	159.44
240.728	147.44
240.961	158.44
241.195	140.44
241.429	124.44
241.662	123.44
241.896	133.44
242.13	140.44
242.363	130.44
242.597	132.44
242.83	145.44
243.064	141.44
243.298	123.44
243.531	146.44
243.765	142.44
243.998	138.44
244.232	151.44
244.465	156.44
244.699	145.44
244.932	137.44
245.166	164.44
245.399	156.44
245.633	156.44
245.866	169.44
246.099	138.44
246.333	135.44
246.566	143.44
246.8	161.44
247.033	155.44
247.266	156.44
247.5	167.44
247.733	166.44
247.966	167.44
248.2	185.44
248.433	158.44
248.666	166.44
248.899	187.44
249.133	185.44
249.366	203.44
249.599	205.44
249.832	194.44
250.066	174.44
250.299	180.44
250.532	200.44
250.765	199.44
250.998	215.44
251.231	202.44
251.465	213.44
251.698	210.44
251.931	217.44
252.164	205.44
252.397	207.44
252.63	203.44
252.863	187.44
253.096	223.44
253.329	226.44
253.562	224.44
253.795	206.44
254.028	217.44
254.261	201.44
254.494	222.44
254.727	215.44
254.96	257.44
255.193	268.44
255.426	238.44
255.659	208.44
255.892	232.44
256.124	221.44
256.357	221.44
256.59	216.44
256.823	225.44
257.056	194.44
257.289	207.44
257.521	189.44
257.754	192.44
257.987	205.44
258.22	197.44
258.452	205.44
258.685	196.44
258.918	200.44
259.151	215.44
259.383	219.44
259.616	202.44
259.849	218.44
260.081	223.44
260.314	249.44
260.547	244.44
260.779	242.44
261.012	227.44
261.244	226.44
261.477	237.44
261.71	231.44
261.942	234.44
262.175	232.44
262.407	227.44
262.64	217.44
262.872	204.44
263.105	203.44
263.337	231.44
263.57	212.44
263.802	228.44
264.035	215.44
264.267	221.44
264.499	216.44
264.732	196.44
264.964	203.44
265.197	199.44
265.429	233.44
265.661	230.44
265.894	229.44
266.126	213.44
266.358	221.44
266.591	228.44
266.823	222.44
267.055	224.44
267.287	251.44
267.52	223.44
267.752	214.44
267.984	236.44
268.216	224.44
268.448	229.44
268.681	234.44
268.913	239.44
269.145	242.44
269.377	262.44
269.609	267.44
269.841	274.44
270.073	262.44
270.306	264.44
270.538	276.44
270.77	290.44
271.002	285.44
271.234	273.44
271.466	285.44
271.698	302.44
271.93	297.44
272.162	308.44
272.394	292.44
272.626	296.44
272.858	278.44
273.09	264.44
273.322	278.44
273.553	256.44
273.785	275.44
274.017	262.44
274.249	246.44
274.481	263.44
274.713	260.44
274.945	254.44
275.176	256.44
275.408	263.44
275.64	253.44
275.872	280.44
276.104	276.44
276.335	257.44
276.567	260.44
276.799	275.44
277.031	310.44
277.262	298.44
277.494	314.44
277.726	271.44
277.957	270.44
278.189	260.44
278.421	265.44
278.652	266.44
278.884	250.44
279.115	250.44
279.347	268.44
279.579	265.44
279.81	256.44
280.042	277.44
280.273	281.44
280.505	262.44
280.736	249.44
280.968	262.44
281.199	268.44
281.431	266.44
281.662	279.44
281.894	284.44
282.125	278.44
282.356	292.44
282.588	301.44
282.819	310.44
283.051	280.44
283.282	295.44
283.513	254.44
283.745	278.44
283.976	279.44
284.207	303.44
284.439	279.44
284.67	273.44
284.901	289.44
285.132	271.44
285.364	267.44
285.595	279.44
285.826	282.44
286.057	295.44
286.288	268.44
286.52	288.44
286.751	281.44
286.982	282.44
287.213	278.44
287.444	260.44
287.675	278.44
287.906	310.44
288.138	315.44
288.369	304.44
288.6	296.44
288.831	301.44
289.062	294.44
289.293	315.44
289.524	288.44
289.755	287.44
289.986	265.44
290.217	298.44
290.448	278.44
290.679	292.44
290.91	277.44
291.141	278.44
291.371	285.44
291.602	273.44
291.833	288.44
292.064	290.44
292.295	293.44
292.526	298.44
292.757	297.44
292.987	295.44
293.218	299.44
293.449	287.44
293.68	282.44
293.91	282.44
294.141	272.44
294.372	283.44
294.603	293.44
294.833	303.44
295.064	287.44
295.295	284.44
295.525	301.44
295.756	296.44
295.987	286.44
296.217	288.44
296.448	334.44
296.679	316.44
296.909	283.44
297.14	297.44
297.37	294.44
297.601	302.44
297.831	307.44
298.062	285.44
298.292	303.44
298.523	309.44
298.753	322.44
298.984	299.44
299.214	295.44
299.445	301.44
299.675	309.44
299.905	308.44
300.136	314.44
300.366	315.44
300.597	311.44
300.827	318.44
301.057	331.44
301.288	312.44
301.518	327.44
301.748	338.44
301.979	322.44
302.209	315.44
302.439	344.44
302.669	326.44
302.9	330.44
303.13	326.44
303.36	319.44
303.59	327.44
303.82	340.44
304.051	343.44
304.281	324.44
304.511	321.44
304.741	333.44
304.971	324.44
305.201	326.44
305.431	327.44
305.661	345.44
305.891	324.44
306.121	328.44
306.352	320.44
306.582	300.44
306.812	318.44
307.042	338.44
307.272	327.44
307.502	322.44
307.731	349.44
307.961	328.44
308.191	327.44
308.421	345.44
308.651	334.44
308.881	337.44
309.111	322.44
309.341	358.44
309.571	338.44
309.8	342.44
310.03	359.44
310.26	366.44
310.49	363.44
310.72	372.44
310.949	378.44
311.179	384.44
311.409	386.44
311.639	363.44
311.868	370.44
312.098	390.44
312.328	382.44
312.557	382.44
312.787	381.44
313.017	385.44
313.246	380.44
313.476	376.44
313.706	376.44
313.935	376.44
314.165	376.44
314.394	406.44
314.624	373.44
314.853	394.44
315.083	372.44
315.312	375.44
315.542	362.44
315.771	380.44
316.001	360.44
316.23	370.44
316.46	360.44
316.689	376.44
316.919	380.44
317.148	381.44
317.377	357.44
317.607	362.44
317.836	382.44
318.065	380.44
318.295	380.44
318.524	382.44
318.753	373.44
318.983	379.44
319.212	377.44
319.441	390.44
319.67	382.44
319.9	386.44
320.129	370.44
320.358	400.44
320.587	382.44
320.816	392.44
321.046	397.44
321.275	408.44
321.504	388.44
321.733	405.44
321.962	401.44
322.191	408.44
322.42	412.44
322.649	430.44
322.878	440.44
323.108	438.44
323.337	458.44
323.566	477.44
323.795	514.44
324.024	534.44
324.253	634.44
324.482	870.44
324.71	1314.44
324.939	1964.44
325.168	1688.44
325.397	853.44
325.626	608.44
325.855	507.44
326.084	484.44
326.313	475.44
326.542	485.44
326.77	516.44
326.999	580.44
327.228	802.44
327.457	1232.44
327.686	1504.44
327.914	980.44
328.143	642.44
328.372	565.44
328.6	546.44
328.829	543.44
329.058	531.44
329.287	558.44
329.515	500.44
329.744	461.44
329.972	480.44
330.201	524.44
330.43	528.44
330.658	552.44
330.887	588.44
331.115	555.44
331.344	516.44
331.572	472.44
331.801	475.44
332.03	473.44
332.258	475.44
332.486	459.44
332.715	456.44
332.943	445.44
333.172	453.44
333.4	467.44
333.629	466.44
333.857	481.44
334.085	499.44
334.314	484.44
334.542	531.44
334.771	548.44
334.999	500.44
335.227	473.44
335.455	458.44
335.684	445.44
335.912	459.44
336.14	463.44
336.369	463.44
336.597	465.44
336.825	463.44
337.053	469.44
337.281	434.44
337.51	424.44
337.738	449.44
337.966	456.44
338.194	454.44
338.422	459.44
338.65	441.44
338.878	452.44
339.106	439.44
339.334	447.44
339.562	426.44
339.79	445.44
340.018	418.44
340.246	434.44
340.474	449.44
340.702	420.44
340.93	430.44
341.158	427.44
341.386	416.44
341.614	435.44
341.842	439.44
342.07	428.44
342.298	432.44
342.526	428.44
342.754	445.44
342.981	434.44
343.209	421.44
343.437	423.44
343.665	420.44
343.893	443.44
344.12	436.44
344.348	447.44
344.576	461.44
344.804	440.44
345.031	467.44
345.259	457.44
345.487	454.44
345.714	419.44
345.942	410.44
346.17	431.44
346.397	444.44
346.625	434.44
346.853	426.44
347.08	429.44
347.308	434.44
347.535	428.44
347.763	438.44
347.99	434.44
348.218	435.44
348.445	435.44
348.673	435.44
348.9	464.44
349.128	426.44
349.355	418.44
349.583	426.44
349.81	411.44
350.037	409.44
350.265	416.44
350.492	408.44
350.72	403.44
350.947	410.44
351.174	426.44
351.402	454.44
351.629	419.44
351.856	429.44
352.083	440.44
352.311	440.44
352.538	428.44
352.765	450.44
352.992	440.44
353.22	442.44
353.447	426.44
353.674	413.44
353.901	424.44
354.128	415.44
354.355	422.44
354.583	408.44
354.81	406.44
355.037	408.44
355.264	398.44
355.491	397.44
355.718	372.44
355.945	386.44
356.172	411.44
356.399	394.44
356.626	394.44
356.853	401.44
357.08	403.44
357.307	379.44
357.534	394.44
357.761	414.44
357.988	402.44
358.215	399.44
358.441	393.44
358.668	398.44
358.895	412.44
359.122	414.44
359.349	430.44
359.576	417.44
359.802	415.44
360.029	458.44
360.256	465.44
360.483	460.44
360.709	441.44
360.936	438.44
361.163	422.44
361.39	421.44
361.616	439.44
361.843	448.44
362.07	434.44
362.296	447.44
362.523	429.44
362.749	428.44
362.976	433.44
363.203	418.44
363.429	428.44
363.656	427.44
363.882	418.44
364.109	445.44
364.335	408.44
364.562	436.44
364.788	412.44
365.015	431.44
365.241	415.44
365.468	436.44
365.694	434.44
365.92	449.44
366.147	394.44
366.373	394.44
366.599	422.44
366.826	411.44
367.052	423.44
367.278	413.44
367.505	415.44
367.731	421.44
367.957	420.44
368.184	431.44
368.41	451.44
368.636	414.44
368.862	452.44
369.089	416.44
369.315	414.44
369.541	424.44
369.767	435.44
369.993	429.44
370.219	418.44
370.445	425.44
370.672	405.44
370.898	412.44
371.124	423.44
371.35	434.44
371.576	430.44
371.802	427.44
372.028	426.44
372.254	423.44
372.48	440.44
372.706	447.44
372.932	440.44
373.158	444.44
373.384	446.44
373.61	437.44
373.835	432.44
374.061	425.44
374.287	428.44
374.513	458.44
374.739	435.44
374.965	439.44
375.191	443.44
375.416	439.44
375.642	441.44
375.868	435.44
376.094	443.44
376.319	430.44
376.545	437.44
376.771	417.44
376.997	419.44
377.222	431.44
377.448	435.44
377.674	427.44
377.899	420.44
378.125	411.44
378.35	409.44
378.576	412.44
378.802	424.44
379.027	406.44
379.253	430.44
379.478	416.44
379.704	434.44
379.929	434.44
380.155	418.44
380.38	431.44
380.606	432.44
380.831	417.44
381.057	442.44
381.282	436.44
381.507	406.44
381.733	436.44
381.958	428.44
382.184	424.44
382.409	455.44
382.634	448.44
382.86	434.44
383.085	459.44
383.31	432.44
383.535	435.44
383.761	447.44
383.986	460.44
384.211	477.44
384.436	438.44
384.662	449.44
384.887	460.44
385.112	483.44
385.337	463.44
385.562	476.44
385.787	458.44
386.013	490.44
386.238	479.44
386.463	477.44
386.688	493.44
386.913	477.44
387.138	477.44
387.363	479.44
387.588	478.44
387.813	491.44
388.038	480.44
388.263	486.44
388.488	466.44
388.713	482.44
388.938	482.44
389.163	470.44
389.387	477.44
389.612	463.44
389.837	480.44
390.062	470.44
390.287	472.44
390.512	487.44
390.736	471.44
390.961	495.44
391.186	495.44
391.411	483.44
391.636	473.44
391.86	510.44
392.085	495.44
392.31	509.44
392.534	506.44
392.759	503.44
392.984	482.44
393.208	488.44
393.433	502.44
393.658	525.44
393.882	484.44
394.107	481.44
394.331	499.44
394.556	487.44
394.78	494.44
395.005	506.44
395.229	501.44
395.454	514.44
395.678	525.44
395.903	537.44
396.127	526.44
396.352	534.44
396.576	529.44
396.801	516.44
397.025	530.44
397.249	523.44
397.474	519.44
397.698	513.44
397.922	527.44
398.147	555.44
398.371	574.44
398.595	548.44
398.82	553.44
399.044	601.44
399.268	587.44
399.492	633.44
399.717	671.44
399.941	658.44
400.165	681.44
400.389	696.44
400.613	635.44
400.837	604.44
401.062	585.44
401.286	570.44
401.51	570.44
401.734	581.44
401.958	572.44
402.182	593.44
402.406	596.44
402.63	557.44
402.854	574.44
403.078	574.44
403.302	587.44
403.526	578.44
403.75	590.44
403.974	583.44
404.198	584.44
404.422	598.44
404.645	591.44
404.869	618.44
405.093	616.44
405.317	676.44
405.541	703.44
405.765	621.44
405.988	624.44
406.212	635.44
406.436	619.44
406.66	639.44
406.883	634.44
407.107	667.44
407.331	690.44
407.555	751.44
407.778	766.44
408.002	692.44
408.226	648.44
408.449	624.44
408.673	668.44
408.896	672.44
409.12	699.44
409.344	663.44
409.567	617.44
409.791	604.44
410.014	608.44
410.238	580.44
410.461	574.44
410.685	580.44
410.908	600.44
411.132	631.44
411.355	674.44
411.578	634.44
411.802	586.44
412.025	572.44
412.249	594.44
412.472	630.44
412.695	649.44
412.919	641.44
413.142	606.44
413.365	593.44
413.589	589.44
413.812	560.44
414.035	547.44
414.258	566.44
414.482	580.44
414.705	566.44
414.928	553.44
415.151	546.44
415.374	542.44
415.597	533.44
415.821	560.44
416.044	539.44
416.267	526.44
416.49	553.44
416.713	543.44
416.936	567.44
417.159	554.44
417.382	544.44
417.605	534.44
417.828	557.44
418.051	581.44
418.274	552.44
418.497	537.44
418.72	540.44
418.943	576.44
419.166	566.44
419.389	590.44
419.611	590.44
419.834	583.44
420.057	597.44
420.28	581.44
420.503	542.44
420.726	583.44
420.948	575.44
421.171	616.44
421.394	641.44
421.617	607.44
421.839	582.44
422.062	583.44
422.285	599.44
422.507	634.44
422.73	709.44
422.953	690.44
423.175	628.44
423.398	598.44
423.621	624.44
423.843	648.44
424.066	614.44
424.288	602.44
424.511	633.44
424.733	679.44
424.956	770.44
425.178	738.44
425.401	723.44
425.623	756.44
425.846	656.44
426.068	604.44
426.291	592.44
426.513	599.44
426.735	626.44
426.958	658.44
427.18	744.44
427.402	865.44
427.625	967.44
427.847	828.44
428.069	728.44
428.292	668.44
428.514	606.44
428.736	582.44
428.958	597.44
429.181	569.44
429.403	560.44
429.625	573.44
429.847	599.44
430.069	680.44
430.292	683.44
430.514	571.44
430.736	557.44
430.958	540.44
431.18	538.44
431.402	540.44
431.624	534.44
431.846	522.44
432.068	525.44
432.29	567.44
432.512	543.44
432.734	554.44
432.956	562.44
433.178	543.44
433.4	559.44
433.622	559.44
433.844	534.44
434.066	556.44
434.287	530.44
434.509	538.44
434.731	565.44
434.953	567.44
435.175	577.44
435.397	602.44
435.618	609.44
435.84	637.44
436.062	740.44
436.284	820.44
436.505	679.44
436.727	631.44
436.949	594.44
437.17	570.44
437.392	594.44
437.614	563.44
437.835	597.44
438.057	702.44
438.278	822.44
438.5	799.44
438.721	897.44
438.943	849.44
439.165	664.44
439.386	615.44
439.608	584.44
439.829	607.44
440.05	646.44
440.272	678.44
440.493	643.44
440.715	588.44
440.936	586.44
441.158	599.44
441.379	574.44
441.6	602.44
441.822	599.44
442.043	637.44
442.264	729.44
442.486	785.44
442.707	663.44
442.928	628.44
443.149	628.44
443.371	657.44
443.592	679.44
443.813	784.44
444.034	876.44
444.255	692.44
444.476	633.44
444.698	636.44
444.919	628.44
445.14	727.44
445.361	662.44
445.582	669.44
445.803	727.44
446.024	805.44
446.245	810.44
446.466	739.44
446.687	646.44
446.908	619.44
447.129	584.44
447.35	566.44
447.571	587.44
447.792	570.44
448.013	571.44
448.234	579.44
448.455	628.44
448.675	736.44
448.896	901.44
449.117	726.44
449.338	690.44
449.559	827.44
449.779	923.44
450	730.44
450.221	606.44
450.442	578.44
450.662	559.44
450.883	564.44
451.104	554.44
451.324	544.44
451.545	551.44
451.766	503.44
451.986	516.44
452.207	519.44
452.428	495.44
452.648	522.44
452.869	518.44
453.089	491.44
453.31	534.44
453.53	504.44
453.751	501.44
453.971	487.44
454.192	521.44
454.412	486.44
454.633	506.44
454.853	502.44
455.073	502.44
455.294	527.44
455.514	567.44
455.734	590.44
455.955	500.44
456.175	475.44
456.395	471.44
456.616	471.44
456.836	513.44
457.056	484.44
457.276	470.44
457.497	475.44
457.717	492.44
457.937	494.44
458.157	505.44
458.377	514.44
458.598	524.44
458.818	567.44
459.038	641.44
459.258	664.44
459.478	572.44
459.698	559.44
459.918	543.44
460.138	557.44
460.358	546.44
460.578	551.44
460.798	552.44
461.018	555.44
461.238	557.44
461.458	566.44
461.678	553.44
461.898	563.44
462.118	557.44
462.338	603.44
462.558	584.44
462.777	596.44
462.997	623.44
463.217	612.44
463.437	621.44
463.657	608.44
463.876	621.44
464.096	606.44
464.316	613.44
464.536	636.44
464.755	598.44
464.975	593.44
465.195	622.44
465.414	703.44
465.634	607.44
465.854	588.44
466.073	550.44
466.293	536.44
466.512	527.44
466.732	529.44
466.951	525.44
467.171	522.44
467.391	511.44
467.61	536.44
467.829	555.44
468.049	528.44
468.268	531.44
468.488	521.44
468.707	521.44
468.927	503.44
469.146	506.44
469.365	518.44
469.585	498.44
469.804	521.44
470.023	538.44
470.243	529.44
470.462	538.44
470.681	557.44
470.901	559.44
471.12	536.44
471.339	516.44
471.558	515.44
471.777	546.44
471.997	539.44
472.216	525.44
472.435	568.44
472.654	549.44
472.873	528.44
473.092	525.44
473.311	534.44
473.53	538.44
473.749	539.44
473.968	574.44
474.187	652.44
474.406	690.44
474.625	599.44
474.844	567.44
475.063	525.44
475.282	544.44
475.501	532.44
475.72	565.44
475.939	539.44
476.158	554.44
476.377	552.44
476.596	552.44
476.814	543.44
477.033	542.44
477.252	563.44
477.471	568.44
477.69	589.44
477.908	575.44
478.127	598.44
478.346	569.44
478.564	608.44
478.783	587.44
479.002	610.44
479.22	630.44
479.439	614.44
479.658	606.44
479.876	634.44
480.095	647.44
480.313	677.44
480.532	640.44
480.751	658.44
480.969	662.44
481.188	722.44
481.406	748.44
481.624	675.44
481.843	654.44
482.061	652.44
482.28	628.44
482.498	629.44
482.717	647.44
482.935	632.44
483.153	640.44
483.372	652.44
483.59	632.44
483.808	614.44
484.027	618.44
484.245	648.44
484.463	634.44
484.681	644.44
484.9	628.44
485.118	643.44
485.336	637.44
485.554	629.44
485.772	637.44
485.99	626.44
486.209	654.44
486.427	640.44
486.645	680.44
486.863	679.44
487.081	699.44
487.299	655.44
487.517	650.44
487.735	663.44
487.953	682.44
488.171	676.44
488.389	652.44
488.607	682.44
488.825	690.44
489.043	695.44
489.261	654.44
489.479	666.44
489.696	660.44
489.914	666.44
490.132	706.44
490.35	679.44
490.568	712.44
490.786	703.44
491.003	720.44
491.221	735.44
491.439	735.44
491.657	752.44
491.874	727.44
492.092	738.44
492.31	770.44
492.527	755.44
492.745	776.44
492.963	781.44
493.18	786.44
493.398	799.44
493.615	760.44
493.833	791.44
494.05	776.44
494.268	790.44
494.485	770.44
494.703	780.44
494.92	777.44
495.138	790.44
495.355	763.44
495.573	800.44
495.79	806.44
496.008	800.44
496.225	820.44
496.442	794.44
496.66	779.44
496.877	805.44
497.094	790.44
497.312	838.44
497.529	830.44
497.746	827.44
497.963	830.44
498.181	855.44
498.398	890.44
498.615	904.44
498.832	933.44
499.049	944.44
499.267	949.44
499.484	984.44
499.701	1033.44
499.918	1064.44
500.135	1131.44
500.352	1147.44
500.569	1178.44
500.786	1201.44
501.003	1178.44
501.22	1150.44
501.437	1123.44
501.654	1061.44
