Data from 1966.PennyLincolnUp.Lamp.En5.5.200Scan.071719.P1._HRD10591_14-12-47-915.txt Node
Date: Thu Jul 18 14:12:47 EDT 2019
User: cochatt
Spectrometer: HR+D1059
Trigger mode: 1
Integration Time (sec): 1.000000E-1
Scans to average: 1
Electric dark correction enabled: true
Nonlinearity correction enabled: false
Boxcar width: 0
XAxis mode: Wavelengths
Number of Pixels in Spectrum: 2048
>>>>>Begin Spectral Data<<<<<
223.165	-13.62
223.4	-13.62
223.635	-13.62
223.869	-9.62
224.104	-11.62
224.338	-9.62
224.573	-8.62
224.808	-27.62
225.042	-11.62
225.277	-4.62
225.511	-8.62
225.746	10.38
225.98	-2.62
226.215	14.38
226.449	12.38
226.683	21.38
226.918	21.38
227.152	28.38
227.387	28.38
227.621	31.38
227.856	42.38
228.09	38.38
228.324	51.38
228.559	53.38
228.793	59.38
229.027	58.38
229.262	70.38
229.496	80.38
229.73	87.38
229.964	103.38
230.199	105.38
230.433	89.38
230.667	103.38
230.901	93.38
231.136	86.38
231.37	89.38
231.604	96.38
231.838	89.38
232.072	84.38
232.306	92.38
232.541	105.38
232.775	105.38
233.009	98.38
233.243	98.38
233.477	90.38
233.711	99.38
233.945	98.38
234.179	85.38
234.413	92.38
234.647	97.38
234.881	92.38
235.115	100.38
235.349	98.38
235.583	94.38
235.817	86.38
236.051	100.38
236.285	93.38
236.519	86.38
236.753	106.38
236.987	108.38
237.221	122.38
237.455	138.38
237.689	123.38
237.922	112.38
238.156	113.38
238.39	88.38
238.624	103.38
238.858	100.38
239.091	87.38
239.325	97.38
239.559	104.38
239.793	84.38
240.027	117.38
240.26	100.38
240.494	105.38
240.728	123.38
240.961	94.38
241.195	88.38
241.429	94.38
241.662	88.38
241.896	97.38
242.13	87.38
242.363	81.38
242.597	105.38
242.83	112.38
243.064	88.38
243.298	109.38
243.531	104.38
243.765	88.38
243.998	101.38
244.232	100.38
244.465	108.38
244.699	109.38
244.932	110.38
245.166	108.38
245.399	101.38
245.633	103.38
245.866	111.38
246.099	111.38
246.333	112.38
246.566	107.38
246.8	109.38
247.033	107.38
247.266	112.38
247.5	107.38
247.733	105.38
247.966	110.38
248.2	119.38
248.433	125.38
248.666	120.38
248.899	129.38
249.133	131.38
249.366	128.38
249.599	130.38
249.832	121.38
250.066	126.38
250.299	123.38
250.532	120.38
250.765	135.38
250.998	132.38
251.231	141.38
251.465	143.38
251.698	122.38
251.931	131.38
252.164	144.38
252.397	127.38
252.63	130.38
252.863	133.38
253.096	150.38
253.329	139.38
253.562	125.38
253.795	139.38
254.028	131.38
254.261	132.38
254.494	145.38
254.727	161.38
254.96	186.38
255.193	144.38
255.426	138.38
255.659	153.38
255.892	144.38
256.124	135.38
256.357	147.38
256.59	136.38
256.823	142.38
257.056	128.38
257.289	137.38
257.521	141.38
257.754	130.38
257.987	137.38
258.22	138.38
258.452	127.38
258.685	134.38
258.918	139.38
259.151	131.38
259.383	126.38
259.616	145.38
259.849	122.38
260.081	151.38
260.314	141.38
260.547	158.38
260.779	152.38
261.012	133.38
261.244	135.38
261.477	149.38
261.71	140.38
261.942	131.38
262.175	146.38
262.407	144.38
262.64	131.38
262.872	121.38
263.105	138.38
263.337	142.38
263.57	127.38
263.802	130.38
264.035	136.38
264.267	136.38
264.499	141.38
264.732	135.38
264.964	136.38
265.197	122.38
265.429	137.38
265.661	134.38
265.894	127.38
266.126	133.38
266.358	141.38
266.591	139.38
266.823	135.38
267.055	141.38
267.287	133.38
267.52	132.38
267.752	146.38
267.984	145.38
268.216	145.38
268.448	144.38
268.681	139.38
268.913	139.38
269.145	121.38
269.377	149.38
269.609	145.38
269.841	145.38
270.073	181.38
270.306	166.38
270.538	172.38
270.77	177.38
271.002	184.38
271.234	166.38
271.466	179.38
271.698	169.38
271.93	177.38
272.162	184.38
272.394	175.38
272.626	172.38
272.858	165.38
273.09	149.38
273.322	146.38
273.553	153.38
273.785	151.38
274.017	151.38
274.249	162.38
274.481	163.38
274.713	159.38
274.945	161.38
275.176	157.38
275.408	168.38
275.64	145.38
275.872	143.38
276.104	154.38
276.335	171.38
276.567	175.38
276.799	172.38
277.031	189.38
277.262	206.38
277.494	189.38
277.726	157.38
277.957	168.38
278.189	158.38
278.421	153.38
278.652	162.38
278.884	165.38
279.115	161.38
279.347	154.38
279.579	160.38
279.81	156.38
280.042	166.38
280.273	164.38
280.505	151.38
280.736	154.38
280.968	152.38
281.199	175.38
281.431	155.38
281.662	169.38
281.894	156.38
282.125	165.38
282.356	171.38
282.588	175.38
282.819	169.38
283.051	155.38
283.282	153.38
283.513	182.38
283.745	159.38
283.976	159.38
284.207	162.38
284.439	165.38
284.67	173.38
284.901	161.38
285.132	154.38
285.364	159.38
285.595	162.38
285.826	166.38
286.057	169.38
286.288	175.38
286.52	159.38
286.751	157.38
286.982	165.38
287.213	158.38
287.444	171.38
287.675	165.38
287.906	185.38
288.138	182.38
288.369	177.38
288.6	171.38
288.831	175.38
289.062	186.38
289.293	182.38
289.524	165.38
289.755	164.38
289.986	166.38
290.217	166.38
290.448	165.38
290.679	169.38
290.91	160.38
291.141	161.38
291.371	157.38
291.602	165.38
291.833	169.38
292.064	170.38
292.295	165.38
292.526	185.38
292.757	159.38
292.987	155.38
293.218	168.38
293.449	163.38
293.68	167.38
293.91	153.38
294.141	172.38
294.372	160.38
294.603	169.38
294.833	168.38
295.064	153.38
295.295	159.38
295.525	175.38
295.756	169.38
295.987	181.38
296.217	202.38
296.448	192.38
296.679	166.38
296.909	169.38
297.14	166.38
297.37	192.38
297.601	164.38
297.831	169.38
298.062	157.38
298.292	179.38
298.523	175.38
298.753	159.38
298.984	185.38
299.214	159.38
299.445	168.38
299.675	178.38
299.905	177.38
300.136	182.38
300.366	168.38
300.597	189.38
300.827	177.38
301.057	177.38
301.288	177.38
301.518	178.38
301.748	190.38
301.979	190.38
302.209	180.38
302.439	183.38
302.669	189.38
302.9	174.38
303.13	171.38
303.36	189.38
303.59	181.38
303.82	197.38
304.051	174.38
304.281	172.38
304.511	193.38
304.741	176.38
304.971	182.38
305.201	174.38
305.431	173.38
305.661	188.38
305.891	167.38
306.121	174.38
306.352	160.38
306.582	188.38
306.812	187.38
307.042	197.38
307.272	178.38
307.502	176.38
307.731	184.38
307.961	182.38
308.191	186.38
308.421	183.38
308.651	185.38
308.881	188.38
309.111	183.38
309.341	189.38
309.571	178.38
309.8	190.38
310.03	197.38
310.26	178.38
310.49	190.38
310.72	190.38
310.949	205.38
311.179	195.38
311.409	199.38
311.639	195.38
311.868	200.38
312.098	205.38
312.328	208.38
312.557	205.38
312.787	229.38
313.017	226.38
313.246	203.38
313.476	189.38
313.706	199.38
313.935	211.38
314.165	200.38
314.394	207.38
314.624	223.38
314.853	208.38
315.083	197.38
315.312	202.38
315.542	193.38
315.771	203.38
316.001	186.38
316.23	198.38
316.46	208.38
316.689	199.38
316.919	193.38
317.148	209.38
317.377	202.38
317.607	201.38
317.836	188.38
318.065	198.38
318.295	212.38
318.524	202.38
318.753	204.38
318.983	195.38
319.212	193.38
319.441	205.38
319.67	221.38
319.9	212.38
320.129	195.38
320.358	209.38
320.587	207.38
320.816	211.38
321.046	226.38
321.275	213.38
321.504	218.38
321.733	232.38
321.962	201.38
322.191	224.38
322.42	229.38
322.649	240.38
322.878	235.38
323.108	247.38
323.337	234.38
323.566	257.38
323.795	267.38
324.024	313.38
324.253	341.38
324.482	485.38
324.71	698.38
324.939	975.38
325.168	787.38
325.397	411.38
325.626	295.38
325.855	267.38
326.084	256.38
326.313	233.38
326.542	253.38
326.77	275.38
326.999	323.38
327.228	430.38
327.457	623.38
327.686	717.38
327.914	470.38
328.143	351.38
328.372	304.38
328.6	287.38
328.829	271.38
329.058	293.38
329.287	302.38
329.515	268.38
329.744	254.38
329.972	254.38
330.201	265.38
330.43	276.38
330.658	313.38
330.887	322.38
331.115	315.38
331.344	270.38
331.572	264.38
331.801	243.38
332.03	231.38
332.258	234.38
332.486	237.38
332.715	223.38
332.943	227.38
333.172	220.38
333.4	236.38
333.629	246.38
333.857	260.38
334.085	260.38
334.314	277.38
334.542	301.38
334.771	284.38
334.999	269.38
335.227	237.38
335.455	239.38
335.684	248.38
335.912	232.38
336.14	230.38
336.369	231.38
336.597	243.38
336.825	215.38
337.053	240.38
337.281	215.38
337.51	222.38
337.738	225.38
337.966	207.38
338.194	235.38
338.422	227.38
338.65	246.38
338.878	213.38
339.106	210.38
339.334	225.38
339.562	235.38
339.79	217.38
340.018	221.38
340.246	225.38
340.474	228.38
340.702	228.38
340.93	218.38
341.158	233.38
341.386	221.38
341.614	224.38
341.842	221.38
342.07	211.38
342.298	219.38
342.526	221.38
342.754	221.38
342.981	224.38
343.209	226.38
343.437	220.38
343.665	225.38
343.893	232.38
344.12	242.38
344.348	217.38
344.576	216.38
344.804	233.38
345.031	232.38
345.259	237.38
345.487	226.38
345.714	233.38
345.942	201.38
346.17	225.38
346.397	219.38
346.625	198.38
346.853	222.38
347.08	206.38
347.308	223.38
347.535	220.38
347.763	237.38
347.99	214.38
348.218	212.38
348.445	224.38
348.673	249.38
348.9	226.38
349.128	228.38
349.355	208.38
349.583	215.38
349.81	204.38
350.037	211.38
350.265	207.38
350.492	188.38
350.72	191.38
350.947	195.38
351.174	226.38
351.402	206.38
351.629	221.38
351.856	204.38
352.083	215.38
352.311	205.38
352.538	217.38
352.765	222.38
352.992	223.38
353.22	238.38
353.447	216.38
353.674	202.38
353.901	220.38
354.128	204.38
354.355	216.38
354.583	214.38
354.81	199.38
355.037	202.38
355.264	192.38
355.491	203.38
355.718	205.38
355.945	192.38
356.172	201.38
356.399	191.38
356.626	210.38
356.853	198.38
357.08	202.38
357.307	198.38
357.534	202.38
357.761	189.38
357.988	189.38
358.215	207.38
358.441	201.38
358.668	205.38
358.895	202.38
359.122	205.38
359.349	200.38
359.576	222.38
359.802	229.38
360.029	232.38
360.256	238.38
360.483	255.38
360.709	210.38
360.936	215.38
361.163	221.38
361.39	217.38
361.616	223.38
361.843	234.38
362.07	215.38
362.296	217.38
362.523	207.38
362.749	224.38
362.976	204.38
363.203	215.38
363.429	207.38
363.656	197.38
363.882	182.38
364.109	207.38
364.335	213.38
364.562	192.38
364.788	193.38
365.015	200.38
365.241	202.38
365.468	208.38
365.694	216.38
365.92	209.38
366.147	209.38
366.373	195.38
366.599	210.38
366.826	212.38
367.052	191.38
367.278	202.38
367.505	201.38
367.731	208.38
367.957	208.38
368.184	215.38
368.41	207.38
368.636	231.38
368.862	226.38
369.089	201.38
369.315	209.38
369.541	209.38
369.767	208.38
369.993	211.38
370.219	208.38
370.445	206.38
370.672	222.38
370.898	212.38
371.124	207.38
371.35	193.38
371.576	196.38
371.802	203.38
372.028	205.38
372.254	191.38
372.48	205.38
372.706	200.38
372.932	194.38
373.158	207.38
373.384	210.38
373.61	207.38
373.835	198.38
374.061	195.38
374.287	207.38
374.513	204.38
374.739	197.38
374.965	217.38
375.191	209.38
375.416	201.38
375.642	199.38
375.868	210.38
376.094	203.38
376.319	197.38
376.545	199.38
376.771	201.38
376.997	188.38
377.222	210.38
377.448	210.38
377.674	206.38
377.899	195.38
378.125	198.38
378.35	209.38
378.576	220.38
378.802	201.38
379.027	219.38
379.253	209.38
379.478	205.38
379.704	203.38
379.929	209.38
380.155	199.38
380.38	205.38
380.606	221.38
380.831	203.38
381.057	199.38
381.282	196.38
381.507	212.38
381.733	211.38
381.958	213.38
382.184	201.38
382.409	215.38
382.634	208.38
382.86	213.38
383.085	212.38
383.31	228.38
383.535	202.38
383.761	212.38
383.986	204.38
384.211	209.38
384.436	221.38
384.662	217.38
384.887	209.38
385.112	200.38
385.337	229.38
385.562	227.38
385.787	220.38
386.013	210.38
386.238	222.38
386.463	221.38
386.688	210.38
386.913	208.38
387.138	225.38
387.363	218.38
387.588	224.38
387.813	228.38
388.038	227.38
388.263	215.38
388.488	214.38
388.713	214.38
388.938	224.38
389.163	197.38
389.387	211.38
389.612	211.38
389.837	216.38
390.062	225.38
390.287	200.38
390.512	202.38
390.736	221.38
390.961	217.38
391.186	212.38
391.411	214.38
391.636	210.38
391.86	234.38
392.085	225.38
392.31	218.38
392.534	228.38
392.759	236.38
392.984	232.38
393.208	229.38
393.433	219.38
393.658	238.38
393.882	225.38
394.107	223.38
394.331	232.38
394.556	236.38
394.78	238.38
395.005	210.38
395.229	217.38
395.454	226.38
395.678	235.38
395.903	205.38
396.127	259.38
396.352	247.38
396.576	227.38
396.801	237.38
397.025	239.38
397.249	236.38
397.474	262.38
397.698	233.38
397.922	234.38
398.147	234.38
398.371	241.38
398.595	233.38
398.82	239.38
399.044	255.38
399.268	257.38
399.492	261.38
399.717	288.38
399.941	293.38
400.165	292.38
400.389	290.38
400.613	273.38
400.837	259.38
401.062	245.38
401.286	246.38
401.51	244.38
401.734	246.38
401.958	227.38
402.182	247.38
402.406	257.38
402.63	271.38
402.854	259.38
403.078	222.38
403.302	251.38
403.526	271.38
403.75	265.38
403.974	263.38
404.198	261.38
404.422	250.38
404.645	270.38
404.869	264.38
405.093	273.38
405.317	281.38
405.541	305.38
405.765	285.38
405.988	270.38
406.212	269.38
406.436	286.38
406.66	297.38
406.883	262.38
407.107	309.38
407.331	295.38
407.555	299.38
407.778	300.38
408.002	302.38
408.226	266.38
408.449	278.38
408.673	253.38
408.896	291.38
409.12	300.38
409.344	294.38
409.567	263.38
409.791	255.38
410.014	256.38
410.238	266.38
410.461	245.38
410.685	261.38
410.908	274.38
411.132	281.38
411.355	283.38
411.578	290.38
411.802	261.38
412.025	242.38
412.249	257.38
412.472	278.38
412.695	279.38
412.919	282.38
413.142	266.38
413.365	258.38
413.589	248.38
413.812	252.38
414.035	261.38
414.258	252.38
414.482	250.38
414.705	249.38
414.928	254.38
415.151	242.38
415.374	219.38
415.597	233.38
415.821	238.38
416.044	246.38
416.267	271.38
416.49	237.38
416.713	232.38
416.936	242.38
417.159	230.38
417.382	233.38
417.605	254.38
417.828	248.38
418.051	263.38
418.274	258.38
418.497	261.38
418.72	238.38
418.943	242.38
419.166	263.38
419.389	258.38
419.611	266.38
419.834	267.38
420.057	270.38
420.28	261.38
420.503	270.38
420.726	257.38
420.948	264.38
421.171	292.38
421.394	295.38
421.617	281.38
421.839	269.38
422.062	279.38
422.285	265.38
422.507	282.38
422.73	325.38
422.953	303.38
423.175	277.38
423.398	279.38
423.621	265.38
423.843	279.38
424.066	270.38
424.288	279.38
424.511	282.38
424.733	299.38
424.956	334.38
425.178	327.38
425.401	315.38
425.623	329.38
425.846	281.38
426.068	265.38
426.291	277.38
426.513	270.38
426.735	265.38
426.958	269.38
427.18	318.38
427.402	394.38
427.625	393.38
427.847	340.38
428.069	305.38
428.292	271.38
428.514	272.38
428.736	235.38
428.958	261.38
429.181	253.38
429.403	234.38
429.625	251.38
429.847	291.38
430.069	301.38
430.292	277.38
430.514	262.38
430.736	258.38
430.958	239.38
431.18	238.38
431.402	238.38
431.624	242.38
431.846	249.38
432.068	236.38
432.29	233.38
432.512	240.38
432.734	234.38
432.956	241.38
433.178	265.38
433.4	251.38
433.622	245.38
433.844	235.38
434.066	255.38
434.287	229.38
434.509	248.38
434.731	263.38
434.953	262.38
435.175	266.38
435.397	284.38
435.618	262.38
435.84	281.38
436.062	320.38
436.284	343.38
436.505	289.38
436.727	253.38
436.949	265.38
437.17	261.38
437.392	232.38
437.614	252.38
437.835	265.38
438.057	295.38
438.278	357.38
438.5	343.38
438.721	366.38
438.943	343.38
439.165	291.38
439.386	279.38
439.608	283.38
439.829	256.38
440.05	298.38
440.272	311.38
440.493	271.38
440.715	259.38
440.936	258.38
441.158	246.38
441.379	277.38
441.6	257.38
441.822	263.38
442.043	284.38
442.264	329.38
442.486	346.38
442.707	273.38
442.928	271.38
443.149	270.38
443.371	287.38
443.592	313.38
443.813	349.38
444.034	360.38
444.255	303.38
444.476	287.38
444.698	286.38
444.919	275.38
445.14	350.38
445.361	337.38
445.582	311.38
445.803	329.38
446.024	373.38
446.245	364.38
446.466	324.38
446.687	269.38
446.908	265.38
447.129	248.38
447.35	259.38
447.571	236.38
447.792	247.38
448.013	250.38
448.234	253.38
448.455	285.38
448.675	316.38
448.896	361.38
449.117	302.38
449.338	287.38
449.559	351.38
449.779	378.38
450	307.38
450.221	266.38
450.442	268.38
450.662	252.38
450.883	248.38
451.104	271.38
451.324	251.38
451.545	246.38
451.766	242.38
451.986	229.38
452.207	234.38
452.428	227.38
452.648	233.38
452.869	223.38
453.089	237.38
453.31	246.38
453.53	229.38
453.751	224.38
453.971	232.38
454.192	245.38
454.412	246.38
454.633	235.38
454.853	232.38
455.073	213.38
455.294	230.38
455.514	269.38
455.734	277.38
455.955	234.38
456.175	221.38
456.395	215.38
456.616	210.38
456.836	213.38
457.056	223.38
457.276	222.38
457.497	214.38
457.717	210.38
457.937	224.38
458.157	243.38
458.377	228.38
458.598	232.38
458.818	269.38
459.038	302.38
459.258	322.38
459.478	265.38
459.698	254.38
459.918	243.38
460.138	249.38
460.358	239.38
460.578	232.38
460.798	263.38
461.018	252.38
461.238	240.38
461.458	241.38
461.678	223.38
461.898	233.38
462.118	251.38
462.338	249.38
462.558	255.38
462.777	257.38
462.997	261.38
463.217	266.38
463.437	251.38
463.657	255.38
463.876	273.38
464.096	254.38
464.316	257.38
464.536	277.38
464.755	249.38
464.975	259.38
465.195	305.38
465.414	354.38
465.634	283.38
465.854	259.38
466.073	235.38
466.293	226.38
466.512	247.38
466.732	227.38
466.951	236.38
467.171	245.38
467.391	218.38
467.61	246.38
467.829	247.38
468.049	245.38
468.268	248.38
468.488	227.38
468.707	213.38
468.927	222.38
469.146	222.38
469.365	230.38
469.585	230.38
469.804	243.38
470.023	230.38
470.243	241.38
470.462	241.38
470.681	250.38
470.901	237.38
471.12	229.38
471.339	256.38
471.558	223.38
471.777	229.38
471.997	236.38
472.216	259.38
472.435	265.38
472.654	253.38
472.873	235.38
473.092	213.38
473.311	234.38
473.53	223.38
473.749	242.38
473.968	276.38
474.187	305.38
474.406	300.38
474.625	252.38
474.844	237.38
475.063	247.38
475.282	238.38
475.501	232.38
475.72	234.38
475.939	243.38
476.158	241.38
476.377	234.38
476.596	245.38
476.814	248.38
477.033	232.38
477.252	239.38
477.471	265.38
477.69	265.38
477.908	262.38
478.127	261.38
478.346	256.38
478.564	265.38
478.783	267.38
479.002	252.38
479.22	265.38
479.439	271.38
479.658	287.38
479.876	281.38
480.095	294.38
480.313	273.38
480.532	291.38
480.751	293.38
480.969	306.38
481.188	350.38
481.406	335.38
481.624	311.38
481.843	283.38
482.061	265.38
482.28	250.38
482.498	275.38
482.717	271.38
482.935	277.38
483.153	280.38
483.372	283.38
483.59	269.38
483.808	247.38
484.027	261.38
484.245	261.38
484.463	287.38
484.681	285.38
484.9	274.38
485.118	272.38
485.336	275.38
485.554	273.38
485.772	286.38
485.99	276.38
486.209	284.38
486.427	277.38
486.645	271.38
486.863	311.38
487.081	289.38
487.299	273.38
487.517	290.38
487.735	287.38
487.953	287.38
488.171	296.38
488.389	289.38
488.607	285.38
488.825	281.38
489.043	300.38
489.261	295.38
489.479	297.38
489.696	293.38
489.914	305.38
490.132	288.38
490.35	304.38
490.568	304.38
490.786	314.38
491.003	305.38
491.221	343.38
491.439	336.38
491.657	327.38
491.874	333.38
492.092	320.38
492.31	336.38
492.527	353.38
492.745	343.38
492.963	339.38
493.18	341.38
493.398	343.38
493.615	352.38
493.833	326.38
494.05	337.38
494.268	341.38
494.485	352.38
494.703	337.38
494.92	333.38
495.138	344.38
495.355	349.38
495.573	342.38
495.79	328.38
496.008	345.38
496.225	333.38
496.442	337.38
496.66	333.38
496.877	330.38
497.094	337.38
497.312	321.38
497.529	344.38
497.746	339.38
497.963	338.38
498.181	356.38
498.398	339.38
498.615	353.38
498.832	362.38
499.049	358.38
499.267	382.38
499.484	381.38
499.701	394.38
499.918	435.38
500.135	431.38
500.352	442.38
500.569	442.38
500.786	458.38
501.003	443.38
501.22	433.38
501.437	414.38
501.654	423.38
501.871	406.38
502.088	387.38
502.305	370.38
502.522	373.38
