Data from 1966.PennyLincolnUp.Lamp.En5.5.200Scan.071719.P1._HRD10591_14-12-32-913.txt Node
Date: Thu Jul 18 14:12:32 EDT 2019
User: cochatt
Spectrometer: HR+D1059
Trigger mode: 1
Integration Time (sec): 1.000000E-1
Scans to average: 1
Electric dark correction enabled: true
Nonlinearity correction enabled: false
Boxcar width: 0
XAxis mode: Wavelengths
Number of Pixels in Spectrum: 2048
>>>>>Begin Spectral Data<<<<<
223.165	-12.62
223.4	-12.62
223.635	-12.62
223.869	-6.62
224.104	-17.62
224.338	-17.62
224.573	-14.62
224.808	-23.62
225.042	-14.62
225.277	4.38
225.511	3.38
225.746	0.38
225.98	-5.62
226.215	4.38
226.449	21.38
226.683	26.38
226.918	25.38
227.152	27.38
227.387	35.38
227.621	32.38
227.856	43.38
228.09	49.38
228.324	38.38
228.559	72.38
228.793	75.38
229.027	77.38
229.262	81.38
229.496	89.38
229.73	77.38
229.964	103.38
230.199	82.38
230.433	89.38
230.667	88.38
230.901	98.38
231.136	97.38
231.37	95.38
231.604	89.38
231.838	79.38
232.072	93.38
232.306	76.38
232.541	96.38
232.775	89.38
233.009	92.38
233.243	97.38
233.477	90.38
233.711	97.38
233.945	98.38
234.179	99.38
234.413	88.38
234.647	101.38
234.881	97.38
235.115	98.38
235.349	96.38
235.583	89.38
235.817	93.38
236.051	102.38
236.285	93.38
236.519	92.38
236.753	100.38
236.987	101.38
237.221	132.38
237.455	146.38
237.689	120.38
237.922	109.38
238.156	99.38
238.39	105.38
238.624	100.38
238.858	106.38
239.091	96.38
239.325	112.38
239.559	97.38
239.793	95.38
240.027	90.38
240.26	99.38
240.494	93.38
240.728	102.38
240.961	105.38
241.195	102.38
241.429	96.38
241.662	87.38
241.896	91.38
242.13	108.38
242.363	102.38
242.597	93.38
242.83	102.38
243.064	105.38
243.298	100.38
243.531	104.38
243.765	111.38
243.998	122.38
244.232	101.38
244.465	110.38
244.699	118.38
244.932	97.38
245.166	103.38
245.399	97.38
245.633	109.38
245.866	85.38
246.099	108.38
246.333	106.38
246.566	105.38
246.8	89.38
247.033	97.38
247.266	113.38
247.5	108.38
247.733	116.38
247.966	108.38
248.2	111.38
248.433	104.38
248.666	129.38
248.899	115.38
249.133	111.38
249.366	121.38
249.599	123.38
249.832	115.38
250.066	116.38
250.299	133.38
250.532	110.38
250.765	141.38
250.998	139.38
251.231	131.38
251.465	137.38
251.698	110.38
251.931	119.38
252.164	123.38
252.397	121.38
252.63	128.38
252.863	131.38
253.096	134.38
253.329	143.38
253.562	137.38
253.795	129.38
254.028	135.38
254.261	124.38
254.494	146.38
254.727	160.38
254.96	139.38
255.193	146.38
255.426	134.38
255.659	129.38
255.892	131.38
256.124	128.38
256.357	131.38
256.59	131.38
256.823	135.38
257.056	117.38
257.289	127.38
257.521	134.38
257.754	119.38
257.987	124.38
258.22	135.38
258.452	127.38
258.685	128.38
258.918	121.38
259.151	128.38
259.383	119.38
259.616	139.38
259.849	151.38
260.081	141.38
260.314	141.38
260.547	139.38
260.779	144.38
261.012	125.38
261.244	128.38
261.477	129.38
261.71	131.38
261.942	133.38
262.175	123.38
262.407	124.38
262.64	133.38
262.872	112.38
263.105	127.38
263.337	125.38
263.57	135.38
263.802	128.38
264.035	135.38
264.267	128.38
264.499	131.38
264.732	123.38
264.964	136.38
265.197	140.38
265.429	124.38
265.661	121.38
265.894	127.38
266.126	129.38
266.358	128.38
266.591	129.38
266.823	127.38
267.055	140.38
267.287	121.38
267.52	129.38
267.752	139.38
267.984	143.38
268.216	116.38
268.448	131.38
268.681	146.38
268.913	133.38
269.145	148.38
269.377	167.38
269.609	150.38
269.841	145.38
270.073	145.38
270.306	166.38
270.538	170.38
270.77	170.38
271.002	168.38
271.234	162.38
271.466	171.38
271.698	156.38
271.93	167.38
272.162	177.38
272.394	163.38
272.626	154.38
272.858	181.38
273.09	149.38
273.322	140.38
273.553	162.38
273.785	135.38
274.017	150.38
274.249	159.38
274.481	156.38
274.713	139.38
274.945	163.38
275.176	138.38
275.408	155.38
275.64	144.38
275.872	145.38
276.104	146.38
276.335	157.38
276.567	137.38
276.799	167.38
277.031	160.38
277.262	176.38
277.494	180.38
277.726	163.38
277.957	149.38
278.189	153.38
278.421	141.38
278.652	155.38
278.884	132.38
279.115	144.38
279.347	144.38
279.579	144.38
279.81	137.38
280.042	138.38
280.273	159.38
280.505	150.38
280.736	141.38
280.968	159.38
281.199	166.38
281.431	153.38
281.662	142.38
281.894	145.38
282.125	166.38
282.356	160.38
282.588	172.38
282.819	171.38
283.051	137.38
283.282	145.38
283.513	150.38
283.745	163.38
283.976	166.38
284.207	145.38
284.439	134.38
284.67	151.38
284.901	159.38
285.132	150.38
285.364	143.38
285.595	155.38
285.826	147.38
286.057	146.38
286.288	157.38
286.52	149.38
286.751	147.38
286.982	147.38
287.213	144.38
287.444	137.38
287.675	158.38
287.906	164.38
288.138	165.38
288.369	169.38
288.6	175.38
288.831	163.38
289.062	177.38
289.293	175.38
289.524	148.38
289.755	157.38
289.986	150.38
290.217	156.38
290.448	161.38
290.679	140.38
290.91	141.38
291.141	151.38
291.371	157.38
291.602	166.38
291.833	168.38
292.064	155.38
292.295	144.38
292.526	163.38
292.757	151.38
292.987	144.38
293.218	144.38
293.449	149.38
293.68	161.38
293.91	161.38
294.141	160.38
294.372	154.38
294.603	155.38
294.833	161.38
295.064	145.38
295.295	155.38
295.525	161.38
295.756	155.38
295.987	170.38
296.217	177.38
296.448	172.38
296.679	150.38
296.909	169.38
297.14	152.38
297.37	149.38
297.601	160.38
297.831	163.38
298.062	162.38
298.292	162.38
298.523	167.38
298.753	163.38
298.984	167.38
299.214	159.38
299.445	172.38
299.675	152.38
299.905	161.38
300.136	151.38
300.366	158.38
300.597	170.38
300.827	165.38
301.057	175.38
301.288	180.38
301.518	167.38
301.748	172.38
301.979	161.38
302.209	163.38
302.439	174.38
302.669	192.38
302.9	182.38
303.13	160.38
303.36	197.38
303.59	176.38
303.82	176.38
304.051	177.38
304.281	153.38
304.511	172.38
304.741	165.38
304.971	174.38
305.201	171.38
305.431	189.38
305.661	169.38
305.891	179.38
306.121	171.38
306.352	181.38
306.582	200.38
306.812	163.38
307.042	159.38
307.272	166.38
307.502	173.38
307.731	161.38
307.961	180.38
308.191	171.38
308.421	153.38
308.651	181.38
308.881	171.38
309.111	169.38
309.341	186.38
309.571	181.38
309.8	181.38
310.03	180.38
310.26	174.38
310.49	194.38
310.72	179.38
310.949	200.38
311.179	204.38
311.409	181.38
311.639	177.38
311.868	177.38
312.098	189.38
312.328	187.38
312.557	196.38
312.787	206.38
313.017	206.38
313.246	202.38
313.476	188.38
313.706	182.38
313.935	195.38
314.165	195.38
314.394	208.38
314.624	190.38
314.853	197.38
315.083	184.38
315.312	183.38
315.542	193.38
315.771	192.38
316.001	185.38
316.23	189.38
316.46	190.38
316.689	188.38
316.919	204.38
317.148	182.38
317.377	201.38
317.607	185.38
317.836	190.38
318.065	191.38
318.295	195.38
318.524	190.38
318.753	183.38
318.983	181.38
319.212	217.38
319.441	203.38
319.67	202.38
319.9	196.38
320.129	176.38
320.358	176.38
320.587	190.38
320.816	185.38
321.046	207.38
321.275	193.38
321.504	200.38
321.733	188.38
321.962	188.38
322.191	206.38
322.42	201.38
322.649	210.38
322.878	212.38
323.108	231.38
323.337	223.38
323.566	221.38
323.795	237.38
324.024	272.38
324.253	310.38
324.482	416.38
324.71	627.38
324.939	883.38
325.168	728.38
325.397	373.38
325.626	271.38
325.855	227.38
326.084	234.38
326.313	240.38
326.542	238.38
326.77	253.38
326.999	275.38
327.228	406.38
327.457	580.38
327.686	664.38
327.914	414.38
328.143	316.38
328.372	293.38
328.6	282.38
328.829	249.38
329.058	264.38
329.287	273.38
329.515	252.38
329.744	240.38
329.972	240.38
330.201	259.38
330.43	280.38
330.658	273.38
330.887	298.38
331.115	263.38
331.344	231.38
331.572	242.38
331.801	220.38
332.03	227.38
332.258	235.38
332.486	227.38
332.715	208.38
332.943	216.38
333.172	221.38
333.4	213.38
333.629	225.38
333.857	224.38
334.085	240.38
334.314	230.38
334.542	244.38
334.771	254.38
334.999	243.38
335.227	227.38
335.455	223.38
335.684	215.38
335.912	204.38
336.14	209.38
336.369	193.38
336.597	214.38
336.825	227.38
337.053	218.38
337.281	213.38
337.51	190.38
337.738	218.38
337.966	213.38
338.194	208.38
338.422	205.38
338.65	199.38
338.878	210.38
339.106	208.38
339.334	187.38
339.562	185.38
339.79	197.38
340.018	204.38
340.246	212.38
340.474	207.38
340.702	216.38
340.93	198.38
341.158	209.38
341.386	204.38
341.614	209.38
341.842	208.38
342.07	198.38
342.298	201.38
342.526	206.38
342.754	188.38
342.981	205.38
343.209	213.38
343.437	208.38
343.665	186.38
343.893	196.38
344.12	207.38
344.348	198.38
344.576	208.38
344.804	216.38
345.031	199.38
345.259	207.38
345.487	216.38
345.714	198.38
345.942	187.38
346.17	183.38
346.397	176.38
346.625	200.38
346.853	195.38
347.08	211.38
347.308	204.38
347.535	205.38
347.763	214.38
347.99	211.38
348.218	208.38
348.445	200.38
348.673	203.38
348.9	204.38
349.128	191.38
349.355	195.38
349.583	206.38
349.81	208.38
350.037	196.38
350.265	198.38
350.492	188.38
350.72	183.38
350.947	187.38
351.174	186.38
351.402	209.38
351.629	197.38
351.856	195.38
352.083	195.38
352.311	217.38
352.538	215.38
352.765	206.38
352.992	208.38
353.22	195.38
353.447	213.38
353.674	191.38
353.901	198.38
354.128	186.38
354.355	154.38
354.583	193.38
354.81	175.38
355.037	161.38
355.264	192.38
355.491	181.38
355.718	174.38
355.945	175.38
356.172	177.38
356.399	173.38
356.626	175.38
356.853	195.38
357.08	180.38
357.307	179.38
357.534	192.38
357.761	176.38
357.988	186.38
358.215	193.38
358.441	191.38
358.668	189.38
358.895	195.38
359.122	190.38
359.349	186.38
359.576	202.38
359.802	213.38
360.029	223.38
360.256	225.38
360.483	204.38
360.709	185.38
360.936	204.38
361.163	206.38
361.39	205.38
361.616	207.38
361.843	206.38
362.07	188.38
362.296	191.38
362.523	204.38
362.749	185.38
362.976	187.38
363.203	195.38
363.429	200.38
363.656	209.38
363.882	176.38
364.109	180.38
364.335	183.38
364.562	179.38
364.788	189.38
365.015	199.38
365.241	187.38
365.468	190.38
365.694	184.38
365.92	207.38
366.147	193.38
366.373	193.38
366.599	194.38
366.826	195.38
367.052	187.38
367.278	178.38
367.505	193.38
367.731	211.38
367.957	179.38
368.184	196.38
368.41	198.38
368.636	206.38
368.862	200.38
369.089	177.38
369.315	189.38
369.541	187.38
369.767	179.38
369.993	196.38
370.219	182.38
370.445	192.38
370.672	196.38
370.898	187.38
371.124	183.38
371.35	184.38
371.576	171.38
371.802	185.38
372.028	180.38
372.254	197.38
372.48	200.38
372.706	192.38
372.932	186.38
373.158	178.38
373.384	199.38
373.61	183.38
373.835	185.38
374.061	194.38
374.287	185.38
374.513	200.38
374.739	195.38
374.965	208.38
375.191	195.38
375.416	190.38
375.642	193.38
375.868	186.38
376.094	199.38
376.319	181.38
376.545	190.38
376.771	185.38
376.997	198.38
377.222	203.38
377.448	186.38
377.674	196.38
377.899	185.38
378.125	157.38
378.35	174.38
378.576	186.38
378.802	173.38
379.027	185.38
379.253	192.38
379.478	185.38
379.704	193.38
379.929	191.38
380.155	182.38
380.38	183.38
380.606	166.38
380.831	184.38
381.057	197.38
381.282	201.38
381.507	197.38
381.733	179.38
381.958	200.38
382.184	195.38
382.409	187.38
382.634	187.38
382.86	207.38
383.085	175.38
383.31	176.38
383.535	189.38
383.761	202.38
383.986	200.38
384.211	200.38
384.436	186.38
384.662	191.38
384.887	199.38
385.112	201.38
385.337	194.38
385.562	202.38
385.787	208.38
386.013	220.38
386.238	227.38
386.463	187.38
386.688	197.38
386.913	198.38
387.138	189.38
387.363	197.38
387.588	203.38
387.813	197.38
388.038	196.38
388.263	206.38
388.488	192.38
388.713	197.38
388.938	202.38
389.163	194.38
389.387	203.38
389.612	199.38
389.837	199.38
390.062	198.38
390.287	217.38
390.512	201.38
390.736	199.38
390.961	199.38
391.186	199.38
391.411	212.38
391.636	206.38
391.86	221.38
392.085	206.38
392.31	204.38
392.534	200.38
392.759	184.38
392.984	212.38
393.208	212.38
393.433	207.38
393.658	213.38
393.882	197.38
394.107	217.38
394.331	204.38
394.556	194.38
394.78	205.38
395.005	210.38
395.229	205.38
395.454	193.38
395.678	210.38
395.903	208.38
396.127	227.38
396.352	213.38
396.576	215.38
396.801	221.38
397.025	193.38
397.249	214.38
397.474	220.38
397.698	211.38
397.922	244.38
398.147	225.38
398.371	206.38
398.595	206.38
398.82	220.38
399.044	232.38
399.268	247.38
399.492	246.38
399.717	267.38
399.941	267.38
400.165	279.38
400.389	276.38
400.613	245.38
400.837	240.38
401.062	237.38
401.286	233.38
401.51	228.38
401.734	230.38
401.958	222.38
402.182	237.38
402.406	241.38
402.63	231.38
402.854	233.38
403.078	239.38
403.302	234.38
403.526	232.38
403.75	235.38
403.974	220.38
404.198	249.38
404.422	257.38
404.645	237.38
404.869	245.38
405.093	244.38
405.317	254.38
405.541	294.38
405.765	267.38
405.988	261.38
406.212	272.38
406.436	268.38
406.66	278.38
406.883	248.38
407.107	255.38
407.331	267.38
407.555	282.38
407.778	288.38
408.002	281.38
408.226	258.38
408.449	246.38
408.673	265.38
408.896	263.38
409.12	251.38
409.344	248.38
409.567	232.38
409.791	250.38
410.014	227.38
410.238	240.38
410.461	240.38
410.685	237.38
410.908	242.38
411.132	247.38
411.355	262.38
411.578	263.38
411.802	236.38
412.025	229.38
412.249	241.38
412.472	263.38
412.695	278.38
412.919	246.38
413.142	232.38
413.365	221.38
413.589	244.38
413.812	233.38
414.035	216.38
414.258	215.38
414.482	235.38
414.705	215.38
414.928	250.38
415.151	232.38
415.374	243.38
415.597	204.38
415.821	232.38
416.044	227.38
416.267	222.38
416.49	225.38
416.713	230.38
416.936	237.38
417.159	229.38
417.382	223.38
417.605	236.38
417.828	255.38
418.051	223.38
418.274	236.38
418.497	234.38
418.72	208.38
418.943	217.38
419.166	241.38
419.389	240.38
419.611	244.38
419.834	225.38
420.057	232.38
420.28	251.38
420.503	258.38
420.726	239.38
420.948	236.38
421.171	264.38
421.394	260.38
421.617	247.38
421.839	238.38
422.062	245.38
422.285	245.38
422.507	256.38
422.73	278.38
422.953	268.38
423.175	255.38
423.398	257.38
423.621	249.38
423.843	257.38
424.066	254.38
424.288	261.38
424.511	259.38
424.733	274.38
424.956	307.38
425.178	279.38
425.401	306.38
425.623	300.38
425.846	270.38
426.068	245.38
426.291	241.38
426.513	255.38
426.735	253.38
426.958	241.38
427.18	302.38
427.402	345.38
427.625	362.38
427.847	329.38
428.069	307.38
428.292	284.38
428.514	238.38
428.736	230.38
428.958	235.38
429.181	216.38
429.403	221.38
429.625	252.38
429.847	248.38
430.069	266.38
430.292	261.38
430.514	247.38
430.736	248.38
430.958	228.38
431.18	228.38
431.402	222.38
431.624	221.38
431.846	215.38
432.068	221.38
432.29	227.38
432.512	214.38
432.734	223.38
432.956	228.38
433.178	228.38
433.4	228.38
433.622	244.38
433.844	235.38
434.066	238.38
434.287	224.38
434.509	219.38
434.731	214.38
434.953	253.38
435.175	250.38
435.397	251.38
435.618	249.38
435.84	267.38
436.062	297.38
436.284	330.38
436.505	268.38
436.727	247.38
436.949	236.38
437.17	224.38
437.392	220.38
437.614	255.38
437.835	255.38
438.057	288.38
438.278	341.38
438.5	319.38
438.721	341.38
438.943	336.38
439.165	264.38
439.386	245.38
439.608	249.38
439.829	248.38
440.05	252.38
440.272	279.38
440.493	267.38
440.715	255.38
440.936	245.38
441.158	226.38
441.379	235.38
441.6	246.38
441.822	250.38
442.043	267.38
442.264	294.38
442.486	301.38
442.707	268.38
442.928	259.38
443.149	270.38
443.371	281.38
443.592	274.38
443.813	316.38
444.034	349.38
444.255	265.38
444.476	270.38
444.698	267.38
444.919	259.38
445.14	332.38
445.361	296.38
445.582	259.38
445.803	285.38
446.024	332.38
446.245	341.38
446.466	319.38
446.687	288.38
446.908	244.38
447.129	261.38
447.35	250.38
447.571	233.38
447.792	230.38
448.013	227.38
448.234	231.38
448.455	273.38
448.675	294.38
448.896	337.38
449.117	285.38
449.338	273.38
449.559	332.38
449.779	351.38
450	291.38
450.221	241.38
450.442	240.38
450.662	227.38
450.883	238.38
451.104	257.38
451.324	237.38
451.545	218.38
451.766	218.38
451.986	216.38
452.207	205.38
452.428	222.38
452.648	224.38
452.869	231.38
453.089	230.38
453.31	216.38
453.53	222.38
453.751	208.38
453.971	224.38
454.192	224.38
454.412	213.38
454.633	205.38
454.853	209.38
455.073	196.38
455.294	231.38
455.514	263.38
455.734	230.38
455.955	212.38
456.175	195.38
456.395	221.38
456.616	201.38
456.836	195.38
457.056	195.38
457.276	207.38
457.497	196.38
457.717	207.38
457.937	210.38
458.157	206.38
458.377	217.38
458.598	212.38
458.818	253.38
459.038	277.38
459.258	278.38
459.478	231.38
459.698	218.38
459.918	217.38
460.138	227.38
460.358	219.38
460.578	221.38
460.798	207.38
461.018	224.38
461.238	225.38
461.458	234.38
461.678	230.38
461.898	230.38
462.118	224.38
462.338	238.38
462.558	239.38
462.777	232.38
462.997	264.38
463.217	225.38
463.437	249.38
463.657	248.38
463.876	240.38
464.096	245.38
464.316	229.38
464.536	238.38
464.755	232.38
464.975	246.38
465.195	256.38
465.414	304.38
465.634	250.38
465.854	253.38
466.073	240.38
466.293	230.38
466.512	223.38
466.732	213.38
466.951	208.38
467.171	215.38
467.391	228.38
467.61	237.38
467.829	222.38
468.049	229.38
468.268	239.38
468.488	217.38
468.707	207.38
468.927	215.38
469.146	227.38
469.365	216.38
469.585	215.38
469.804	234.38
470.023	227.38
470.243	238.38
470.462	219.38
470.681	230.38
470.901	223.38
471.12	223.38
471.339	204.38
471.558	225.38
471.777	206.38
471.997	235.38
472.216	229.38
472.435	245.38
472.654	243.38
472.873	247.38
473.092	219.38
473.311	199.38
473.53	211.38
473.749	225.38
473.968	257.38
474.187	283.38
474.406	286.38
474.625	235.38
474.844	211.38
475.063	236.38
475.282	224.38
475.501	203.38
475.72	219.38
475.939	211.38
476.158	218.38
476.377	228.38
476.596	221.38
476.814	218.38
477.033	245.38
477.252	223.38
477.471	235.38
477.69	237.38
477.908	243.38
478.127	215.38
478.346	246.38
478.564	226.38
478.783	245.38
479.002	240.38
479.22	223.38
479.439	269.38
479.658	277.38
479.876	266.38
480.095	267.38
480.313	288.38
480.532	257.38
480.751	269.38
480.969	255.38
481.188	311.38
481.406	331.38
481.624	284.38
481.843	261.38
482.061	256.38
482.28	259.38
482.498	254.38
482.717	235.38
482.935	245.38
483.153	255.38
483.372	249.38
483.59	257.38
483.808	261.38
484.027	238.38
484.245	255.38
484.463	262.38
484.681	262.38
484.9	255.38
485.118	272.38
485.336	261.38
485.554	256.38
485.772	253.38
485.99	262.38
486.209	263.38
486.427	265.38
486.645	278.38
486.863	277.38
487.081	275.38
487.299	258.38
487.517	274.38
487.735	265.38
487.953	266.38
488.171	258.38
488.389	280.38
488.607	279.38
488.825	269.38
489.043	276.38
489.261	267.38
489.479	260.38
489.696	254.38
489.914	284.38
490.132	284.38
490.35	286.38
490.568	301.38
490.786	312.38
491.003	291.38
491.221	285.38
491.439	308.38
491.657	305.38
491.874	321.38
492.092	320.38
492.31	312.38
492.527	323.38
492.745	325.38
492.963	326.38
493.18	320.38
493.398	318.38
493.615	313.38
493.833	300.38
494.05	307.38
494.268	333.38
494.485	333.38
494.703	316.38
494.92	316.38
495.138	307.38
495.355	324.38
495.573	305.38
495.79	321.38
496.008	297.38
496.225	317.38
496.442	335.38
496.66	325.38
496.877	314.38
497.094	311.38
497.312	318.38
497.529	325.38
497.746	308.38
497.963	333.38
498.181	335.38
498.398	345.38
498.615	339.38
498.832	328.38
499.049	352.38
499.267	336.38
499.484	345.38
499.701	379.38
499.918	380.38
500.135	379.38
500.352	402.38
500.569	415.38
500.786	417.38
501.003	436.38
501.22	389.38
501.437	400.38
501.654	362.38
501.871	377.38
502.088	356.38
502.305	358.38
502.522	331.38
502.739	338.38
