Data from 1966.PennyLincolnUp.Lamp.En5.5.200Scan.071719.P1.Scan2.head_HRD10591_14-18-08-164.txt Node
Date: Thu Jul 18 14:18:08 EDT 2019
User: cochatt
Spectrometer: HR+D1059
Trigger mode: 1
Integration Time (sec): 1.000000E-1
Scans to average: 1
Electric dark correction enabled: true
Nonlinearity correction enabled: false
Boxcar width: 0
XAxis mode: Wavelengths
Number of Pixels in Spectrum: 2048
>>>>>Begin Spectral Data<<<<<
223.165	-20.5
223.4	-20.5
223.635	-20.5
223.869	-19.5
224.104	-37.5
224.338	-13.5
224.573	-13.5
224.808	-13.5
225.042	-5.5
225.277	-8.5
225.511	2.5
225.746	3.5
225.98	-1.5
226.215	24.5
226.449	22.5
226.683	19.5
226.918	29.5
227.152	31.5
227.387	33.5
227.621	36.5
227.856	46.5
228.09	49.5
228.324	54.5
228.559	46.5
228.793	64.5
229.027	102.5
229.262	107.5
229.496	119.5
229.73	144.5
229.964	174.5
230.199	136.5
230.433	110.5
230.667	127.5
230.901	122.5
231.136	106.5
231.37	124.5
231.604	116.5
231.838	114.5
232.072	112.5
232.306	111.5
232.541	128.5
232.775	119.5
233.009	116.5
233.243	124.5
233.477	121.5
233.711	108.5
233.945	122.5
234.179	123.5
234.413	123.5
234.647	135.5
234.881	120.5
235.115	111.5
235.349	126.5
235.583	124.5
235.817	125.5
236.051	119.5
236.285	125.5
236.519	125.5
236.753	117.5
236.987	154.5
237.221	186.5
237.455	235.5
237.689	184.5
237.922	141.5
238.156	133.5
238.39	124.5
238.624	135.5
238.858	138.5
239.091	118.5
239.325	131.5
239.559	134.5
239.793	118.5
240.027	136.5
240.26	148.5
240.494	148.5
240.728	151.5
240.961	149.5
241.195	150.5
241.429	162.5
241.662	135.5
241.896	129.5
242.13	133.5
242.363	136.5
242.597	132.5
242.83	134.5
243.064	142.5
243.298	128.5
243.531	156.5
243.765	134.5
243.998	135.5
244.232	142.5
244.465	146.5
244.699	163.5
244.932	150.5
245.166	158.5
245.399	146.5
245.633	153.5
245.866	135.5
246.099	158.5
246.333	167.5
246.566	153.5
246.8	147.5
247.033	148.5
247.266	173.5
247.5	175.5
247.733	168.5
247.966	183.5
248.2	175.5
248.433	166.5
248.666	174.5
248.899	188.5
249.133	185.5
249.366	216.5
249.599	207.5
249.832	187.5
250.066	177.5
250.299	184.5
250.532	187.5
250.765	214.5
250.998	215.5
251.231	234.5
251.465	219.5
251.698	201.5
251.931	214.5
252.164	194.5
252.397	224.5
252.63	214.5
252.863	203.5
253.096	216.5
253.329	226.5
253.562	229.5
253.795	226.5
254.028	209.5
254.261	222.5
254.494	230.5
254.727	262.5
254.96	277.5
255.193	255.5
255.426	259.5
255.659	239.5
255.892	247.5
256.124	229.5
256.357	226.5
256.59	235.5
256.823	229.5
257.056	224.5
257.289	206.5
257.521	232.5
257.754	210.5
257.987	197.5
258.22	213.5
258.452	212.5
258.685	219.5
258.918	229.5
259.151	221.5
259.383	225.5
259.616	216.5
259.849	235.5
260.081	235.5
260.314	258.5
260.547	254.5
260.779	240.5
261.012	240.5
261.244	226.5
261.477	250.5
261.71	227.5
261.942	218.5
262.175	226.5
262.407	231.5
262.64	221.5
262.872	212.5
263.105	223.5
263.337	215.5
263.57	220.5
263.802	227.5
264.035	224.5
264.267	227.5
264.499	219.5
264.732	216.5
264.964	214.5
265.197	209.5
265.429	219.5
265.661	220.5
265.894	208.5
266.126	208.5
266.358	232.5
266.591	228.5
266.823	242.5
267.055	217.5
267.287	229.5
267.52	228.5
267.752	238.5
267.984	233.5
268.216	221.5
268.448	258.5
268.681	239.5
268.913	266.5
269.145	268.5
269.377	285.5
269.609	270.5
269.841	269.5
270.073	272.5
270.306	319.5
270.538	315.5
270.77	310.5
271.002	320.5
271.234	279.5
271.466	306.5
271.698	302.5
271.93	323.5
272.162	316.5
272.394	325.5
272.626	300.5
272.858	308.5
273.09	292.5
273.322	288.5
273.553	267.5
273.785	273.5
274.017	260.5
274.249	264.5
274.481	278.5
274.713	264.5
274.945	262.5
275.176	261.5
275.408	272.5
275.64	272.5
275.872	281.5
276.104	265.5
276.335	284.5
276.567	259.5
276.799	292.5
277.031	310.5
277.262	310.5
277.494	323.5
277.726	288.5
277.957	300.5
278.189	267.5
278.421	287.5
278.652	279.5
278.884	301.5
279.115	282.5
279.347	275.5
279.579	288.5
279.81	263.5
280.042	246.5
280.273	290.5
280.505	266.5
280.736	298.5
280.968	284.5
281.199	273.5
281.431	276.5
281.662	284.5
281.894	272.5
282.125	278.5
282.356	298.5
282.588	316.5
282.819	309.5
283.051	319.5
283.282	283.5
283.513	286.5
283.745	280.5
283.976	282.5
284.207	287.5
284.439	307.5
284.67	292.5
284.901	294.5
285.132	294.5
285.364	289.5
285.595	286.5
285.826	290.5
286.057	283.5
286.288	266.5
286.52	286.5
286.751	289.5
286.982	298.5
287.213	287.5
287.444	297.5
287.675	293.5
287.906	277.5
288.138	301.5
288.369	301.5
288.6	312.5
288.831	306.5
289.062	303.5
289.293	314.5
289.524	298.5
289.755	294.5
289.986	293.5
290.217	311.5
290.448	274.5
290.679	288.5
290.91	295.5
291.141	293.5
291.371	285.5
291.602	293.5
291.833	309.5
292.064	310.5
292.295	303.5
292.526	289.5
292.757	285.5
292.987	319.5
293.218	287.5
293.449	312.5
293.68	298.5
293.91	282.5
294.141	295.5
294.372	289.5
294.603	317.5
294.833	301.5
295.064	300.5
295.295	316.5
295.525	287.5
295.756	313.5
295.987	317.5
296.217	337.5
296.448	327.5
296.679	318.5
296.909	292.5
297.14	314.5
297.37	331.5
297.601	310.5
297.831	326.5
298.062	308.5
298.292	306.5
298.523	315.5
298.753	325.5
298.984	314.5
299.214	301.5
299.445	323.5
299.675	303.5
299.905	327.5
300.136	315.5
300.366	319.5
300.597	335.5
300.827	330.5
301.057	320.5
301.288	347.5
301.518	326.5
301.748	335.5
301.979	339.5
302.209	326.5
302.439	334.5
302.669	340.5
302.9	333.5
303.13	343.5
303.36	327.5
303.59	349.5
303.82	347.5
304.051	339.5
304.281	331.5
304.511	325.5
304.741	338.5
304.971	354.5
305.201	338.5
305.431	328.5
305.661	316.5
305.891	346.5
306.121	363.5
306.352	350.5
306.582	351.5
306.812	346.5
307.042	358.5
307.272	331.5
307.502	337.5
307.731	364.5
307.961	376.5
308.191	349.5
308.421	330.5
308.651	340.5
308.881	353.5
309.111	362.5
309.341	341.5
309.571	361.5
309.8	366.5
310.03	389.5
310.26	376.5
310.49	373.5
310.72	380.5
310.949	384.5
311.179	405.5
311.409	374.5
311.639	393.5
311.868	392.5
312.098	398.5
312.328	392.5
312.557	408.5
312.787	411.5
313.017	411.5
313.246	394.5
313.476	388.5
313.706	382.5
313.935	386.5
314.165	411.5
314.394	407.5
314.624	383.5
314.853	385.5
315.083	381.5
315.312	395.5
315.542	390.5
315.771	379.5
316.001	370.5
316.23	371.5
316.46	390.5
316.689	389.5
316.919	403.5
317.148	407.5
317.377	395.5
317.607	389.5
317.836	399.5
318.065	404.5
318.295	387.5
318.524	400.5
318.753	406.5
318.983	396.5
319.212	388.5
319.441	402.5
319.67	399.5
319.9	386.5
320.129	392.5
320.358	401.5
320.587	399.5
320.816	409.5
321.046	421.5
321.275	399.5
321.504	404.5
321.733	415.5
321.962	427.5
322.191	431.5
322.42	430.5
322.649	440.5
322.878	447.5
323.108	475.5
323.337	489.5
323.566	502.5
323.795	527.5
324.024	543.5
324.253	671.5
324.482	952.5
324.71	1514.5
324.939	2238.5
325.168	1916.5
325.397	927.5
325.626	639.5
325.855	545.5
326.084	503.5
326.313	496.5
326.542	522.5
326.77	543.5
326.999	645.5
327.228	879.5
327.457	1357.5
327.686	1670.5
327.914	1079.5
328.143	704.5
328.372	631.5
328.6	584.5
328.829	556.5
329.058	566.5
329.287	589.5
329.515	557.5
329.744	523.5
329.972	514.5
330.201	528.5
330.43	575.5
330.658	618.5
330.887	615.5
331.115	589.5
331.344	520.5
331.572	511.5
331.801	512.5
332.03	482.5
332.258	489.5
332.486	467.5
332.715	468.5
332.943	461.5
333.172	466.5
333.4	454.5
333.629	500.5
333.857	516.5
334.085	517.5
334.314	546.5
334.542	572.5
334.771	581.5
334.999	534.5
335.227	500.5
335.455	486.5
335.684	500.5
335.912	472.5
336.14	458.5
336.369	472.5
336.597	466.5
336.825	487.5
337.053	471.5
337.281	475.5
337.51	440.5
337.738	463.5
337.966	462.5
338.194	446.5
338.422	485.5
338.65	466.5
338.878	458.5
339.106	458.5
339.334	462.5
339.562	451.5
339.79	444.5
340.018	450.5
340.246	459.5
340.474	488.5
340.702	463.5
340.93	446.5
341.158	452.5
341.386	456.5
341.614	443.5
341.842	461.5
342.07	454.5
342.298	454.5
342.526	415.5
342.754	435.5
342.981	424.5
343.209	442.5
343.437	457.5
343.665	466.5
343.893	462.5
344.12	465.5
344.348	481.5
344.576	471.5
344.804	471.5
345.031	470.5
345.259	483.5
345.487	454.5
345.714	461.5
345.942	444.5
346.17	420.5
346.397	431.5
346.625	442.5
346.853	420.5
347.08	444.5
347.308	450.5
347.535	457.5
347.763	447.5
347.99	439.5
348.218	463.5
348.445	459.5
348.673	455.5
348.9	437.5
349.128	431.5
349.355	438.5
349.583	461.5
349.81	419.5
350.037	426.5
350.265	417.5
350.492	434.5
350.72	426.5
350.947	445.5
351.174	423.5
351.402	434.5
351.629	438.5
351.856	448.5
352.083	459.5
352.311	460.5
352.538	451.5
352.765	457.5
352.992	458.5
353.22	438.5
353.447	429.5
353.674	422.5
353.901	429.5
354.128	438.5
354.355	414.5
354.583	417.5
354.81	401.5
355.037	399.5
355.264	413.5
355.491	442.5
355.718	412.5
355.945	408.5
356.172	423.5
356.399	398.5
356.626	420.5
356.853	416.5
357.08	424.5
357.307	432.5
357.534	410.5
357.761	414.5
357.988	419.5
358.215	422.5
358.441	436.5
358.668	410.5
358.895	407.5
359.122	414.5
359.349	443.5
359.576	453.5
359.802	462.5
360.029	499.5
360.256	490.5
360.483	496.5
360.709	447.5
360.936	440.5
361.163	462.5
361.39	446.5
361.616	461.5
361.843	449.5
362.07	450.5
362.296	451.5
362.523	451.5
362.749	426.5
362.976	431.5
363.203	430.5
363.429	405.5
363.656	421.5
363.882	424.5
364.109	424.5
364.335	419.5
364.562	431.5
364.788	412.5
365.015	442.5
365.241	426.5
365.468	442.5
365.694	446.5
365.92	445.5
366.147	423.5
366.373	435.5
366.599	415.5
366.826	427.5
367.052	416.5
367.278	418.5
367.505	439.5
367.731	424.5
367.957	415.5
368.184	434.5
368.41	423.5
368.636	474.5
368.862	457.5
369.089	457.5
369.315	443.5
369.541	431.5
369.767	414.5
369.993	428.5
370.219	405.5
370.445	433.5
370.672	454.5
370.898	455.5
371.124	442.5
371.35	450.5
371.576	435.5
371.802	430.5
372.028	430.5
372.254	428.5
372.48	412.5
372.706	428.5
372.932	451.5
373.158	444.5
373.384	435.5
373.61	457.5
373.835	443.5
374.061	422.5
374.287	450.5
374.513	458.5
374.739	460.5
374.965	429.5
375.191	445.5
375.416	443.5
375.642	452.5
375.868	456.5
376.094	449.5
376.319	444.5
376.545	429.5
376.771	429.5
376.997	449.5
377.222	440.5
377.448	447.5
377.674	441.5
377.899	431.5
378.125	436.5
378.35	420.5
378.576	443.5
378.802	446.5
379.027	432.5
379.253	440.5
379.478	431.5
379.704	443.5
379.929	431.5
380.155	422.5
380.38	446.5
380.606	434.5
380.831	436.5
381.057	450.5
381.282	445.5
381.507	433.5
381.733	430.5
381.958	446.5
382.184	461.5
382.409	445.5
382.634	456.5
382.86	444.5
383.085	445.5
383.31	454.5
383.535	448.5
383.761	471.5
383.986	461.5
384.211	446.5
384.436	448.5
384.662	480.5
384.887	479.5
385.112	477.5
385.337	500.5
385.562	487.5
385.787	497.5
386.013	480.5
386.238	473.5
386.463	506.5
386.688	492.5
386.913	505.5
387.138	487.5
387.363	484.5
387.588	490.5
387.813	474.5
388.038	506.5
388.263	502.5
388.488	486.5
388.713	502.5
388.938	471.5
389.163	460.5
389.387	499.5
389.612	488.5
389.837	482.5
390.062	483.5
390.287	495.5
390.512	485.5
390.736	487.5
390.961	498.5
391.186	484.5
391.411	484.5
391.636	503.5
391.86	504.5
392.085	524.5
392.31	540.5
392.534	495.5
392.759	509.5
392.984	509.5
393.208	513.5
393.433	501.5
393.658	513.5
393.882	524.5
394.107	513.5
394.331	499.5
394.556	498.5
394.78	501.5
395.005	509.5
395.229	482.5
395.454	500.5
395.678	510.5
395.903	556.5
396.127	556.5
396.352	522.5
396.576	524.5
396.801	516.5
397.025	499.5
397.249	522.5
397.474	538.5
397.698	522.5
397.922	521.5
398.147	559.5
398.371	558.5
398.595	570.5
398.82	548.5
399.044	583.5
399.268	596.5
399.492	653.5
399.717	684.5
399.941	691.5
400.165	712.5
400.389	702.5
400.613	662.5
400.837	628.5
401.062	585.5
401.286	591.5
401.51	568.5
401.734	570.5
401.958	570.5
402.182	590.5
402.406	576.5
402.63	591.5
402.854	578.5
403.078	578.5
403.302	590.5
403.526	591.5
403.75	583.5
403.974	555.5
404.198	576.5
404.422	606.5
404.645	604.5
404.869	605.5
405.093	620.5
405.317	665.5
405.541	710.5
405.765	666.5
405.988	632.5
406.212	630.5
406.436	615.5
406.66	666.5
406.883	660.5
407.107	647.5
407.331	721.5
407.555	797.5
407.778	782.5
408.002	714.5
408.226	679.5
408.449	666.5
408.673	639.5
408.896	697.5
409.12	718.5
409.344	694.5
409.567	646.5
409.791	635.5
410.014	623.5
410.238	595.5
410.461	608.5
410.685	610.5
410.908	634.5
411.132	650.5
411.355	696.5
411.578	648.5
411.802	605.5
412.025	615.5
412.249	603.5
412.472	648.5
412.695	682.5
412.919	666.5
413.142	615.5
413.365	588.5
413.589	571.5
413.812	558.5
414.035	586.5
414.258	576.5
414.482	582.5
414.705	569.5
414.928	565.5
415.151	548.5
415.374	581.5
415.597	550.5
415.821	547.5
416.044	567.5
416.267	583.5
416.49	556.5
416.713	555.5
416.936	575.5
417.159	589.5
417.382	572.5
417.605	580.5
417.828	576.5
418.051	596.5
418.274	564.5
418.497	564.5
418.72	555.5
418.943	558.5
419.166	594.5
419.389	622.5
419.611	607.5
419.834	616.5
420.057	618.5
420.28	603.5
420.503	594.5
420.726	610.5
420.948	591.5
421.171	647.5
421.394	678.5
421.617	610.5
421.839	603.5
422.062	581.5
422.285	592.5
422.507	664.5
422.73	792.5
422.953	726.5
423.175	662.5
423.398	608.5
423.621	619.5
423.843	620.5
424.066	632.5
424.288	644.5
424.511	655.5
424.733	702.5
424.956	814.5
425.178	764.5
425.401	758.5
425.623	772.5
425.846	665.5
426.068	644.5
426.291	647.5
426.513	627.5
426.735	639.5
426.958	660.5
427.18	769.5
427.402	896.5
427.625	1013.5
427.847	886.5
428.069	745.5
428.292	671.5
428.514	652.5
428.736	591.5
428.958	612.5
429.181	591.5
429.403	600.5
429.625	598.5
429.847	596.5
430.069	687.5
430.292	706.5
430.514	620.5
430.736	595.5
430.958	569.5
431.18	555.5
431.402	569.5
431.624	547.5
431.846	538.5
432.068	538.5
432.29	565.5
432.512	573.5
432.734	553.5
432.956	545.5
433.178	568.5
433.4	554.5
433.622	570.5
433.844	572.5
434.066	536.5
434.287	546.5
434.509	535.5
434.731	571.5
434.953	597.5
435.175	581.5
435.397	630.5
435.618	629.5
435.84	664.5
436.062	782.5
436.284	856.5
436.505	743.5
436.727	657.5
436.949	591.5
437.17	568.5
437.392	565.5
437.614	600.5
437.835	613.5
438.057	723.5
438.278	850.5
438.5	832.5
438.721	908.5
438.943	900.5
439.165	715.5
439.386	655.5
439.608	615.5
439.829	628.5
440.05	655.5
440.272	706.5
440.493	675.5
440.715	622.5
440.936	598.5
441.158	599.5
441.379	568.5
441.6	623.5
441.822	614.5
442.043	656.5
442.264	755.5
442.486	816.5
442.707	716.5
442.928	648.5
443.149	675.5
443.371	672.5
443.592	703.5
443.813	830.5
444.034	889.5
444.255	748.5
444.476	655.5
444.698	648.5
444.919	644.5
445.14	784.5
445.361	694.5
445.582	658.5
445.803	746.5
446.024	885.5
446.245	913.5
446.466	788.5
446.687	673.5
446.908	630.5
447.129	581.5
447.35	582.5
447.571	570.5
447.792	585.5
448.013	578.5
448.234	610.5
448.455	660.5
448.675	775.5
448.896	920.5
449.117	783.5
449.338	708.5
449.559	845.5
449.779	946.5
450	785.5
450.221	644.5
450.442	590.5
450.662	577.5
450.883	568.5
451.104	581.5
451.324	589.5
451.545	556.5
451.766	546.5
451.986	523.5
452.207	512.5
452.428	524.5
452.648	525.5
452.869	508.5
453.089	516.5
453.31	526.5
453.53	518.5
453.751	515.5
453.971	504.5
454.192	541.5
454.412	523.5
454.633	509.5
454.853	532.5
455.073	516.5
455.294	553.5
455.514	626.5
455.734	578.5
455.955	522.5
456.175	504.5
456.395	510.5
456.616	496.5
456.836	490.5
457.056	473.5
457.276	477.5
457.497	507.5
457.717	495.5
457.937	500.5
458.157	504.5
458.377	502.5
458.598	534.5
458.818	578.5
459.038	658.5
459.258	694.5
459.478	607.5
459.698	562.5
459.918	564.5
460.138	556.5
460.358	566.5
460.578	578.5
460.798	582.5
461.018	565.5
461.238	590.5
461.458	573.5
461.678	585.5
461.898	582.5
462.118	545.5
462.338	585.5
462.558	588.5
462.777	599.5
462.997	627.5
463.217	631.5
463.437	637.5
463.657	615.5
463.876	617.5
464.096	607.5
464.316	611.5
464.536	648.5
464.755	640.5
464.975	615.5
465.195	654.5
465.414	710.5
465.634	644.5
465.854	600.5
466.073	591.5
466.293	569.5
466.512	555.5
466.732	537.5
466.951	534.5
467.171	544.5
467.391	529.5
467.61	552.5
467.829	557.5
468.049	542.5
468.268	581.5
468.488	518.5
468.707	531.5
468.927	528.5
469.146	527.5
469.365	511.5
469.585	493.5
469.804	504.5
470.023	542.5
470.243	539.5
470.462	531.5
470.681	559.5
470.901	562.5
471.12	574.5
471.339	551.5
471.558	536.5
471.777	541.5
471.997	535.5
472.216	543.5
472.435	591.5
472.654	567.5
472.873	550.5
473.092	555.5
473.311	548.5
473.53	535.5
473.749	565.5
473.968	605.5
474.187	710.5
474.406	714.5
474.625	611.5
474.844	554.5
475.063	537.5
475.282	540.5
475.501	547.5
475.72	551.5
475.939	537.5
476.158	595.5
476.377	569.5
476.596	539.5
476.814	563.5
477.033	580.5
477.252	599.5
477.471	569.5
477.69	583.5
477.908	610.5
478.127	602.5
478.346	601.5
478.564	598.5
478.783	604.5
479.002	632.5
479.22	627.5
479.439	642.5
479.658	643.5
479.876	655.5
480.095	667.5
480.313	701.5
480.532	701.5
480.751	681.5
480.969	682.5
481.188	746.5
481.406	791.5
481.624	700.5
481.843	668.5
482.061	653.5
482.28	676.5
482.498	655.5
482.717	632.5
482.935	647.5
483.153	652.5
483.372	644.5
483.59	632.5
483.808	631.5
484.027	632.5
484.245	651.5
484.463	656.5
484.681	631.5
484.9	638.5
485.118	666.5
485.336	674.5
485.554	636.5
485.772	647.5
485.99	647.5
486.209	643.5
486.427	674.5
486.645	675.5
486.863	701.5
487.081	690.5
487.299	696.5
487.517	677.5
487.735	684.5
487.953	656.5
488.171	687.5
488.389	710.5
488.607	682.5
488.825	711.5
489.043	675.5
489.261	695.5
489.479	702.5
489.696	714.5
489.914	703.5
490.132	704.5
490.35	710.5
490.568	723.5
490.786	740.5
491.003	736.5
491.221	760.5
491.439	764.5
491.657	757.5
491.874	795.5
492.092	805.5
492.31	794.5
492.527	772.5
492.745	785.5
492.963	792.5
493.18	827.5
493.398	804.5
493.615	794.5
493.833	808.5
494.05	808.5
494.268	813.5
494.485	834.5
494.703	825.5
494.92	811.5
495.138	814.5
495.355	823.5
495.573	828.5
495.79	803.5
496.008	821.5
496.225	810.5
496.442	810.5
496.66	824.5
496.877	810.5
497.094	829.5
497.312	823.5
497.529	842.5
497.746	872.5
497.963	858.5
498.181	884.5
498.398	910.5
498.615	939.5
498.832	957.5
499.049	932.5
499.267	978.5
499.484	1007.5
499.701	1045.5
499.918	1087.5
500.135	1146.5
500.352	1195.5
500.569	1212.5
500.786	1218.5
501.003	1197.5
501.22	1134.5
501.437	1104.5
501.654	1109.5
501.871	1063.5
502.088	1016.5
502.305	970.5
502.522	918.5
502.739	929.5
502.956	917.5
503.172	897.5
503.389	893.5
503.606	887.5
503.823	872.5
504.04	850.5
504.256	849.5
504.473	828.5
504.69	831.5
504.907	829.5
505.123	783.5
505.34	824.5
505.557	805.5
505.773	786.5
505.99	788.5
506.207	785.5
506.423	796.5
506.64	802.5
506.856	780.5
507.073	787.5
507.289	782.5
507.506	716.5
507.722	770.5
507.939	784.5
508.155	759.5
508.372	724.5
508.588	730.5
508.805	724.5
509.021	738.5
509.238	741.5
509.454	740.5
509.67	742.5
509.887	719.5
510.103	727.5
510.319	731.5
510.536	815.5
510.752	1306.5
510.968	1067.5
511.184	739.5
511.401	719.5
511.617	724.5
511.833	702.5
512.049	697.5
512.265	689.5
512.481	669.5
512.698	679.5
512.914	679.5
513.13	683.5
513.346	694.5
513.562	672.5
513.778	668.5
513.994	692.5
514.21	725.5
514.426	730.5
514.642	764.5
514.858	803.5
515.074	813.5
515.29	953.5
515.506	1304.5
515.721	1133.5
515.937	809.5
516.153	776.5
516.369	736.5
516.585	744.5
516.801	728.5
517.016	718.5
517.232	746.5
517.448	740.5
517.664	728.5
517.879	751.5
518.095	720.5
518.311	734.5
518.527	710.5
518.742	726.5
518.958	697.5
519.173	705.5
519.389	696.5
