Data from 1966.PennyLincolnUp.Lamp.En5.5.200Scan.071719.P1._HRD10591_14-12-36-913.txt Node
Date: Thu Jul 18 14:12:36 EDT 2019
User: cochatt
Spectrometer: HR+D1059
Trigger mode: 1
Integration Time (sec): 1.000000E-1
Scans to average: 1
Electric dark correction enabled: true
Nonlinearity correction enabled: false
Boxcar width: 0
XAxis mode: Wavelengths
Number of Pixels in Spectrum: 2048
>>>>>Begin Spectral Data<<<<<
223.165	-8.94
223.4	-8.94
223.635	-8.94
223.869	-17.94
224.104	-21.94
224.338	-14.94
224.573	-11.94
224.808	-24.94
225.042	-2.94
225.277	-9.94
225.511	0.06
225.746	-2.94
225.98	-15.94
226.215	32.06
226.449	16.06
226.683	11.06
226.918	32.06
227.152	41.06
227.387	47.06
227.621	38.06
227.856	42.06
228.09	49.06
228.324	53.06
228.559	55.06
228.793	67.06
229.027	83.06
229.262	64.06
229.496	88.06
229.73	100.06
229.964	99.06
230.199	104.06
230.433	77.06
230.667	97.06
230.901	85.06
231.136	79.06
231.37	103.06
231.604	92.06
231.838	92.06
232.072	92.06
232.306	82.06
232.541	104.06
232.775	101.06
233.009	102.06
233.243	93.06
233.477	95.06
233.711	99.06
233.945	84.06
234.179	85.06
234.413	90.06
234.647	91.06
234.881	95.06
235.115	95.06
235.349	99.06
235.583	91.06
235.817	104.06
236.051	89.06
236.285	95.06
236.519	95.06
236.753	92.06
236.987	121.06
237.221	115.06
237.455	144.06
237.689	113.06
237.922	110.06
238.156	99.06
238.39	97.06
238.624	94.06
238.858	96.06
239.091	99.06
239.325	101.06
239.559	97.06
239.793	89.06
240.027	94.06
240.26	105.06
240.494	102.06
240.728	103.06
240.961	98.06
241.195	116.06
241.429	98.06
241.662	105.06
241.896	90.06
242.13	85.06
242.363	103.06
242.597	106.06
242.83	96.06
243.064	93.06
243.298	96.06
243.531	92.06
243.765	102.06
243.998	89.06
244.232	99.06
244.465	108.06
244.699	108.06
244.932	86.06
245.166	87.06
245.399	107.06
245.633	103.06
245.866	97.06
246.099	99.06
246.333	99.06
246.566	104.06
246.8	97.06
247.033	106.06
247.266	113.06
247.5	110.06
247.733	122.06
247.966	115.06
248.2	105.06
248.433	106.06
248.666	103.06
248.899	108.06
249.133	135.06
249.366	124.06
249.599	132.06
249.832	116.06
250.066	121.06
250.299	125.06
250.532	122.06
250.765	122.06
250.998	133.06
251.231	141.06
251.465	119.06
251.698	129.06
251.931	128.06
252.164	128.06
252.397	119.06
252.63	127.06
252.863	107.06
253.096	131.06
253.329	145.06
253.562	130.06
253.795	132.06
254.028	114.06
254.261	130.06
254.494	140.06
254.727	142.06
254.96	148.06
255.193	146.06
255.426	144.06
255.659	131.06
255.892	129.06
256.124	134.06
256.357	130.06
256.59	134.06
256.823	129.06
257.056	106.06
257.289	123.06
257.521	129.06
257.754	137.06
257.987	138.06
258.22	136.06
258.452	120.06
258.685	129.06
258.918	136.06
259.151	128.06
259.383	141.06
259.616	127.06
259.849	128.06
260.081	128.06
260.314	134.06
260.547	138.06
260.779	125.06
261.012	134.06
261.244	141.06
261.477	132.06
261.71	141.06
261.942	138.06
262.175	144.06
262.407	135.06
262.64	131.06
262.872	132.06
263.105	120.06
263.337	138.06
263.57	123.06
263.802	131.06
264.035	132.06
264.267	110.06
264.499	139.06
264.732	140.06
264.964	133.06
265.197	119.06
265.429	126.06
265.661	135.06
265.894	128.06
266.126	128.06
266.358	126.06
266.591	133.06
266.823	131.06
267.055	130.06
267.287	136.06
267.52	135.06
267.752	135.06
267.984	140.06
268.216	131.06
268.448	128.06
268.681	146.06
268.913	158.06
269.145	141.06
269.377	164.06
269.609	150.06
269.841	159.06
270.073	160.06
270.306	156.06
270.538	169.06
270.77	160.06
271.002	154.06
271.234	151.06
271.466	172.06
271.698	163.06
271.93	167.06
272.162	162.06
272.394	174.06
272.626	159.06
272.858	153.06
273.09	143.06
273.322	138.06
273.553	141.06
273.785	143.06
274.017	141.06
274.249	160.06
274.481	151.06
274.713	154.06
274.945	153.06
275.176	145.06
275.408	143.06
275.64	144.06
275.872	146.06
276.104	146.06
276.335	135.06
276.567	155.06
276.799	151.06
277.031	167.06
277.262	177.06
277.494	185.06
277.726	157.06
277.957	161.06
278.189	155.06
278.421	145.06
278.652	153.06
278.884	144.06
279.115	164.06
279.347	144.06
279.579	157.06
279.81	155.06
280.042	154.06
280.273	161.06
280.505	144.06
280.736	140.06
280.968	146.06
281.199	167.06
281.431	136.06
281.662	148.06
281.894	143.06
282.125	153.06
282.356	158.06
282.588	170.06
282.819	159.06
283.051	163.06
283.282	148.06
283.513	163.06
283.745	160.06
283.976	145.06
284.207	150.06
284.439	161.06
284.67	153.06
284.901	153.06
285.132	144.06
285.364	168.06
285.595	148.06
285.826	163.06
286.057	141.06
286.288	150.06
286.52	161.06
286.751	155.06
286.982	152.06
287.213	153.06
287.444	149.06
287.675	159.06
287.906	166.06
288.138	167.06
288.369	161.06
288.6	169.06
288.831	167.06
289.062	151.06
289.293	151.06
289.524	144.06
289.755	165.06
289.986	138.06
290.217	157.06
290.448	157.06
290.679	167.06
290.91	153.06
291.141	174.06
291.371	169.06
291.602	159.06
291.833	159.06
292.064	156.06
292.295	156.06
292.526	161.06
292.757	158.06
292.987	161.06
293.218	169.06
293.449	173.06
293.68	167.06
293.91	151.06
294.141	157.06
294.372	160.06
294.603	156.06
294.833	162.06
295.064	150.06
295.295	154.06
295.525	183.06
295.756	155.06
295.987	160.06
296.217	182.06
296.448	178.06
296.679	172.06
296.909	171.06
297.14	168.06
297.37	148.06
297.601	178.06
297.831	153.06
298.062	165.06
298.292	159.06
298.523	171.06
298.753	155.06
298.984	179.06
299.214	173.06
299.445	160.06
299.675	173.06
299.905	166.06
300.136	163.06
300.366	165.06
300.597	180.06
300.827	185.06
301.057	167.06
301.288	162.06
301.518	153.06
301.748	167.06
301.979	169.06
302.209	174.06
302.439	167.06
302.669	177.06
302.9	161.06
303.13	183.06
303.36	170.06
303.59	187.06
303.82	177.06
304.051	179.06
304.281	176.06
304.511	179.06
304.741	172.06
304.971	175.06
305.201	161.06
305.431	161.06
305.661	156.06
305.891	161.06
306.121	183.06
306.352	164.06
306.582	162.06
306.812	162.06
307.042	174.06
307.272	170.06
307.502	168.06
307.731	143.06
307.961	163.06
308.191	182.06
308.421	165.06
308.651	182.06
308.881	183.06
309.111	170.06
309.341	181.06
309.571	176.06
309.8	193.06
310.03	182.06
310.26	193.06
310.49	178.06
310.72	192.06
310.949	199.06
311.179	200.06
311.409	208.06
311.639	197.06
311.868	187.06
312.098	183.06
312.328	193.06
312.557	216.06
312.787	214.06
313.017	206.06
313.246	194.06
313.476	208.06
313.706	185.06
313.935	204.06
314.165	196.06
314.394	208.06
314.624	203.06
314.853	191.06
315.083	190.06
315.312	180.06
315.542	180.06
315.771	165.06
316.001	190.06
316.23	197.06
316.46	192.06
316.689	183.06
316.919	192.06
317.148	194.06
317.377	191.06
317.607	199.06
317.836	195.06
318.065	196.06
318.295	190.06
318.524	177.06
318.753	188.06
318.983	192.06
319.212	186.06
319.441	190.06
319.67	187.06
319.9	197.06
320.129	194.06
320.358	190.06
320.587	206.06
320.816	190.06
321.046	201.06
321.275	209.06
321.504	201.06
321.733	200.06
321.962	185.06
322.191	206.06
322.42	208.06
322.649	218.06
322.878	208.06
323.108	212.06
323.337	221.06
323.566	236.06
323.795	252.06
324.024	279.06
324.253	312.06
324.482	448.06
324.71	672.06
324.939	920.06
325.168	697.06
325.397	378.06
325.626	263.06
325.855	225.06
326.084	228.06
326.313	213.06
326.542	231.06
326.77	241.06
326.999	309.06
327.228	399.06
327.457	571.06
327.686	662.06
327.914	437.06
328.143	320.06
328.372	279.06
328.6	262.06
328.829	263.06
329.058	276.06
329.287	286.06
329.515	247.06
329.744	235.06
329.972	243.06
330.201	264.06
330.43	277.06
330.658	286.06
330.887	294.06
331.115	287.06
331.344	235.06
331.572	234.06
331.801	223.06
332.03	233.06
332.258	219.06
332.486	222.06
332.715	203.06
332.943	211.06
333.172	231.06
333.4	210.06
333.629	236.06
333.857	231.06
334.085	222.06
334.314	247.06
334.542	264.06
334.771	271.06
334.999	259.06
335.227	232.06
335.455	214.06
335.684	218.06
335.912	209.06
336.14	216.06
336.369	217.06
336.597	221.06
336.825	227.06
337.053	215.06
337.281	214.06
337.51	207.06
337.738	232.06
337.966	215.06
338.194	224.06
338.422	198.06
338.65	206.06
338.878	205.06
339.106	202.06
339.334	213.06
339.562	189.06
339.79	222.06
340.018	190.06
340.246	210.06
340.474	206.06
340.702	210.06
340.93	189.06
341.158	199.06
341.386	211.06
341.614	202.06
341.842	223.06
342.07	193.06
342.298	184.06
342.526	205.06
342.754	189.06
342.981	180.06
343.209	195.06
343.437	199.06
343.665	199.06
343.893	204.06
344.12	212.06
344.348	211.06
344.576	205.06
344.804	204.06
345.031	200.06
345.259	212.06
345.487	221.06
345.714	224.06
345.942	220.06
346.17	200.06
346.397	192.06
346.625	207.06
346.853	212.06
347.08	198.06
347.308	199.06
347.535	198.06
347.763	209.06
347.99	209.06
348.218	210.06
348.445	206.06
348.673	203.06
348.9	203.06
349.128	206.06
349.355	195.06
349.583	213.06
349.81	184.06
350.037	184.06
350.265	189.06
350.492	188.06
350.72	191.06
350.947	208.06
351.174	192.06
351.402	218.06
351.629	198.06
351.856	202.06
352.083	206.06
352.311	192.06
352.538	213.06
352.765	215.06
352.992	216.06
353.22	202.06
353.447	197.06
353.674	195.06
353.901	191.06
354.128	174.06
354.355	185.06
354.583	188.06
354.81	199.06
355.037	199.06
355.264	196.06
355.491	183.06
355.718	199.06
355.945	192.06
356.172	191.06
356.399	193.06
356.626	184.06
356.853	186.06
357.08	191.06
357.307	197.06
357.534	183.06
357.761	173.06
357.988	191.06
358.215	189.06
358.441	184.06
358.668	182.06
358.895	187.06
359.122	186.06
359.349	195.06
359.576	193.06
359.802	206.06
360.029	228.06
360.256	229.06
360.483	224.06
360.709	215.06
360.936	189.06
361.163	206.06
361.39	193.06
361.616	199.06
361.843	193.06
362.07	204.06
362.296	213.06
362.523	207.06
362.749	186.06
362.976	198.06
363.203	199.06
363.429	186.06
363.656	193.06
363.882	186.06
364.109	202.06
364.335	200.06
364.562	200.06
364.788	189.06
365.015	202.06
365.241	189.06
365.468	186.06
365.694	197.06
365.92	209.06
366.147	195.06
366.373	197.06
366.599	196.06
366.826	189.06
367.052	183.06
367.278	188.06
367.505	193.06
367.731	186.06
367.957	195.06
368.184	180.06
368.41	206.06
368.636	212.06
368.862	202.06
369.089	201.06
369.315	192.06
369.541	199.06
369.767	176.06
369.993	175.06
370.219	206.06
370.445	195.06
370.672	200.06
370.898	192.06
371.124	178.06
371.35	199.06
371.576	197.06
371.802	196.06
372.028	192.06
372.254	181.06
372.48	191.06
372.706	207.06
372.932	190.06
373.158	196.06
373.384	207.06
373.61	200.06
373.835	199.06
374.061	193.06
374.287	184.06
374.513	197.06
374.739	168.06
374.965	183.06
375.191	203.06
375.416	200.06
375.642	177.06
375.868	208.06
376.094	202.06
376.319	195.06
376.545	208.06
376.771	192.06
376.997	193.06
377.222	180.06
377.448	199.06
377.674	203.06
377.899	185.06
378.125	190.06
378.35	192.06
378.576	199.06
378.802	174.06
379.027	178.06
379.253	202.06
379.478	199.06
379.704	190.06
379.929	197.06
380.155	191.06
380.38	173.06
380.606	183.06
380.831	195.06
381.057	199.06
381.282	182.06
381.507	193.06
381.733	195.06
381.958	179.06
382.184	172.06
382.409	182.06
382.634	185.06
382.86	203.06
383.085	204.06
383.31	183.06
383.535	191.06
383.761	181.06
383.986	194.06
384.211	198.06
384.436	185.06
384.662	203.06
384.887	198.06
385.112	194.06
385.337	203.06
385.562	207.06
385.787	208.06
386.013	200.06
386.238	220.06
386.463	208.06
386.688	199.06
386.913	200.06
387.138	215.06
387.363	215.06
387.588	219.06
387.813	195.06
388.038	199.06
388.263	224.06
388.488	211.06
388.713	212.06
388.938	193.06
389.163	200.06
389.387	188.06
389.612	209.06
389.837	207.06
390.062	195.06
390.287	205.06
390.512	199.06
390.736	203.06
390.961	205.06
391.186	202.06
391.411	203.06
391.636	197.06
391.86	218.06
392.085	214.06
392.31	214.06
392.534	205.06
392.759	194.06
392.984	205.06
393.208	202.06
393.433	214.06
393.658	221.06
393.882	205.06
394.107	205.06
394.331	206.06
394.556	212.06
394.78	187.06
395.005	207.06
395.229	192.06
395.454	216.06
395.678	212.06
395.903	229.06
396.127	209.06
396.352	215.06
396.576	203.06
396.801	212.06
397.025	207.06
397.249	199.06
397.474	232.06
397.698	207.06
397.922	231.06
398.147	231.06
398.371	235.06
398.595	233.06
398.82	228.06
399.044	237.06
399.268	234.06
399.492	242.06
399.717	279.06
399.941	275.06
400.165	281.06
400.389	262.06
400.613	269.06
400.837	238.06
401.062	243.06
401.286	242.06
401.51	224.06
401.734	239.06
401.958	235.06
402.182	233.06
402.406	254.06
402.63	236.06
402.854	232.06
403.078	237.06
403.302	233.06
403.526	242.06
403.75	239.06
403.974	243.06
404.198	234.06
404.422	227.06
404.645	253.06
404.869	254.06
405.093	259.06
405.317	272.06
405.541	273.06
405.765	254.06
405.988	263.06
406.212	269.06
406.436	263.06
406.66	273.06
406.883	245.06
407.107	252.06
407.331	278.06
407.555	312.06
407.778	300.06
408.002	275.06
408.226	267.06
408.449	264.06
408.673	248.06
408.896	267.06
409.12	270.06
409.344	271.06
409.567	238.06
409.791	234.06
410.014	233.06
410.238	251.06
410.461	243.06
410.685	231.06
410.908	255.06
411.132	255.06
411.355	249.06
411.578	251.06
411.802	235.06
412.025	236.06
412.249	243.06
412.472	266.06
412.695	246.06
412.919	247.06
413.142	236.06
413.365	226.06
413.589	228.06
413.812	219.06
414.035	222.06
414.258	209.06
414.482	229.06
414.705	231.06
414.928	233.06
415.151	241.06
415.374	210.06
415.597	209.06
415.821	209.06
416.044	248.06
416.267	252.06
416.49	239.06
416.713	237.06
416.936	228.06
417.159	212.06
417.382	236.06
417.605	223.06
417.828	251.06
418.051	247.06
418.274	253.06
418.497	212.06
418.72	219.06
418.943	232.06
419.166	245.06
419.389	245.06
419.611	230.06
419.834	250.06
420.057	233.06
420.28	257.06
420.503	239.06
420.726	253.06
420.948	243.06
421.171	261.06
421.394	264.06
421.617	261.06
421.839	240.06
422.062	240.06
422.285	249.06
422.507	263.06
422.73	293.06
422.953	285.06
423.175	264.06
423.398	236.06
423.621	233.06
423.843	263.06
424.066	247.06
424.288	267.06
424.511	252.06
424.733	273.06
424.956	314.06
425.178	308.06
425.401	285.06
425.623	319.06
425.846	259.06
426.068	241.06
426.291	252.06
426.513	259.06
426.735	245.06
426.958	255.06
427.18	310.06
427.402	337.06
427.625	397.06
427.847	349.06
428.069	315.06
428.292	259.06
428.514	246.06
428.736	231.06
428.958	237.06
429.181	234.06
429.403	219.06
429.625	243.06
429.847	259.06
430.069	268.06
430.292	266.06
430.514	232.06
430.736	238.06
430.958	249.06
431.18	225.06
431.402	220.06
431.624	247.06
431.846	215.06
432.068	226.06
432.29	238.06
432.512	230.06
432.734	241.06
432.956	212.06
433.178	237.06
433.4	227.06
433.622	222.06
433.844	236.06
434.066	245.06
434.287	232.06
434.509	227.06
434.731	230.06
434.953	242.06
435.175	230.06
435.397	238.06
435.618	248.06
435.84	271.06
436.062	322.06
436.284	323.06
436.505	284.06
436.727	248.06
436.949	230.06
437.17	234.06
437.392	257.06
437.614	228.06
437.835	249.06
438.057	287.06
438.278	339.06
438.5	319.06
438.721	371.06
438.943	327.06
439.165	274.06
439.386	249.06
439.608	246.06
439.829	251.06
440.05	260.06
440.272	275.06
440.493	272.06
440.715	251.06
440.936	236.06
441.158	243.06
441.379	246.06
441.6	240.06
441.822	269.06
442.043	265.06
442.264	312.06
442.486	315.06
442.707	268.06
442.928	253.06
443.149	255.06
443.371	263.06
443.592	284.06
443.813	339.06
444.034	325.06
444.255	307.06
444.476	269.06
444.698	267.06
444.919	267.06
445.14	329.06
445.361	282.06
445.582	288.06
445.803	296.06
446.024	344.06
446.245	350.06
446.466	302.06
446.687	259.06
446.908	256.06
447.129	239.06
447.35	243.06
447.571	239.06
447.792	246.06
448.013	228.06
448.234	243.06
448.455	276.06
448.675	297.06
448.896	348.06
449.117	280.06
449.338	279.06
449.559	331.06
449.779	347.06
450	281.06
450.221	240.06
450.442	225.06
450.662	227.06
450.883	239.06
451.104	250.06
451.324	224.06
451.545	229.06
451.766	221.06
451.986	220.06
452.207	211.06
452.428	220.06
452.648	233.06
452.869	213.06
453.089	220.06
453.31	236.06
453.53	220.06
453.751	212.06
453.971	231.06
454.192	245.06
454.412	234.06
454.633	227.06
454.853	206.06
455.073	238.06
455.294	226.06
455.514	259.06
455.734	246.06
455.955	204.06
456.175	218.06
456.395	209.06
456.616	195.06
456.836	198.06
457.056	198.06
457.276	198.06
457.497	211.06
457.717	205.06
457.937	225.06
458.157	217.06
458.377	216.06
458.598	219.06
458.818	247.06
459.038	283.06
459.258	272.06
459.478	263.06
459.698	222.06
459.918	231.06
460.138	228.06
460.358	215.06
460.578	212.06
460.798	226.06
461.018	243.06
461.238	215.06
461.458	234.06
461.678	208.06
461.898	231.06
462.118	222.06
462.338	241.06
462.558	235.06
462.777	234.06
462.997	244.06
463.217	259.06
463.437	242.06
463.657	243.06
463.876	237.06
464.096	249.06
464.316	232.06
464.536	246.06
464.755	252.06
464.975	255.06
465.195	282.06
465.414	300.06
465.634	265.06
465.854	231.06
466.073	228.06
466.293	229.06
466.512	225.06
466.732	200.06
466.951	220.06
467.171	243.06
467.391	237.06
467.61	225.06
467.829	239.06
468.049	224.06
468.268	226.06
468.488	232.06
468.707	211.06
468.927	223.06
469.146	229.06
469.365	236.06
469.585	229.06
469.804	225.06
470.023	222.06
470.243	252.06
470.462	239.06
470.681	248.06
470.901	220.06
471.12	229.06
471.339	243.06
471.558	243.06
471.777	237.06
471.997	211.06
472.216	229.06
472.435	253.06
472.654	241.06
472.873	240.06
473.092	219.06
473.311	237.06
473.53	221.06
473.749	229.06
473.968	259.06
474.187	297.06
474.406	283.06
474.625	235.06
474.844	218.06
475.063	247.06
475.282	220.06
475.501	216.06
475.72	226.06
475.939	219.06
476.158	245.06
476.377	221.06
476.596	209.06
476.814	213.06
477.033	235.06
477.252	251.06
477.471	220.06
477.69	235.06
477.908	255.06
478.127	242.06
478.346	257.06
478.564	272.06
478.783	223.06
479.002	261.06
479.22	253.06
479.439	253.06
479.658	282.06
479.876	265.06
480.095	267.06
480.313	289.06
480.532	278.06
480.751	259.06
480.969	277.06
481.188	305.06
481.406	341.06
481.624	284.06
481.843	265.06
482.061	277.06
482.28	259.06
482.498	269.06
482.717	251.06
482.935	256.06
483.153	269.06
483.372	228.06
483.59	258.06
483.808	251.06
484.027	267.06
484.245	248.06
484.463	269.06
484.681	264.06
484.9	280.06
485.118	246.06
485.336	267.06
485.554	282.06
485.772	273.06
485.99	287.06
486.209	276.06
486.427	270.06
486.645	273.06
486.863	288.06
487.081	282.06
487.299	287.06
487.517	289.06
487.735	295.06
487.953	265.06
488.171	284.06
488.389	269.06
488.607	263.06
488.825	264.06
489.043	267.06
489.261	267.06
489.479	281.06
489.696	271.06
489.914	281.06
490.132	295.06
490.35	288.06
490.568	277.06
490.786	308.06
491.003	310.06
491.221	309.06
491.439	320.06
491.657	321.06
491.874	307.06
492.092	316.06
492.31	315.06
492.527	317.06
492.745	326.06
492.963	310.06
493.18	319.06
493.398	308.06
493.615	319.06
493.833	315.06
494.05	334.06
494.268	319.06
494.485	332.06
494.703	303.06
494.92	326.06
495.138	316.06
495.355	324.06
495.573	317.06
495.79	318.06
496.008	308.06
496.225	330.06
496.442	319.06
496.66	323.06
496.877	299.06
497.094	325.06
497.312	303.06
497.529	311.06
497.746	313.06
497.963	336.06
498.181	312.06
498.398	324.06
498.615	337.06
498.832	341.06
499.049	358.06
499.267	357.06
499.484	362.06
499.701	388.06
499.918	390.06
500.135	407.06
500.352	419.06
500.569	400.06
500.786	415.06
501.003	415.06
501.22	387.06
501.437	394.06
501.654	392.06
501.871	369.06
502.088	378.06
502.305	341.06
502.522	350.06
502.739	329.06
