Data from 1966.PennyLincolnUp.Lamp.En5.5.200Scan.071719.P1._HRD10591_14-14-01-915.txt Node
Date: Thu Jul 18 14:14:01 EDT 2019
User: cochatt
Spectrometer: HR+D1059
Trigger mode: 1
Integration Time (sec): 1.000000E-1
Scans to average: 1
Electric dark correction enabled: true
Nonlinearity correction enabled: false
Boxcar width: 0
XAxis mode: Wavelengths
Number of Pixels in Spectrum: 2048
>>>>>Begin Spectral Data<<<<<
223.165	-9.56
223.4	-9.56
223.635	-9.56
223.869	-4.56
224.104	-9.56
224.338	-5.56
224.573	3.44
224.808	-6.56
225.042	-25.56
225.277	-17.56
225.511	-19.56
225.746	-8.56
225.98	4.44
226.215	2.44
226.449	10.44
226.683	33.44
226.918	23.44
227.152	29.44
227.387	41.44
227.621	46.44
227.856	37.44
228.09	42.44
228.324	61.44
228.559	64.44
228.793	69.44
229.027	80.44
229.262	89.44
229.496	98.44
229.73	66.44
229.964	116.44
230.199	89.44
230.433	97.44
230.667	105.44
230.901	89.44
231.136	93.44
231.37	94.44
231.604	78.44
231.838	108.44
232.072	98.44
232.306	93.44
232.541	102.44
232.775	108.44
233.009	95.44
233.243	93.44
233.477	97.44
233.711	95.44
233.945	88.44
234.179	103.44
234.413	97.44
234.647	100.44
234.881	97.44
235.115	93.44
235.349	105.44
235.583	116.44
235.817	96.44
236.051	92.44
236.285	101.44
236.519	86.44
236.753	118.44
236.987	124.44
237.221	118.44
237.455	156.44
237.689	122.44
237.922	100.44
238.156	107.44
238.39	95.44
238.624	93.44
238.858	95.44
239.091	86.44
239.325	94.44
239.559	103.44
239.793	103.44
240.027	93.44
240.26	113.44
240.494	124.44
240.728	108.44
240.961	120.44
241.195	116.44
241.429	106.44
241.662	101.44
241.896	98.44
242.13	94.44
242.363	107.44
242.597	89.44
242.83	110.44
243.064	117.44
243.298	111.44
243.531	109.44
243.765	83.44
243.998	106.44
244.232	97.44
244.465	107.44
244.699	102.44
244.932	112.44
245.166	94.44
245.399	104.44
245.633	112.44
245.866	119.44
246.099	94.44
246.333	106.44
246.566	124.44
246.8	128.44
247.033	105.44
247.266	101.44
247.5	120.44
247.733	126.44
247.966	119.44
248.2	115.44
248.433	107.44
248.666	113.44
248.899	121.44
249.133	123.44
249.366	136.44
249.599	135.44
249.832	122.44
250.066	108.44
250.299	132.44
250.532	128.44
250.765	128.44
250.998	152.44
251.231	165.44
251.465	152.44
251.698	148.44
251.931	125.44
252.164	141.44
252.397	122.44
252.63	130.44
252.863	129.44
253.096	140.44
253.329	138.44
253.562	149.44
253.795	142.44
254.028	157.44
254.261	146.44
254.494	148.44
254.727	157.44
254.96	161.44
255.193	167.44
255.426	156.44
255.659	143.44
255.892	136.44
256.124	146.44
256.357	139.44
256.59	142.44
256.823	123.44
257.056	136.44
257.289	132.44
257.521	145.44
257.754	145.44
257.987	144.44
258.22	145.44
258.452	137.44
258.685	135.44
258.918	131.44
259.151	123.44
259.383	146.44
259.616	147.44
259.849	153.44
260.081	142.44
260.314	162.44
260.547	164.44
260.779	145.44
261.012	142.44
261.244	141.44
261.477	138.44
261.71	142.44
261.942	146.44
262.175	149.44
262.407	151.44
262.64	121.44
262.872	144.44
263.105	140.44
263.337	152.44
263.57	137.44
263.802	138.44
264.035	146.44
264.267	131.44
264.499	132.44
264.732	134.44
264.964	132.44
265.197	141.44
265.429	132.44
265.661	133.44
265.894	139.44
266.126	143.44
266.358	145.44
266.591	152.44
266.823	136.44
267.055	133.44
267.287	152.44
267.52	137.44
267.752	132.44
267.984	143.44
268.216	143.44
268.448	138.44
268.681	133.44
268.913	160.44
269.145	174.44
269.377	174.44
269.609	176.44
269.841	170.44
270.073	174.44
270.306	189.44
270.538	187.44
270.77	173.44
271.002	184.44
271.234	181.44
271.466	184.44
271.698	165.44
271.93	198.44
272.162	199.44
272.394	188.44
272.626	181.44
272.858	164.44
273.09	159.44
273.322	157.44
273.553	158.44
273.785	141.44
274.017	155.44
274.249	154.44
274.481	158.44
274.713	166.44
274.945	168.44
275.176	186.44
275.408	172.44
275.64	156.44
275.872	154.44
276.104	167.44
276.335	163.44
276.567	163.44
276.799	177.44
277.031	185.44
277.262	191.44
277.494	194.44
277.726	172.44
277.957	148.44
278.189	171.44
278.421	188.44
278.652	166.44
278.884	156.44
279.115	158.44
279.347	146.44
279.579	160.44
279.81	174.44
280.042	142.44
280.273	159.44
280.505	159.44
280.736	159.44
280.968	147.44
281.199	143.44
281.431	158.44
281.662	170.44
281.894	163.44
282.125	153.44
282.356	186.44
282.588	180.44
282.819	193.44
283.051	184.44
283.282	172.44
283.513	167.44
283.745	168.44
283.976	165.44
284.207	167.44
284.439	152.44
284.67	180.44
284.901	176.44
285.132	153.44
285.364	156.44
285.595	159.44
285.826	159.44
286.057	170.44
286.288	172.44
286.52	166.44
286.751	185.44
286.982	152.44
287.213	171.44
287.444	167.44
287.675	185.44
287.906	164.44
288.138	181.44
288.369	193.44
288.6	165.44
288.831	168.44
289.062	168.44
289.293	176.44
289.524	162.44
289.755	159.44
289.986	172.44
290.217	167.44
290.448	170.44
290.679	162.44
290.91	179.44
291.141	166.44
291.371	160.44
291.602	166.44
291.833	162.44
292.064	174.44
292.295	173.44
292.526	169.44
292.757	178.44
292.987	159.44
293.218	174.44
293.449	177.44
293.68	177.44
293.91	174.44
294.141	181.44
294.372	178.44
294.603	178.44
294.833	166.44
295.064	174.44
295.295	181.44
295.525	172.44
295.756	172.44
295.987	176.44
296.217	187.44
296.448	199.44
296.679	180.44
296.909	178.44
297.14	167.44
297.37	173.44
297.601	192.44
297.831	172.44
298.062	190.44
298.292	166.44
298.523	182.44
298.753	174.44
298.984	166.44
299.214	177.44
299.445	183.44
299.675	173.44
299.905	180.44
300.136	192.44
300.366	175.44
300.597	179.44
300.827	186.44
301.057	173.44
301.288	191.44
301.518	173.44
301.748	192.44
301.979	185.44
302.209	188.44
302.439	168.44
302.669	177.44
302.9	183.44
303.13	188.44
303.36	180.44
303.59	189.44
303.82	202.44
304.051	209.44
304.281	180.44
304.511	191.44
304.741	178.44
304.971	198.44
305.201	180.44
305.431	180.44
305.661	172.44
305.891	176.44
306.121	194.44
306.352	189.44
306.582	179.44
306.812	186.44
307.042	201.44
307.272	178.44
307.502	175.44
307.731	165.44
307.961	188.44
308.191	194.44
308.421	201.44
308.651	199.44
308.881	204.44
309.111	193.44
309.341	203.44
309.571	208.44
309.8	200.44
310.03	209.44
310.26	214.44
310.49	218.44
310.72	219.44
310.949	214.44
311.179	229.44
311.409	216.44
311.639	200.44
311.868	200.44
312.098	204.44
312.328	216.44
312.557	229.44
312.787	233.44
313.017	218.44
313.246	215.44
313.476	206.44
313.706	214.44
313.935	223.44
314.165	198.44
314.394	221.44
314.624	209.44
314.853	217.44
315.083	228.44
315.312	211.44
315.542	210.44
315.771	205.44
316.001	210.44
316.23	210.44
316.46	201.44
316.689	207.44
316.919	206.44
317.148	199.44
317.377	226.44
317.607	219.44
317.836	216.44
318.065	203.44
318.295	201.44
318.524	225.44
318.753	207.44
318.983	198.44
319.212	209.44
319.441	205.44
319.67	209.44
319.9	219.44
320.129	212.44
320.358	227.44
320.587	205.44
320.816	208.44
321.046	222.44
321.275	213.44
321.504	218.44
321.733	221.44
321.962	235.44
322.191	228.44
322.42	252.44
322.649	243.44
322.878	247.44
323.108	229.44
323.337	260.44
323.566	269.44
323.795	281.44
324.024	312.44
324.253	362.44
324.482	509.44
324.71	762.44
324.939	1044.44
325.168	861.44
325.397	436.44
325.626	315.44
325.855	281.44
326.084	266.44
326.313	257.44
326.542	266.44
326.77	308.44
326.999	353.44
327.228	488.44
327.457	654.44
327.686	756.44
327.914	506.44
328.143	364.44
328.372	318.44
328.6	314.44
328.829	301.44
329.058	321.44
329.287	314.44
329.515	321.44
329.744	272.44
329.972	271.44
330.201	286.44
330.43	324.44
330.658	329.44
330.887	337.44
331.115	338.44
331.344	286.44
331.572	268.44
331.801	264.44
332.03	262.44
332.258	236.44
332.486	228.44
332.715	227.44
332.943	249.44
333.172	237.44
333.4	254.44
333.629	268.44
333.857	246.44
334.085	261.44
334.314	274.44
334.542	303.44
334.771	310.44
334.999	293.44
335.227	262.44
335.455	236.44
335.684	239.44
335.912	243.44
336.14	236.44
336.369	250.44
336.597	242.44
336.825	248.44
337.053	239.44
337.281	236.44
337.51	232.44
337.738	240.44
337.966	221.44
338.194	249.44
338.422	246.44
338.65	233.44
338.878	219.44
339.106	220.44
339.334	215.44
339.562	207.44
339.79	236.44
340.018	231.44
340.246	222.44
340.474	213.44
340.702	241.44
340.93	238.44
341.158	214.44
341.386	228.44
341.614	228.44
341.842	232.44
342.07	216.44
342.298	216.44
342.526	228.44
342.754	229.44
342.981	232.44
343.209	215.44
343.437	229.44
343.665	232.44
343.893	234.44
344.12	232.44
344.348	226.44
344.576	247.44
344.804	236.44
345.031	255.44
345.259	240.44
345.487	247.44
345.714	209.44
345.942	231.44
346.17	238.44
346.397	225.44
346.625	236.44
346.853	220.44
347.08	220.44
347.308	222.44
347.535	233.44
347.763	213.44
347.99	224.44
348.218	223.44
348.445	221.44
348.673	219.44
348.9	225.44
349.128	219.44
349.355	211.44
349.583	210.44
349.81	196.44
350.037	216.44
350.265	218.44
350.492	204.44
350.72	230.44
350.947	213.44
351.174	228.44
351.402	232.44
351.629	224.44
351.856	224.44
352.083	232.44
352.311	235.44
352.538	216.44
352.765	230.44
352.992	229.44
353.22	233.44
353.447	219.44
353.674	220.44
353.901	205.44
354.128	204.44
354.355	221.44
354.583	198.44
354.81	201.44
355.037	212.44
355.264	202.44
355.491	218.44
355.718	198.44
355.945	210.44
356.172	211.44
356.399	207.44
356.626	220.44
356.853	213.44
357.08	201.44
357.307	200.44
357.534	203.44
357.761	203.44
357.988	206.44
358.215	206.44
358.441	208.44
358.668	207.44
358.895	195.44
359.122	218.44
359.349	212.44
359.576	222.44
359.802	220.44
360.029	237.44
360.256	237.44
360.483	247.44
360.709	233.44
360.936	201.44
361.163	229.44
361.39	232.44
361.616	236.44
361.843	226.44
362.07	223.44
362.296	229.44
362.523	206.44
362.749	208.44
362.976	221.44
363.203	234.44
363.429	225.44
363.656	224.44
363.882	217.44
364.109	198.44
364.335	228.44
364.562	213.44
364.788	229.44
365.015	221.44
365.241	207.44
365.468	217.44
365.694	216.44
365.92	223.44
366.147	227.44
366.373	204.44
366.599	204.44
366.826	210.44
367.052	215.44
367.278	236.44
367.505	215.44
367.731	210.44
367.957	201.44
368.184	205.44
368.41	211.44
368.636	228.44
368.862	224.44
369.089	219.44
369.315	221.44
369.541	213.44
369.767	215.44
369.993	213.44
370.219	210.44
370.445	202.44
370.672	200.44
370.898	200.44
371.124	195.44
371.35	209.44
371.576	207.44
371.802	218.44
372.028	193.44
372.254	202.44
372.48	193.44
372.706	226.44
372.932	208.44
373.158	210.44
373.384	217.44
373.61	203.44
373.835	211.44
374.061	217.44
374.287	198.44
374.513	202.44
374.739	208.44
374.965	205.44
375.191	207.44
375.416	200.44
375.642	182.44
375.868	201.44
376.094	232.44
376.319	209.44
376.545	206.44
376.771	188.44
376.997	216.44
377.222	199.44
377.448	221.44
377.674	195.44
377.899	214.44
378.125	204.44
378.35	204.44
378.576	190.44
378.802	212.44
379.027	200.44
379.253	215.44
379.478	199.44
379.704	201.44
379.929	200.44
380.155	221.44
380.38	203.44
380.606	213.44
380.831	207.44
381.057	213.44
381.282	204.44
381.507	209.44
381.733	188.44
381.958	208.44
382.184	210.44
382.409	200.44
382.634	222.44
382.86	203.44
383.085	205.44
383.31	216.44
383.535	212.44
383.761	214.44
383.986	210.44
384.211	225.44
384.436	212.44
384.662	216.44
384.887	213.44
385.112	209.44
385.337	216.44
385.562	228.44
385.787	207.44
386.013	226.44
386.238	207.44
386.463	222.44
386.688	215.44
386.913	208.44
387.138	222.44
387.363	222.44
387.588	220.44
387.813	226.44
388.038	212.44
388.263	225.44
388.488	220.44
388.713	220.44
388.938	228.44
389.163	237.44
389.387	231.44
389.612	210.44
389.837	223.44
390.062	211.44
390.287	228.44
390.512	218.44
390.736	205.44
390.961	213.44
391.186	218.44
391.411	227.44
391.636	230.44
391.86	226.44
392.085	227.44
392.31	233.44
392.534	234.44
392.759	204.44
392.984	226.44
393.208	250.44
393.433	221.44
393.658	227.44
393.882	217.44
394.107	218.44
394.331	224.44
394.556	207.44
394.78	227.44
395.005	224.44
395.229	222.44
395.454	234.44
395.678	234.44
395.903	233.44
396.127	249.44
396.352	222.44
396.576	252.44
396.801	222.44
397.025	226.44
397.249	230.44
397.474	240.44
397.698	245.44
397.922	244.44
398.147	258.44
398.371	232.44
398.595	240.44
398.82	248.44
399.044	245.44
399.268	261.44
399.492	276.44
399.717	285.44
399.941	296.44
400.165	290.44
400.389	303.44
400.613	287.44
400.837	263.44
401.062	269.44
401.286	275.44
401.51	246.44
401.734	244.44
401.958	240.44
402.182	244.44
402.406	266.44
402.63	267.44
402.854	286.44
403.078	276.44
403.302	257.44
403.526	266.44
403.75	264.44
403.974	259.44
404.198	251.44
404.422	255.44
404.645	270.44
404.869	280.44
405.093	273.44
405.317	308.44
405.541	312.44
405.765	287.44
405.988	264.44
406.212	274.44
406.436	290.44
406.66	301.44
406.883	288.44
407.107	298.44
407.331	305.44
407.555	350.44
407.778	338.44
408.002	297.44
408.226	294.44
408.449	280.44
408.673	295.44
408.896	302.44
409.12	303.44
409.344	297.44
409.567	264.44
409.791	265.44
410.014	261.44
410.238	236.44
410.461	242.44
410.685	271.44
410.908	268.44
411.132	281.44
411.355	294.44
411.578	290.44
411.802	265.44
412.025	252.44
412.249	256.44
412.472	274.44
412.695	292.44
412.919	273.44
413.142	256.44
413.365	272.44
413.589	267.44
413.812	246.44
414.035	262.44
414.258	250.44
414.482	245.44
414.705	239.44
414.928	257.44
415.151	244.44
415.374	229.44
415.597	238.44
415.821	258.44
416.044	266.44
416.267	256.44
416.49	256.44
416.713	256.44
416.936	250.44
417.159	238.44
417.382	255.44
417.605	230.44
417.828	254.44
418.051	266.44
418.274	250.44
418.497	247.44
418.72	244.44
418.943	263.44
419.166	253.44
419.389	266.44
419.611	260.44
419.834	258.44
420.057	260.44
420.28	249.44
420.503	262.44
420.726	264.44
420.948	290.44
421.171	284.44
421.394	295.44
421.617	257.44
421.839	261.44
422.062	272.44
422.285	264.44
422.507	284.44
422.73	305.44
422.953	303.44
423.175	293.44
423.398	246.44
423.621	275.44
423.843	289.44
424.066	276.44
424.288	275.44
424.511	280.44
424.733	304.44
424.956	318.44
425.178	342.44
425.401	318.44
425.623	346.44
425.846	281.44
426.068	289.44
426.291	288.44
426.513	277.44
426.735	301.44
426.958	277.44
427.18	335.44
427.402	401.44
427.625	423.44
427.847	388.44
428.069	334.44
428.292	295.44
428.514	270.44
428.736	266.44
428.958	256.44
429.181	256.44
429.403	276.44
429.625	258.44
429.847	250.44
430.069	300.44
430.292	313.44
430.514	283.44
430.736	275.44
430.958	231.44
431.18	257.44
431.402	243.44
431.624	260.44
431.846	255.44
432.068	240.44
432.29	247.44
432.512	235.44
432.734	256.44
432.956	248.44
433.178	253.44
433.4	267.44
433.622	255.44
433.844	265.44
434.066	233.44
434.287	241.44
434.509	252.44
434.731	252.44
434.953	257.44
435.175	259.44
435.397	280.44
435.618	280.44
435.84	287.44
436.062	332.44
436.284	376.44
436.505	301.44
436.727	262.44
436.949	263.44
437.17	267.44
437.392	248.44
437.614	255.44
437.835	298.44
438.057	330.44
438.278	372.44
438.5	340.44
438.721	375.44
438.943	352.44
439.165	308.44
439.386	271.44
439.608	301.44
439.829	280.44
440.05	306.44
440.272	301.44
440.493	279.44
440.715	285.44
440.936	245.44
441.158	246.44
441.379	263.44
441.6	266.44
441.822	270.44
442.043	296.44
442.264	335.44
442.486	355.44
442.707	305.44
442.928	275.44
443.149	288.44
443.371	300.44
443.592	328.44
443.813	356.44
444.034	346.44
444.255	316.44
444.476	291.44
444.698	288.44
444.919	291.44
445.14	389.44
445.361	329.44
445.582	310.44
445.803	326.44
446.024	380.44
446.245	381.44
446.466	326.44
446.687	276.44
446.908	281.44
447.129	258.44
447.35	255.44
447.571	236.44
447.792	241.44
448.013	258.44
448.234	262.44
448.455	286.44
448.675	345.44
448.896	385.44
449.117	327.44
449.338	296.44
449.559	349.44
449.779	398.44
450	336.44
450.221	279.44
450.442	249.44
450.662	258.44
450.883	275.44
451.104	272.44
451.324	263.44
451.545	252.44
451.766	253.44
451.986	252.44
452.207	236.44
452.428	231.44
452.648	238.44
452.869	218.44
453.089	237.44
453.31	240.44
453.53	235.44
453.751	224.44
453.971	222.44
454.192	246.44
454.412	249.44
454.633	223.44
454.853	244.44
455.073	223.44
455.294	230.44
455.514	274.44
455.734	264.44
455.955	231.44
456.175	231.44
456.395	216.44
456.616	214.44
456.836	221.44
457.056	223.44
457.276	199.44
457.497	216.44
457.717	226.44
457.937	233.44
458.157	219.44
458.377	233.44
458.598	241.44
458.818	279.44
459.038	331.44
459.258	305.44
459.478	241.44
459.698	228.44
459.918	222.44
460.138	231.44
460.358	252.44
460.578	244.44
460.798	260.44
461.018	261.44
461.238	244.44
461.458	236.44
461.678	233.44
461.898	246.44
462.118	260.44
462.338	262.44
462.558	265.44
462.777	256.44
462.997	257.44
463.217	253.44
463.437	267.44
463.657	256.44
463.876	261.44
464.096	250.44
464.316	256.44
464.536	273.44
464.755	277.44
464.975	289.44
465.195	317.44
465.414	360.44
465.634	283.44
465.854	272.44
466.073	254.44
466.293	262.44
466.512	249.44
466.732	245.44
466.951	238.44
467.171	244.44
467.391	237.44
467.61	262.44
467.829	254.44
468.049	250.44
468.268	259.44
468.488	250.44
468.707	242.44
468.927	235.44
469.146	240.44
469.365	241.44
469.585	228.44
469.804	238.44
470.023	239.44
470.243	246.44
470.462	249.44
470.681	268.44
470.901	246.44
471.12	235.44
471.339	246.44
471.558	247.44
471.777	263.44
471.997	246.44
472.216	248.44
472.435	274.44
472.654	274.44
472.873	241.44
473.092	250.44
473.311	243.44
473.53	259.44
473.749	225.44
473.968	263.44
474.187	319.44
474.406	305.44
474.625	276.44
474.844	260.44
475.063	247.44
475.282	251.44
475.501	242.44
475.72	260.44
475.939	248.44
476.158	234.44
476.377	264.44
476.596	247.44
476.814	262.44
477.033	238.44
477.252	253.44
477.471	250.44
477.69	257.44
477.908	265.44
478.127	268.44
478.346	260.44
478.564	272.44
478.783	252.44
479.002	271.44
479.22	273.44
479.439	286.44
479.658	292.44
479.876	275.44
480.095	298.44
480.313	285.44
480.532	280.44
480.751	293.44
480.969	287.44
481.188	353.44
481.406	376.44
481.624	316.44
481.843	281.44
482.061	287.44
482.28	281.44
482.498	266.44
482.717	279.44
482.935	279.44
483.153	273.44
483.372	280.44
483.59	284.44
483.808	277.44
484.027	300.44
484.245	281.44
484.463	280.44
484.681	280.44
484.9	288.44
485.118	273.44
485.336	274.44
485.554	269.44
485.772	289.44
485.99	282.44
486.209	286.44
486.427	312.44
486.645	300.44
486.863	293.44
487.081	280.44
487.299	282.44
487.517	309.44
487.735	288.44
487.953	303.44
488.171	310.44
488.389	304.44
488.607	292.44
488.825	309.44
489.043	305.44
489.261	298.44
489.479	288.44
489.696	307.44
489.914	310.44
490.132	311.44
490.35	306.44
490.568	308.44
490.786	316.44
491.003	329.44
491.221	336.44
491.439	351.44
491.657	330.44
491.874	350.44
492.092	346.44
492.31	339.44
492.527	336.44
492.745	353.44
492.963	337.44
493.18	345.44
493.398	341.44
493.615	355.44
493.833	356.44
494.05	360.44
494.268	359.44
494.485	343.44
494.703	350.44
494.92	353.44
495.138	358.44
495.355	349.44
495.573	349.44
495.79	350.44
496.008	346.44
496.225	344.44
496.442	326.44
496.66	329.44
496.877	357.44
497.094	346.44
497.312	349.44
497.529	347.44
497.746	341.44
497.963	362.44
498.181	375.44
498.398	366.44
498.615	376.44
498.832	372.44
499.049	382.44
499.267	373.44
499.484	411.44
499.701	399.44
499.918	429.44
500.135	441.44
500.352	435.44
500.569	449.44
500.786	430.44
501.003	452.44
501.22	448.44
501.437	418.44
501.654	421.44
501.871	446.44
502.088	412.44
502.305	398.44
502.522	383.44
