Data from 1966.PennyLincolnUp.Lamp.En5.5.200Scan.071719.P1.Scan2.head_HRD10591_14-16-53-064.txt Node
Date: Thu Jul 18 14:16:53 EDT 2019
User: cochatt
Spectrometer: HR+D1059
Trigger mode: 1
Integration Time (sec): 1.000000E-1
Scans to average: 1
Electric dark correction enabled: true
Nonlinearity correction enabled: false
Boxcar width: 0
XAxis mode: Wavelengths
Number of Pixels in Spectrum: 2048
>>>>>Begin Spectral Data<<<<<
223.165	-13.75
223.4	-13.75
223.635	-13.75
223.869	-7.75
224.104	-9.75
224.338	-10.75
224.573	-7.75
224.808	-19.75
225.042	-5.75
225.277	-17.75
225.511	3.25
225.746	9.25
225.98	10.25
226.215	7.25
226.449	18.25
226.683	13.25
226.918	20.25
227.152	11.25
227.387	40.25
227.621	42.25
227.856	29.25
228.09	42.25
228.324	47.25
228.559	44.25
228.793	69.25
229.027	92.25
229.262	92.25
229.496	90.25
229.73	114.25
229.964	122.25
230.199	114.25
230.433	103.25
230.667	104.25
230.901	99.25
231.136	107.25
231.37	105.25
231.604	101.25
231.838	115.25
232.072	105.25
232.306	112.25
232.541	113.25
232.775	114.25
233.009	128.25
233.243	97.25
233.477	99.25
233.711	123.25
233.945	109.25
234.179	118.25
234.413	129.25
234.647	110.25
234.881	107.25
235.115	118.25
235.349	122.25
235.583	114.25
235.817	124.25
236.051	125.25
236.285	116.25
236.519	124.25
236.753	119.25
236.987	125.25
237.221	151.25
237.455	213.25
237.689	169.25
237.922	136.25
238.156	131.25
238.39	120.25
238.624	148.25
238.858	118.25
239.091	128.25
239.325	115.25
239.559	114.25
239.793	132.25
240.027	120.25
240.26	129.25
240.494	149.25
240.728	143.25
240.961	139.25
241.195	140.25
241.429	135.25
241.662	127.25
241.896	139.25
242.13	121.25
242.363	129.25
242.597	121.25
242.83	133.25
243.064	129.25
243.298	132.25
243.531	122.25
243.765	118.25
243.998	148.25
244.232	141.25
244.465	126.25
244.699	136.25
244.932	149.25
245.166	123.25
245.399	142.25
245.633	135.25
245.866	136.25
246.099	143.25
246.333	154.25
246.566	134.25
246.8	136.25
247.033	131.25
247.266	144.25
247.5	152.25
247.733	158.25
247.966	150.25
248.2	152.25
248.433	161.25
248.666	165.25
248.899	182.25
249.133	171.25
249.366	211.25
249.599	186.25
249.832	179.25
250.066	188.25
250.299	178.25
250.532	187.25
250.765	185.25
250.998	203.25
251.231	199.25
251.465	185.25
251.698	200.25
251.931	164.25
252.164	179.25
252.397	182.25
252.63	195.25
252.863	197.25
253.096	186.25
253.329	205.25
253.562	200.25
253.795	200.25
254.028	202.25
254.261	214.25
254.494	207.25
254.727	221.25
254.96	247.25
255.193	230.25
255.426	217.25
255.659	214.25
255.892	204.25
256.124	192.25
256.357	225.25
256.59	216.25
256.823	203.25
257.056	204.25
257.289	202.25
257.521	201.25
257.754	192.25
257.987	185.25
258.22	193.25
258.452	207.25
258.685	194.25
258.918	197.25
259.151	184.25
259.383	200.25
259.616	218.25
259.849	210.25
260.081	209.25
260.314	234.25
260.547	249.25
260.779	211.25
261.012	209.25
261.244	216.25
261.477	211.25
261.71	204.25
261.942	205.25
262.175	212.25
262.407	220.25
262.64	200.25
262.872	195.25
263.105	209.25
263.337	202.25
263.57	204.25
263.802	204.25
264.035	211.25
264.267	186.25
264.499	198.25
264.732	196.25
264.964	208.25
265.197	198.25
265.429	210.25
265.661	210.25
265.894	206.25
266.126	200.25
266.358	199.25
266.591	205.25
266.823	222.25
267.055	223.25
267.287	206.25
267.52	201.25
267.752	218.25
267.984	213.25
268.216	219.25
268.448	191.25
268.681	216.25
268.913	214.25
269.145	242.25
269.377	257.25
269.609	240.25
269.841	261.25
270.073	254.25
270.306	261.25
270.538	277.25
270.77	278.25
271.002	252.25
271.234	268.25
271.466	257.25
271.698	276.25
271.93	274.25
272.162	261.25
272.394	288.25
272.626	267.25
272.858	261.25
273.09	256.25
273.322	253.25
273.553	256.25
273.785	250.25
274.017	257.25
274.249	246.25
274.481	236.25
274.713	252.25
274.945	243.25
275.176	244.25
275.408	241.25
275.64	244.25
275.872	247.25
276.104	258.25
276.335	264.25
276.567	252.25
276.799	257.25
277.031	272.25
277.262	304.25
277.494	298.25
277.726	285.25
277.957	262.25
278.189	260.25
278.421	251.25
278.652	259.25
278.884	255.25
279.115	258.25
279.347	259.25
279.579	237.25
279.81	248.25
280.042	254.25
280.273	246.25
280.505	248.25
280.736	242.25
280.968	244.25
281.199	257.25
281.431	241.25
281.662	241.25
281.894	245.25
282.125	258.25
282.356	263.25
282.588	272.25
282.819	280.25
283.051	264.25
283.282	246.25
283.513	260.25
283.745	256.25
283.976	257.25
284.207	235.25
284.439	252.25
284.67	272.25
284.901	286.25
285.132	252.25
285.364	269.25
285.595	266.25
285.826	278.25
286.057	266.25
286.288	284.25
286.52	270.25
286.751	258.25
286.982	263.25
287.213	278.25
287.444	253.25
287.675	275.25
287.906	290.25
288.138	294.25
288.369	280.25
288.6	275.25
288.831	262.25
289.062	280.25
289.293	280.25
289.524	274.25
289.755	278.25
289.986	268.25
290.217	274.25
290.448	276.25
290.679	291.25
290.91	293.25
291.141	270.25
291.371	283.25
291.602	280.25
291.833	291.25
292.064	266.25
292.295	281.25
292.526	280.25
292.757	273.25
292.987	277.25
293.218	257.25
293.449	263.25
293.68	259.25
293.91	264.25
294.141	271.25
294.372	257.25
294.603	279.25
294.833	285.25
295.064	269.25
295.295	285.25
295.525	271.25
295.756	276.25
295.987	282.25
296.217	296.25
296.448	298.25
296.679	271.25
296.909	269.25
297.14	264.25
297.37	267.25
297.601	293.25
297.831	268.25
298.062	286.25
298.292	270.25
298.523	294.25
298.753	290.25
298.984	296.25
299.214	281.25
299.445	293.25
299.675	288.25
299.905	305.25
300.136	294.25
300.366	294.25
300.597	286.25
300.827	290.25
301.057	310.25
301.288	308.25
301.518	307.25
301.748	325.25
301.979	313.25
302.209	320.25
302.439	305.25
302.669	308.25
302.9	294.25
303.13	306.25
303.36	320.25
303.59	321.25
303.82	317.25
304.051	316.25
304.281	327.25
304.511	303.25
304.741	308.25
304.971	314.25
305.201	315.25
305.431	306.25
305.661	316.25
305.891	318.25
306.121	310.25
306.352	318.25
306.582	317.25
306.812	323.25
307.042	304.25
307.272	308.25
307.502	320.25
307.731	330.25
307.961	312.25
308.191	324.25
308.421	318.25
308.651	308.25
308.881	295.25
309.111	330.25
309.341	316.25
309.571	325.25
309.8	325.25
310.03	341.25
310.26	339.25
310.49	355.25
310.72	337.25
310.949	353.25
311.179	358.25
311.409	349.25
311.639	369.25
311.868	328.25
312.098	345.25
312.328	365.25
312.557	364.25
312.787	389.25
313.017	372.25
313.246	361.25
313.476	345.25
313.706	330.25
313.935	359.25
314.165	362.25
314.394	363.25
314.624	351.25
314.853	353.25
315.083	346.25
315.312	347.25
315.542	354.25
315.771	349.25
316.001	332.25
316.23	358.25
316.46	358.25
316.689	360.25
316.919	360.25
317.148	338.25
317.377	360.25
317.607	378.25
317.836	359.25
318.065	352.25
318.295	350.25
318.524	368.25
318.753	368.25
318.983	356.25
319.212	361.25
319.441	345.25
319.67	357.25
319.9	360.25
320.129	355.25
320.358	341.25
320.587	370.25
320.816	374.25
321.046	380.25
321.275	376.25
321.504	362.25
321.733	372.25
321.962	364.25
322.191	385.25
322.42	386.25
322.649	397.25
322.878	412.25
323.108	415.25
323.337	429.25
323.566	429.25
323.795	423.25
324.024	494.25
324.253	569.25
324.482	784.25
324.71	1220.25
324.939	1819.25
325.168	1538.25
325.397	795.25
325.626	556.25
325.855	487.25
326.084	458.25
326.313	444.25
326.542	433.25
326.77	493.25
326.999	536.25
327.228	757.25
327.457	1114.25
327.686	1354.25
327.914	895.25
328.143	580.25
328.372	539.25
328.6	491.25
328.829	490.25
329.058	498.25
329.287	490.25
329.515	482.25
329.744	448.25
329.972	474.25
330.201	488.25
330.43	498.25
330.658	512.25
330.887	525.25
331.115	528.25
331.344	471.25
331.572	449.25
331.801	464.25
332.03	424.25
332.258	433.25
332.486	430.25
332.715	446.25
332.943	442.25
333.172	413.25
333.4	421.25
333.629	442.25
333.857	448.25
334.085	462.25
334.314	467.25
334.542	475.25
334.771	515.25
334.999	448.25
335.227	458.25
335.455	443.25
335.684	416.25
335.912	426.25
336.14	438.25
336.369	420.25
336.597	434.25
336.825	420.25
337.053	432.25
337.281	433.25
337.51	411.25
337.738	420.25
337.966	424.25
338.194	422.25
338.422	416.25
338.65	404.25
338.878	396.25
339.106	415.25
339.334	429.25
339.562	413.25
339.79	389.25
340.018	398.25
340.246	425.25
340.474	430.25
340.702	421.25
340.93	393.25
341.158	392.25
341.386	397.25
341.614	401.25
341.842	411.25
342.07	414.25
342.298	411.25
342.526	402.25
342.754	416.25
342.981	416.25
343.209	404.25
343.437	392.25
343.665	399.25
343.893	411.25
344.12	425.25
344.348	406.25
344.576	423.25
344.804	430.25
345.031	412.25
345.259	435.25
345.487	427.25
345.714	414.25
345.942	381.25
346.17	395.25
346.397	404.25
346.625	396.25
346.853	390.25
347.08	397.25
347.308	381.25
347.535	417.25
347.763	405.25
347.99	394.25
348.218	393.25
348.445	408.25
348.673	422.25
348.9	396.25
349.128	376.25
349.355	393.25
349.583	376.25
349.81	400.25
350.037	408.25
350.265	391.25
350.492	400.25
350.72	390.25
350.947	405.25
351.174	414.25
351.402	415.25
351.629	406.25
351.856	426.25
352.083	402.25
352.311	413.25
352.538	406.25
352.765	419.25
352.992	421.25
353.22	408.25
353.447	387.25
353.674	361.25
353.901	377.25
354.128	385.25
354.355	399.25
354.583	383.25
354.81	386.25
355.037	386.25
355.264	354.25
355.491	365.25
355.718	394.25
355.945	388.25
356.172	374.25
356.399	381.25
356.626	394.25
356.853	386.25
357.08	371.25
357.307	387.25
357.534	384.25
357.761	401.25
357.988	379.25
358.215	383.25
358.441	390.25
358.668	390.25
358.895	387.25
359.122	381.25
359.349	411.25
359.576	401.25
359.802	428.25
360.029	453.25
360.256	440.25
360.483	435.25
360.709	413.25
360.936	411.25
361.163	417.25
361.39	398.25
361.616	406.25
361.843	395.25
362.07	414.25
362.296	412.25
362.523	425.25
362.749	400.25
362.976	402.25
363.203	389.25
363.429	366.25
363.656	386.25
363.882	408.25
364.109	386.25
364.335	381.25
364.562	384.25
364.788	408.25
365.015	404.25
365.241	398.25
365.468	390.25
365.694	404.25
365.92	398.25
366.147	388.25
366.373	393.25
366.599	401.25
366.826	393.25
367.052	386.25
367.278	403.25
367.505	401.25
367.731	401.25
367.957	406.25
368.184	406.25
368.41	396.25
368.636	411.25
368.862	416.25
369.089	420.25
369.315	408.25
369.541	398.25
369.767	400.25
369.993	399.25
370.219	394.25
370.445	405.25
370.672	385.25
370.898	385.25
371.124	398.25
371.35	397.25
371.576	403.25
371.802	395.25
372.028	392.25
372.254	432.25
372.48	422.25
372.706	416.25
372.932	428.25
373.158	413.25
373.384	399.25
373.61	402.25
373.835	396.25
374.061	395.25
374.287	412.25
374.513	433.25
374.739	408.25
374.965	415.25
375.191	411.25
375.416	407.25
375.642	413.25
375.868	417.25
376.094	421.25
376.319	400.25
376.545	414.25
376.771	406.25
376.997	409.25
377.222	396.25
377.448	405.25
377.674	404.25
377.899	395.25
378.125	419.25
378.35	425.25
378.576	394.25
378.802	408.25
379.027	390.25
379.253	423.25
379.478	402.25
379.704	400.25
379.929	394.25
380.155	389.25
380.38	418.25
380.606	420.25
380.831	399.25
381.057	396.25
381.282	401.25
381.507	410.25
381.733	381.25
381.958	413.25
382.184	416.25
382.409	411.25
382.634	425.25
382.86	421.25
383.085	428.25
383.31	436.25
383.535	422.25
383.761	421.25
383.986	425.25
384.211	411.25
384.436	432.25
384.662	440.25
384.887	448.25
385.112	430.25
385.337	462.25
385.562	422.25
385.787	450.25
386.013	452.25
386.238	456.25
386.463	462.25
386.688	460.25
386.913	450.25
387.138	454.25
387.363	449.25
387.588	449.25
387.813	442.25
388.038	443.25
388.263	444.25
388.488	454.25
388.713	450.25
388.938	475.25
389.163	465.25
389.387	439.25
389.612	460.25
389.837	456.25
390.062	452.25
390.287	466.25
390.512	466.25
390.736	455.25
390.961	440.25
391.186	481.25
391.411	464.25
391.636	459.25
391.86	472.25
392.085	484.25
392.31	501.25
392.534	470.25
392.759	457.25
392.984	489.25
393.208	472.25
393.433	473.25
393.658	491.25
393.882	482.25
394.107	471.25
394.331	475.25
394.556	449.25
394.78	473.25
395.005	454.25
395.229	460.25
395.454	462.25
395.678	486.25
395.903	486.25
396.127	504.25
396.352	498.25
396.576	480.25
396.801	477.25
397.025	475.25
397.249	473.25
397.474	508.25
397.698	484.25
397.922	489.25
398.147	504.25
398.371	538.25
398.595	509.25
398.82	541.25
399.044	548.25
399.268	548.25
399.492	570.25
399.717	590.25
399.941	613.25
400.165	662.25
400.389	638.25
400.613	601.25
400.837	562.25
401.062	538.25
401.286	519.25
401.51	541.25
401.734	522.25
401.958	533.25
402.182	536.25
402.406	521.25
402.63	557.25
402.854	540.25
403.078	566.25
403.302	534.25
403.526	537.25
403.75	549.25
403.974	536.25
404.198	542.25
404.422	539.25
404.645	554.25
404.869	562.25
405.093	587.25
405.317	649.25
405.541	644.25
405.765	615.25
405.988	569.25
406.212	589.25
406.436	601.25
406.66	601.25
406.883	603.25
407.107	607.25
407.331	641.25
407.555	715.25
407.778	722.25
408.002	644.25
408.226	580.25
408.449	586.25
408.673	599.25
408.896	631.25
409.12	668.25
409.344	613.25
409.567	602.25
409.791	572.25
410.014	556.25
410.238	524.25
410.461	554.25
410.685	544.25
410.908	551.25
411.132	614.25
411.355	629.25
411.578	604.25
411.802	555.25
412.025	555.25
412.249	565.25
412.472	562.25
412.695	595.25
412.919	597.25
413.142	568.25
413.365	544.25
413.589	550.25
413.812	533.25
414.035	545.25
414.258	520.25
414.482	536.25
414.705	498.25
414.928	523.25
415.151	518.25
415.374	516.25
415.597	511.25
415.821	547.25
416.044	519.25
416.267	522.25
416.49	537.25
416.713	517.25
416.936	536.25
417.159	526.25
417.382	513.25
417.605	526.25
417.828	521.25
418.051	531.25
418.274	520.25
418.497	504.25
418.72	509.25
418.943	506.25
419.166	542.25
419.389	571.25
419.611	577.25
419.834	554.25
420.057	556.25
420.28	560.25
420.503	544.25
420.726	565.25
420.948	565.25
421.171	580.25
421.394	600.25
421.617	566.25
421.839	546.25
422.062	535.25
422.285	557.25
422.507	610.25
422.73	690.25
422.953	662.25
423.175	584.25
423.398	560.25
423.621	553.25
423.843	585.25
424.066	581.25
424.288	572.25
424.511	586.25
424.733	629.25
424.956	722.25
425.178	697.25
425.401	684.25
425.623	707.25
425.846	618.25
426.068	572.25
426.291	563.25
426.513	557.25
426.735	575.25
426.958	637.25
427.18	717.25
427.402	817.25
427.625	921.25
427.847	776.25
428.069	678.25
428.292	615.25
428.514	580.25
428.736	538.25
428.958	538.25
429.181	527.25
429.403	525.25
429.625	550.25
429.847	569.25
430.069	630.25
430.292	626.25
430.514	561.25
430.736	532.25
430.958	547.25
431.18	529.25
431.402	526.25
431.624	512.25
431.846	512.25
432.068	514.25
432.29	504.25
432.512	492.25
432.734	508.25
432.956	521.25
433.178	516.25
433.4	528.25
433.622	524.25
433.844	510.25
434.066	516.25
434.287	518.25
434.509	532.25
434.731	530.25
434.953	521.25
435.175	557.25
435.397	562.25
435.618	569.25
435.84	616.25
436.062	700.25
436.284	753.25
436.505	651.25
436.727	573.25
436.949	549.25
437.17	558.25
437.392	541.25
437.614	540.25
437.835	570.25
438.057	627.25
438.278	752.25
438.5	749.25
438.721	840.25
438.943	774.25
439.165	640.25
439.386	597.25
439.608	570.25
439.829	603.25
440.05	601.25
440.272	633.25
440.493	625.25
440.715	567.25
440.936	561.25
441.158	573.25
441.379	535.25
441.6	562.25
441.822	546.25
442.043	604.25
442.264	676.25
442.486	738.25
442.707	644.25
442.928	584.25
443.149	586.25
443.371	628.25
443.592	647.25
443.813	747.25
444.034	826.25
444.255	666.25
444.476	608.25
444.698	588.25
444.919	568.25
445.14	668.25
445.361	650.25
445.582	610.25
445.803	688.25
446.024	768.25
446.245	776.25
446.466	707.25
446.687	606.25
446.908	584.25
447.129	542.25
447.35	542.25
447.571	537.25
447.792	507.25
448.013	540.25
448.234	548.25
448.455	586.25
448.675	698.25
448.896	838.25
449.117	691.25
449.338	654.25
449.559	766.25
449.779	867.25
450	676.25
450.221	581.25
450.442	524.25
450.662	519.25
450.883	512.25
451.104	512.25
451.324	517.25
451.545	506.25
451.766	500.25
451.986	470.25
452.207	453.25
452.428	478.25
452.648	474.25
452.869	452.25
453.089	462.25
453.31	491.25
453.53	482.25
453.751	473.25
453.971	485.25
454.192	489.25
454.412	471.25
454.633	475.25
454.853	465.25
455.073	468.25
455.294	481.25
455.514	546.25
455.734	541.25
455.955	480.25
456.175	448.25
456.395	444.25
456.616	445.25
456.836	444.25
457.056	443.25
457.276	434.25
457.497	457.25
457.717	444.25
457.937	458.25
458.157	466.25
458.377	468.25
458.598	489.25
458.818	512.25
459.038	598.25
459.258	631.25
459.478	539.25
459.698	535.25
459.918	502.25
460.138	524.25
460.358	515.25
460.578	523.25
460.798	529.25
461.018	514.25
461.238	538.25
461.458	513.25
461.678	510.25
461.898	536.25
462.118	563.25
462.338	554.25
462.558	546.25
462.777	556.25
462.997	571.25
463.217	589.25
463.437	615.25
463.657	577.25
463.876	570.25
464.096	582.25
464.316	563.25
464.536	581.25
464.755	581.25
464.975	551.25
465.195	584.25
465.414	631.25
465.634	569.25
465.854	541.25
466.073	526.25
466.293	519.25
466.512	514.25
466.732	487.25
466.951	498.25
467.171	497.25
467.391	499.25
467.61	512.25
467.829	509.25
468.049	486.25
468.268	482.25
468.488	505.25
468.707	492.25
468.927	474.25
469.146	468.25
469.365	489.25
469.585	470.25
469.804	490.25
470.023	509.25
470.243	502.25
470.462	520.25
470.681	520.25
470.901	505.25
471.12	492.25
471.339	502.25
471.558	491.25
471.777	520.25
471.997	489.25
472.216	516.25
472.435	532.25
472.654	524.25
472.873	498.25
473.092	491.25
473.311	492.25
473.53	499.25
473.749	514.25
473.968	544.25
474.187	655.25
474.406	662.25
474.625	550.25
474.844	523.25
475.063	528.25
475.282	520.25
475.501	517.25
475.72	486.25
475.939	485.25
476.158	523.25
476.377	516.25
476.596	531.25
476.814	520.25
477.033	520.25
477.252	557.25
477.471	549.25
477.69	531.25
477.908	558.25
478.127	573.25
478.346	549.25
478.564	578.25
478.783	585.25
479.002	562.25
479.22	606.25
479.439	600.25
479.658	602.25
479.876	599.25
480.095	603.25
480.313	627.25
480.532	612.25
480.751	620.25
480.969	622.25
481.188	682.25
481.406	709.25
481.624	644.25
481.843	626.25
482.061	612.25
482.28	604.25
482.498	584.25
482.717	594.25
482.935	618.25
483.153	598.25
483.372	607.25
483.59	597.25
483.808	570.25
484.027	580.25
484.245	596.25
484.463	600.25
484.681	617.25
484.9	603.25
485.118	592.25
485.336	604.25
485.554	619.25
485.772	597.25
485.99	605.25
486.209	622.25
486.427	637.25
486.645	636.25
486.863	640.25
487.081	626.25
487.299	619.25
487.517	638.25
487.735	620.25
487.953	612.25
488.171	614.25
488.389	619.25
488.607	636.25
488.825	647.25
489.043	658.25
489.261	626.25
489.479	598.25
489.696	633.25
489.914	632.25
490.132	636.25
490.35	647.25
490.568	670.25
490.786	656.25
491.003	683.25
491.221	702.25
491.439	708.25
491.657	723.25
491.874	720.25
492.092	728.25
492.31	737.25
492.527	709.25
492.745	724.25
492.963	723.25
493.18	736.25
493.398	716.25
493.615	741.25
493.833	728.25
494.05	749.25
494.268	743.25
494.485	716.25
494.703	758.25
494.92	737.25
495.138	725.25
495.355	762.25
495.573	764.25
495.79	750.25
496.008	739.25
496.225	733.25
496.442	767.25
496.66	741.25
496.877	752.25
497.094	741.25
497.312	767.25
497.529	743.25
497.746	782.25
497.963	797.25
498.181	797.25
498.398	842.25
498.615	852.25
498.832	874.25
499.049	861.25
499.267	891.25
499.484	932.25
499.701	965.25
499.918	1001.25
500.135	1085.25
500.352	1115.25
500.569	1120.25
500.786	1124.25
501.003	1094.25
501.22	1063.25
501.437	1030.25
501.654	1006.25
501.871	996.25
