Data from 1966.PennyLincolnUp.Lamp.En5.5.200Scan.071719.P1._HRD10591_14-14-55-914.txt Node
Date: Thu Jul 18 14:14:55 EDT 2019
User: cochatt
Spectrometer: HR+D1059
Trigger mode: 1
Integration Time (sec): 1.000000E-1
Scans to average: 1
Electric dark correction enabled: true
Nonlinearity correction enabled: false
Boxcar width: 0
XAxis mode: Wavelengths
Number of Pixels in Spectrum: 2048
>>>>>Begin Spectral Data<<<<<
223.165	0.62
223.4	0.62
223.635	0.62
223.869	-10.38
224.104	-15.38
224.338	-10.38
224.573	-18.38
224.808	-9.38
225.042	-24.38
225.277	-7.38
225.511	-2.38
225.746	10.62
225.98	-8.38
226.215	8.62
226.449	15.62
226.683	24.62
226.918	18.62
227.152	27.62
227.387	24.62
227.621	38.62
227.856	51.62
228.09	52.62
228.324	50.62
228.559	53.62
228.793	58.62
229.027	74.62
229.262	92.62
229.496	88.62
229.73	108.62
229.964	102.62
230.199	90.62
230.433	105.62
230.667	116.62
230.901	95.62
231.136	89.62
231.37	91.62
231.604	91.62
231.838	93.62
232.072	97.62
232.306	93.62
232.541	93.62
232.775	91.62
233.009	87.62
233.243	84.62
233.477	79.62
233.711	94.62
233.945	98.62
234.179	92.62
234.413	114.62
234.647	94.62
234.881	86.62
235.115	102.62
235.349	97.62
235.583	84.62
235.817	100.62
236.051	103.62
236.285	98.62
236.519	87.62
236.753	87.62
236.987	103.62
237.221	125.62
237.455	143.62
237.689	142.62
237.922	98.62
238.156	115.62
238.39	103.62
238.624	88.62
238.858	89.62
239.091	96.62
239.325	98.62
239.559	96.62
239.793	97.62
240.027	90.62
240.26	103.62
240.494	113.62
240.728	110.62
240.961	109.62
241.195	96.62
241.429	95.62
241.662	95.62
241.896	97.62
242.13	109.62
242.363	108.62
242.597	111.62
242.83	110.62
243.064	114.62
243.298	99.62
243.531	89.62
243.765	99.62
243.998	97.62
244.232	100.62
244.465	127.62
244.699	104.62
244.932	115.62
245.166	115.62
245.399	107.62
245.633	116.62
245.866	107.62
246.099	115.62
246.333	110.62
246.566	115.62
246.8	115.62
247.033	111.62
247.266	113.62
247.5	111.62
247.733	121.62
247.966	120.62
248.2	126.62
248.433	108.62
248.666	119.62
248.899	123.62
249.133	131.62
249.366	129.62
249.599	129.62
249.832	124.62
250.066	129.62
250.299	133.62
250.532	141.62
250.765	144.62
250.998	135.62
251.231	149.62
251.465	134.62
251.698	125.62
251.931	129.62
252.164	137.62
252.397	115.62
252.63	134.62
252.863	140.62
253.096	146.62
253.329	148.62
253.562	141.62
253.795	141.62
254.028	134.62
254.261	131.62
254.494	134.62
254.727	154.62
254.96	151.62
255.193	172.62
255.426	141.62
255.659	138.62
255.892	149.62
256.124	129.62
256.357	152.62
256.59	146.62
256.823	140.62
257.056	133.62
257.289	145.62
257.521	135.62
257.754	135.62
257.987	132.62
258.22	133.62
258.452	132.62
258.685	108.62
258.918	132.62
259.151	143.62
259.383	148.62
259.616	139.62
259.849	136.62
260.081	164.62
260.314	167.62
260.547	163.62
260.779	149.62
261.012	137.62
261.244	132.62
261.477	134.62
261.71	138.62
261.942	152.62
262.175	164.62
262.407	152.62
262.64	139.62
262.872	144.62
263.105	146.62
263.337	147.62
263.57	130.62
263.802	138.62
264.035	144.62
264.267	137.62
264.499	134.62
264.732	134.62
264.964	143.62
265.197	126.62
265.429	137.62
265.661	130.62
265.894	149.62
266.126	139.62
266.358	140.62
266.591	124.62
266.823	148.62
267.055	141.62
267.287	145.62
267.52	133.62
267.752	143.62
267.984	136.62
268.216	143.62
268.448	143.62
268.681	146.62
268.913	152.62
269.145	164.62
269.377	164.62
269.609	162.62
269.841	152.62
270.073	157.62
270.306	173.62
270.538	193.62
270.77	194.62
271.002	174.62
271.234	177.62
271.466	192.62
271.698	203.62
271.93	188.62
272.162	194.62
272.394	185.62
272.626	201.62
272.858	180.62
273.09	179.62
273.322	163.62
273.553	161.62
273.785	165.62
274.017	165.62
274.249	161.62
274.481	161.62
274.713	139.62
274.945	156.62
275.176	152.62
275.408	153.62
275.64	155.62
275.872	153.62
276.104	157.62
276.335	171.62
276.567	161.62
276.799	170.62
277.031	174.62
277.262	201.62
277.494	194.62
277.726	189.62
277.957	174.62
278.189	171.62
278.421	169.62
278.652	170.62
278.884	158.62
279.115	149.62
279.347	153.62
279.579	162.62
279.81	168.62
280.042	166.62
280.273	174.62
280.505	162.62
280.736	164.62
280.968	134.62
281.199	153.62
281.431	157.62
281.662	157.62
281.894	152.62
282.125	164.62
282.356	174.62
282.588	185.62
282.819	186.62
283.051	154.62
283.282	167.62
283.513	164.62
283.745	163.62
283.976	165.62
284.207	182.62
284.439	176.62
284.67	177.62
284.901	173.62
285.132	161.62
285.364	170.62
285.595	165.62
285.826	166.62
286.057	164.62
286.288	162.62
286.52	168.62
286.751	169.62
286.982	166.62
287.213	171.62
287.444	161.62
287.675	172.62
287.906	173.62
288.138	175.62
288.369	172.62
288.6	180.62
288.831	170.62
289.062	189.62
289.293	177.62
289.524	169.62
289.755	174.62
289.986	177.62
290.217	172.62
290.448	166.62
290.679	157.62
290.91	172.62
291.141	164.62
291.371	172.62
291.602	164.62
291.833	175.62
292.064	159.62
292.295	178.62
292.526	165.62
292.757	172.62
292.987	165.62
293.218	162.62
293.449	174.62
293.68	171.62
293.91	172.62
294.141	174.62
294.372	187.62
294.603	186.62
294.833	167.62
295.064	168.62
295.295	170.62
295.525	167.62
295.756	203.62
295.987	185.62
296.217	193.62
296.448	199.62
296.679	184.62
296.909	164.62
297.14	181.62
297.37	179.62
297.601	165.62
297.831	172.62
298.062	183.62
298.292	179.62
298.523	205.62
298.753	170.62
298.984	178.62
299.214	175.62
299.445	182.62
299.675	191.62
299.905	173.62
300.136	173.62
300.366	190.62
300.597	180.62
300.827	157.62
301.057	202.62
301.288	190.62
301.518	179.62
301.748	187.62
301.979	181.62
302.209	195.62
302.439	184.62
302.669	188.62
302.9	183.62
303.13	183.62
303.36	179.62
303.59	202.62
303.82	198.62
304.051	195.62
304.281	197.62
304.511	169.62
304.741	179.62
304.971	179.62
305.201	194.62
305.431	190.62
305.661	215.62
305.891	197.62
306.121	199.62
306.352	194.62
306.582	171.62
306.812	180.62
307.042	188.62
307.272	183.62
307.502	185.62
307.731	185.62
307.961	194.62
308.191	198.62
308.421	204.62
308.651	201.62
308.881	185.62
309.111	178.62
309.341	201.62
309.571	192.62
309.8	218.62
310.03	195.62
310.26	201.62
310.49	209.62
310.72	206.62
310.949	219.62
311.179	232.62
311.409	219.62
311.639	209.62
311.868	219.62
312.098	221.62
312.328	234.62
312.557	219.62
312.787	235.62
313.017	220.62
313.246	232.62
313.476	215.62
313.706	216.62
313.935	222.62
314.165	233.62
314.394	228.62
314.624	226.62
314.853	214.62
315.083	217.62
315.312	222.62
315.542	211.62
315.771	213.62
316.001	209.62
316.23	209.62
316.46	205.62
316.689	197.62
316.919	206.62
317.148	228.62
317.377	209.62
317.607	222.62
317.836	209.62
318.065	207.62
318.295	207.62
318.524	195.62
318.753	205.62
318.983	192.62
319.212	197.62
319.441	214.62
319.67	227.62
319.9	217.62
320.129	208.62
320.358	204.62
320.587	195.62
320.816	211.62
321.046	216.62
321.275	219.62
321.504	227.62
321.733	224.62
321.962	212.62
322.191	242.62
322.42	245.62
322.649	238.62
322.878	270.62
323.108	275.62
323.337	257.62
323.566	283.62
323.795	278.62
324.024	321.62
324.253	369.62
324.482	543.62
324.71	809.62
324.939	1091.62
325.168	891.62
325.397	457.62
325.626	325.62
325.855	279.62
326.084	255.62
326.313	271.62
326.542	271.62
326.77	302.62
326.999	372.62
327.228	491.62
327.457	711.62
327.686	842.62
327.914	559.62
328.143	364.62
328.372	343.62
328.6	331.62
328.829	317.62
329.058	313.62
329.287	327.62
329.515	283.62
329.744	273.62
329.972	300.62
330.201	299.62
330.43	329.62
330.658	323.62
330.887	370.62
331.115	360.62
331.344	279.62
331.572	273.62
331.801	288.62
332.03	270.62
332.258	275.62
332.486	233.62
332.715	236.62
332.943	223.62
333.172	244.62
333.4	241.62
333.629	249.62
333.857	252.62
334.085	267.62
334.314	283.62
334.542	317.62
334.771	342.62
334.999	303.62
335.227	267.62
335.455	242.62
335.684	246.62
335.912	242.62
336.14	238.62
336.369	248.62
336.597	267.62
336.825	248.62
337.053	228.62
337.281	238.62
337.51	241.62
337.738	232.62
337.966	239.62
338.194	230.62
338.422	230.62
338.65	246.62
338.878	244.62
339.106	227.62
339.334	237.62
339.562	228.62
339.79	213.62
340.018	237.62
340.246	236.62
340.474	243.62
340.702	243.62
340.93	230.62
341.158	234.62
341.386	227.62
341.614	214.62
341.842	243.62
342.07	227.62
342.298	213.62
342.526	215.62
342.754	204.62
342.981	214.62
343.209	229.62
343.437	230.62
343.665	210.62
343.893	228.62
344.12	245.62
344.348	231.62
344.576	234.62
344.804	237.62
345.031	245.62
345.259	246.62
345.487	235.62
345.714	229.62
345.942	233.62
346.17	238.62
346.397	223.62
346.625	239.62
346.853	242.62
347.08	220.62
347.308	243.62
347.535	228.62
347.763	234.62
347.99	223.62
348.218	234.62
348.445	241.62
348.673	231.62
348.9	231.62
349.128	227.62
349.355	213.62
349.583	205.62
349.81	208.62
350.037	207.62
350.265	218.62
350.492	230.62
350.72	211.62
350.947	216.62
351.174	225.62
351.402	226.62
351.629	234.62
351.856	227.62
352.083	223.62
352.311	235.62
352.538	259.62
352.765	234.62
352.992	223.62
353.22	230.62
353.447	229.62
353.674	222.62
353.901	227.62
354.128	209.62
354.355	197.62
354.583	191.62
354.81	206.62
355.037	214.62
355.264	208.62
355.491	215.62
355.718	204.62
355.945	217.62
356.172	190.62
356.399	188.62
356.626	203.62
356.853	200.62
357.08	207.62
357.307	213.62
357.534	207.62
357.761	187.62
357.988	206.62
358.215	215.62
358.441	202.62
358.668	207.62
358.895	209.62
359.122	213.62
359.349	225.62
359.576	237.62
359.802	226.62
360.029	262.62
360.256	250.62
360.483	255.62
360.709	228.62
360.936	221.62
361.163	228.62
361.39	234.62
361.616	222.62
361.843	226.62
362.07	222.62
362.296	225.62
362.523	225.62
362.749	223.62
362.976	213.62
363.203	221.62
363.429	222.62
363.656	223.62
363.882	217.62
364.109	217.62
364.335	213.62
364.562	208.62
364.788	189.62
365.015	213.62
365.241	210.62
365.468	233.62
365.694	214.62
365.92	199.62
366.147	232.62
366.373	204.62
366.599	231.62
366.826	225.62
367.052	218.62
367.278	228.62
367.505	215.62
367.731	217.62
367.957	202.62
368.184	202.62
368.41	221.62
368.636	223.62
368.862	241.62
369.089	224.62
369.315	201.62
369.541	202.62
369.767	210.62
369.993	218.62
370.219	217.62
370.445	209.62
370.672	222.62
370.898	224.62
371.124	218.62
371.35	213.62
371.576	219.62
371.802	207.62
372.028	189.62
372.254	196.62
372.48	215.62
372.706	210.62
372.932	210.62
373.158	205.62
373.384	215.62
373.61	218.62
373.835	224.62
374.061	190.62
374.287	224.62
374.513	207.62
374.739	231.62
374.965	228.62
375.191	217.62
375.416	215.62
375.642	215.62
375.868	213.62
376.094	214.62
376.319	216.62
376.545	211.62
376.771	208.62
376.997	205.62
377.222	215.62
377.448	202.62
377.674	194.62
377.899	207.62
378.125	214.62
378.35	197.62
378.576	204.62
378.802	187.62
379.027	213.62
379.253	200.62
379.478	213.62
379.704	209.62
379.929	220.62
380.155	186.62
380.38	216.62
380.606	206.62
380.831	218.62
381.057	206.62
381.282	206.62
381.507	211.62
381.733	226.62
381.958	221.62
382.184	202.62
382.409	201.62
382.634	206.62
382.86	216.62
383.085	201.62
383.31	212.62
383.535	220.62
383.761	210.62
383.986	218.62
384.211	243.62
384.436	225.62
384.662	210.62
384.887	217.62
385.112	211.62
385.337	228.62
385.562	219.62
385.787	232.62
386.013	226.62
386.238	228.62
386.463	228.62
386.688	221.62
386.913	212.62
387.138	221.62
387.363	228.62
387.588	215.62
387.813	227.62
388.038	241.62
388.263	227.62
388.488	219.62
388.713	222.62
388.938	227.62
389.163	234.62
389.387	220.62
389.612	225.62
389.837	225.62
390.062	217.62
390.287	208.62
390.512	225.62
390.736	228.62
390.961	237.62
391.186	232.62
391.411	225.62
391.636	223.62
391.86	226.62
392.085	220.62
392.31	236.62
392.534	232.62
392.759	218.62
392.984	234.62
393.208	235.62
393.433	228.62
393.658	227.62
393.882	240.62
394.107	220.62
394.331	221.62
394.556	221.62
394.78	220.62
395.005	229.62
395.229	221.62
395.454	243.62
395.678	233.62
395.903	242.62
396.127	240.62
396.352	239.62
396.576	232.62
396.801	230.62
397.025	236.62
397.249	233.62
397.474	230.62
397.698	226.62
397.922	238.62
398.147	246.62
398.371	239.62
398.595	216.62
398.82	255.62
399.044	257.62
399.268	266.62
399.492	266.62
399.717	289.62
399.941	289.62
400.165	300.62
400.389	302.62
400.613	275.62
400.837	279.62
401.062	263.62
401.286	253.62
401.51	266.62
401.734	253.62
401.958	267.62
402.182	278.62
402.406	284.62
402.63	268.62
402.854	267.62
403.078	258.62
403.302	265.62
403.526	270.62
403.75	269.62
403.974	270.62
404.198	263.62
404.422	276.62
404.645	272.62
404.869	246.62
405.093	297.62
405.317	307.62
405.541	319.62
405.765	293.62
405.988	271.62
406.212	294.62
406.436	283.62
406.66	315.62
406.883	284.62
407.107	300.62
407.331	306.62
407.555	335.62
407.778	332.62
408.002	301.62
408.226	303.62
408.449	275.62
408.673	268.62
408.896	301.62
409.12	309.62
409.344	282.62
409.567	272.62
409.791	262.62
410.014	252.62
410.238	249.62
410.461	251.62
410.685	266.62
410.908	277.62
411.132	305.62
411.355	292.62
411.578	271.62
411.802	271.62
412.025	268.62
412.249	271.62
412.472	293.62
412.695	297.62
412.919	282.62
413.142	254.62
413.365	255.62
413.589	257.62
413.812	257.62
414.035	244.62
414.258	250.62
414.482	261.62
414.705	244.62
414.928	246.62
415.151	245.62
415.374	250.62
415.597	257.62
415.821	254.62
416.044	260.62
416.267	251.62
416.49	236.62
416.713	243.62
416.936	245.62
417.159	253.62
417.382	254.62
417.605	269.62
417.828	271.62
418.051	264.62
418.274	275.62
418.497	270.62
418.72	265.62
418.943	242.62
419.166	253.62
419.389	271.62
419.611	281.62
419.834	264.62
420.057	249.62
420.28	271.62
420.503	265.62
420.726	261.62
420.948	270.62
421.171	294.62
421.394	278.62
421.617	274.62
421.839	261.62
422.062	259.62
422.285	276.62
422.507	298.62
422.73	330.62
422.953	305.62
423.175	255.62
423.398	284.62
423.621	281.62
423.843	284.62
424.066	277.62
424.288	282.62
424.511	301.62
424.733	309.62
424.956	352.62
425.178	325.62
425.401	317.62
425.623	344.62
425.846	285.62
426.068	274.62
426.291	296.62
426.513	277.62
426.735	277.62
426.958	297.62
427.18	346.62
427.402	395.62
427.625	432.62
427.847	392.62
428.069	332.62
428.292	281.62
428.514	275.62
428.736	284.62
428.958	267.62
429.181	241.62
429.403	270.62
429.625	251.62
429.847	262.62
430.069	305.62
430.292	317.62
430.514	269.62
430.736	272.62
430.958	241.62
431.18	253.62
431.402	243.62
431.624	234.62
431.846	237.62
432.068	229.62
432.29	231.62
432.512	260.62
432.734	253.62
432.956	235.62
433.178	242.62
433.4	261.62
433.622	253.62
433.844	268.62
434.066	237.62
434.287	248.62
434.509	238.62
434.731	246.62
434.953	262.62
435.175	269.62
435.397	291.62
435.618	294.62
435.84	295.62
436.062	343.62
436.284	356.62
436.505	285.62
436.727	291.62
436.949	271.62
437.17	257.62
437.392	263.62
437.614	261.62
437.835	282.62
438.057	330.62
438.278	353.62
438.5	355.62
438.721	390.62
438.943	335.62
439.165	307.62
439.386	302.62
439.608	298.62
439.829	287.62
440.05	316.62
440.272	315.62
440.493	277.62
440.715	265.62
440.936	270.62
441.158	259.62
441.379	273.62
441.6	277.62
441.822	302.62
442.043	309.62
442.264	339.62
442.486	348.62
442.707	317.62
442.928	279.62
443.149	289.62
443.371	309.62
443.592	321.62
443.813	355.62
444.034	380.62
444.255	302.62
444.476	283.62
444.698	274.62
444.919	279.62
445.14	368.62
445.361	330.62
445.582	306.62
445.803	337.62
446.024	374.62
446.245	382.62
446.466	361.62
446.687	321.62
446.908	265.62
447.129	256.62
447.35	270.62
447.571	241.62
447.792	257.62
448.013	270.62
448.234	271.62
448.455	298.62
448.675	351.62
448.896	391.62
449.117	321.62
449.338	305.62
449.559	364.62
449.779	400.62
450	313.62
450.221	277.62
450.442	263.62
450.662	260.62
450.883	266.62
451.104	271.62
451.324	277.62
451.545	273.62
451.766	272.62
451.986	231.62
452.207	235.62
452.428	226.62
452.648	236.62
452.869	235.62
453.089	246.62
453.31	248.62
453.53	231.62
453.751	244.62
453.971	229.62
454.192	253.62
454.412	229.62
454.633	233.62
454.853	225.62
455.073	225.62
455.294	258.62
455.514	280.62
455.734	250.62
455.955	220.62
456.175	218.62
456.395	219.62
456.616	221.62
456.836	226.62
457.056	218.62
457.276	203.62
457.497	217.62
457.717	226.62
457.937	221.62
458.157	239.62
458.377	228.62
458.598	238.62
458.818	274.62
459.038	345.62
459.258	333.62
459.478	271.62
459.698	251.62
459.918	236.62
460.138	249.62
460.358	232.62
460.578	255.62
460.798	269.62
461.018	250.62
461.238	257.62
461.458	259.62
461.678	258.62
461.898	245.62
462.118	237.62
462.338	251.62
462.558	264.62
462.777	241.62
462.997	257.62
463.217	260.62
463.437	264.62
463.657	266.62
463.876	266.62
464.096	279.62
464.316	272.62
464.536	279.62
464.755	270.62
464.975	271.62
465.195	313.62
465.414	359.62
465.634	311.62
465.854	273.62
466.073	232.62
466.293	257.62
466.512	218.62
466.732	235.62
466.951	235.62
467.171	247.62
467.391	258.62
467.61	267.62
467.829	268.62
468.049	264.62
468.268	279.62
468.488	255.62
468.707	251.62
468.927	224.62
469.146	218.62
469.365	237.62
469.585	246.62
469.804	238.62
470.023	244.62
470.243	259.62
470.462	246.62
470.681	265.62
470.901	271.62
471.12	254.62
471.339	258.62
471.558	238.62
471.777	253.62
471.997	241.62
472.216	245.62
472.435	283.62
472.654	296.62
472.873	248.62
473.092	242.62
473.311	248.62
473.53	230.62
473.749	242.62
473.968	275.62
474.187	315.62
474.406	322.62
474.625	281.62
474.844	252.62
475.063	234.62
475.282	250.62
475.501	251.62
475.72	243.62
475.939	250.62
476.158	269.62
476.377	244.62
476.596	240.62
476.814	257.62
477.033	269.62
477.252	233.62
477.471	243.62
477.69	251.62
477.908	251.62
478.127	266.62
478.346	278.62
478.564	264.62
478.783	257.62
479.002	268.62
479.22	273.62
479.439	281.62
479.658	302.62
479.876	293.62
480.095	301.62
480.313	314.62
480.532	303.62
480.751	293.62
480.969	311.62
481.188	390.62
481.406	421.62
481.624	325.62
481.843	294.62
482.061	286.62
482.28	292.62
482.498	277.62
482.717	274.62
482.935	269.62
483.153	279.62
483.372	287.62
483.59	270.62
483.808	279.62
484.027	285.62
484.245	277.62
484.463	285.62
484.681	292.62
484.9	297.62
485.118	303.62
485.336	280.62
485.554	289.62
485.772	286.62
485.99	278.62
486.209	281.62
486.427	295.62
486.645	295.62
486.863	314.62
487.081	329.62
487.299	302.62
487.517	306.62
487.735	299.62
487.953	305.62
488.171	307.62
488.389	311.62
488.607	311.62
488.825	294.62
489.043	292.62
489.261	293.62
489.479	311.62
489.696	302.62
489.914	302.62
490.132	323.62
490.35	329.62
490.568	317.62
490.786	348.62
491.003	328.62
491.221	352.62
491.439	341.62
491.657	354.62
491.874	349.62
492.092	367.62
492.31	380.62
492.527	345.62
492.745	354.62
492.963	349.62
493.18	367.62
493.398	357.62
493.615	368.62
493.833	348.62
494.05	371.62
494.268	347.62
494.485	375.62
494.703	365.62
494.92	378.62
495.138	375.62
495.355	358.62
495.573	364.62
495.79	364.62
496.008	347.62
496.225	345.62
496.442	352.62
496.66	365.62
496.877	356.62
497.094	358.62
497.312	333.62
497.529	354.62
497.746	351.62
497.963	345.62
498.181	377.62
498.398	373.62
498.615	377.62
498.832	368.62
499.049	394.62
499.267	375.62
499.484	399.62
499.701	409.62
499.918	439.62
500.135	440.62
500.352	451.62
500.569	459.62
500.786	482.62
501.003	458.62
501.22	465.62
501.437	447.62
501.654	433.62
501.871	435.62
502.088	415.62
502.305	393.62
502.522	375.62
