Data from 1966.PennyLincolnUp.Lamp.En5.5.200Scan.071719.P1.Scan2.head_HRD10591_14-17-49-141.txt Node
Date: Thu Jul 18 14:17:49 EDT 2019
User: cochatt
Spectrometer: HR+D1059
Trigger mode: 1
Integration Time (sec): 1.000000E-1
Scans to average: 1
Electric dark correction enabled: true
Nonlinearity correction enabled: false
Boxcar width: 0
XAxis mode: Wavelengths
Number of Pixels in Spectrum: 2048
>>>>>Begin Spectral Data<<<<<
223.165	-15.5
223.4	-15.5
223.635	-15.5
223.869	-12.5
224.104	-21.5
224.338	-10.5
224.573	-19.5
224.808	-25.5
225.042	-15.5
225.277	8.5
225.511	-1.5
225.746	15.5
225.98	-2.5
226.215	15.5
226.449	21.5
226.683	16.5
226.918	23.5
227.152	23.5
227.387	28.5
227.621	31.5
227.856	39.5
228.09	44.5
228.324	59.5
228.559	55.5
228.793	56.5
229.027	100.5
229.262	114.5
229.496	111.5
229.73	131.5
229.964	150.5
230.199	125.5
230.433	119.5
230.667	118.5
230.901	111.5
231.136	103.5
231.37	108.5
231.604	112.5
231.838	117.5
232.072	100.5
232.306	107.5
232.541	94.5
232.775	115.5
233.009	119.5
233.243	117.5
233.477	103.5
233.711	126.5
233.945	115.5
234.179	113.5
234.413	113.5
234.647	135.5
234.881	112.5
235.115	123.5
235.349	123.5
235.583	123.5
235.817	139.5
236.051	135.5
236.285	121.5
236.519	125.5
236.753	131.5
236.987	126.5
237.221	182.5
237.455	235.5
237.689	171.5
237.922	140.5
238.156	136.5
238.39	118.5
238.624	123.5
238.858	119.5
239.091	120.5
239.325	120.5
239.559	136.5
239.793	130.5
240.027	129.5
240.26	137.5
240.494	139.5
240.728	137.5
240.961	160.5
241.195	143.5
241.429	148.5
241.662	133.5
241.896	139.5
242.13	138.5
242.363	132.5
242.597	140.5
242.83	133.5
243.064	123.5
243.298	148.5
243.531	153.5
243.765	142.5
243.998	135.5
244.232	135.5
244.465	136.5
244.699	146.5
244.932	147.5
245.166	131.5
245.399	149.5
245.633	148.5
245.866	138.5
246.099	145.5
246.333	155.5
246.566	154.5
246.8	144.5
247.033	148.5
247.266	165.5
247.5	163.5
247.733	172.5
247.966	172.5
248.2	173.5
248.433	169.5
248.666	147.5
248.899	179.5
249.133	193.5
249.366	212.5
249.599	200.5
249.832	191.5
250.066	179.5
250.299	186.5
250.532	186.5
250.765	188.5
250.998	214.5
251.231	215.5
251.465	221.5
251.698	197.5
251.931	204.5
252.164	206.5
252.397	189.5
252.63	213.5
252.863	210.5
253.096	202.5
253.329	219.5
253.562	226.5
253.795	213.5
254.028	224.5
254.261	206.5
254.494	215.5
254.727	251.5
254.96	268.5
255.193	265.5
255.426	244.5
255.659	230.5
255.892	232.5
256.124	219.5
256.357	221.5
256.59	222.5
256.823	204.5
257.056	201.5
257.289	210.5
257.521	209.5
257.754	208.5
257.987	200.5
258.22	211.5
258.452	213.5
258.685	209.5
258.918	210.5
259.151	206.5
259.383	216.5
259.616	218.5
259.849	225.5
260.081	242.5
260.314	256.5
260.547	240.5
260.779	250.5
261.012	227.5
261.244	218.5
261.477	237.5
261.71	225.5
261.942	227.5
262.175	236.5
262.407	232.5
262.64	208.5
262.872	224.5
263.105	220.5
263.337	207.5
263.57	220.5
263.802	194.5
264.035	212.5
264.267	215.5
264.499	215.5
264.732	214.5
264.964	219.5
265.197	215.5
265.429	217.5
265.661	215.5
265.894	225.5
266.126	209.5
266.358	212.5
266.591	229.5
266.823	234.5
267.055	206.5
267.287	232.5
267.52	229.5
267.752	220.5
267.984	233.5
268.216	246.5
268.448	244.5
268.681	231.5
268.913	259.5
269.145	266.5
269.377	279.5
269.609	283.5
269.841	259.5
270.073	261.5
270.306	284.5
270.538	320.5
270.77	316.5
271.002	279.5
271.234	283.5
271.466	302.5
271.698	303.5
271.93	311.5
272.162	313.5
272.394	311.5
272.626	299.5
272.858	282.5
273.09	277.5
273.322	267.5
273.553	275.5
273.785	261.5
274.017	248.5
274.249	259.5
274.481	277.5
274.713	275.5
274.945	255.5
275.176	271.5
275.408	256.5
275.64	239.5
275.872	247.5
276.104	260.5
276.335	263.5
276.567	277.5
276.799	276.5
277.031	297.5
277.262	311.5
277.494	311.5
277.726	308.5
277.957	295.5
278.189	276.5
278.421	267.5
278.652	267.5
278.884	255.5
279.115	273.5
279.347	271.5
279.579	275.5
279.81	279.5
280.042	269.5
280.273	257.5
280.505	245.5
280.736	261.5
280.968	267.5
281.199	275.5
281.431	253.5
281.662	268.5
281.894	274.5
282.125	280.5
282.356	301.5
282.588	318.5
282.819	299.5
283.051	276.5
283.282	277.5
283.513	262.5
283.745	279.5
283.976	271.5
284.207	275.5
284.439	274.5
284.67	273.5
284.901	272.5
285.132	265.5
285.364	292.5
285.595	259.5
285.826	276.5
286.057	282.5
286.288	275.5
286.52	278.5
286.751	290.5
286.982	276.5
287.213	264.5
287.444	288.5
287.675	281.5
287.906	320.5
288.138	292.5
288.369	295.5
288.6	297.5
288.831	279.5
289.062	307.5
289.293	282.5
289.524	301.5
289.755	280.5
289.986	279.5
290.217	301.5
290.448	292.5
290.679	290.5
290.91	298.5
291.141	297.5
291.371	297.5
291.602	285.5
291.833	290.5
292.064	279.5
292.295	290.5
292.526	283.5
292.757	313.5
292.987	296.5
293.218	294.5
293.449	288.5
293.68	291.5
293.91	285.5
294.141	300.5
294.372	316.5
294.603	285.5
294.833	300.5
295.064	284.5
295.295	285.5
295.525	312.5
295.756	308.5
295.987	313.5
296.217	319.5
296.448	324.5
296.679	317.5
296.909	286.5
297.14	309.5
297.37	319.5
297.601	308.5
297.831	298.5
298.062	311.5
298.292	323.5
298.523	326.5
298.753	322.5
298.984	307.5
299.214	304.5
299.445	324.5
299.675	323.5
299.905	316.5
300.136	323.5
300.366	291.5
300.597	340.5
300.827	339.5
301.057	332.5
301.288	311.5
301.518	347.5
301.748	324.5
301.979	326.5
302.209	337.5
302.439	336.5
302.669	348.5
302.9	340.5
303.13	338.5
303.36	323.5
303.59	340.5
303.82	342.5
304.051	364.5
304.281	343.5
304.511	314.5
304.741	317.5
304.971	319.5
305.201	309.5
305.431	344.5
305.661	338.5
305.891	329.5
306.121	338.5
306.352	332.5
306.582	334.5
306.812	334.5
307.042	331.5
307.272	349.5
307.502	330.5
307.731	339.5
307.961	340.5
308.191	353.5
308.421	327.5
308.651	327.5
308.881	355.5
309.111	345.5
309.341	352.5
309.571	328.5
309.8	375.5
310.03	349.5
310.26	371.5
310.49	367.5
310.72	384.5
310.949	388.5
311.179	384.5
311.409	380.5
311.639	389.5
311.868	380.5
312.098	378.5
312.328	373.5
312.557	403.5
312.787	415.5
313.017	416.5
313.246	376.5
313.476	351.5
313.706	385.5
313.935	398.5
314.165	387.5
314.394	395.5
314.624	394.5
314.853	385.5
315.083	370.5
315.312	391.5
315.542	386.5
315.771	344.5
316.001	379.5
316.23	395.5
316.46	381.5
316.689	383.5
316.919	407.5
317.148	393.5
317.377	407.5
317.607	369.5
317.836	388.5
318.065	396.5
318.295	373.5
318.524	379.5
318.753	376.5
318.983	374.5
319.212	381.5
319.441	395.5
319.67	404.5
319.9	383.5
320.129	391.5
320.358	365.5
320.587	391.5
320.816	385.5
321.046	401.5
321.275	382.5
321.504	373.5
321.733	395.5
321.962	410.5
322.191	407.5
322.42	427.5
322.649	433.5
322.878	433.5
323.108	441.5
323.337	485.5
323.566	473.5
323.795	520.5
324.024	544.5
324.253	651.5
324.482	924.5
324.71	1463.5
324.939	2179.5
325.168	1878.5
325.397	921.5
325.626	625.5
325.855	531.5
326.084	490.5
326.313	497.5
326.542	501.5
326.77	540.5
326.999	605.5
327.228	835.5
327.457	1282.5
327.686	1671.5
327.914	1090.5
328.143	709.5
328.372	611.5
328.6	583.5
328.829	556.5
329.058	576.5
329.287	584.5
329.515	554.5
329.744	513.5
329.972	511.5
330.201	519.5
330.43	553.5
330.658	595.5
330.887	615.5
331.115	600.5
331.344	546.5
331.572	501.5
331.801	485.5
332.03	490.5
332.258	475.5
332.486	480.5
332.715	465.5
332.943	460.5
333.172	455.5
333.4	474.5
333.629	467.5
333.857	497.5
334.085	502.5
334.314	533.5
334.542	520.5
334.771	557.5
334.999	513.5
335.227	484.5
335.455	486.5
335.684	458.5
335.912	457.5
336.14	447.5
336.369	478.5
336.597	463.5
336.825	448.5
337.053	444.5
337.281	457.5
337.51	426.5
337.738	466.5
337.966	457.5
338.194	462.5
338.422	447.5
338.65	468.5
338.878	459.5
339.106	426.5
339.334	449.5
339.562	442.5
339.79	438.5
340.018	438.5
340.246	428.5
340.474	440.5
340.702	458.5
340.93	437.5
341.158	427.5
341.386	444.5
341.614	452.5
341.842	449.5
342.07	452.5
342.298	440.5
342.526	436.5
342.754	417.5
342.981	444.5
343.209	431.5
343.437	442.5
343.665	433.5
343.893	441.5
344.12	450.5
344.348	450.5
344.576	453.5
344.804	448.5
345.031	442.5
345.259	461.5
345.487	479.5
345.714	447.5
345.942	445.5
346.17	448.5
346.397	431.5
346.625	423.5
346.853	421.5
347.08	435.5
347.308	411.5
347.535	449.5
347.763	439.5
347.99	445.5
348.218	436.5
348.445	450.5
348.673	456.5
348.9	420.5
349.128	438.5
349.355	429.5
349.583	415.5
349.81	438.5
350.037	401.5
350.265	419.5
350.492	420.5
350.72	418.5
350.947	424.5
351.174	426.5
351.402	435.5
351.629	429.5
351.856	460.5
352.083	449.5
352.311	453.5
352.538	449.5
352.765	450.5
352.992	437.5
353.22	422.5
353.447	420.5
353.674	412.5
353.901	413.5
354.128	416.5
354.355	400.5
354.583	418.5
354.81	410.5
355.037	398.5
355.264	405.5
355.491	416.5
355.718	393.5
355.945	407.5
356.172	415.5
356.399	403.5
356.626	389.5
356.853	413.5
357.08	410.5
357.307	416.5
357.534	385.5
357.761	407.5
357.988	400.5
358.215	405.5
358.441	428.5
358.668	440.5
358.895	431.5
359.122	405.5
359.349	423.5
359.576	424.5
359.802	444.5
360.029	465.5
360.256	475.5
360.483	456.5
360.709	435.5
360.936	440.5
361.163	425.5
361.39	431.5
361.616	435.5
361.843	427.5
362.07	441.5
362.296	425.5
362.523	453.5
362.749	447.5
362.976	419.5
363.203	441.5
363.429	439.5
363.656	436.5
363.882	432.5
364.109	432.5
364.335	434.5
364.562	421.5
364.788	433.5
365.015	421.5
365.241	411.5
365.468	439.5
365.694	418.5
365.92	433.5
366.147	435.5
366.373	411.5
366.599	418.5
366.826	428.5
367.052	427.5
367.278	447.5
367.505	442.5
367.731	424.5
367.957	423.5
368.184	417.5
368.41	421.5
368.636	435.5
368.862	427.5
369.089	409.5
369.315	423.5
369.541	430.5
369.767	421.5
369.993	419.5
370.219	407.5
370.445	441.5
370.672	428.5
370.898	411.5
371.124	431.5
371.35	448.5
371.576	433.5
371.802	417.5
372.028	423.5
372.254	409.5
372.48	441.5
372.706	436.5
372.932	432.5
373.158	431.5
373.384	420.5
373.61	434.5
373.835	437.5
374.061	433.5
374.287	456.5
374.513	429.5
374.739	441.5
374.965	446.5
375.191	424.5
375.416	437.5
375.642	437.5
375.868	445.5
376.094	444.5
376.319	425.5
376.545	438.5
376.771	442.5
376.997	439.5
377.222	427.5
377.448	438.5
377.674	423.5
377.899	421.5
378.125	427.5
378.35	447.5
378.576	427.5
378.802	419.5
379.027	443.5
379.253	421.5
379.478	418.5
379.704	443.5
379.929	445.5
380.155	447.5
380.38	418.5
380.606	439.5
380.831	433.5
381.057	427.5
381.282	435.5
381.507	427.5
381.733	435.5
381.958	425.5
382.184	433.5
382.409	455.5
382.634	436.5
382.86	433.5
383.085	445.5
383.31	459.5
383.535	469.5
383.761	465.5
383.986	443.5
384.211	442.5
384.436	474.5
384.662	456.5
384.887	462.5
385.112	478.5
385.337	467.5
385.562	460.5
385.787	484.5
386.013	505.5
386.238	485.5
386.463	500.5
386.688	488.5
386.913	463.5
387.138	468.5
387.363	499.5
387.588	489.5
387.813	490.5
388.038	508.5
388.263	484.5
388.488	491.5
388.713	475.5
388.938	473.5
389.163	500.5
389.387	506.5
389.612	475.5
389.837	475.5
390.062	484.5
390.287	469.5
390.512	484.5
390.736	478.5
390.961	471.5
391.186	472.5
391.411	494.5
391.636	487.5
391.86	480.5
392.085	496.5
392.31	499.5
392.534	522.5
392.759	500.5
392.984	516.5
393.208	456.5
393.433	513.5
393.658	497.5
393.882	510.5
394.107	519.5
394.331	502.5
394.556	474.5
394.78	484.5
395.005	473.5
395.229	498.5
395.454	510.5
395.678	514.5
395.903	520.5
396.127	551.5
396.352	540.5
396.576	504.5
396.801	507.5
397.025	521.5
397.249	502.5
397.474	531.5
397.698	531.5
397.922	528.5
398.147	550.5
398.371	551.5
398.595	550.5
398.82	563.5
399.044	587.5
399.268	607.5
399.492	633.5
399.717	659.5
399.941	692.5
400.165	717.5
400.389	703.5
400.613	638.5
400.837	623.5
401.062	586.5
401.286	580.5
401.51	573.5
401.734	562.5
401.958	547.5
402.182	571.5
402.406	579.5
402.63	571.5
402.854	566.5
403.078	577.5
403.302	580.5
403.526	587.5
403.75	573.5
403.974	583.5
404.198	591.5
404.422	601.5
404.645	595.5
404.869	601.5
405.093	635.5
405.317	671.5
405.541	696.5
405.765	649.5
405.988	605.5
406.212	623.5
406.436	628.5
406.66	649.5
406.883	626.5
407.107	653.5
407.331	721.5
407.555	776.5
407.778	749.5
408.002	715.5
408.226	658.5
408.449	667.5
408.673	651.5
408.896	660.5
409.12	719.5
409.344	679.5
409.567	620.5
409.791	631.5
410.014	586.5
410.238	580.5
410.461	600.5
410.685	590.5
410.908	613.5
411.132	654.5
411.355	685.5
411.578	652.5
411.802	596.5
412.025	586.5
412.249	594.5
412.472	615.5
412.695	663.5
412.919	668.5
413.142	595.5
413.365	585.5
413.589	579.5
413.812	566.5
414.035	569.5
414.258	540.5
414.482	563.5
414.705	550.5
414.928	555.5
415.151	560.5
415.374	543.5
415.597	556.5
415.821	546.5
416.044	575.5
416.267	567.5
416.49	548.5
416.713	545.5
416.936	567.5
417.159	551.5
417.382	550.5
417.605	572.5
417.828	563.5
418.051	577.5
418.274	557.5
418.497	545.5
418.72	548.5
418.943	547.5
419.166	577.5
419.389	604.5
419.611	599.5
419.834	603.5
420.057	596.5
420.28	595.5
420.503	568.5
420.726	582.5
420.948	582.5
421.171	617.5
421.394	670.5
421.617	591.5
421.839	582.5
422.062	557.5
422.285	589.5
422.507	650.5
422.73	734.5
422.953	689.5
423.175	624.5
423.398	594.5
423.621	601.5
423.843	619.5
424.066	619.5
424.288	617.5
424.511	629.5
424.733	689.5
424.956	794.5
425.178	732.5
425.401	745.5
425.623	785.5
425.846	653.5
426.068	632.5
426.291	608.5
426.513	585.5
426.735	652.5
426.958	656.5
427.18	773.5
427.402	916.5
427.625	1001.5
427.847	849.5
428.069	747.5
428.292	701.5
428.514	610.5
428.736	598.5
428.958	567.5
429.181	583.5
429.403	580.5
429.625	588.5
429.847	637.5
430.069	695.5
430.292	696.5
430.514	559.5
430.736	575.5
430.958	570.5
431.18	547.5
431.402	556.5
431.624	556.5
431.846	550.5
432.068	534.5
432.29	549.5
432.512	557.5
432.734	566.5
432.956	535.5
433.178	552.5
433.4	548.5
433.622	579.5
433.844	551.5
434.066	547.5
434.287	557.5
434.509	548.5
434.731	570.5
434.953	575.5
435.175	595.5
435.397	586.5
435.618	613.5
435.84	680.5
436.062	799.5
436.284	883.5
436.505	708.5
436.727	647.5
436.949	608.5
437.17	606.5
437.392	582.5
437.614	572.5
437.835	623.5
438.057	708.5
438.278	846.5
438.5	843.5
438.721	905.5
438.943	885.5
439.165	673.5
439.386	651.5
439.608	627.5
439.829	617.5
440.05	653.5
440.272	716.5
440.493	675.5
440.715	604.5
440.936	581.5
441.158	556.5
441.379	561.5
441.6	598.5
441.822	618.5
442.043	656.5
442.264	759.5
442.486	793.5
442.707	702.5
442.928	648.5
443.149	617.5
443.371	667.5
443.592	713.5
443.813	810.5
444.034	852.5
444.255	727.5
444.476	651.5
444.698	647.5
444.919	636.5
445.14	738.5
445.361	667.5
445.582	690.5
445.803	760.5
446.024	855.5
446.245	849.5
446.466	785.5
446.687	675.5
446.908	636.5
447.129	596.5
447.35	581.5
447.571	565.5
447.792	568.5
448.013	582.5
448.234	609.5
448.455	648.5
448.675	767.5
448.896	885.5
449.117	753.5
449.338	724.5
449.559	840.5
449.779	971.5
450	741.5
450.221	627.5
450.442	592.5
450.662	541.5
450.883	539.5
451.104	577.5
451.324	555.5
451.545	537.5
451.766	546.5
451.986	497.5
452.207	487.5
452.428	500.5
452.648	499.5
452.869	524.5
453.089	525.5
453.31	545.5
453.53	512.5
453.751	516.5
453.971	510.5
454.192	528.5
454.412	522.5
454.633	493.5
454.853	505.5
455.073	485.5
455.294	537.5
455.514	598.5
455.734	577.5
455.955	532.5
456.175	505.5
456.395	486.5
456.616	485.5
456.836	474.5
457.056	467.5
457.276	485.5
457.497	495.5
457.717	461.5
457.937	488.5
458.157	511.5
458.377	509.5
458.598	523.5
458.818	589.5
459.038	651.5
459.258	697.5
459.478	568.5
459.698	548.5
459.918	579.5
460.138	547.5
460.358	549.5
460.578	573.5
460.798	551.5
461.018	573.5
461.238	541.5
461.458	552.5
461.678	546.5
461.898	574.5
462.118	567.5
462.338	587.5
462.558	584.5
462.777	600.5
462.997	617.5
463.217	625.5
463.437	593.5
463.657	609.5
463.876	629.5
464.096	632.5
464.316	591.5
464.536	623.5
464.755	611.5
464.975	608.5
465.195	624.5
465.414	703.5
465.634	654.5
465.854	583.5
466.073	550.5
466.293	562.5
466.512	548.5
466.732	535.5
466.951	544.5
467.171	529.5
467.391	538.5
467.61	543.5
467.829	522.5
468.049	545.5
468.268	540.5
468.488	529.5
468.707	524.5
468.927	519.5
469.146	517.5
469.365	522.5
469.585	525.5
469.804	523.5
470.023	524.5
470.243	512.5
470.462	548.5
470.681	548.5
470.901	549.5
471.12	547.5
471.339	516.5
471.558	540.5
471.777	540.5
471.997	553.5
472.216	535.5
472.435	572.5
472.654	544.5
472.873	549.5
473.092	538.5
473.311	540.5
473.53	524.5
473.749	533.5
473.968	592.5
474.187	689.5
474.406	689.5
474.625	608.5
474.844	571.5
475.063	546.5
475.282	556.5
475.501	548.5
475.72	573.5
475.939	556.5
476.158	548.5
476.377	554.5
476.596	555.5
476.814	568.5
477.033	569.5
477.252	579.5
477.471	574.5
477.69	577.5
477.908	587.5
478.127	596.5
478.346	595.5
478.564	605.5
478.783	575.5
479.002	595.5
479.22	614.5
479.439	619.5
479.658	636.5
479.876	675.5
480.095	685.5
480.313	694.5
480.532	684.5
480.751	670.5
480.969	670.5
481.188	737.5
481.406	763.5
481.624	687.5
481.843	679.5
482.061	663.5
482.28	664.5
482.498	627.5
482.717	631.5
482.935	618.5
483.153	650.5
483.372	639.5
483.59	636.5
483.808	639.5
484.027	639.5
484.245	640.5
484.463	620.5
484.681	631.5
484.9	639.5
485.118	651.5
485.336	659.5
485.554	656.5
485.772	666.5
485.99	656.5
486.209	657.5
486.427	675.5
486.645	661.5
486.863	681.5
487.081	697.5
487.299	671.5
487.517	685.5
487.735	679.5
487.953	693.5
488.171	675.5
488.389	692.5
488.607	659.5
488.825	689.5
489.043	672.5
489.261	680.5
489.479	715.5
489.696	676.5
489.914	702.5
490.132	703.5
490.35	714.5
490.568	702.5
490.786	715.5
491.003	732.5
491.221	741.5
491.439	725.5
491.657	736.5
491.874	769.5
492.092	791.5
492.31	779.5
492.527	765.5
492.745	786.5
492.963	774.5
493.18	799.5
493.398	806.5
493.615	799.5
493.833	816.5
494.05	781.5
494.268	833.5
494.485	799.5
494.703	799.5
494.92	796.5
495.138	812.5
495.355	817.5
495.573	835.5
495.79	806.5
496.008	805.5
496.225	809.5
496.442	817.5
496.66	786.5
496.877	804.5
497.094	828.5
497.312	811.5
497.529	823.5
497.746	840.5
497.963	859.5
498.181	890.5
498.398	901.5
498.615	927.5
498.832	933.5
499.049	951.5
499.267	972.5
499.484	997.5
499.701	1034.5
499.918	1044.5
500.135	1145.5
500.352	1182.5
500.569	1199.5
500.786	1221.5
501.003	1176.5
501.22	1147.5
501.437	1109.5
501.654	1089.5
501.871	1060.5
502.088	1017.5
502.305	980.5
502.522	952.5
502.739	912.5
502.956	885.5
503.172	880.5
503.389	855.5
503.606	836.5
503.823	861.5
504.04	821.5
504.256	837.5
504.473	820.5
504.69	802.5
504.907	820.5
505.123	787.5
505.34	777.5
505.557	794.5
505.773	799.5
505.99	757.5
506.207	766.5
506.423	777.5
506.64	739.5
506.856	755.5
507.073	754.5
507.289	738.5
507.506	735.5
507.722	745.5
507.939	755.5
508.155	757.5
508.372	725.5
508.588	731.5
508.805	710.5
509.021	709.5
509.238	739.5
509.454	740.5
509.67	716.5
509.887	724.5
510.103	700.5
510.319	722.5
510.536	820.5
510.752	1259.5
510.968	1037.5
511.184	741.5
511.401	720.5
511.617	703.5
511.833	676.5
512.049	698.5
512.265	691.5
512.481	678.5
512.698	665.5
512.914	661.5
513.13	692.5
513.346	684.5
513.562	682.5
513.778	660.5
513.994	680.5
514.21	688.5
514.426	717.5
514.642	742.5
514.858	761.5
515.074	809.5
515.29	926.5
515.506	1288.5
515.721	1139.5
515.937	819.5
516.153	764.5
516.369	704.5
516.585	715.5
516.801	723.5
517.016	705.5
517.232	728.5
517.448	695.5
517.664	719.5
517.879	732.5
518.095	720.5
518.311	733.5
518.527	729.5
518.742	703.5
518.958	685.5
519.173	705.5
519.389	699.5
