Data from 1966.PennyLincolnUp.Lamp.En5.5.200Scan.071719.P1.Scan2.head_HRD10591_14-18-48-217.txt Node
Date: Thu Jul 18 14:18:48 EDT 2019
User: cochatt
Spectrometer: HR+D1059
Trigger mode: 1
Integration Time (sec): 1.000000E-1
Scans to average: 1
Electric dark correction enabled: true
Nonlinearity correction enabled: false
Boxcar width: 0
XAxis mode: Wavelengths
Number of Pixels in Spectrum: 2048
>>>>>Begin Spectral Data<<<<<
223.165	-5.12
223.4	-5.12
223.635	-5.12
223.869	-8.12
224.104	-14.12
224.338	-6.12
224.573	-13.12
224.808	-22.12
225.042	-10.12
225.277	-8.12
225.511	-1.12
225.746	10.88
225.98	7.88
226.215	11.88
226.449	6.88
226.683	16.88
226.918	13.88
227.152	19.88
227.387	45.88
227.621	36.88
227.856	48.88
228.09	47.88
228.324	46.88
228.559	62.88
228.793	59.88
229.027	100.88
229.262	119.88
229.496	124.88
229.73	145.88
229.964	171.88
230.199	144.88
230.433	124.88
230.667	124.88
230.901	129.88
231.136	111.88
231.37	108.88
231.604	105.88
231.838	112.88
232.072	100.88
232.306	122.88
232.541	104.88
232.775	114.88
233.009	116.88
233.243	118.88
233.477	109.88
233.711	111.88
233.945	128.88
234.179	114.88
234.413	118.88
234.647	126.88
234.881	123.88
235.115	122.88
235.349	117.88
235.583	123.88
235.817	130.88
236.051	132.88
236.285	126.88
236.519	132.88
236.753	117.88
236.987	159.88
237.221	205.88
237.455	237.88
237.689	202.88
237.922	136.88
238.156	138.88
238.39	134.88
238.624	124.88
238.858	129.88
239.091	130.88
239.325	123.88
239.559	132.88
239.793	116.88
240.027	141.88
240.26	136.88
240.494	151.88
240.728	151.88
240.961	155.88
241.195	153.88
241.429	145.88
241.662	145.88
241.896	147.88
242.13	143.88
242.363	134.88
242.597	144.88
242.83	147.88
243.064	150.88
243.298	143.88
243.531	137.88
243.765	131.88
243.998	146.88
244.232	143.88
244.465	149.88
244.699	165.88
244.932	157.88
245.166	125.88
245.399	159.88
245.633	159.88
245.866	135.88
246.099	162.88
246.333	156.88
246.566	162.88
246.8	159.88
247.033	149.88
247.266	161.88
247.5	165.88
247.733	180.88
247.966	165.88
248.2	169.88
248.433	158.88
248.666	184.88
248.899	196.88
249.133	184.88
249.366	212.88
249.599	189.88
249.832	178.88
250.066	193.88
250.299	183.88
250.532	203.88
250.765	221.88
250.998	227.88
251.231	236.88
251.465	219.88
251.698	212.88
251.931	198.88
252.164	213.88
252.397	220.88
252.63	230.88
252.863	194.88
253.096	211.88
253.329	230.88
253.562	246.88
253.795	239.88
254.028	227.88
254.261	244.88
254.494	239.88
254.727	275.88
254.96	278.88
255.193	298.88
255.426	268.88
255.659	233.88
255.892	239.88
256.124	233.88
256.357	246.88
256.59	222.88
256.823	225.88
257.056	214.88
257.289	209.88
257.521	216.88
257.754	200.88
257.987	208.88
258.22	232.88
258.452	226.88
258.685	203.88
258.918	208.88
259.151	223.88
259.383	236.88
259.616	225.88
259.849	248.88
260.081	246.88
260.314	263.88
260.547	280.88
260.779	272.88
261.012	242.88
261.244	227.88
261.477	229.88
261.71	227.88
261.942	234.88
262.175	248.88
262.407	235.88
262.64	221.88
262.872	224.88
263.105	209.88
263.337	207.88
263.57	210.88
263.802	211.88
264.035	227.88
264.267	223.88
264.499	217.88
264.732	225.88
264.964	213.88
265.197	216.88
265.429	241.88
265.661	214.88
265.894	231.88
266.126	235.88
266.358	221.88
266.591	230.88
266.823	224.88
267.055	229.88
267.287	248.88
267.52	232.88
267.752	248.88
267.984	235.88
268.216	239.88
268.448	250.88
268.681	255.88
268.913	251.88
269.145	281.88
269.377	278.88
269.609	270.88
269.841	290.88
270.073	267.88
270.306	310.88
270.538	319.88
270.77	342.88
271.002	308.88
271.234	281.88
271.466	280.88
271.698	333.88
271.93	340.88
272.162	326.88
272.394	336.88
272.626	305.88
272.858	294.88
273.09	272.88
273.322	280.88
273.553	263.88
273.785	271.88
274.017	286.88
274.249	266.88
274.481	273.88
274.713	278.88
274.945	275.88
275.176	280.88
275.408	267.88
275.64	277.88
275.872	269.88
276.104	277.88
276.335	264.88
276.567	275.88
276.799	298.88
277.031	317.88
277.262	344.88
277.494	330.88
277.726	314.88
277.957	298.88
278.189	304.88
278.421	297.88
278.652	278.88
278.884	280.88
279.115	279.88
279.347	268.88
279.579	288.88
279.81	268.88
280.042	285.88
280.273	265.88
280.505	288.88
280.736	276.88
280.968	280.88
281.199	281.88
281.431	289.88
281.662	284.88
281.894	272.88
282.125	288.88
282.356	289.88
282.588	330.88
282.819	340.88
283.051	302.88
283.282	295.88
283.513	279.88
283.745	273.88
283.976	278.88
284.207	284.88
284.439	293.88
284.67	296.88
284.901	293.88
285.132	280.88
285.364	280.88
285.595	297.88
285.826	293.88
286.057	309.88
286.288	293.88
286.52	286.88
286.751	299.88
286.982	286.88
287.213	302.88
287.444	293.88
287.675	284.88
287.906	329.88
288.138	310.88
288.369	317.88
288.6	308.88
288.831	315.88
289.062	313.88
289.293	302.88
289.524	299.88
289.755	301.88
289.986	311.88
290.217	296.88
290.448	300.88
290.679	301.88
290.91	301.88
291.141	297.88
291.371	312.88
291.602	308.88
291.833	303.88
292.064	302.88
292.295	324.88
292.526	313.88
292.757	289.88
292.987	307.88
293.218	291.88
293.449	313.88
293.68	299.88
293.91	294.88
294.141	294.88
294.372	288.88
294.603	286.88
294.833	316.88
295.064	312.88
295.295	307.88
295.525	305.88
295.756	315.88
295.987	322.88
296.217	326.88
296.448	344.88
296.679	328.88
296.909	315.88
297.14	304.88
297.37	302.88
297.601	307.88
297.831	316.88
298.062	311.88
298.292	314.88
298.523	326.88
298.753	310.88
298.984	314.88
299.214	314.88
299.445	320.88
299.675	316.88
299.905	315.88
300.136	325.88
300.366	339.88
300.597	327.88
300.827	330.88
301.057	337.88
301.288	323.88
301.518	346.88
301.748	327.88
301.979	332.88
302.209	340.88
302.439	358.88
302.669	357.88
302.9	333.88
303.13	335.88
303.36	347.88
303.59	347.88
303.82	342.88
304.051	371.88
304.281	348.88
304.511	345.88
304.741	330.88
304.971	332.88
305.201	345.88
305.431	322.88
305.661	332.88
305.891	350.88
306.121	352.88
306.352	351.88
306.582	353.88
306.812	350.88
307.042	334.88
307.272	320.88
307.502	336.88
307.731	338.88
307.961	342.88
308.191	344.88
308.421	354.88
308.651	340.88
308.881	354.88
309.111	351.88
309.341	364.88
309.571	358.88
309.8	376.88
310.03	393.88
310.26	391.88
310.49	386.88
310.72	400.88
310.949	412.88
311.179	394.88
311.409	392.88
311.639	406.88
311.868	400.88
312.098	375.88
312.328	377.88
312.557	405.88
312.787	431.88
313.017	407.88
313.246	398.88
313.476	379.88
313.706	389.88
313.935	396.88
314.165	403.88
314.394	414.88
314.624	423.88
314.853	431.88
315.083	405.88
315.312	395.88
315.542	369.88
315.771	388.88
316.001	376.88
316.23	386.88
316.46	396.88
316.689	390.88
316.919	407.88
317.148	398.88
317.377	404.88
317.607	382.88
317.836	400.88
318.065	383.88
318.295	385.88
318.524	380.88
318.753	386.88
318.983	410.88
319.212	406.88
319.441	404.88
319.67	413.88
319.9	380.88
320.129	387.88
320.358	399.88
320.587	408.88
320.816	406.88
321.046	417.88
321.275	396.88
321.504	410.88
321.733	419.88
321.962	408.88
322.191	420.88
322.42	446.88
322.649	456.88
322.878	459.88
323.108	470.88
323.337	494.88
323.566	498.88
323.795	537.88
324.024	582.88
324.253	690.88
324.482	990.88
324.71	1558.88
324.939	2365.88
325.168	2007.88
325.397	988.88
325.626	656.88
325.855	558.88
326.084	510.88
326.313	509.88
326.542	509.88
326.77	559.88
326.999	665.88
327.228	907.88
327.457	1387.88
327.686	1768.88
327.914	1158.88
328.143	744.88
328.372	644.88
328.6	616.88
328.829	583.88
329.058	602.88
329.287	612.88
329.515	561.88
329.744	530.88
329.972	536.88
330.201	536.88
330.43	596.88
330.658	600.88
330.887	626.88
331.115	625.88
331.344	558.88
331.572	512.88
331.801	496.88
332.03	516.88
332.258	495.88
332.486	488.88
332.715	474.88
332.943	479.88
333.172	481.88
333.4	487.88
333.629	486.88
333.857	514.88
334.085	513.88
334.314	552.88
334.542	574.88
334.771	590.88
334.999	535.88
335.227	525.88
335.455	496.88
335.684	478.88
335.912	500.88
336.14	474.88
336.369	481.88
336.597	463.88
336.825	477.88
337.053	456.88
337.281	463.88
337.51	455.88
337.738	460.88
337.966	460.88
338.194	467.88
338.422	465.88
338.65	454.88
338.878	465.88
339.106	468.88
339.334	472.88
339.562	461.88
339.79	433.88
340.018	448.88
340.246	473.88
340.474	460.88
340.702	462.88
340.93	452.88
341.158	445.88
341.386	460.88
341.614	456.88
341.842	462.88
342.07	456.88
342.298	447.88
342.526	444.88
342.754	447.88
342.981	439.88
343.209	430.88
343.437	464.88
343.665	437.88
343.893	481.88
344.12	461.88
344.348	468.88
344.576	464.88
344.804	486.88
345.031	470.88
345.259	506.88
345.487	490.88
345.714	464.88
345.942	430.88
346.17	450.88
346.397	431.88
346.625	460.88
346.853	433.88
347.08	440.88
347.308	444.88
347.535	440.88
347.763	452.88
347.99	472.88
348.218	443.88
348.445	451.88
348.673	458.88
348.9	440.88
349.128	457.88
349.355	425.88
349.583	422.88
349.81	400.88
350.037	449.88
350.265	432.88
350.492	446.88
350.72	428.88
350.947	422.88
351.174	443.88
351.402	454.88
351.629	454.88
351.856	453.88
352.083	477.88
352.311	483.88
352.538	468.88
352.765	468.88
352.992	445.88
353.22	441.88
353.447	461.88
353.674	428.88
353.901	432.88
354.128	434.88
354.355	427.88
354.583	414.88
354.81	431.88
355.037	446.88
355.264	402.88
355.491	405.88
355.718	406.88
355.945	405.88
356.172	414.88
356.399	417.88
356.626	383.88
356.853	422.88
357.08	409.88
357.307	410.88
357.534	406.88
357.761	416.88
357.988	416.88
358.215	426.88
358.441	422.88
358.668	417.88
358.895	433.88
359.122	423.88
359.349	414.88
359.576	457.88
359.802	454.88
360.029	500.88
360.256	530.88
360.483	485.88
360.709	472.88
360.936	458.88
361.163	445.88
361.39	456.88
361.616	441.88
361.843	421.88
362.07	426.88
362.296	448.88
362.523	448.88
362.749	437.88
362.976	449.88
363.203	438.88
363.429	444.88
363.656	427.88
363.882	430.88
364.109	431.88
364.335	449.88
364.562	431.88
364.788	445.88
365.015	462.88
365.241	453.88
365.468	423.88
365.694	436.88
365.92	439.88
366.147	438.88
366.373	418.88
366.599	424.88
366.826	422.88
367.052	417.88
367.278	450.88
367.505	446.88
367.731	457.88
367.957	456.88
368.184	440.88
368.41	432.88
368.636	448.88
368.862	445.88
369.089	438.88
369.315	440.88
369.541	444.88
369.767	434.88
369.993	445.88
370.219	432.88
370.445	432.88
370.672	437.88
370.898	412.88
371.124	428.88
371.35	432.88
371.576	427.88
371.802	452.88
372.028	438.88
372.254	444.88
372.48	458.88
372.706	441.88
372.932	431.88
373.158	433.88
373.384	445.88
373.61	443.88
373.835	468.88
374.061	461.88
374.287	457.88
374.513	467.88
374.739	431.88
374.965	438.88
375.191	455.88
375.416	454.88
375.642	450.88
375.868	462.88
376.094	448.88
376.319	444.88
376.545	462.88
376.771	444.88
376.997	439.88
377.222	437.88
377.448	438.88
377.674	425.88
377.899	438.88
378.125	422.88
378.35	422.88
378.576	437.88
378.802	450.88
379.027	456.88
379.253	432.88
379.478	418.88
379.704	447.88
379.929	432.88
380.155	454.88
380.38	433.88
380.606	441.88
380.831	441.88
381.057	455.88
381.282	433.88
381.507	429.88
381.733	441.88
381.958	442.88
382.184	453.88
382.409	455.88
382.634	449.88
382.86	476.88
383.085	454.88
383.31	461.88
383.535	477.88
383.761	451.88
383.986	451.88
384.211	470.88
384.436	451.88
384.662	478.88
384.887	465.88
385.112	477.88
385.337	478.88
385.562	485.88
385.787	474.88
386.013	502.88
386.238	484.88
386.463	508.88
386.688	510.88
386.913	496.88
387.138	469.88
387.363	476.88
387.588	488.88
387.813	484.88
388.038	481.88
388.263	476.88
388.488	490.88
388.713	488.88
388.938	470.88
389.163	509.88
389.387	514.88
389.612	487.88
389.837	494.88
390.062	472.88
390.287	479.88
390.512	459.88
390.736	483.88
390.961	500.88
391.186	481.88
391.411	514.88
391.636	496.88
391.86	495.88
392.085	490.88
392.31	538.88
392.534	514.88
392.759	516.88
392.984	504.88
393.208	512.88
393.433	517.88
393.658	508.88
393.882	473.88
394.107	509.88
394.331	497.88
394.556	490.88
394.78	489.88
395.005	490.88
395.229	491.88
395.454	512.88
395.678	529.88
395.903	542.88
396.127	558.88
396.352	546.88
396.576	508.88
396.801	511.88
397.025	505.88
397.249	527.88
397.474	551.88
397.698	524.88
397.922	530.88
398.147	562.88
398.371	565.88
398.595	557.88
398.82	561.88
399.044	564.88
399.268	588.88
399.492	606.88
399.717	664.88
399.941	663.88
400.165	710.88
400.389	749.88
400.613	662.88
400.837	622.88
401.062	594.88
401.286	601.88
401.51	583.88
401.734	572.88
401.958	580.88
402.182	581.88
402.406	588.88
402.63	575.88
402.854	593.88
403.078	592.88
403.302	598.88
403.526	603.88
403.75	597.88
403.974	587.88
404.198	593.88
404.422	596.88
404.645	609.88
404.869	638.88
405.093	668.88
405.317	698.88
405.541	735.88
405.765	659.88
405.988	618.88
406.212	630.88
406.436	645.88
406.66	654.88
406.883	660.88
407.107	670.88
407.331	718.88
407.555	802.88
407.778	801.88
408.002	704.88
408.226	666.88
408.449	678.88
408.673	687.88
408.896	685.88
409.12	704.88
409.344	676.88
409.567	640.88
409.791	585.88
410.014	584.88
410.238	577.88
410.461	598.88
410.685	589.88
410.908	639.88
411.132	676.88
411.355	702.88
411.578	633.88
411.802	630.88
412.025	598.88
412.249	622.88
412.472	642.88
412.695	688.88
412.919	663.88
413.142	590.88
413.365	593.88
413.589	591.88
413.812	571.88
414.035	572.88
414.258	562.88
414.482	577.88
414.705	575.88
414.928	540.88
415.151	559.88
415.374	549.88
415.597	554.88
415.821	560.88
416.044	565.88
416.267	545.88
416.49	569.88
416.713	546.88
416.936	564.88
417.159	553.88
417.382	543.88
417.605	559.88
417.828	555.88
418.051	591.88
418.274	585.88
418.497	562.88
418.72	577.88
418.943	554.88
419.166	574.88
419.389	625.88
419.611	609.88
419.834	605.88
420.057	621.88
420.28	597.88
420.503	592.88
420.726	573.88
420.948	620.88
421.171	649.88
421.394	683.88
421.617	625.88
421.839	586.88
422.062	582.88
422.285	605.88
422.507	667.88
422.73	751.88
422.953	710.88
423.175	636.88
423.398	605.88
423.621	620.88
423.843	646.88
424.066	622.88
424.288	626.88
424.511	665.88
424.733	720.88
424.956	815.88
425.178	775.88
425.401	766.88
425.623	801.88
425.846	679.88
426.068	626.88
426.291	612.88
426.513	634.88
426.735	633.88
426.958	689.88
427.18	764.88
427.402	935.88
427.625	1046.88
427.847	881.88
428.069	762.88
428.292	672.88
428.514	638.88
428.736	624.88
428.958	620.88
429.181	583.88
429.403	574.88
429.625	576.88
429.847	650.88
430.069	712.88
430.292	704.88
430.514	603.88
430.736	574.88
430.958	581.88
431.18	548.88
431.402	575.88
431.624	574.88
431.846	562.88
432.068	537.88
432.29	552.88
432.512	569.88
432.734	552.88
432.956	572.88
433.178	550.88
433.4	592.88
433.622	571.88
433.844	549.88
434.066	548.88
434.287	547.88
434.509	571.88
434.731	556.88
434.953	578.88
435.175	602.88
435.397	637.88
435.618	640.88
435.84	698.88
436.062	786.88
436.284	864.88
436.505	706.88
436.727	663.88
436.949	618.88
437.17	590.88
437.392	580.88
437.614	577.88
437.835	634.88
438.057	751.88
438.278	871.88
438.5	852.88
438.721	950.88
438.943	892.88
439.165	731.88
439.386	650.88
439.608	659.88
439.829	650.88
440.05	647.88
440.272	735.88
440.493	673.88
440.715	599.88
440.936	606.88
441.158	596.88
441.379	599.88
441.6	614.88
441.822	621.88
442.043	673.88
442.264	773.88
442.486	824.88
442.707	713.88
442.928	658.88
443.149	666.88
443.371	719.88
443.592	734.88
443.813	831.88
444.034	912.88
444.255	748.88
444.476	685.88
444.698	648.88
444.919	668.88
445.14	761.88
445.361	689.88
445.582	685.88
445.803	776.88
446.024	887.88
446.245	900.88
446.466	845.88
446.687	706.88
446.908	638.88
447.129	590.88
447.35	570.88
447.571	579.88
447.792	583.88
448.013	569.88
448.234	608.88
448.455	651.88
448.675	807.88
448.896	939.88
449.117	762.88
449.338	722.88
449.559	865.88
449.779	969.88
450	786.88
450.221	642.88
450.442	583.88
450.662	592.88
450.883	567.88
451.104	604.88
451.324	582.88
451.545	538.88
451.766	551.88
451.986	553.88
452.207	534.88
452.428	526.88
452.648	526.88
452.869	516.88
453.089	528.88
453.31	549.88
453.53	538.88
453.751	506.88
453.971	514.88
454.192	537.88
454.412	521.88
454.633	521.88
454.853	510.88
455.073	516.88
455.294	546.88
455.514	628.88
455.734	609.88
455.955	558.88
456.175	518.88
456.395	487.88
456.616	496.88
456.836	484.88
457.056	457.88
457.276	467.88
457.497	500.88
457.717	484.88
457.937	495.88
458.157	505.88
458.377	510.88
458.598	522.88
458.818	597.88
459.038	698.88
459.258	726.88
459.478	607.88
459.698	566.88
459.918	554.88
460.138	566.88
460.358	582.88
460.578	572.88
460.798	570.88
461.018	573.88
461.238	554.88
461.458	576.88
461.678	559.88
461.898	575.88
462.118	573.88
462.338	592.88
462.558	600.88
462.777	590.88
462.997	605.88
463.217	630.88
463.437	644.88
463.657	626.88
463.876	617.88
464.096	638.88
464.316	607.88
464.536	637.88
464.755	606.88
464.975	632.88
465.195	663.88
465.414	706.88
465.634	655.88
465.854	600.88
466.073	586.88
466.293	548.88
466.512	540.88
466.732	542.88
466.951	516.88
467.171	548.88
467.391	518.88
467.61	557.88
467.829	552.88
468.049	553.88
468.268	535.88
468.488	559.88
468.707	518.88
468.927	516.88
469.146	506.88
469.365	529.88
469.585	526.88
469.804	531.88
470.023	565.88
470.243	570.88
470.462	544.88
470.681	573.88
470.901	578.88
471.12	586.88
471.339	539.88
471.558	572.88
471.777	550.88
471.997	526.88
472.216	547.88
472.435	616.88
472.654	591.88
472.873	560.88
473.092	558.88
473.311	530.88
473.53	581.88
473.749	554.88
473.968	588.88
474.187	721.88
474.406	731.88
474.625	595.88
474.844	589.88
475.063	550.88
475.282	572.88
475.501	553.88
475.72	554.88
475.939	558.88
476.158	558.88
476.377	573.88
476.596	557.88
476.814	561.88
477.033	575.88
477.252	579.88
477.471	596.88
477.69	583.88
477.908	589.88
478.127	596.88
478.346	624.88
478.564	646.88
478.783	618.88
479.002	630.88
479.22	618.88
479.439	645.88
479.658	658.88
479.876	645.88
480.095	660.88
480.313	696.88
480.532	683.88
480.751	677.88
480.969	688.88
481.188	746.88
481.406	792.88
481.624	724.88
481.843	696.88
482.061	662.88
482.28	649.88
482.498	655.88
482.717	625.88
482.935	632.88
483.153	644.88
483.372	662.88
483.59	634.88
483.808	637.88
484.027	629.88
484.245	648.88
484.463	654.88
484.681	668.88
484.9	664.88
485.118	654.88
485.336	664.88
485.554	660.88
485.772	649.88
485.99	656.88
486.209	670.88
486.427	686.88
486.645	669.88
486.863	710.88
487.081	721.88
487.299	673.88
487.517	678.88
487.735	680.88
487.953	696.88
488.171	706.88
488.389	698.88
488.607	696.88
488.825	673.88
489.043	708.88
489.261	706.88
489.479	711.88
489.696	717.88
489.914	708.88
490.132	724.88
490.35	737.88
490.568	741.88
490.786	752.88
491.003	762.88
491.221	751.88
491.439	772.88
491.657	769.88
491.874	781.88
492.092	801.88
492.31	801.88
492.527	815.88
492.745	800.88
492.963	798.88
493.18	814.88
493.398	819.88
493.615	823.88
493.833	840.88
494.05	839.88
494.268	820.88
494.485	807.88
494.703	839.88
494.92	820.88
495.138	818.88
495.355	806.88
495.573	832.88
495.79	804.88
496.008	842.88
496.225	825.88
496.442	824.88
496.66	837.88
496.877	830.88
497.094	885.88
497.312	840.88
497.529	856.88
497.746	848.88
497.963	862.88
498.181	877.88
498.398	910.88
498.615	924.88
498.832	944.88
499.049	966.88
499.267	979.88
499.484	1014.88
499.701	1037.88
499.918	1081.88
500.135	1103.88
500.352	1147.88
500.569	1176.88
500.786	1198.88
501.003	1184.88
501.22	1162.88
501.437	1129.88
501.654	1084.88
