Data from 1966.PennyLincolnUp.Lamp.En5.5.200Scan.071719.P1.Scan2.head_HRD10591_14-17-16-094.txt Node
Date: Thu Jul 18 14:17:16 EDT 2019
User: cochatt
Spectrometer: HR+D1059
Trigger mode: 1
Integration Time (sec): 1.000000E-1
Scans to average: 1
Electric dark correction enabled: true
Nonlinearity correction enabled: false
Boxcar width: 0
XAxis mode: Wavelengths
Number of Pixels in Spectrum: 2048
>>>>>Begin Spectral Data<<<<<
223.165	1.12
223.4	1.12
223.635	1.12
223.869	-5.88
224.104	-19.88
224.338	-16.88
224.573	-21.88
224.808	-14.88
225.042	-12.88
225.277	-13.88
225.511	-15.88
225.746	-0.88
225.98	7.12
226.215	26.12
226.449	12.12
226.683	26.12
226.918	18.12
227.152	32.12
227.387	42.12
227.621	41.12
227.856	42.12
228.09	49.12
228.324	44.12
228.559	71.12
228.793	72.12
229.027	91.12
229.262	106.12
229.496	106.12
229.73	130.12
229.964	147.12
230.199	122.12
230.433	124.12
230.667	90.12
230.901	103.12
231.136	108.12
231.37	129.12
231.604	128.12
231.838	115.12
232.072	112.12
232.306	131.12
232.541	110.12
232.775	118.12
233.009	128.12
233.243	118.12
233.477	124.12
233.711	111.12
233.945	116.12
234.179	108.12
234.413	120.12
234.647	118.12
234.881	127.12
235.115	128.12
235.349	116.12
235.583	111.12
235.817	127.12
236.051	130.12
236.285	129.12
236.519	130.12
236.753	134.12
236.987	141.12
237.221	186.12
237.455	226.12
237.689	183.12
237.922	146.12
238.156	143.12
238.39	134.12
238.624	131.12
238.858	131.12
239.091	132.12
239.325	127.12
239.559	137.12
239.793	135.12
240.027	142.12
240.26	136.12
240.494	159.12
240.728	162.12
240.961	150.12
241.195	150.12
241.429	154.12
241.662	143.12
241.896	136.12
242.13	132.12
242.363	139.12
242.597	139.12
242.83	136.12
243.064	132.12
243.298	153.12
243.531	128.12
243.765	161.12
243.998	152.12
244.232	144.12
244.465	155.12
244.699	152.12
244.932	159.12
245.166	144.12
245.399	155.12
245.633	160.12
245.866	152.12
246.099	145.12
246.333	152.12
246.566	162.12
246.8	156.12
247.033	153.12
247.266	149.12
247.5	174.12
247.733	168.12
247.966	174.12
248.2	172.12
248.433	187.12
248.666	188.12
248.899	187.12
249.133	209.12
249.366	224.12
249.599	179.12
249.832	194.12
250.066	203.12
250.299	183.12
250.532	204.12
250.765	198.12
250.998	208.12
251.231	225.12
251.465	212.12
251.698	202.12
251.931	186.12
252.164	213.12
252.397	203.12
252.63	201.12
252.863	204.12
253.096	211.12
253.329	225.12
253.562	229.12
253.795	217.12
254.028	220.12
254.261	230.12
254.494	231.12
254.727	254.12
254.96	286.12
255.193	247.12
255.426	255.12
255.659	238.12
255.892	232.12
256.124	238.12
256.357	230.12
256.59	225.12
256.823	224.12
257.056	208.12
257.289	205.12
257.521	210.12
257.754	203.12
257.987	225.12
258.22	222.12
258.452	225.12
258.685	209.12
258.918	210.12
259.151	202.12
259.383	223.12
259.616	235.12
259.849	223.12
260.081	232.12
260.314	261.12
260.547	255.12
260.779	237.12
261.012	252.12
261.244	232.12
261.477	232.12
261.71	213.12
261.942	212.12
262.175	241.12
262.407	222.12
262.64	233.12
262.872	204.12
263.105	225.12
263.337	226.12
263.57	214.12
263.802	231.12
264.035	208.12
264.267	239.12
264.499	216.12
264.732	208.12
264.964	208.12
265.197	217.12
265.429	217.12
265.661	218.12
265.894	212.12
266.126	222.12
266.358	218.12
266.591	240.12
266.823	236.12
267.055	211.12
267.287	240.12
267.52	251.12
267.752	226.12
267.984	248.12
268.216	227.12
268.448	228.12
268.681	250.12
268.913	240.12
269.145	284.12
269.377	272.12
269.609	270.12
269.841	274.12
270.073	271.12
270.306	294.12
270.538	308.12
270.77	326.12
271.002	294.12
271.234	301.12
271.466	299.12
271.698	316.12
271.93	313.12
272.162	326.12
272.394	312.12
272.626	300.12
272.858	292.12
273.09	269.12
273.322	276.12
273.553	282.12
273.785	288.12
274.017	268.12
274.249	279.12
274.481	269.12
274.713	268.12
274.945	275.12
275.176	267.12
275.408	261.12
275.64	251.12
275.872	239.12
276.104	255.12
276.335	267.12
276.567	275.12
276.799	274.12
277.031	287.12
277.262	315.12
277.494	324.12
277.726	298.12
277.957	295.12
278.189	290.12
278.421	272.12
278.652	275.12
278.884	286.12
279.115	276.12
279.347	275.12
279.579	275.12
279.81	253.12
280.042	275.12
280.273	280.12
280.505	281.12
280.736	262.12
280.968	272.12
281.199	281.12
281.431	272.12
281.662	272.12
281.894	250.12
282.125	265.12
282.356	277.12
282.588	311.12
282.819	298.12
283.051	275.12
283.282	275.12
283.513	288.12
283.745	278.12
283.976	293.12
284.207	302.12
284.439	286.12
284.67	280.12
284.901	275.12
285.132	286.12
285.364	273.12
285.595	294.12
285.826	274.12
286.057	296.12
286.288	280.12
286.52	272.12
286.751	284.12
286.982	291.12
287.213	299.12
287.444	290.12
287.675	290.12
287.906	307.12
288.138	316.12
288.369	297.12
288.6	313.12
288.831	294.12
289.062	332.12
289.293	299.12
289.524	289.12
289.755	314.12
289.986	291.12
290.217	289.12
290.448	308.12
290.679	286.12
290.91	304.12
291.141	311.12
291.371	279.12
291.602	311.12
291.833	291.12
292.064	288.12
292.295	288.12
292.526	282.12
292.757	299.12
292.987	308.12
293.218	293.12
293.449	319.12
293.68	299.12
293.91	297.12
294.141	298.12
294.372	291.12
294.603	305.12
294.833	296.12
295.064	288.12
295.295	301.12
295.525	298.12
295.756	295.12
295.987	310.12
296.217	322.12
296.448	324.12
296.679	319.12
296.909	297.12
297.14	300.12
297.37	314.12
297.601	298.12
297.831	301.12
298.062	314.12
298.292	322.12
298.523	318.12
298.753	321.12
298.984	321.12
299.214	308.12
299.445	334.12
299.675	310.12
299.905	324.12
300.136	316.12
300.366	311.12
300.597	314.12
300.827	340.12
301.057	328.12
301.288	337.12
301.518	340.12
301.748	327.12
301.979	335.12
302.209	327.12
302.439	348.12
302.669	327.12
302.9	340.12
303.13	352.12
303.36	337.12
303.59	340.12
303.82	342.12
304.051	328.12
304.281	345.12
304.511	326.12
304.741	323.12
304.971	339.12
305.201	331.12
305.431	334.12
305.661	322.12
305.891	329.12
306.121	335.12
306.352	339.12
306.582	343.12
306.812	354.12
307.042	331.12
307.272	331.12
307.502	355.12
307.731	339.12
307.961	351.12
308.191	344.12
308.421	326.12
308.651	356.12
308.881	359.12
309.111	376.12
309.341	361.12
309.571	339.12
309.8	363.12
310.03	368.12
310.26	383.12
310.49	352.12
310.72	363.12
310.949	392.12
311.179	382.12
311.409	389.12
311.639	376.12
311.868	387.12
312.098	376.12
312.328	384.12
312.557	386.12
312.787	402.12
313.017	401.12
313.246	385.12
313.476	365.12
313.706	376.12
313.935	382.12
314.165	379.12
314.394	403.12
314.624	386.12
314.853	391.12
315.083	388.12
315.312	387.12
315.542	383.12
315.771	377.12
316.001	380.12
316.23	398.12
316.46	366.12
316.689	376.12
316.919	394.12
317.148	389.12
317.377	399.12
317.607	384.12
317.836	394.12
318.065	382.12
318.295	394.12
318.524	384.12
318.753	377.12
318.983	392.12
319.212	387.12
319.441	379.12
319.67	391.12
319.9	379.12
320.129	381.12
320.358	400.12
320.587	392.12
320.816	400.12
321.046	386.12
321.275	402.12
321.504	399.12
321.733	402.12
321.962	408.12
322.191	425.12
322.42	434.12
322.649	441.12
322.878	441.12
323.108	452.12
323.337	488.12
323.566	483.12
323.795	514.12
324.024	542.12
324.253	660.12
324.482	902.12
324.71	1360.12
324.939	2035.12
325.168	1806.12
325.397	890.12
325.626	590.12
325.855	518.12
326.084	491.12
326.313	486.12
326.542	500.12
326.77	507.12
326.999	654.12
327.228	824.12
327.457	1222.12
327.686	1557.12
327.914	1050.12
328.143	669.12
328.372	591.12
328.6	563.12
328.829	555.12
329.058	544.12
329.287	528.12
329.515	554.12
329.744	502.12
329.972	483.12
330.201	512.12
330.43	522.12
330.658	562.12
330.887	570.12
331.115	594.12
331.344	516.12
331.572	490.12
331.801	474.12
332.03	496.12
332.258	470.12
332.486	467.12
332.715	448.12
332.943	457.12
333.172	436.12
333.4	456.12
333.629	467.12
333.857	479.12
334.085	484.12
334.314	500.12
334.542	552.12
334.771	545.12
334.999	496.12
335.227	479.12
335.455	463.12
335.684	472.12
335.912	480.12
336.14	459.12
336.369	464.12
336.597	458.12
336.825	460.12
337.053	457.12
337.281	449.12
337.51	464.12
337.738	467.12
337.966	451.12
338.194	468.12
338.422	457.12
338.65	463.12
338.878	433.12
339.106	424.12
339.334	446.12
339.562	430.12
339.79	430.12
340.018	452.12
340.246	438.12
340.474	461.12
340.702	442.12
340.93	444.12
341.158	412.12
341.386	440.12
341.614	452.12
341.842	435.12
342.07	443.12
342.298	436.12
342.526	439.12
342.754	434.12
342.981	425.12
343.209	406.12
343.437	445.12
343.665	425.12
343.893	448.12
344.12	467.12
344.348	435.12
344.576	468.12
344.804	462.12
345.031	461.12
345.259	460.12
345.487	443.12
345.714	447.12
345.942	449.12
346.17	432.12
346.397	419.12
346.625	448.12
346.853	426.12
347.08	436.12
347.308	450.12
347.535	452.12
347.763	440.12
347.99	453.12
348.218	432.12
348.445	430.12
348.673	436.12
348.9	438.12
349.128	430.12
349.355	426.12
349.583	423.12
349.81	416.12
350.037	453.12
350.265	408.12
350.492	408.12
350.72	424.12
350.947	414.12
351.174	434.12
351.402	451.12
351.629	421.12
351.856	420.12
352.083	433.12
352.311	443.12
352.538	447.12
352.765	441.12
352.992	416.12
353.22	417.12
353.447	428.12
353.674	440.12
353.901	422.12
354.128	408.12
354.355	410.12
354.583	414.12
354.81	418.12
355.037	416.12
355.264	418.12
355.491	400.12
355.718	419.12
355.945	398.12
356.172	416.12
356.399	400.12
356.626	380.12
356.853	402.12
357.08	403.12
357.307	415.12
357.534	407.12
357.761	401.12
357.988	416.12
358.215	432.12
358.441	401.12
358.668	411.12
358.895	388.12
359.122	414.12
359.349	431.12
359.576	440.12
359.802	452.12
360.029	464.12
360.256	508.12
360.483	488.12
360.709	463.12
360.936	438.12
361.163	452.12
361.39	439.12
361.616	438.12
361.843	431.12
362.07	443.12
362.296	458.12
362.523	459.12
362.749	444.12
362.976	431.12
363.203	429.12
363.429	435.12
363.656	443.12
363.882	420.12
364.109	400.12
364.335	421.12
364.562	414.12
364.788	426.12
365.015	442.12
365.241	448.12
365.468	439.12
365.694	430.12
365.92	420.12
366.147	438.12
366.373	423.12
366.599	408.12
366.826	435.12
367.052	426.12
367.278	419.12
367.505	424.12
367.731	417.12
367.957	415.12
368.184	432.12
368.41	446.12
368.636	421.12
368.862	439.12
369.089	435.12
369.315	438.12
369.541	428.12
369.767	409.12
369.993	424.12
370.219	426.12
370.445	429.12
370.672	427.12
370.898	434.12
371.124	440.12
371.35	446.12
371.576	429.12
371.802	419.12
372.028	440.12
372.254	425.12
372.48	442.12
372.706	435.12
372.932	446.12
373.158	452.12
373.384	464.12
373.61	463.12
373.835	443.12
374.061	440.12
374.287	448.12
374.513	440.12
374.739	432.12
374.965	465.12
375.191	435.12
375.416	431.12
375.642	434.12
375.868	448.12
376.094	429.12
376.319	428.12
376.545	444.12
376.771	447.12
376.997	440.12
377.222	428.12
377.448	436.12
377.674	459.12
377.899	418.12
378.125	432.12
378.35	421.12
378.576	423.12
378.802	441.12
379.027	438.12
379.253	420.12
379.478	409.12
379.704	410.12
379.929	449.12
380.155	430.12
380.38	423.12
380.606	411.12
380.831	449.12
381.057	454.12
381.282	438.12
381.507	446.12
381.733	447.12
381.958	445.12
382.184	432.12
382.409	431.12
382.634	431.12
382.86	454.12
383.085	430.12
383.31	454.12
383.535	461.12
383.761	450.12
383.986	456.12
384.211	458.12
384.436	463.12
384.662	479.12
384.887	464.12
385.112	450.12
385.337	458.12
385.562	464.12
385.787	476.12
386.013	510.12
386.238	479.12
386.463	480.12
386.688	487.12
386.913	464.12
387.138	476.12
387.363	488.12
387.588	486.12
387.813	471.12
388.038	484.12
388.263	485.12
388.488	480.12
388.713	484.12
388.938	490.12
389.163	485.12
389.387	466.12
389.612	489.12
389.837	481.12
390.062	480.12
390.287	490.12
390.512	479.12
390.736	482.12
390.961	478.12
391.186	482.12
391.411	506.12
391.636	520.12
391.86	506.12
392.085	497.12
392.31	480.12
392.534	498.12
392.759	501.12
392.984	504.12
393.208	523.12
393.433	510.12
393.658	507.12
393.882	502.12
394.107	497.12
394.331	473.12
394.556	491.12
394.78	505.12
395.005	502.12
395.229	506.12
395.454	513.12
395.678	503.12
395.903	506.12
396.127	547.12
396.352	542.12
396.576	521.12
396.801	508.12
397.025	495.12
397.249	516.12
397.474	521.12
397.698	525.12
397.922	538.12
398.147	545.12
398.371	564.12
398.595	555.12
398.82	560.12
399.044	590.12
399.268	596.12
399.492	614.12
399.717	649.12
399.941	683.12
400.165	690.12
400.389	720.12
400.613	634.12
400.837	610.12
401.062	590.12
401.286	589.12
401.51	542.12
401.734	566.12
401.958	562.12
402.182	559.12
402.406	598.12
402.63	581.12
402.854	574.12
403.078	566.12
403.302	566.12
403.526	589.12
403.75	595.12
403.974	601.12
404.198	585.12
404.422	585.12
404.645	605.12
404.869	589.12
405.093	645.12
405.317	678.12
405.541	700.12
405.765	648.12
405.988	639.12
406.212	617.12
406.436	659.12
406.66	630.12
406.883	641.12
407.107	673.12
407.331	689.12
407.555	764.12
407.778	768.12
408.002	721.12
408.226	674.12
408.449	630.12
408.673	638.12
408.896	677.12
409.12	716.12
409.344	670.12
409.567	625.12
409.791	613.12
410.014	603.12
410.238	608.12
410.461	601.12
410.685	610.12
410.908	607.12
411.132	642.12
411.355	682.12
411.578	651.12
411.802	588.12
412.025	596.12
412.249	593.12
412.472	618.12
412.695	671.12
412.919	654.12
413.142	623.12
413.365	575.12
413.589	558.12
413.812	554.12
414.035	575.12
414.258	560.12
414.482	566.12
414.705	582.12
414.928	586.12
415.151	559.12
415.374	559.12
415.597	546.12
415.821	552.12
416.044	568.12
416.267	555.12
416.49	546.12
416.713	550.12
416.936	550.12
417.159	543.12
417.382	547.12
417.605	547.12
417.828	582.12
418.051	586.12
418.274	563.12
418.497	576.12
418.72	538.12
418.943	579.12
419.166	575.12
419.389	553.12
419.611	604.12
419.834	560.12
420.057	572.12
420.28	563.12
420.503	583.12
420.726	584.12
420.948	613.12
421.171	640.12
421.394	650.12
421.617	620.12
421.839	578.12
422.062	571.12
422.285	602.12
422.507	647.12
422.73	733.12
422.953	688.12
423.175	625.12
423.398	610.12
423.621	591.12
423.843	620.12
424.066	635.12
424.288	612.12
424.511	634.12
424.733	723.12
424.956	805.12
425.178	758.12
425.401	753.12
425.623	753.12
425.846	658.12
426.068	607.12
426.291	608.12
426.513	622.12
426.735	640.12
426.958	683.12
427.18	743.12
427.402	890.12
427.625	994.12
427.847	851.12
428.069	747.12
428.292	662.12
428.514	606.12
428.736	602.12
428.958	587.12
429.181	571.12
429.403	569.12
429.625	572.12
429.847	608.12
430.069	682.12
430.292	678.12
430.514	591.12
430.736	566.12
430.958	578.12
431.18	565.12
431.402	550.12
431.624	532.12
431.846	533.12
432.068	539.12
432.29	531.12
432.512	548.12
432.734	567.12
432.956	564.12
433.178	560.12
433.4	570.12
433.622	530.12
433.844	564.12
434.066	529.12
434.287	546.12
434.509	572.12
434.731	550.12
434.953	561.12
435.175	582.12
435.397	627.12
435.618	633.12
435.84	670.12
436.062	746.12
436.284	828.12
436.505	686.12
436.727	609.12
436.949	600.12
437.17	581.12
437.392	585.12
437.614	595.12
437.835	616.12
438.057	716.12
438.278	832.12
438.5	794.12
438.721	919.12
438.943	881.12
439.165	678.12
439.386	619.12
439.608	623.12
439.829	623.12
440.05	620.12
440.272	669.12
440.493	647.12
440.715	614.12
440.936	587.12
441.158	583.12
441.379	571.12
441.6	591.12
441.822	601.12
442.043	646.12
442.264	747.12
442.486	780.12
442.707	670.12
442.928	636.12
443.149	641.12
443.371	667.12
443.592	724.12
443.813	828.12
444.034	887.12
444.255	721.12
444.476	643.12
444.698	638.12
444.919	666.12
445.14	735.12
445.361	716.12
445.582	674.12
445.803	741.12
446.024	842.12
446.245	841.12
446.466	782.12
446.687	681.12
446.908	626.12
447.129	585.12
447.35	576.12
447.571	582.12
447.792	558.12
448.013	591.12
448.234	610.12
448.455	624.12
448.675	758.12
448.896	879.12
449.117	758.12
449.338	706.12
449.559	814.12
449.779	946.12
450	742.12
450.221	603.12
450.442	568.12
450.662	564.12
450.883	562.12
451.104	541.12
451.324	557.12
451.545	541.12
451.766	531.12
451.986	494.12
452.207	494.12
452.428	506.12
452.648	494.12
452.869	524.12
453.089	520.12
453.31	539.12
453.53	516.12
453.751	520.12
453.971	504.12
454.192	535.12
454.412	518.12
454.633	527.12
454.853	513.12
455.073	520.12
455.294	540.12
455.514	599.12
455.734	590.12
455.955	534.12
456.175	489.12
456.395	493.12
456.616	498.12
456.836	503.12
457.056	481.12
457.276	506.12
457.497	492.12
457.717	505.12
457.937	477.12
458.157	499.12
458.377	511.12
458.598	515.12
458.818	583.12
459.038	646.12
459.258	660.12
459.478	591.12
459.698	560.12
459.918	558.12
460.138	574.12
460.358	560.12
460.578	557.12
460.798	556.12
461.018	578.12
461.238	565.12
461.458	553.12
461.678	574.12
461.898	570.12
462.118	578.12
462.338	588.12
462.558	590.12
462.777	596.12
462.997	631.12
463.217	632.12
463.437	618.12
463.657	582.12
463.876	610.12
464.096	600.12
464.316	600.12
464.536	599.12
464.755	617.12
464.975	617.12
465.195	661.12
465.414	691.12
465.634	615.12
465.854	582.12
466.073	556.12
466.293	557.12
466.512	545.12
466.732	525.12
466.951	526.12
467.171	527.12
467.391	540.12
467.61	547.12
467.829	533.12
468.049	525.12
468.268	528.12
468.488	522.12
468.707	531.12
468.927	499.12
469.146	506.12
469.365	514.12
469.585	497.12
469.804	527.12
470.023	525.12
470.243	542.12
470.462	550.12
470.681	563.12
470.901	546.12
471.12	526.12
471.339	532.12
471.558	557.12
471.777	529.12
471.997	555.12
472.216	537.12
472.435	588.12
472.654	558.12
472.873	557.12
473.092	521.12
473.311	538.12
473.53	537.12
473.749	552.12
473.968	561.12
474.187	682.12
474.406	715.12
474.625	586.12
474.844	547.12
475.063	530.12
475.282	536.12
475.501	551.12
475.72	550.12
475.939	565.12
476.158	547.12
476.377	557.12
476.596	566.12
476.814	582.12
477.033	569.12
477.252	572.12
477.471	586.12
477.69	592.12
477.908	577.12
478.127	572.12
478.346	604.12
478.564	615.12
478.783	619.12
479.002	617.12
479.22	615.12
479.439	632.12
479.658	637.12
479.876	643.12
480.095	678.12
480.313	671.12
480.532	682.12
480.751	663.12
480.969	655.12
481.188	727.12
481.406	748.12
481.624	685.12
481.843	664.12
482.061	633.12
482.28	648.12
482.498	632.12
482.717	631.12
482.935	643.12
483.153	622.12
483.372	654.12
483.59	634.12
483.808	632.12
484.027	660.12
484.245	644.12
484.463	608.12
484.681	634.12
484.9	649.12
485.118	655.12
485.336	625.12
485.554	664.12
485.772	674.12
485.99	652.12
486.209	646.12
486.427	646.12
486.645	652.12
486.863	699.12
487.081	704.12
487.299	689.12
487.517	670.12
487.735	674.12
487.953	672.12
488.171	703.12
488.389	673.12
488.607	682.12
488.825	665.12
489.043	686.12
489.261	680.12
489.479	699.12
489.696	699.12
489.914	692.12
490.132	686.12
490.35	703.12
490.568	715.12
490.786	730.12
491.003	705.12
491.221	734.12
491.439	739.12
491.657	770.12
491.874	778.12
492.092	760.12
492.31	797.12
492.527	762.12
492.745	790.12
492.963	796.12
493.18	788.12
493.398	785.12
493.615	784.12
493.833	781.12
494.05	817.12
494.268	785.12
494.485	819.12
494.703	816.12
494.92	775.12
495.138	792.12
495.355	799.12
495.573	787.12
495.79	803.12
496.008	800.12
496.225	808.12
496.442	796.12
496.66	776.12
496.877	794.12
497.094	802.12
497.312	836.12
497.529	837.12
497.746	837.12
497.963	818.12
498.181	875.12
498.398	891.12
498.615	877.12
498.832	945.12
499.049	935.12
499.267	963.12
499.484	989.12
499.701	1040.12
499.918	1068.12
500.135	1123.12
500.352	1170.12
500.569	1179.12
500.786	1218.12
501.003	1160.12
501.22	1160.12
501.437	1102.12
501.654	1066.12
