Data from 1966.PennyLincolnUp.Lamp.En5.5.200Scan.071719.P1.Scan2.head_HRD10591_14-17-03-077.txt Node
Date: Thu Jul 18 14:17:03 EDT 2019
User: cochatt
Spectrometer: HR+D1059
Trigger mode: 1
Integration Time (sec): 1.000000E-1
Scans to average: 1
Electric dark correction enabled: true
Nonlinearity correction enabled: false
Boxcar width: 0
XAxis mode: Wavelengths
Number of Pixels in Spectrum: 2048
>>>>>Begin Spectral Data<<<<<
223.165	-19.69
223.4	-19.69
223.635	-19.69
223.869	-28.69
224.104	-23.69
224.338	-17.69
224.573	-26.69
224.808	5.31
225.042	-12.69
225.277	-10.69
225.511	-1.69
225.746	18.31
225.98	11.31
226.215	19.31
226.449	14.31
226.683	9.31
226.918	33.31
227.152	30.31
227.387	37.31
227.621	40.31
227.856	40.31
228.09	56.31
228.324	56.31
228.559	62.31
228.793	68.31
229.027	91.31
229.262	96.31
229.496	94.31
229.73	121.31
229.964	134.31
230.199	128.31
230.433	114.31
230.667	104.31
230.901	106.31
231.136	101.31
231.37	105.31
231.604	109.31
231.838	122.31
232.072	107.31
232.306	110.31
232.541	107.31
232.775	117.31
233.009	112.31
233.243	117.31
233.477	106.31
233.711	122.31
233.945	105.31
234.179	106.31
234.413	121.31
234.647	119.31
234.881	105.31
235.115	118.31
235.349	113.31
235.583	108.31
235.817	116.31
236.051	116.31
236.285	119.31
236.519	135.31
236.753	141.31
236.987	142.31
237.221	163.31
237.455	207.31
237.689	181.31
237.922	157.31
238.156	119.31
238.39	123.31
238.624	130.31
238.858	120.31
239.091	126.31
239.325	115.31
239.559	125.31
239.793	139.31
240.027	141.31
240.26	147.31
240.494	164.31
240.728	144.31
240.961	136.31
241.195	129.31
241.429	142.31
241.662	118.31
241.896	142.31
242.13	117.31
242.363	132.31
242.597	128.31
242.83	139.31
243.064	148.31
243.298	141.31
243.531	136.31
243.765	143.31
243.998	120.31
244.232	129.31
244.465	134.31
244.699	134.31
244.932	139.31
245.166	127.31
245.399	146.31
245.633	128.31
245.866	143.31
246.099	158.31
246.333	128.31
246.566	153.31
246.8	158.31
247.033	138.31
247.266	144.31
247.5	143.31
247.733	154.31
247.966	181.31
248.2	152.31
248.433	160.31
248.666	171.31
248.899	174.31
249.133	194.31
249.366	188.31
249.599	183.31
249.832	197.31
250.066	187.31
250.299	170.31
250.532	201.31
250.765	206.31
250.998	204.31
251.231	210.31
251.465	200.31
251.698	185.31
251.931	197.31
252.164	203.31
252.397	198.31
252.63	192.31
252.863	208.31
253.096	204.31
253.329	210.31
253.562	210.31
253.795	205.31
254.028	187.31
254.261	187.31
254.494	216.31
254.727	236.31
254.96	274.31
255.193	256.31
255.426	235.31
255.659	207.31
255.892	198.31
256.124	220.31
256.357	219.31
256.59	212.31
256.823	218.31
257.056	200.31
257.289	189.31
257.521	215.31
257.754	211.31
257.987	206.31
258.22	210.31
258.452	192.31
258.685	201.31
258.918	214.31
259.151	204.31
259.383	210.31
259.616	201.31
259.849	227.31
260.081	232.31
260.314	248.31
260.547	237.31
260.779	219.31
261.012	220.31
261.244	231.31
261.477	222.31
261.71	217.31
261.942	222.31
262.175	223.31
262.407	226.31
262.64	220.31
262.872	210.31
263.105	209.31
263.337	214.31
263.57	191.31
263.802	208.31
264.035	198.31
264.267	210.31
264.499	191.31
264.732	219.31
264.964	211.31
265.197	208.31
265.429	221.31
265.661	208.31
265.894	211.31
266.126	203.31
266.358	215.31
266.591	222.31
266.823	239.31
267.055	225.31
267.287	229.31
267.52	216.31
267.752	222.31
267.984	214.31
268.216	211.31
268.448	239.31
268.681	218.31
268.913	236.31
269.145	249.31
269.377	250.31
269.609	260.31
269.841	249.31
270.073	254.31
270.306	274.31
270.538	281.31
270.77	286.31
271.002	277.31
271.234	258.31
271.466	272.31
271.698	285.31
271.93	293.31
272.162	270.31
272.394	300.31
272.626	268.31
272.858	275.31
273.09	269.31
273.322	254.31
273.553	259.31
273.785	260.31
274.017	244.31
274.249	255.31
274.481	221.31
274.713	228.31
274.945	265.31
275.176	264.31
275.408	262.31
275.64	244.31
275.872	242.31
276.104	236.31
276.335	261.31
276.567	288.31
276.799	271.31
277.031	267.31
277.262	304.31
277.494	301.31
277.726	291.31
277.957	249.31
278.189	271.31
278.421	280.31
278.652	251.31
278.884	271.31
279.115	241.31
279.347	246.31
279.579	262.31
279.81	254.31
280.042	258.31
280.273	267.31
280.505	266.31
280.736	264.31
280.968	262.31
281.199	264.31
281.431	259.31
281.662	273.31
281.894	276.31
282.125	265.31
282.356	284.31
282.588	262.31
282.819	286.31
283.051	283.31
283.282	272.31
283.513	270.31
283.745	260.31
283.976	274.31
284.207	282.31
284.439	269.31
284.67	294.31
284.901	270.31
285.132	280.31
285.364	262.31
285.595	304.31
285.826	274.31
286.057	276.31
286.288	264.31
286.52	276.31
286.751	277.31
286.982	292.31
287.213	280.31
287.444	288.31
287.675	268.31
287.906	291.31
288.138	301.31
288.369	306.31
288.6	292.31
288.831	280.31
289.062	294.31
289.293	279.31
289.524	282.31
289.755	290.31
289.986	273.31
290.217	285.31
290.448	285.31
290.679	276.31
290.91	288.31
291.141	269.31
291.371	295.31
291.602	293.31
291.833	277.31
292.064	278.31
292.295	287.31
292.526	291.31
292.757	280.31
292.987	292.31
293.218	269.31
293.449	269.31
293.68	299.31
293.91	279.31
294.141	284.31
294.372	304.31
294.603	280.31
294.833	279.31
295.064	297.31
295.295	289.31
295.525	301.31
295.756	307.31
295.987	301.31
296.217	306.31
296.448	310.31
296.679	279.31
296.909	298.31
297.14	306.31
297.37	283.31
297.601	290.31
297.831	276.31
298.062	292.31
298.292	311.31
298.523	310.31
298.753	287.31
298.984	317.31
299.214	300.31
299.445	302.31
299.675	300.31
299.905	324.31
300.136	297.31
300.366	317.31
300.597	314.31
300.827	313.31
301.057	319.31
301.288	325.31
301.518	324.31
301.748	315.31
301.979	344.31
302.209	310.31
302.439	308.31
302.669	306.31
302.9	316.31
303.13	320.31
303.36	336.31
303.59	319.31
303.82	320.31
304.051	335.31
304.281	333.31
304.511	338.31
304.741	310.31
304.971	306.31
305.201	342.31
305.431	330.31
305.661	316.31
305.891	319.31
306.121	326.31
306.352	320.31
306.582	335.31
306.812	318.31
307.042	331.31
307.272	349.31
307.502	325.31
307.731	318.31
307.961	325.31
308.191	333.31
308.421	315.31
308.651	333.31
308.881	313.31
309.111	328.31
309.341	338.31
309.571	342.31
309.8	359.31
310.03	349.31
310.26	341.31
310.49	359.31
310.72	383.31
310.949	381.31
311.179	379.31
311.409	361.31
311.639	340.31
311.868	343.31
312.098	361.31
312.328	368.31
312.557	378.31
312.787	408.31
313.017	378.31
313.246	376.31
313.476	348.31
313.706	380.31
313.935	378.31
314.165	377.31
314.394	373.31
314.624	394.31
314.853	364.31
315.083	364.31
315.312	380.31
315.542	377.31
315.771	380.31
316.001	340.31
316.23	341.31
316.46	365.31
316.689	368.31
316.919	388.31
317.148	348.31
317.377	377.31
317.607	355.31
317.836	357.31
318.065	373.31
318.295	372.31
318.524	372.31
318.753	377.31
318.983	374.31
319.212	369.31
319.441	364.31
319.67	378.31
319.9	377.31
320.129	372.31
320.358	377.31
320.587	386.31
320.816	370.31
321.046	391.31
321.275	372.31
321.504	388.31
321.733	374.31
321.962	384.31
322.191	412.31
322.42	388.31
322.649	417.31
322.878	420.31
323.108	423.31
323.337	439.31
323.566	471.31
323.795	465.31
324.024	539.31
324.253	580.31
324.482	828.31
324.71	1279.31
324.939	1924.31
325.168	1656.31
325.397	827.31
325.626	593.31
325.855	493.31
326.084	483.31
326.313	461.31
326.542	454.31
326.77	491.31
326.999	576.31
327.228	780.31
327.457	1180.31
327.686	1448.31
327.914	965.31
328.143	635.31
328.372	570.31
328.6	530.31
328.829	526.31
329.058	521.31
329.287	545.31
329.515	517.31
329.744	459.31
329.972	480.31
330.201	484.31
330.43	498.31
330.658	542.31
330.887	557.31
331.115	533.31
331.344	506.31
331.572	461.31
331.801	462.31
332.03	465.31
332.258	438.31
332.486	440.31
332.715	454.31
332.943	435.31
333.172	446.31
333.4	443.31
333.629	475.31
333.857	483.31
334.085	490.31
334.314	474.31
334.542	505.31
334.771	512.31
334.999	492.31
335.227	464.31
335.455	439.31
335.684	454.31
335.912	455.31
336.14	430.31
336.369	440.31
336.597	444.31
336.825	453.31
337.053	452.31
337.281	435.31
337.51	437.31
337.738	431.31
337.966	446.31
338.194	432.31
338.422	423.31
338.65	444.31
338.878	428.31
339.106	413.31
339.334	428.31
339.562	419.31
339.79	429.31
340.018	434.31
340.246	412.31
340.474	428.31
340.702	428.31
340.93	422.31
341.158	428.31
341.386	446.31
341.614	434.31
341.842	410.31
342.07	420.31
342.298	442.31
342.526	420.31
342.754	430.31
342.981	429.31
343.209	410.31
343.437	433.31
343.665	426.31
343.893	444.31
344.12	450.31
344.348	443.31
344.576	443.31
344.804	420.31
345.031	436.31
345.259	452.31
345.487	442.31
345.714	420.31
345.942	420.31
346.17	434.31
346.397	422.31
346.625	419.31
346.853	410.31
347.08	419.31
347.308	406.31
347.535	417.31
347.763	422.31
347.99	436.31
348.218	452.31
348.445	422.31
348.673	426.31
348.9	409.31
349.128	417.31
349.355	399.31
349.583	412.31
349.81	415.31
350.037	416.31
350.265	411.31
350.492	402.31
350.72	417.31
350.947	416.31
351.174	413.31
351.402	431.31
351.629	440.31
351.856	418.31
352.083	416.31
352.311	419.31
352.538	443.31
352.765	423.31
352.992	429.31
353.22	401.31
353.447	420.31
353.674	412.31
353.901	413.31
354.128	395.31
354.355	380.31
354.583	407.31
354.81	404.31
355.037	385.31
355.264	423.31
355.491	398.31
355.718	389.31
355.945	409.31
356.172	384.31
356.399	375.31
356.626	411.31
356.853	398.31
357.08	386.31
357.307	406.31
357.534	409.31
357.761	389.31
357.988	427.31
358.215	396.31
358.441	409.31
358.668	389.31
358.895	411.31
359.122	427.31
359.349	427.31
359.576	417.31
359.802	438.31
360.029	452.31
360.256	457.31
360.483	450.31
360.709	434.31
360.936	419.31
361.163	424.31
361.39	427.31
361.616	432.31
361.843	413.31
362.07	424.31
362.296	420.31
362.523	424.31
362.749	416.31
362.976	436.31
363.203	412.31
363.429	416.31
363.656	434.31
363.882	411.31
364.109	418.31
364.335	421.31
364.562	411.31
364.788	418.31
365.015	429.31
365.241	406.31
365.468	418.31
365.694	424.31
365.92	395.31
366.147	407.31
366.373	396.31
366.599	397.31
366.826	410.31
367.052	391.31
367.278	427.31
367.505	422.31
367.731	422.31
367.957	425.31
368.184	403.31
368.41	423.31
368.636	434.31
368.862	436.31
369.089	430.31
369.315	418.31
369.541	433.31
369.767	421.31
369.993	421.31
370.219	408.31
370.445	404.31
370.672	424.31
370.898	399.31
371.124	407.31
371.35	441.31
371.576	425.31
371.802	417.31
372.028	415.31
372.254	429.31
372.48	418.31
372.706	414.31
372.932	433.31
373.158	422.31
373.384	425.31
373.61	432.31
373.835	419.31
374.061	427.31
374.287	433.31
374.513	427.31
374.739	453.31
374.965	411.31
375.191	423.31
375.416	440.31
375.642	441.31
375.868	432.31
376.094	416.31
376.319	428.31
376.545	398.31
376.771	404.31
376.997	425.31
377.222	423.31
377.448	455.31
377.674	417.31
377.899	418.31
378.125	427.31
378.35	405.31
378.576	418.31
378.802	425.31
379.027	437.31
379.253	440.31
379.478	429.31
379.704	436.31
379.929	416.31
380.155	433.31
380.38	428.31
380.606	412.31
380.831	416.31
381.057	429.31
381.282	424.31
381.507	440.31
381.733	421.31
381.958	429.31
382.184	431.31
382.409	421.31
382.634	435.31
382.86	416.31
383.085	437.31
383.31	427.31
383.535	449.31
383.761	443.31
383.986	415.31
384.211	465.31
384.436	440.31
384.662	443.31
384.887	470.31
385.112	457.31
385.337	445.31
385.562	449.31
385.787	462.31
386.013	465.31
386.238	451.31
386.463	472.31
386.688	453.31
386.913	484.31
387.138	488.31
387.363	466.31
387.588	467.31
387.813	477.31
388.038	467.31
388.263	480.31
388.488	467.31
388.713	453.31
388.938	475.31
389.163	462.31
389.387	463.31
389.612	466.31
389.837	484.31
390.062	453.31
390.287	450.31
390.512	474.31
390.736	477.31
390.961	484.31
391.186	486.31
391.411	490.31
391.636	481.31
391.86	485.31
392.085	477.31
392.31	492.31
392.534	500.31
392.759	500.31
392.984	491.31
393.208	471.31
393.433	512.31
393.658	505.31
393.882	484.31
394.107	475.31
394.331	514.31
394.556	476.31
394.78	454.31
395.005	498.31
395.229	480.31
395.454	474.31
395.678	516.31
395.903	523.31
396.127	506.31
396.352	511.31
396.576	501.31
396.801	505.31
397.025	537.31
397.249	513.31
397.474	489.31
397.698	518.31
397.922	522.31
398.147	538.31
398.371	522.31
398.595	531.31
398.82	548.31
399.044	561.31
399.268	562.31
399.492	610.31
399.717	617.31
399.941	659.31
400.165	662.31
400.389	701.31
400.613	629.31
400.837	616.31
401.062	568.31
401.286	539.31
401.51	570.31
401.734	567.31
401.958	551.31
402.182	591.31
402.406	552.31
402.63	541.31
402.854	534.31
403.078	560.31
403.302	574.31
403.526	585.31
403.75	556.31
403.974	571.31
404.198	578.31
404.422	562.31
404.645	566.31
404.869	589.31
405.093	621.31
405.317	636.31
405.541	716.31
405.765	635.31
405.988	578.31
406.212	596.31
406.436	622.31
406.66	652.31
406.883	632.31
407.107	647.31
407.331	681.31
407.555	739.31
407.778	723.31
408.002	684.31
408.226	644.31
408.449	635.31
408.673	636.31
408.896	653.31
409.12	690.31
409.344	663.31
409.567	602.31
409.791	589.31
410.014	563.31
410.238	582.31
410.461	566.31
410.685	577.31
410.908	621.31
411.132	630.31
411.355	658.31
411.578	626.31
411.802	592.31
412.025	573.31
412.249	557.31
412.472	613.31
412.695	611.31
412.919	625.31
413.142	557.31
413.365	586.31
413.589	550.31
413.812	534.31
414.035	550.31
414.258	545.31
414.482	545.31
414.705	543.31
414.928	550.31
415.151	540.31
415.374	556.31
415.597	540.31
415.821	545.31
416.044	527.31
416.267	526.31
416.49	522.31
416.713	549.31
416.936	532.31
417.159	551.31
417.382	554.31
417.605	563.31
417.828	536.31
418.051	585.31
418.274	575.31
418.497	541.31
418.72	556.31
418.943	534.31
419.166	556.31
419.389	590.31
419.611	589.31
419.834	578.31
420.057	576.31
420.28	572.31
420.503	544.31
420.726	586.31
420.948	571.31
421.171	603.31
421.394	660.31
421.617	580.31
421.839	562.31
422.062	574.31
422.285	582.31
422.507	641.31
422.73	710.31
422.953	703.31
423.175	601.31
423.398	578.31
423.621	559.31
423.843	624.31
424.066	609.31
424.288	587.31
424.511	627.31
424.733	667.31
424.956	752.31
425.178	709.31
425.401	716.31
425.623	734.31
425.846	652.31
426.068	613.31
426.291	599.31
426.513	626.31
426.735	612.31
426.958	634.31
427.18	724.31
427.402	881.31
427.625	939.31
427.847	802.31
428.069	702.31
428.292	637.31
428.514	576.31
428.736	572.31
428.958	571.31
429.181	561.31
429.403	552.31
429.625	553.31
429.847	606.31
430.069	648.31
430.292	660.31
430.514	576.31
430.736	566.31
430.958	549.31
431.18	553.31
431.402	526.31
431.624	529.31
431.846	504.31
432.068	526.31
432.29	532.31
432.512	541.31
432.734	560.31
432.956	538.31
433.178	540.31
433.4	562.31
433.622	544.31
433.844	526.31
434.066	524.31
434.287	535.31
434.509	534.31
434.731	556.31
434.953	555.31
435.175	580.31
435.397	598.31
435.618	616.31
435.84	647.31
436.062	723.31
436.284	793.31
436.505	657.31
436.727	616.31
436.949	578.31
437.17	570.31
437.392	551.31
437.614	562.31
437.835	617.31
438.057	680.31
438.278	801.31
438.5	760.31
438.721	889.31
438.943	864.31
439.165	656.31
439.386	624.31
439.608	614.31
439.829	605.31
440.05	638.31
440.272	650.31
440.493	624.31
440.715	579.31
440.936	581.31
441.158	560.31
441.379	552.31
441.6	573.31
441.822	598.31
442.043	636.31
442.264	725.31
442.486	762.31
442.707	648.31
442.928	618.31
443.149	628.31
443.371	620.31
443.592	674.31
443.813	781.31
444.034	834.31
444.255	708.31
444.476	637.31
444.698	630.31
444.919	615.31
445.14	708.31
445.361	651.31
445.582	621.31
445.803	718.31
446.024	785.31
446.245	816.31
446.466	736.31
446.687	614.31
446.908	576.31
447.129	570.31
447.35	551.31
447.571	544.31
447.792	535.31
448.013	557.31
448.234	583.31
448.455	613.31
448.675	726.31
448.896	868.31
449.117	715.31
449.338	677.31
449.559	796.31
449.779	889.31
450	714.31
450.221	609.31
450.442	557.31
450.662	532.31
450.883	534.31
451.104	557.31
451.324	546.31
451.545	530.31
451.766	523.31
451.986	538.31
452.207	510.31
452.428	498.31
452.648	506.31
452.869	485.31
453.089	490.31
453.31	512.31
453.53	505.31
453.751	500.31
453.971	478.31
454.192	503.31
454.412	498.31
454.633	489.31
454.853	485.31
455.073	498.31
455.294	528.31
455.514	561.31
455.734	564.31
455.955	484.31
456.175	483.31
456.395	468.31
456.616	473.31
456.836	465.31
457.056	470.31
457.276	464.31
457.497	474.31
457.717	479.31
457.937	481.31
458.157	491.31
458.377	507.31
458.598	481.31
458.818	576.31
459.038	647.31
459.258	646.31
459.478	574.31
459.698	548.31
459.918	531.31
460.138	550.31
460.358	530.31
460.578	547.31
460.798	547.31
461.018	586.31
461.238	546.31
461.458	550.31
461.678	533.31
461.898	556.31
462.118	531.31
462.338	574.31
462.558	578.31
462.777	589.31
462.997	594.31
463.217	614.31
463.437	614.31
463.657	598.31
463.876	604.31
464.096	598.31
464.316	596.31
464.536	604.31
464.755	574.31
464.975	588.31
465.195	592.31
465.414	668.31
465.634	567.31
465.854	566.31
466.073	553.31
466.293	538.31
466.512	514.31
466.732	503.31
466.951	510.31
467.171	504.31
467.391	508.31
467.61	530.31
467.829	545.31
468.049	518.31
468.268	515.31
468.488	509.31
468.707	505.31
468.927	516.31
469.146	478.31
469.365	514.31
469.585	513.31
469.804	510.31
470.023	516.31
470.243	526.31
470.462	524.31
470.681	548.31
470.901	520.31
471.12	518.31
471.339	527.31
471.558	523.31
471.777	529.31
471.997	534.31
472.216	505.31
472.435	558.31
472.654	540.31
472.873	531.31
473.092	532.31
473.311	521.31
473.53	528.31
473.749	530.31
473.968	573.31
474.187	662.31
474.406	666.31
474.625	580.31
474.844	534.31
475.063	537.31
475.282	503.31
475.501	529.31
475.72	521.31
475.939	516.31
476.158	546.31
476.377	536.31
476.596	571.31
476.814	542.31
477.033	551.31
477.252	545.31
477.471	561.31
477.69	556.31
477.908	573.31
478.127	562.31
478.346	581.31
478.564	582.31
478.783	596.31
479.002	618.31
479.22	600.31
479.439	618.31
479.658	628.31
479.876	632.31
480.095	628.31
480.313	659.31
480.532	652.31
480.751	629.31
480.969	669.31
481.188	692.31
481.406	732.31
481.624	648.31
481.843	638.31
482.061	637.31
482.28	634.31
482.498	596.31
482.717	622.31
482.935	612.31
483.153	633.31
483.372	612.31
483.59	617.31
483.808	626.31
484.027	646.31
484.245	644.31
484.463	633.31
484.681	608.31
484.9	605.31
485.118	634.31
485.336	627.31
485.554	642.31
485.772	647.31
485.99	637.31
486.209	610.31
486.427	655.31
486.645	668.31
486.863	669.31
487.081	661.31
487.299	665.31
487.517	670.31
487.735	673.31
487.953	659.31
488.171	647.31
488.389	649.31
488.607	660.31
488.825	644.31
489.043	653.31
489.261	657.31
489.479	674.31
489.696	637.31
489.914	673.31
490.132	694.31
490.35	699.31
490.568	679.31
490.786	702.31
491.003	711.31
491.221	701.31
491.439	727.31
491.657	742.31
491.874	758.31
492.092	760.31
492.31	742.31
492.527	762.31
492.745	744.31
492.963	746.31
493.18	771.31
493.398	776.31
493.615	758.31
493.833	770.31
494.05	776.31
494.268	739.31
494.485	765.31
494.703	776.31
494.92	764.31
495.138	785.31
495.355	777.31
495.573	776.31
495.79	781.31
496.008	807.31
496.225	805.31
496.442	749.31
496.66	844.31
496.877	808.31
497.094	804.31
497.312	806.31
497.529	809.31
497.746	805.31
497.963	837.31
498.181	821.31
498.398	864.31
498.615	876.31
498.832	906.31
499.049	930.31
499.267	936.31
499.484	980.31
499.701	1005.31
499.918	1042.31
500.135	1116.31
500.352	1150.31
500.569	1156.31
500.786	1186.31
501.003	1178.31
501.22	1112.31
501.437	1060.31
501.654	1040.31
