Data from 1966.PennyLincolnUp.Lamp.En5.5.200Scan.071719.P1.Scan2.head_HRD10591_14-16-45-053.txt Node
Date: Thu Jul 18 14:16:45 EDT 2019
User: cochatt
Spectrometer: HR+D1059
Trigger mode: 1
Integration Time (sec): 1.000000E-1
Scans to average: 1
Electric dark correction enabled: true
Nonlinearity correction enabled: false
Boxcar width: 0
XAxis mode: Wavelengths
Number of Pixels in Spectrum: 2048
>>>>>Begin Spectral Data<<<<<
223.165	-20.75
223.4	-20.75
223.635	-20.75
223.869	-12.75
224.104	-25.75
224.338	-12.75
224.573	-29.75
224.808	0.25
225.042	-6.75
225.277	-7.75
225.511	0.25
225.746	-0.75
225.98	14.25
226.215	21.25
226.449	14.25
226.683	6.25
226.918	28.25
227.152	32.25
227.387	34.25
227.621	36.25
227.856	38.25
228.09	34.25
228.324	54.25
228.559	59.25
228.793	62.25
229.027	90.25
229.262	103.25
229.496	104.25
229.73	124.25
229.964	142.25
230.199	121.25
230.433	111.25
230.667	91.25
230.901	111.25
231.136	124.25
231.37	111.25
231.604	117.25
231.838	106.25
232.072	114.25
232.306	106.25
232.541	104.25
232.775	111.25
233.009	108.25
233.243	112.25
233.477	104.25
233.711	113.25
233.945	138.25
234.179	125.25
234.413	116.25
234.647	118.25
234.881	115.25
235.115	128.25
235.349	112.25
235.583	105.25
235.817	114.25
236.051	105.25
236.285	123.25
236.519	121.25
236.753	128.25
236.987	116.25
237.221	144.25
237.455	223.25
237.689	158.25
237.922	126.25
238.156	136.25
238.39	121.25
238.624	114.25
238.858	118.25
239.091	128.25
239.325	127.25
239.559	127.25
239.793	124.25
240.027	120.25
240.26	125.25
240.494	145.25
240.728	144.25
240.961	136.25
241.195	132.25
241.429	139.25
241.662	134.25
241.896	134.25
242.13	122.25
242.363	124.25
242.597	135.25
242.83	130.25
243.064	133.25
243.298	140.25
243.531	136.25
243.765	137.25
243.998	133.25
244.232	137.25
244.465	139.25
244.699	142.25
244.932	140.25
245.166	148.25
245.399	128.25
245.633	128.25
245.866	142.25
246.099	152.25
246.333	138.25
246.566	146.25
246.8	148.25
247.033	140.25
247.266	141.25
247.5	143.25
247.733	153.25
247.966	159.25
248.2	170.25
248.433	160.25
248.666	154.25
248.899	187.25
249.133	191.25
249.366	183.25
249.599	170.25
249.832	186.25
250.066	158.25
250.299	176.25
250.532	173.25
250.765	175.25
250.998	206.25
251.231	206.25
251.465	186.25
251.698	193.25
251.931	193.25
252.164	200.25
252.397	174.25
252.63	178.25
252.863	188.25
253.096	194.25
253.329	206.25
253.562	209.25
253.795	197.25
254.028	196.25
254.261	201.25
254.494	204.25
254.727	218.25
254.96	253.25
255.193	243.25
255.426	213.25
255.659	203.25
255.892	198.25
256.124	210.25
256.357	200.25
256.59	212.25
256.823	193.25
257.056	200.25
257.289	196.25
257.521	206.25
257.754	182.25
257.987	207.25
258.22	211.25
258.452	188.25
258.685	183.25
258.918	192.25
259.151	202.25
259.383	196.25
259.616	205.25
259.849	186.25
260.081	200.25
260.314	222.25
260.547	234.25
260.779	231.25
261.012	200.25
261.244	207.25
261.477	202.25
261.71	195.25
261.942	204.25
262.175	203.25
262.407	193.25
262.64	205.25
262.872	199.25
263.105	191.25
263.337	206.25
263.57	198.25
263.802	180.25
264.035	194.25
264.267	210.25
264.499	198.25
264.732	197.25
264.964	196.25
265.197	194.25
265.429	198.25
265.661	195.25
265.894	197.25
266.126	202.25
266.358	189.25
266.591	204.25
266.823	207.25
267.055	219.25
267.287	219.25
267.52	209.25
267.752	205.25
267.984	210.25
268.216	211.25
268.448	207.25
268.681	202.25
268.913	228.25
269.145	226.25
269.377	247.25
269.609	232.25
269.841	232.25
270.073	250.25
270.306	259.25
270.538	262.25
270.77	269.25
271.002	248.25
271.234	270.25
271.466	259.25
271.698	272.25
271.93	267.25
272.162	259.25
272.394	266.25
272.626	280.25
272.858	257.25
273.09	244.25
273.322	233.25
273.553	244.25
273.785	242.25
274.017	216.25
274.249	215.25
274.481	221.25
274.713	233.25
274.945	232.25
275.176	230.25
275.408	244.25
275.64	239.25
275.872	261.25
276.104	234.25
276.335	237.25
276.567	224.25
276.799	259.25
277.031	265.25
277.262	278.25
277.494	279.25
277.726	256.25
277.957	258.25
278.189	266.25
278.421	262.25
278.652	254.25
278.884	260.25
279.115	249.25
279.347	250.25
279.579	249.25
279.81	234.25
280.042	255.25
280.273	245.25
280.505	250.25
280.736	256.25
280.968	259.25
281.199	258.25
281.431	237.25
281.662	242.25
281.894	244.25
282.125	265.25
282.356	262.25
282.588	268.25
282.819	276.25
283.051	263.25
283.282	257.25
283.513	235.25
283.745	244.25
283.976	261.25
284.207	259.25
284.439	270.25
284.67	259.25
284.901	269.25
285.132	245.25
285.364	255.25
285.595	278.25
285.826	286.25
286.057	267.25
286.288	255.25
286.52	256.25
286.751	253.25
286.982	260.25
287.213	248.25
287.444	270.25
287.675	272.25
287.906	283.25
288.138	284.25
288.369	284.25
288.6	287.25
288.831	285.25
289.062	270.25
289.293	276.25
289.524	249.25
289.755	264.25
289.986	272.25
290.217	259.25
290.448	267.25
290.679	263.25
290.91	285.25
291.141	265.25
291.371	276.25
291.602	268.25
291.833	263.25
292.064	262.25
292.295	277.25
292.526	264.25
292.757	276.25
292.987	273.25
293.218	260.25
293.449	268.25
293.68	259.25
293.91	260.25
294.141	291.25
294.372	272.25
294.603	286.25
294.833	263.25
295.064	273.25
295.295	262.25
295.525	265.25
295.756	283.25
295.987	289.25
296.217	298.25
296.448	307.25
296.679	279.25
296.909	289.25
297.14	292.25
297.37	270.25
297.601	285.25
297.831	274.25
298.062	288.25
298.292	278.25
298.523	275.25
298.753	301.25
298.984	295.25
299.214	294.25
299.445	269.25
299.675	288.25
299.905	292.25
300.136	276.25
300.366	295.25
300.597	288.25
300.827	291.25
301.057	317.25
301.288	299.25
301.518	303.25
301.748	309.25
301.979	310.25
302.209	297.25
302.439	296.25
302.669	305.25
302.9	300.25
303.13	303.25
303.36	303.25
303.59	308.25
303.82	309.25
304.051	304.25
304.281	302.25
304.511	320.25
304.741	289.25
304.971	310.25
305.201	282.25
305.431	301.25
305.661	301.25
305.891	307.25
306.121	304.25
306.352	312.25
306.582	301.25
306.812	310.25
307.042	314.25
307.272	318.25
307.502	308.25
307.731	312.25
307.961	326.25
308.191	324.25
308.421	316.25
308.651	311.25
308.881	343.25
309.111	299.25
309.341	310.25
309.571	326.25
309.8	328.25
310.03	326.25
310.26	332.25
310.49	343.25
310.72	330.25
310.949	338.25
311.179	359.25
311.409	351.25
311.639	332.25
311.868	338.25
312.098	344.25
312.328	347.25
312.557	347.25
312.787	346.25
313.017	367.25
313.246	350.25
313.476	348.25
313.706	345.25
313.935	351.25
314.165	356.25
314.394	354.25
314.624	361.25
314.853	355.25
315.083	339.25
315.312	329.25
315.542	335.25
315.771	352.25
316.001	345.25
316.23	334.25
316.46	336.25
316.689	347.25
316.919	334.25
317.148	347.25
317.377	343.25
317.607	351.25
317.836	363.25
318.065	352.25
318.295	352.25
318.524	352.25
318.753	359.25
318.983	360.25
319.212	339.25
319.441	349.25
319.67	364.25
319.9	328.25
320.129	339.25
320.358	358.25
320.587	341.25
320.816	357.25
321.046	366.25
321.275	359.25
321.504	350.25
321.733	349.25
321.962	363.25
322.191	369.25
322.42	382.25
322.649	368.25
322.878	388.25
323.108	405.25
323.337	400.25
323.566	431.25
323.795	441.25
324.024	460.25
324.253	564.25
324.482	761.25
324.71	1147.25
324.939	1719.25
325.168	1512.25
325.397	740.25
325.626	530.25
325.855	445.25
326.084	432.25
326.313	418.25
326.542	420.25
326.77	449.25
326.999	544.25
327.228	694.25
327.457	1042.25
327.686	1300.25
327.914	865.25
328.143	568.25
328.372	521.25
328.6	485.25
328.829	466.25
329.058	477.25
329.287	469.25
329.515	471.25
329.744	449.25
329.972	408.25
330.201	444.25
330.43	471.25
330.658	484.25
330.887	499.25
331.115	504.25
331.344	463.25
331.572	432.25
331.801	435.25
332.03	429.25
332.258	438.25
332.486	405.25
332.715	419.25
332.943	413.25
333.172	410.25
333.4	411.25
333.629	426.25
333.857	419.25
334.085	430.25
334.314	450.25
334.542	467.25
334.771	489.25
334.999	451.25
335.227	440.25
335.455	439.25
335.684	427.25
335.912	414.25
336.14	414.25
336.369	445.25
336.597	403.25
336.825	413.25
337.053	398.25
337.281	436.25
337.51	404.25
337.738	408.25
337.966	424.25
338.194	425.25
338.422	407.25
338.65	398.25
338.878	406.25
339.106	392.25
339.334	397.25
339.562	411.25
339.79	391.25
340.018	424.25
340.246	386.25
340.474	388.25
340.702	410.25
340.93	402.25
341.158	392.25
341.386	404.25
341.614	389.25
341.842	397.25
342.07	395.25
342.298	388.25
342.526	386.25
342.754	400.25
342.981	384.25
343.209	389.25
343.437	396.25
343.665	382.25
343.893	391.25
344.12	416.25
344.348	419.25
344.576	444.25
344.804	406.25
345.031	413.25
345.259	414.25
345.487	415.25
345.714	405.25
345.942	422.25
346.17	384.25
346.397	380.25
346.625	384.25
346.853	400.25
347.08	404.25
347.308	381.25
347.535	400.25
347.763	392.25
347.99	409.25
348.218	390.25
348.445	392.25
348.673	408.25
348.9	378.25
349.128	386.25
349.355	385.25
349.583	387.25
349.81	362.25
350.037	382.25
350.265	372.25
350.492	395.25
350.72	380.25
350.947	385.25
351.174	398.25
351.402	406.25
351.629	400.25
351.856	405.25
352.083	392.25
352.311	404.25
352.538	401.25
352.765	405.25
352.992	389.25
353.22	385.25
353.447	380.25
353.674	380.25
353.901	376.25
354.128	370.25
354.355	381.25
354.583	367.25
354.81	378.25
355.037	374.25
355.264	381.25
355.491	366.25
355.718	380.25
355.945	378.25
356.172	373.25
356.399	385.25
356.626	358.25
356.853	377.25
357.08	375.25
357.307	377.25
357.534	366.25
357.761	366.25
357.988	379.25
358.215	366.25
358.441	390.25
358.668	363.25
358.895	358.25
359.122	377.25
359.349	386.25
359.576	394.25
359.802	414.25
360.029	412.25
360.256	430.25
360.483	420.25
360.709	395.25
360.936	410.25
361.163	389.25
361.39	386.25
361.616	406.25
361.843	398.25
362.07	397.25
362.296	391.25
362.523	400.25
362.749	402.25
362.976	383.25
363.203	404.25
363.429	392.25
363.656	404.25
363.882	381.25
364.109	398.25
364.335	394.25
364.562	371.25
364.788	372.25
365.015	383.25
365.241	399.25
365.468	401.25
365.694	408.25
365.92	401.25
366.147	390.25
366.373	373.25
366.599	383.25
366.826	382.25
367.052	390.25
367.278	363.25
367.505	396.25
367.731	381.25
367.957	392.25
368.184	392.25
368.41	383.25
368.636	406.25
368.862	390.25
369.089	425.25
369.315	365.25
369.541	388.25
369.767	388.25
369.993	383.25
370.219	391.25
370.445	383.25
370.672	397.25
370.898	386.25
371.124	414.25
371.35	399.25
371.576	363.25
371.802	392.25
372.028	406.25
372.254	395.25
372.48	399.25
372.706	407.25
372.932	401.25
373.158	400.25
373.384	409.25
373.61	415.25
373.835	394.25
374.061	403.25
374.287	390.25
374.513	406.25
374.739	413.25
374.965	403.25
375.191	419.25
375.416	404.25
375.642	420.25
375.868	416.25
376.094	382.25
376.319	413.25
376.545	399.25
376.771	392.25
376.997	379.25
377.222	410.25
377.448	420.25
377.674	404.25
377.899	407.25
378.125	396.25
378.35	386.25
378.576	401.25
378.802	399.25
379.027	389.25
379.253	401.25
379.478	394.25
379.704	390.25
379.929	395.25
380.155	398.25
380.38	414.25
380.606	406.25
380.831	403.25
381.057	410.25
381.282	404.25
381.507	411.25
381.733	416.25
381.958	407.25
382.184	398.25
382.409	431.25
382.634	407.25
382.86	418.25
383.085	405.25
383.31	406.25
383.535	423.25
383.761	435.25
383.986	426.25
384.211	424.25
384.436	428.25
384.662	418.25
384.887	427.25
385.112	452.25
385.337	456.25
385.562	427.25
385.787	430.25
386.013	468.25
386.238	442.25
386.463	451.25
386.688	432.25
386.913	426.25
387.138	446.25
387.363	450.25
387.588	427.25
387.813	444.25
388.038	441.25
388.263	454.25
388.488	442.25
388.713	446.25
388.938	447.25
389.163	456.25
389.387	460.25
389.612	439.25
389.837	425.25
390.062	441.25
390.287	440.25
390.512	441.25
390.736	446.25
390.961	452.25
391.186	442.25
391.411	439.25
391.636	446.25
391.86	469.25
392.085	465.25
392.31	468.25
392.534	457.25
392.759	463.25
392.984	480.25
393.208	471.25
393.433	502.25
393.658	460.25
393.882	469.25
394.107	453.25
394.331	432.25
394.556	451.25
394.78	450.25
395.005	451.25
395.229	471.25
395.454	485.25
395.678	477.25
395.903	473.25
396.127	502.25
396.352	495.25
396.576	492.25
396.801	473.25
397.025	484.25
397.249	483.25
397.474	459.25
397.698	485.25
397.922	504.25
398.147	520.25
398.371	503.25
398.595	519.25
398.82	499.25
399.044	546.25
399.268	548.25
399.492	563.25
399.717	600.25
399.941	604.25
400.165	644.25
400.389	650.25
400.613	581.25
400.837	568.25
401.062	550.25
401.286	528.25
401.51	526.25
401.734	507.25
401.958	520.25
402.182	535.25
402.406	530.25
402.63	511.25
402.854	522.25
403.078	543.25
403.302	526.25
403.526	533.25
403.75	537.25
403.974	545.25
404.198	517.25
404.422	539.25
404.645	532.25
404.869	554.25
405.093	565.25
405.317	603.25
405.541	640.25
405.765	596.25
405.988	558.25
406.212	557.25
406.436	577.25
406.66	579.25
406.883	575.25
407.107	604.25
407.331	628.25
407.555	703.25
407.778	710.25
408.002	632.25
408.226	594.25
408.449	603.25
408.673	591.25
408.896	604.25
409.12	651.25
409.344	637.25
409.567	587.25
409.791	560.25
410.014	548.25
410.238	570.25
410.461	569.25
410.685	556.25
410.908	578.25
411.132	575.25
411.355	611.25
411.578	581.25
411.802	555.25
412.025	524.25
412.249	550.25
412.472	559.25
412.695	592.25
412.919	590.25
413.142	547.25
413.365	532.25
413.589	522.25
413.812	533.25
414.035	518.25
414.258	504.25
414.482	523.25
414.705	500.25
414.928	534.25
415.151	532.25
415.374	532.25
415.597	519.25
415.821	522.25
416.044	507.25
416.267	495.25
416.49	516.25
416.713	501.25
416.936	488.25
417.159	504.25
417.382	526.25
417.605	516.25
417.828	512.25
418.051	545.25
418.274	524.25
418.497	522.25
418.72	522.25
418.943	515.25
419.166	526.25
419.389	554.25
419.611	566.25
419.834	548.25
420.057	561.25
420.28	538.25
420.503	531.25
420.726	523.25
420.948	546.25
421.171	573.25
421.394	624.25
421.617	552.25
421.839	551.25
422.062	533.25
422.285	538.25
422.507	581.25
422.73	666.25
422.953	641.25
423.175	548.25
423.398	549.25
423.621	569.25
423.843	542.25
424.066	575.25
424.288	565.25
424.511	560.25
424.733	623.25
424.956	726.25
425.178	670.25
425.401	669.25
425.623	691.25
425.846	595.25
426.068	578.25
426.291	572.25
426.513	545.25
426.735	572.25
426.958	590.25
427.18	670.25
427.402	802.25
427.625	871.25
427.847	748.25
428.069	669.25
428.292	568.25
428.514	551.25
428.736	539.25
428.958	560.25
429.181	518.25
429.403	528.25
429.625	514.25
429.847	564.25
430.069	602.25
430.292	646.25
430.514	535.25
430.736	543.25
430.958	525.25
431.18	494.25
431.402	492.25
431.624	503.25
431.846	502.25
432.068	491.25
432.29	498.25
432.512	489.25
432.734	491.25
432.956	508.25
433.178	495.25
433.4	508.25
433.622	509.25
433.844	520.25
434.066	516.25
434.287	490.25
434.509	492.25
434.731	518.25
434.953	518.25
435.175	543.25
435.397	587.25
435.618	572.25
435.84	603.25
436.062	688.25
436.284	740.25
436.505	619.25
436.727	562.25
436.949	544.25
437.17	518.25
437.392	511.25
437.614	525.25
437.835	550.25
438.057	630.25
438.278	744.25
438.5	741.25
438.721	800.25
438.943	768.25
439.165	646.25
439.386	566.25
439.608	578.25
439.829	563.25
440.05	604.25
440.272	621.25
440.493	598.25
440.715	554.25
440.936	539.25
441.158	543.25
441.379	536.25
441.6	549.25
441.822	558.25
442.043	571.25
442.264	648.25
442.486	690.25
442.707	630.25
442.928	593.25
443.149	575.25
443.371	599.25
443.592	619.25
443.813	742.25
444.034	797.25
444.255	665.25
444.476	595.25
444.698	577.25
444.919	594.25
445.14	676.25
445.361	616.25
445.582	598.25
445.803	654.25
446.024	731.25
446.245	772.25
446.466	675.25
446.687	589.25
446.908	548.25
447.129	551.25
447.35	498.25
447.571	510.25
447.792	500.25
448.013	515.25
448.234	540.25
448.455	581.25
448.675	706.25
448.896	805.25
449.117	674.25
449.338	649.25
449.559	717.25
449.779	845.25
450	672.25
450.221	585.25
450.442	514.25
450.662	493.25
450.883	514.25
451.104	506.25
451.324	506.25
451.545	483.25
451.766	474.25
451.986	467.25
452.207	467.25
452.428	455.25
452.648	465.25
452.869	455.25
453.089	477.25
453.31	500.25
453.53	449.25
453.751	466.25
453.971	469.25
454.192	477.25
454.412	467.25
454.633	452.25
454.853	453.25
455.073	462.25
455.294	476.25
455.514	528.25
455.734	527.25
455.955	462.25
456.175	460.25
456.395	447.25
456.616	429.25
456.836	425.25
457.056	438.25
457.276	432.25
457.497	463.25
457.717	454.25
457.937	455.25
458.157	485.25
458.377	465.25
458.598	487.25
458.818	517.25
459.038	589.25
459.258	591.25
459.478	556.25
459.698	511.25
459.918	499.25
460.138	502.25
460.358	493.25
460.578	504.25
460.798	510.25
461.018	509.25
461.238	526.25
461.458	533.25
461.678	526.25
461.898	541.25
462.118	530.25
462.338	544.25
462.558	526.25
462.777	560.25
462.997	572.25
463.217	610.25
463.437	593.25
463.657	548.25
463.876	551.25
464.096	554.25
464.316	578.25
464.536	549.25
464.755	567.25
464.975	558.25
465.195	586.25
465.414	631.25
465.634	541.25
465.854	524.25
466.073	508.25
466.293	496.25
466.512	493.25
466.732	483.25
466.951	495.25
467.171	481.25
467.391	486.25
467.61	501.25
467.829	485.25
468.049	484.25
468.268	500.25
468.488	474.25
468.707	480.25
468.927	495.25
469.146	483.25
469.365	477.25
469.585	468.25
469.804	494.25
470.023	502.25
470.243	489.25
470.462	491.25
470.681	484.25
470.901	503.25
471.12	488.25
471.339	493.25
471.558	493.25
471.777	496.25
471.997	486.25
472.216	495.25
472.435	508.25
472.654	487.25
472.873	489.25
473.092	482.25
473.311	493.25
473.53	511.25
473.749	488.25
473.968	564.25
474.187	621.25
474.406	623.25
474.625	544.25
474.844	514.25
475.063	494.25
475.282	488.25
475.501	514.25
475.72	490.25
475.939	525.25
476.158	530.25
476.377	519.25
476.596	507.25
476.814	509.25
477.033	512.25
477.252	540.25
477.471	523.25
477.69	548.25
477.908	520.25
478.127	568.25
478.346	546.25
478.564	553.25
478.783	548.25
479.002	570.25
479.22	570.25
479.439	566.25
479.658	566.25
479.876	587.25
480.095	594.25
480.313	608.25
480.532	600.25
480.751	599.25
480.969	630.25
481.188	637.25
481.406	669.25
481.624	601.25
481.843	582.25
482.061	588.25
482.28	575.25
482.498	591.25
482.717	576.25
482.935	596.25
483.153	590.25
483.372	557.25
483.59	589.25
483.808	601.25
484.027	586.25
484.245	590.25
484.463	596.25
484.681	584.25
484.9	598.25
485.118	618.25
485.336	612.25
485.554	630.25
485.772	599.25
485.99	594.25
486.209	587.25
486.427	593.25
486.645	620.25
486.863	629.25
487.081	614.25
487.299	618.25
487.517	620.25
487.735	599.25
487.953	627.25
488.171	637.25
488.389	621.25
488.607	604.25
488.825	617.25
489.043	626.25
489.261	607.25
489.479	607.25
489.696	627.25
489.914	663.25
490.132	641.25
490.35	644.25
490.568	668.25
490.786	644.25
491.003	661.25
491.221	667.25
491.439	666.25
491.657	700.25
491.874	706.25
492.092	690.25
492.31	703.25
492.527	700.25
492.745	698.25
492.963	707.25
493.18	727.25
493.398	712.25
493.615	724.25
493.833	746.25
494.05	724.25
494.268	722.25
494.485	719.25
494.703	711.25
494.92	734.25
495.138	716.25
495.355	709.25
495.573	713.25
495.79	732.25
496.008	719.25
496.225	732.25
496.442	745.25
496.66	723.25
496.877	736.25
497.094	730.25
497.312	741.25
497.529	770.25
497.746	762.25
497.963	776.25
498.181	808.25
498.398	790.25
498.615	846.25
498.832	853.25
499.049	853.25
499.267	877.25
499.484	902.25
499.701	938.25
499.918	991.25
500.135	1012.25
500.352	1055.25
500.569	1082.25
500.786	1094.25
501.003	1063.25
501.22	1051.25
501.437	984.25
501.654	958.25
