Data from 1966.PennyLincolnUp.Lamp.En5.5.200Scan.071719.P1.Scan2.head_HRD10591_14-17-46-134.txt Node
Date: Thu Jul 18 14:17:46 EDT 2019
User: cochatt
Spectrometer: HR+D1059
Trigger mode: 1
Integration Time (sec): 1.000000E-1
Scans to average: 1
Electric dark correction enabled: true
Nonlinearity correction enabled: false
Boxcar width: 0
XAxis mode: Wavelengths
Number of Pixels in Spectrum: 2048
>>>>>Begin Spectral Data<<<<<
223.165	-1.88
223.4	-1.88
223.635	-1.88
223.869	-8.88
224.104	-10.88
224.338	-17.88
224.573	-21.88
224.808	-19.88
225.042	-4.88
225.277	-7.88
225.511	-10.88
225.746	0.12
225.98	2.12
226.215	21.12
226.449	12.12
226.683	28.12
226.918	19.12
227.152	22.12
227.387	30.12
227.621	43.12
227.856	49.12
228.09	55.12
228.324	62.12
228.559	44.12
228.793	58.12
229.027	106.12
229.262	115.12
229.496	132.12
229.73	131.12
229.964	155.12
230.199	129.12
230.433	109.12
230.667	117.12
230.901	111.12
231.136	104.12
231.37	94.12
231.604	101.12
231.838	100.12
232.072	111.12
232.306	125.12
232.541	117.12
232.775	103.12
233.009	123.12
233.243	101.12
233.477	113.12
233.711	123.12
233.945	120.12
234.179	118.12
234.413	97.12
234.647	115.12
234.881	113.12
235.115	135.12
235.349	113.12
235.583	109.12
235.817	118.12
236.051	123.12
236.285	126.12
236.519	123.12
236.753	118.12
236.987	154.12
237.221	184.12
237.455	231.12
237.689	200.12
237.922	151.12
238.156	119.12
238.39	125.12
238.624	117.12
238.858	131.12
239.091	121.12
239.325	141.12
239.559	131.12
239.793	138.12
240.027	131.12
240.26	142.12
240.494	147.12
240.728	160.12
240.961	159.12
241.195	127.12
241.429	141.12
241.662	150.12
241.896	124.12
242.13	132.12
242.363	131.12
242.597	146.12
242.83	135.12
243.064	137.12
243.298	131.12
243.531	148.12
243.765	141.12
243.998	133.12
244.232	154.12
244.465	141.12
244.699	139.12
244.932	135.12
245.166	134.12
245.399	147.12
245.633	155.12
245.866	145.12
246.099	144.12
246.333	159.12
246.566	152.12
246.8	154.12
247.033	157.12
247.266	173.12
247.5	169.12
247.733	166.12
247.966	179.12
248.2	166.12
248.433	166.12
248.666	177.12
248.899	183.12
249.133	194.12
249.366	222.12
249.599	184.12
249.832	177.12
250.066	170.12
250.299	193.12
250.532	200.12
250.765	186.12
250.998	221.12
251.231	245.12
251.465	207.12
251.698	193.12
251.931	202.12
252.164	205.12
252.397	203.12
252.63	188.12
252.863	193.12
253.096	214.12
253.329	228.12
253.562	250.12
253.795	233.12
254.028	216.12
254.261	211.12
254.494	233.12
254.727	256.12
254.96	273.12
255.193	277.12
255.426	243.12
255.659	217.12
255.892	231.12
256.124	231.12
256.357	224.12
256.59	223.12
256.823	201.12
257.056	204.12
257.289	208.12
257.521	214.12
257.754	214.12
257.987	211.12
258.22	201.12
258.452	205.12
258.685	217.12
258.918	214.12
259.151	210.12
259.383	228.12
259.616	213.12
259.849	211.12
260.081	220.12
260.314	233.12
260.547	267.12
260.779	238.12
261.012	241.12
261.244	241.12
261.477	225.12
261.71	217.12
261.942	223.12
262.175	226.12
262.407	238.12
262.64	211.12
262.872	214.12
263.105	201.12
263.337	201.12
263.57	214.12
263.802	209.12
264.035	205.12
264.267	197.12
264.499	213.12
264.732	210.12
264.964	202.12
265.197	226.12
265.429	221.12
265.661	221.12
265.894	230.12
266.126	217.12
266.358	216.12
266.591	215.12
266.823	205.12
267.055	226.12
267.287	223.12
267.52	225.12
267.752	226.12
267.984	236.12
268.216	223.12
268.448	238.12
268.681	226.12
268.913	238.12
269.145	262.12
269.377	263.12
269.609	287.12
269.841	273.12
270.073	267.12
270.306	303.12
270.538	307.12
270.77	320.12
271.002	313.12
271.234	295.12
271.466	300.12
271.698	319.12
271.93	332.12
272.162	318.12
272.394	313.12
272.626	301.12
272.858	277.12
273.09	271.12
273.322	285.12
273.553	267.12
273.785	254.12
274.017	269.12
274.249	256.12
274.481	261.12
274.713	262.12
274.945	282.12
275.176	277.12
275.408	271.12
275.64	265.12
275.872	270.12
276.104	265.12
276.335	275.12
276.567	263.12
276.799	288.12
277.031	309.12
277.262	312.12
277.494	324.12
277.726	315.12
277.957	288.12
278.189	265.12
278.421	255.12
278.652	287.12
278.884	279.12
279.115	278.12
279.347	269.12
279.579	259.12
279.81	269.12
280.042	272.12
280.273	281.12
280.505	279.12
280.736	264.12
280.968	274.12
281.199	272.12
281.431	274.12
281.662	279.12
281.894	264.12
282.125	272.12
282.356	288.12
282.588	287.12
282.819	308.12
283.051	272.12
283.282	275.12
283.513	265.12
283.745	273.12
283.976	284.12
284.207	282.12
284.439	281.12
284.67	293.12
284.901	278.12
285.132	274.12
285.364	289.12
285.595	297.12
285.826	293.12
286.057	289.12
286.288	285.12
286.52	277.12
286.751	268.12
286.982	294.12
287.213	284.12
287.444	283.12
287.675	296.12
287.906	313.12
288.138	305.12
288.369	300.12
288.6	295.12
288.831	297.12
289.062	297.12
289.293	293.12
289.524	289.12
289.755	301.12
289.986	275.12
290.217	290.12
290.448	293.12
290.679	282.12
290.91	302.12
291.141	281.12
291.371	300.12
291.602	295.12
291.833	281.12
292.064	293.12
292.295	298.12
292.526	301.12
292.757	297.12
292.987	300.12
293.218	310.12
293.449	287.12
293.68	307.12
293.91	293.12
294.141	297.12
294.372	292.12
294.603	286.12
294.833	312.12
295.064	304.12
295.295	285.12
295.525	296.12
295.756	296.12
295.987	310.12
296.217	342.12
296.448	355.12
296.679	279.12
296.909	300.12
297.14	297.12
297.37	318.12
297.601	298.12
297.831	301.12
298.062	283.12
298.292	312.12
298.523	313.12
298.753	301.12
298.984	310.12
299.214	307.12
299.445	310.12
299.675	319.12
299.905	319.12
300.136	319.12
300.366	326.12
300.597	308.12
300.827	318.12
301.057	316.12
301.288	329.12
301.518	331.12
301.748	304.12
301.979	331.12
302.209	347.12
302.439	344.12
302.669	338.12
302.9	338.12
303.13	330.12
303.36	314.12
303.59	343.12
303.82	342.12
304.051	353.12
304.281	342.12
304.511	338.12
304.741	325.12
304.971	329.12
305.201	317.12
305.431	334.12
305.661	327.12
305.891	347.12
306.121	344.12
306.352	315.12
306.582	334.12
306.812	339.12
307.042	327.12
307.272	344.12
307.502	339.12
307.731	327.12
307.961	324.12
308.191	318.12
308.421	359.12
308.651	336.12
308.881	351.12
309.111	361.12
309.341	338.12
309.571	355.12
309.8	342.12
310.03	367.12
310.26	381.12
310.49	381.12
310.72	370.12
310.949	407.12
311.179	396.12
311.409	391.12
311.639	356.12
311.868	384.12
312.098	390.12
312.328	397.12
312.557	405.12
312.787	404.12
313.017	400.12
313.246	424.12
313.476	376.12
313.706	380.12
313.935	374.12
314.165	389.12
314.394	386.12
314.624	393.12
314.853	393.12
315.083	372.12
315.312	393.12
315.542	379.12
315.771	390.12
316.001	385.12
316.23	373.12
316.46	375.12
316.689	371.12
316.919	377.12
317.148	378.12
317.377	381.12
317.607	370.12
317.836	394.12
318.065	383.12
318.295	366.12
318.524	387.12
318.753	399.12
318.983	357.12
319.212	374.12
319.441	383.12
319.67	390.12
319.9	396.12
320.129	390.12
320.358	397.12
320.587	393.12
320.816	393.12
321.046	392.12
321.275	399.12
321.504	403.12
321.733	408.12
321.962	418.12
322.191	419.12
322.42	425.12
322.649	437.12
322.878	425.12
323.108	430.12
323.337	464.12
323.566	480.12
323.795	515.12
324.024	560.12
324.253	636.12
324.482	908.12
324.71	1422.12
324.939	2138.12
325.168	1882.12
325.397	945.12
325.626	619.12
325.855	523.12
326.084	531.12
326.313	488.12
326.542	503.12
326.77	559.12
326.999	613.12
327.228	856.12
327.457	1297.12
327.686	1618.12
327.914	1068.12
328.143	701.12
328.372	595.12
328.6	546.12
328.829	546.12
329.058	550.12
329.287	568.12
329.515	517.12
329.744	492.12
329.972	503.12
330.201	522.12
330.43	546.12
330.658	585.12
330.887	607.12
331.115	584.12
331.344	525.12
331.572	490.12
331.801	498.12
332.03	493.12
332.258	474.12
332.486	445.12
332.715	459.12
332.943	469.12
333.172	449.12
333.4	459.12
333.629	466.12
333.857	484.12
334.085	511.12
334.314	527.12
334.542	535.12
334.771	561.12
334.999	515.12
335.227	475.12
335.455	478.12
335.684	471.12
335.912	465.12
336.14	437.12
336.369	459.12
336.597	459.12
336.825	444.12
337.053	455.12
337.281	465.12
337.51	437.12
337.738	455.12
337.966	454.12
338.194	456.12
338.422	445.12
338.65	428.12
338.878	437.12
339.106	435.12
339.334	438.12
339.562	436.12
339.79	445.12
340.018	446.12
340.246	445.12
340.474	445.12
340.702	469.12
340.93	431.12
341.158	426.12
341.386	434.12
341.614	434.12
341.842	447.12
342.07	434.12
342.298	430.12
342.526	425.12
342.754	442.12
342.981	413.12
343.209	417.12
343.437	434.12
343.665	444.12
343.893	467.12
344.12	479.12
344.348	446.12
344.576	447.12
344.804	471.12
345.031	468.12
345.259	475.12
345.487	468.12
345.714	451.12
345.942	433.12
346.17	457.12
346.397	419.12
346.625	423.12
346.853	457.12
347.08	418.12
347.308	449.12
347.535	410.12
347.763	464.12
347.99	444.12
348.218	442.12
348.445	438.12
348.673	445.12
348.9	433.12
349.128	415.12
349.355	424.12
349.583	398.12
349.81	439.12
350.037	413.12
350.265	414.12
350.492	412.12
350.72	426.12
350.947	418.12
351.174	431.12
351.402	457.12
351.629	445.12
351.856	438.12
352.083	445.12
352.311	446.12
352.538	450.12
352.765	461.12
352.992	448.12
353.22	436.12
353.447	452.12
353.674	418.12
353.901	419.12
354.128	415.12
354.355	394.12
354.583	393.12
354.81	418.12
355.037	405.12
355.264	409.12
355.491	396.12
355.718	407.12
355.945	402.12
356.172	429.12
356.399	403.12
356.626	403.12
356.853	407.12
357.08	395.12
357.307	383.12
357.534	406.12
357.761	414.12
357.988	406.12
358.215	393.12
358.441	405.12
358.668	396.12
358.895	418.12
359.122	428.12
359.349	407.12
359.576	418.12
359.802	441.12
360.029	482.12
360.256	484.12
360.483	469.12
360.709	451.12
360.936	445.12
361.163	435.12
361.39	428.12
361.616	433.12
361.843	431.12
362.07	435.12
362.296	426.12
362.523	426.12
362.749	410.12
362.976	450.12
363.203	419.12
363.429	412.12
363.656	403.12
363.882	410.12
364.109	420.12
364.335	435.12
364.562	426.12
364.788	423.12
365.015	414.12
365.241	432.12
365.468	435.12
365.694	420.12
365.92	432.12
366.147	411.12
366.373	428.12
366.599	417.12
366.826	422.12
367.052	404.12
367.278	438.12
367.505	411.12
367.731	423.12
367.957	435.12
368.184	417.12
368.41	430.12
368.636	442.12
368.862	443.12
369.089	426.12
369.315	416.12
369.541	438.12
369.767	395.12
369.993	430.12
370.219	431.12
370.445	436.12
370.672	407.12
370.898	405.12
371.124	420.12
371.35	436.12
371.576	418.12
371.802	434.12
372.028	419.12
372.254	411.12
372.48	435.12
372.706	440.12
372.932	439.12
373.158	429.12
373.384	453.12
373.61	424.12
373.835	422.12
374.061	445.12
374.287	431.12
374.513	444.12
374.739	450.12
374.965	465.12
375.191	438.12
375.416	443.12
375.642	446.12
375.868	437.12
376.094	460.12
376.319	435.12
376.545	431.12
376.771	439.12
376.997	419.12
377.222	422.12
377.448	428.12
377.674	430.12
377.899	426.12
378.125	418.12
378.35	428.12
378.576	433.12
378.802	414.12
379.027	437.12
379.253	419.12
379.478	430.12
379.704	428.12
379.929	424.12
380.155	437.12
380.38	423.12
380.606	432.12
380.831	422.12
381.057	435.12
381.282	442.12
381.507	439.12
381.733	436.12
381.958	445.12
382.184	438.12
382.409	447.12
382.634	437.12
382.86	454.12
383.085	455.12
383.31	442.12
383.535	461.12
383.761	448.12
383.986	451.12
384.211	451.12
384.436	477.12
384.662	459.12
384.887	486.12
385.112	471.12
385.337	471.12
385.562	481.12
385.787	485.12
386.013	478.12
386.238	494.12
386.463	473.12
386.688	498.12
386.913	473.12
387.138	470.12
387.363	489.12
387.588	481.12
387.813	504.12
388.038	493.12
388.263	467.12
388.488	479.12
388.713	476.12
388.938	486.12
389.163	500.12
389.387	497.12
389.612	463.12
389.837	484.12
390.062	463.12
390.287	462.12
390.512	499.12
390.736	487.12
390.961	471.12
391.186	492.12
391.411	491.12
391.636	484.12
391.86	494.12
392.085	519.12
392.31	513.12
392.534	490.12
392.759	484.12
392.984	506.12
393.208	474.12
393.433	483.12
393.658	502.12
393.882	489.12
394.107	506.12
394.331	502.12
394.556	499.12
394.78	490.12
395.005	469.12
395.229	500.12
395.454	507.12
395.678	511.12
395.903	523.12
396.127	537.12
396.352	532.12
396.576	510.12
396.801	520.12
397.025	509.12
397.249	521.12
397.474	501.12
397.698	536.12
397.922	533.12
398.147	562.12
398.371	548.12
398.595	569.12
398.82	559.12
399.044	580.12
399.268	595.12
399.492	606.12
399.717	644.12
399.941	657.12
400.165	701.12
400.389	709.12
400.613	635.12
400.837	582.12
401.062	567.12
401.286	558.12
401.51	541.12
401.734	560.12
401.958	563.12
402.182	558.12
402.406	577.12
402.63	574.12
402.854	565.12
403.078	574.12
403.302	587.12
403.526	604.12
403.75	593.12
403.974	607.12
404.198	576.12
404.422	588.12
404.645	602.12
404.869	609.12
405.093	636.12
405.317	661.12
405.541	692.12
405.765	654.12
405.988	615.12
406.212	620.12
406.436	619.12
406.66	622.12
406.883	629.12
407.107	659.12
407.331	710.12
407.555	761.12
407.778	767.12
408.002	705.12
408.226	675.12
408.449	652.12
408.673	647.12
408.896	642.12
409.12	713.12
409.344	667.12
409.567	594.12
409.791	604.12
410.014	582.12
410.238	554.12
410.461	581.12
410.685	590.12
410.908	605.12
411.132	632.12
411.355	677.12
411.578	645.12
411.802	600.12
412.025	618.12
412.249	577.12
412.472	620.12
412.695	663.12
412.919	658.12
413.142	617.12
413.365	582.12
413.589	554.12
413.812	558.12
414.035	555.12
414.258	571.12
414.482	543.12
414.705	541.12
414.928	555.12
415.151	566.12
415.374	531.12
415.597	529.12
415.821	548.12
416.044	558.12
416.267	573.12
416.49	544.12
416.713	565.12
416.936	557.12
417.159	557.12
417.382	561.12
417.605	551.12
417.828	553.12
418.051	581.12
418.274	604.12
418.497	562.12
418.72	557.12
418.943	570.12
419.166	574.12
419.389	599.12
419.611	605.12
419.834	598.12
420.057	589.12
420.28	602.12
420.503	574.12
420.726	579.12
420.948	582.12
421.171	626.12
421.394	654.12
421.617	600.12
421.839	582.12
422.062	589.12
422.285	572.12
422.507	638.12
422.73	726.12
422.953	702.12
423.175	610.12
423.398	597.12
423.621	623.12
423.843	622.12
424.066	612.12
424.288	663.12
424.511	630.12
424.733	700.12
424.956	773.12
425.178	747.12
425.401	747.12
425.623	755.12
425.846	670.12
426.068	618.12
426.291	622.12
426.513	611.12
426.735	634.12
426.958	667.12
427.18	737.12
427.402	870.12
427.625	961.12
427.847	844.12
428.069	745.12
428.292	660.12
428.514	621.12
428.736	585.12
428.958	596.12
429.181	570.12
429.403	579.12
429.625	583.12
429.847	606.12
430.069	656.12
430.292	644.12
430.514	579.12
430.736	577.12
430.958	555.12
431.18	552.12
431.402	553.12
431.624	536.12
431.846	549.12
432.068	548.12
432.29	547.12
432.512	548.12
432.734	551.12
432.956	558.12
433.178	554.12
433.4	548.12
433.622	541.12
433.844	545.12
434.066	525.12
434.287	545.12
434.509	545.12
434.731	548.12
434.953	537.12
435.175	574.12
435.397	607.12
435.618	634.12
435.84	631.12
436.062	763.12
436.284	831.12
436.505	692.12
436.727	629.12
436.949	566.12
437.17	565.12
437.392	580.12
437.614	600.12
437.835	623.12
438.057	738.12
438.278	843.12
438.5	847.12
438.721	901.12
438.943	867.12
439.165	684.12
439.386	627.12
439.608	622.12
439.829	620.12
440.05	648.12
440.272	698.12
440.493	648.12
440.715	613.12
440.936	559.12
441.158	577.12
441.379	532.12
441.6	606.12
441.822	600.12
442.043	641.12
442.264	723.12
442.486	793.12
442.707	672.12
442.928	619.12
443.149	646.12
443.371	655.12
443.592	704.12
443.813	789.12
444.034	894.12
444.255	742.12
444.476	678.12
444.698	627.12
444.919	615.12
445.14	716.12
445.361	659.12
445.582	693.12
445.803	727.12
446.024	820.12
446.245	853.12
446.466	773.12
446.687	677.12
446.908	612.12
447.129	603.12
447.35	585.12
447.571	569.12
447.792	554.12
448.013	566.12
448.234	615.12
448.455	634.12
448.675	747.12
448.896	905.12
449.117	772.12
449.338	702.12
449.559	812.12
449.779	907.12
450	736.12
450.221	604.12
450.442	565.12
450.662	569.12
450.883	554.12
451.104	556.12
451.324	568.12
451.545	535.12
451.766	542.12
451.986	518.12
452.207	486.12
452.428	512.12
452.648	486.12
452.869	521.12
453.089	545.12
453.31	523.12
453.53	516.12
453.751	492.12
453.971	499.12
454.192	530.12
454.412	526.12
454.633	501.12
454.853	508.12
455.073	505.12
455.294	543.12
455.514	604.12
455.734	588.12
455.955	503.12
456.175	478.12
456.395	494.12
456.616	484.12
456.836	486.12
457.056	494.12
457.276	478.12
457.497	482.12
457.717	484.12
457.937	491.12
458.157	513.12
458.377	497.12
458.598	514.12
458.818	582.12
459.038	678.12
459.258	677.12
459.478	594.12
459.698	553.12
459.918	547.12
460.138	564.12
460.358	566.12
460.578	589.12
460.798	564.12
461.018	562.12
461.238	554.12
461.458	543.12
461.678	556.12
461.898	578.12
462.118	544.12
462.338	589.12
462.558	584.12
462.777	586.12
462.997	617.12
463.217	643.12
463.437	621.12
463.657	613.12
463.876	618.12
464.096	613.12
464.316	603.12
464.536	601.12
464.755	589.12
464.975	612.12
465.195	606.12
465.414	698.12
465.634	613.12
465.854	569.12
466.073	579.12
466.293	548.12
466.512	523.12
466.732	542.12
466.951	550.12
467.171	503.12
467.391	509.12
467.61	535.12
467.829	545.12
468.049	522.12
468.268	531.12
468.488	489.12
468.707	504.12
468.927	527.12
469.146	495.12
469.365	523.12
469.585	514.12
469.804	539.12
470.023	535.12
470.243	541.12
470.462	544.12
470.681	558.12
470.901	559.12
471.12	536.12
471.339	522.12
471.558	535.12
471.777	519.12
471.997	534.12
472.216	537.12
472.435	584.12
472.654	545.12
472.873	523.12
473.092	554.12
473.311	527.12
473.53	546.12
473.749	528.12
473.968	578.12
474.187	707.12
474.406	709.12
474.625	606.12
474.844	559.12
475.063	544.12
475.282	550.12
475.501	553.12
475.72	552.12
475.939	552.12
476.158	544.12
476.377	562.12
476.596	552.12
476.814	547.12
477.033	549.12
477.252	551.12
477.471	582.12
477.69	583.12
477.908	590.12
478.127	590.12
478.346	588.12
478.564	593.12
478.783	614.12
479.002	607.12
479.22	619.12
479.439	635.12
479.658	634.12
479.876	659.12
480.095	666.12
480.313	684.12
480.532	673.12
480.751	652.12
480.969	663.12
481.188	728.12
481.406	745.12
481.624	656.12
481.843	664.12
482.061	646.12
482.28	637.12
482.498	650.12
482.717	642.12
482.935	648.12
483.153	626.12
483.372	626.12
483.59	627.12
483.808	642.12
484.027	625.12
484.245	641.12
484.463	625.12
484.681	638.12
484.9	647.12
485.118	641.12
485.336	643.12
485.554	670.12
485.772	623.12
485.99	632.12
486.209	657.12
486.427	657.12
486.645	679.12
486.863	704.12
487.081	673.12
487.299	665.12
487.517	673.12
487.735	669.12
487.953	692.12
488.171	656.12
488.389	674.12
488.607	675.12
488.825	684.12
489.043	673.12
489.261	685.12
489.479	683.12
489.696	673.12
489.914	695.12
490.132	695.12
490.35	703.12
490.568	729.12
490.786	716.12
491.003	697.12
491.221	750.12
491.439	739.12
491.657	756.12
491.874	784.12
492.092	795.12
492.31	791.12
492.527	755.12
492.745	764.12
492.963	781.12
493.18	781.12
493.398	793.12
493.615	784.12
493.833	782.12
494.05	808.12
494.268	810.12
494.485	783.12
494.703	779.12
494.92	782.12
495.138	797.12
495.355	810.12
495.573	786.12
495.79	771.12
496.008	787.12
496.225	801.12
496.442	807.12
496.66	827.12
496.877	815.12
497.094	829.12
497.312	796.12
497.529	808.12
497.746	865.12
497.963	844.12
498.181	866.12
498.398	865.12
498.615	896.12
498.832	928.12
499.049	953.12
499.267	933.12
499.484	996.12
499.701	1037.12
499.918	1034.12
500.135	1097.12
500.352	1147.12
500.569	1180.12
500.786	1175.12
501.003	1161.12
501.22	1151.12
501.437	1114.12
501.654	1050.12
