Data from 1966.PennyLincolnUp.Lamp.En5.5.200Scan.071719.P1.Scan2.head_HRD10591_14-18-45-213.txt Node
Date: Thu Jul 18 14:18:45 EDT 2019
User: cochatt
Spectrometer: HR+D1059
Trigger mode: 1
Integration Time (sec): 1.000000E-1
Scans to average: 1
Electric dark correction enabled: true
Nonlinearity correction enabled: false
Boxcar width: 0
XAxis mode: Wavelengths
Number of Pixels in Spectrum: 2048
>>>>>Begin Spectral Data<<<<<
223.165	-17.75
223.4	-17.75
223.635	-17.75
223.869	-13.75
224.104	-10.75
224.338	-9.75
224.573	-10.75
224.808	-12.75
225.042	-2.75
225.277	-6.75
225.511	-8.75
225.746	-3.75
225.98	13.25
226.215	15.25
226.449	11.25
226.683	13.25
226.918	23.25
227.152	21.25
227.387	38.25
227.621	42.25
227.856	43.25
228.09	51.25
228.324	50.25
228.559	75.25
228.793	60.25
229.027	91.25
229.262	101.25
229.496	126.25
229.73	137.25
229.964	164.25
230.199	122.25
230.433	117.25
230.667	116.25
230.901	119.25
231.136	109.25
231.37	120.25
231.604	127.25
231.838	103.25
232.072	118.25
232.306	117.25
232.541	100.25
232.775	125.25
233.009	116.25
233.243	115.25
233.477	119.25
233.711	120.25
233.945	127.25
234.179	119.25
234.413	119.25
234.647	120.25
234.881	127.25
235.115	105.25
235.349	126.25
235.583	132.25
235.817	130.25
236.051	139.25
236.285	123.25
236.519	119.25
236.753	128.25
236.987	156.25
237.221	202.25
237.455	243.25
237.689	178.25
237.922	148.25
238.156	125.25
238.39	132.25
238.624	136.25
238.858	136.25
239.091	138.25
239.325	118.25
239.559	125.25
239.793	137.25
240.027	131.25
240.26	141.25
240.494	156.25
240.728	150.25
240.961	152.25
241.195	145.25
241.429	162.25
241.662	148.25
241.896	141.25
242.13	151.25
242.363	130.25
242.597	143.25
242.83	142.25
243.064	141.25
243.298	136.25
243.531	158.25
243.765	145.25
243.998	136.25
244.232	148.25
244.465	159.25
244.699	147.25
244.932	151.25
245.166	138.25
245.399	161.25
245.633	161.25
245.866	148.25
246.099	156.25
246.333	164.25
246.566	150.25
246.8	163.25
247.033	157.25
247.266	160.25
247.5	164.25
247.733	177.25
247.966	185.25
248.2	184.25
248.433	162.25
248.666	186.25
248.899	202.25
249.133	207.25
249.366	232.25
249.599	205.25
249.832	170.25
250.066	178.25
250.299	194.25
250.532	209.25
250.765	219.25
250.998	224.25
251.231	255.25
251.465	220.25
251.698	219.25
251.931	195.25
252.164	211.25
252.397	198.25
252.63	214.25
252.863	201.25
253.096	231.25
253.329	235.25
253.562	236.25
253.795	207.25
254.028	225.25
254.261	235.25
254.494	237.25
254.727	256.25
254.96	283.25
255.193	284.25
255.426	267.25
255.659	239.25
255.892	254.25
256.124	247.25
256.357	256.25
256.59	230.25
256.823	222.25
257.056	219.25
257.289	213.25
257.521	206.25
257.754	221.25
257.987	204.25
258.22	207.25
258.452	229.25
258.685	210.25
258.918	216.25
259.151	197.25
259.383	230.25
259.616	238.25
259.849	230.25
260.081	244.25
260.314	258.25
260.547	268.25
260.779	263.25
261.012	252.25
261.244	245.25
261.477	229.25
261.71	227.25
261.942	231.25
262.175	235.25
262.407	242.25
262.64	206.25
262.872	232.25
263.105	224.25
263.337	226.25
263.57	223.25
263.802	233.25
264.035	228.25
264.267	218.25
264.499	210.25
264.732	228.25
264.964	216.25
265.197	221.25
265.429	230.25
265.661	231.25
265.894	227.25
266.126	215.25
266.358	236.25
266.591	219.25
266.823	237.25
267.055	258.25
267.287	235.25
267.52	236.25
267.752	220.25
267.984	230.25
268.216	236.25
268.448	240.25
268.681	229.25
268.913	244.25
269.145	271.25
269.377	298.25
269.609	292.25
269.841	268.25
270.073	271.25
270.306	299.25
270.538	318.25
270.77	327.25
271.002	306.25
271.234	298.25
271.466	300.25
271.698	318.25
271.93	322.25
272.162	324.25
272.394	315.25
272.626	316.25
272.858	306.25
273.09	299.25
273.322	272.25
273.553	280.25
273.785	263.25
274.017	278.25
274.249	279.25
274.481	280.25
274.713	281.25
274.945	280.25
275.176	271.25
275.408	288.25
275.64	276.25
275.872	274.25
276.104	275.25
276.335	267.25
276.567	285.25
276.799	304.25
277.031	291.25
277.262	327.25
277.494	321.25
277.726	310.25
277.957	307.25
278.189	280.25
278.421	290.25
278.652	268.25
278.884	283.25
279.115	288.25
279.347	302.25
279.579	279.25
279.81	286.25
280.042	279.25
280.273	286.25
280.505	254.25
280.736	288.25
280.968	284.25
281.199	280.25
281.431	278.25
281.662	283.25
281.894	288.25
282.125	299.25
282.356	290.25
282.588	321.25
282.819	305.25
283.051	279.25
283.282	292.25
283.513	308.25
283.745	291.25
283.976	302.25
284.207	303.25
284.439	306.25
284.67	283.25
284.901	273.25
285.132	307.25
285.364	292.25
285.595	291.25
285.826	279.25
286.057	290.25
286.288	297.25
286.52	281.25
286.751	299.25
286.982	284.25
287.213	311.25
287.444	295.25
287.675	308.25
287.906	301.25
288.138	319.25
288.369	334.25
288.6	324.25
288.831	310.25
289.062	307.25
289.293	316.25
289.524	310.25
289.755	301.25
289.986	305.25
290.217	306.25
290.448	310.25
290.679	315.25
290.91	290.25
291.141	296.25
291.371	302.25
291.602	286.25
291.833	301.25
292.064	295.25
292.295	318.25
292.526	296.25
292.757	310.25
292.987	301.25
293.218	292.25
293.449	319.25
293.68	289.25
293.91	296.25
294.141	312.25
294.372	287.25
294.603	298.25
294.833	303.25
295.064	312.25
295.295	314.25
295.525	296.25
295.756	314.25
295.987	321.25
296.217	343.25
296.448	356.25
296.679	325.25
296.909	332.25
297.14	317.25
297.37	320.25
297.601	318.25
297.831	313.25
298.062	311.25
298.292	319.25
298.523	319.25
298.753	322.25
298.984	322.25
299.214	330.25
299.445	322.25
299.675	325.25
299.905	332.25
300.136	324.25
300.366	313.25
300.597	331.25
300.827	333.25
301.057	344.25
301.288	332.25
301.518	331.25
301.748	353.25
301.979	331.25
302.209	341.25
302.439	343.25
302.669	353.25
302.9	338.25
303.13	335.25
303.36	362.25
303.59	343.25
303.82	360.25
304.051	382.25
304.281	350.25
304.511	343.25
304.741	346.25
304.971	366.25
305.201	320.25
305.431	351.25
305.661	330.25
305.891	337.25
306.121	339.25
306.352	361.25
306.582	329.25
306.812	333.25
307.042	346.25
307.272	344.25
307.502	325.25
307.731	351.25
307.961	363.25
308.191	349.25
308.421	352.25
308.651	352.25
308.881	345.25
309.111	362.25
309.341	360.25
309.571	386.25
309.8	365.25
310.03	398.25
310.26	388.25
310.49	362.25
310.72	392.25
310.949	410.25
311.179	429.25
311.409	401.25
311.639	374.25
311.868	377.25
312.098	378.25
312.328	397.25
312.557	407.25
312.787	431.25
313.017	429.25
313.246	404.25
313.476	402.25
313.706	383.25
313.935	397.25
314.165	434.25
314.394	423.25
314.624	401.25
314.853	392.25
315.083	402.25
315.312	410.25
315.542	385.25
315.771	384.25
316.001	387.25
316.23	374.25
316.46	359.25
316.689	401.25
316.919	398.25
317.148	400.25
317.377	398.25
317.607	395.25
317.836	405.25
318.065	404.25
318.295	400.25
318.524	378.25
318.753	365.25
318.983	388.25
319.212	367.25
319.441	379.25
319.67	419.25
319.9	418.25
320.129	390.25
320.358	396.25
320.587	386.25
320.816	400.25
321.046	424.25
321.275	429.25
321.504	400.25
321.733	430.25
321.962	416.25
322.191	434.25
322.42	427.25
322.649	444.25
322.878	480.25
323.108	449.25
323.337	487.25
323.566	520.25
323.795	548.25
324.024	584.25
324.253	693.25
324.482	1001.25
324.71	1569.25
324.939	2361.25
325.168	2071.25
325.397	1009.25
325.626	655.25
325.855	589.25
326.084	513.25
326.313	507.25
326.542	536.25
326.77	598.25
326.999	682.25
327.228	894.25
327.457	1423.25
327.686	1766.25
327.914	1130.25
328.143	731.25
328.372	662.25
328.6	611.25
328.829	563.25
329.058	589.25
329.287	594.25
329.515	558.25
329.744	528.25
329.972	538.25
330.201	575.25
330.43	587.25
330.658	606.25
330.887	622.25
331.115	629.25
331.344	546.25
331.572	527.25
331.801	518.25
332.03	502.25
332.258	491.25
332.486	461.25
332.715	484.25
332.943	488.25
333.172	515.25
333.4	483.25
333.629	495.25
333.857	509.25
334.085	526.25
334.314	541.25
334.542	559.25
334.771	604.25
334.999	530.25
335.227	518.25
335.455	494.25
335.684	495.25
335.912	494.25
336.14	489.25
336.369	488.25
336.597	479.25
336.825	481.25
337.053	472.25
337.281	476.25
337.51	443.25
337.738	474.25
337.966	464.25
338.194	483.25
338.422	472.25
338.65	466.25
338.878	471.25
339.106	447.25
339.334	454.25
339.562	461.25
339.79	450.25
340.018	461.25
340.246	470.25
340.474	454.25
340.702	463.25
340.93	462.25
341.158	471.25
341.386	459.25
341.614	472.25
341.842	468.25
342.07	442.25
342.298	464.25
342.526	463.25
342.754	441.25
342.981	448.25
343.209	422.25
343.437	446.25
343.665	450.25
343.893	458.25
344.12	485.25
344.348	471.25
344.576	473.25
344.804	475.25
345.031	482.25
345.259	474.25
345.487	451.25
345.714	462.25
345.942	448.25
346.17	469.25
346.397	448.25
346.625	453.25
346.853	441.25
347.08	437.25
347.308	455.25
347.535	460.25
347.763	445.25
347.99	451.25
348.218	457.25
348.445	442.25
348.673	456.25
348.9	454.25
349.128	427.25
349.355	472.25
349.583	435.25
349.81	440.25
350.037	437.25
350.265	434.25
350.492	436.25
350.72	452.25
350.947	433.25
351.174	444.25
351.402	453.25
351.629	450.25
351.856	440.25
352.083	467.25
352.311	475.25
352.538	474.25
352.765	466.25
352.992	458.25
353.22	446.25
353.447	459.25
353.674	468.25
353.901	434.25
354.128	446.25
354.355	418.25
354.583	412.25
354.81	405.25
355.037	422.25
355.264	408.25
355.491	423.25
355.718	403.25
355.945	416.25
356.172	417.25
356.399	432.25
356.626	431.25
356.853	424.25
357.08	413.25
357.307	418.25
357.534	406.25
357.761	425.25
357.988	420.25
358.215	440.25
358.441	419.25
358.668	423.25
358.895	434.25
359.122	401.25
359.349	432.25
359.576	467.25
359.802	459.25
360.029	488.25
360.256	508.25
360.483	503.25
360.709	460.25
360.936	452.25
361.163	440.25
361.39	444.25
361.616	456.25
361.843	424.25
362.07	439.25
362.296	440.25
362.523	455.25
362.749	449.25
362.976	445.25
363.203	445.25
363.429	438.25
363.656	436.25
363.882	450.25
364.109	446.25
364.335	414.25
364.562	441.25
364.788	431.25
365.015	446.25
365.241	416.25
365.468	447.25
365.694	439.25
365.92	444.25
366.147	425.25
366.373	430.25
366.599	420.25
366.826	432.25
367.052	427.25
367.278	423.25
367.505	445.25
367.731	442.25
367.957	423.25
368.184	434.25
368.41	436.25
368.636	462.25
368.862	486.25
369.089	451.25
369.315	438.25
369.541	434.25
369.767	429.25
369.993	422.25
370.219	461.25
370.445	447.25
370.672	429.25
370.898	457.25
371.124	454.25
371.35	445.25
371.576	419.25
371.802	427.25
372.028	442.25
372.254	441.25
372.48	447.25
372.706	458.25
372.932	454.25
373.158	448.25
373.384	463.25
373.61	450.25
373.835	444.25
374.061	443.25
374.287	457.25
374.513	447.25
374.739	457.25
374.965	449.25
375.191	449.25
375.416	451.25
375.642	451.25
375.868	461.25
376.094	430.25
376.319	423.25
376.545	438.25
376.771	454.25
376.997	447.25
377.222	441.25
377.448	429.25
377.674	423.25
377.899	423.25
378.125	456.25
378.35	436.25
378.576	442.25
378.802	425.25
379.027	444.25
379.253	458.25
379.478	466.25
379.704	436.25
379.929	453.25
380.155	435.25
380.38	444.25
380.606	460.25
380.831	445.25
381.057	452.25
381.282	466.25
381.507	443.25
381.733	455.25
381.958	452.25
382.184	463.25
382.409	441.25
382.634	484.25
382.86	464.25
383.085	468.25
383.31	458.25
383.535	461.25
383.761	473.25
383.986	472.25
384.211	461.25
384.436	479.25
384.662	458.25
384.887	481.25
385.112	475.25
385.337	475.25
385.562	499.25
385.787	523.25
386.013	494.25
386.238	476.25
386.463	491.25
386.688	515.25
386.913	484.25
387.138	510.25
387.363	497.25
387.588	494.25
387.813	494.25
388.038	486.25
388.263	479.25
388.488	497.25
388.713	509.25
388.938	498.25
389.163	500.25
389.387	495.25
389.612	491.25
389.837	487.25
390.062	488.25
390.287	501.25
390.512	472.25
390.736	483.25
390.961	486.25
391.186	520.25
391.411	518.25
391.636	503.25
391.86	512.25
392.085	506.25
392.31	512.25
392.534	504.25
392.759	509.25
392.984	499.25
393.208	506.25
393.433	506.25
393.658	498.25
393.882	494.25
394.107	510.25
394.331	507.25
394.556	519.25
394.78	515.25
395.005	516.25
395.229	512.25
395.454	511.25
395.678	520.25
395.903	527.25
396.127	554.25
396.352	552.25
396.576	543.25
396.801	518.25
397.025	524.25
397.249	526.25
397.474	547.25
397.698	534.25
397.922	570.25
398.147	587.25
398.371	562.25
398.595	569.25
398.82	567.25
399.044	548.25
399.268	597.25
399.492	622.25
399.717	654.25
399.941	690.25
400.165	715.25
400.389	716.25
400.613	644.25
400.837	616.25
401.062	613.25
401.286	605.25
401.51	573.25
401.734	571.25
401.958	586.25
402.182	588.25
402.406	569.25
402.63	587.25
402.854	577.25
403.078	566.25
403.302	591.25
403.526	590.25
403.75	590.25
403.974	604.25
404.198	600.25
404.422	598.25
404.645	591.25
404.869	623.25
405.093	641.25
405.317	679.25
405.541	730.25
405.765	671.25
405.988	616.25
406.212	627.25
406.436	652.25
406.66	683.25
406.883	671.25
407.107	670.25
407.331	738.25
407.555	790.25
407.778	776.25
408.002	723.25
408.226	660.25
408.449	648.25
408.673	658.25
408.896	698.25
409.12	742.25
409.344	692.25
409.567	622.25
409.791	600.25
410.014	606.25
410.238	598.25
410.461	603.25
410.685	624.25
410.908	633.25
411.132	660.25
411.355	706.25
411.578	647.25
411.802	607.25
412.025	602.25
412.249	600.25
412.472	636.25
412.695	661.25
412.919	662.25
413.142	612.25
413.365	620.25
413.589	630.25
413.812	572.25
414.035	574.25
414.258	587.25
414.482	571.25
414.705	570.25
414.928	551.25
415.151	584.25
415.374	568.25
415.597	581.25
415.821	552.25
416.044	544.25
416.267	582.25
416.49	579.25
416.713	568.25
416.936	551.25
417.159	570.25
417.382	565.25
417.605	581.25
417.828	597.25
418.051	597.25
418.274	604.25
418.497	568.25
418.72	575.25
418.943	555.25
419.166	583.25
419.389	620.25
419.611	642.25
419.834	608.25
420.057	610.25
420.28	624.25
420.503	600.25
420.726	588.25
420.948	605.25
421.171	642.25
421.394	691.25
421.617	638.25
421.839	591.25
422.062	607.25
422.285	599.25
422.507	657.25
422.73	738.25
422.953	735.25
423.175	658.25
423.398	631.25
423.621	621.25
423.843	644.25
424.066	639.25
424.288	616.25
424.511	674.25
424.733	721.25
424.956	815.25
425.178	762.25
425.401	774.25
425.623	783.25
425.846	692.25
426.068	652.25
426.291	645.25
426.513	645.25
426.735	634.25
426.958	700.25
427.18	793.25
427.402	934.25
427.625	1028.25
427.847	920.25
428.069	772.25
428.292	688.25
428.514	661.25
428.736	602.25
428.958	606.25
429.181	591.25
429.403	596.25
429.625	604.25
429.847	647.25
430.069	704.25
430.292	669.25
430.514	639.25
430.736	587.25
430.958	589.25
431.18	580.25
431.402	571.25
431.624	575.25
431.846	560.25
432.068	578.25
432.29	557.25
432.512	568.25
432.734	579.25
432.956	577.25
433.178	583.25
433.4	576.25
433.622	573.25
433.844	560.25
434.066	557.25
434.287	573.25
434.509	577.25
434.731	576.25
434.953	599.25
435.175	601.25
435.397	630.25
435.618	644.25
435.84	693.25
436.062	806.25
436.284	877.25
436.505	696.25
436.727	674.25
436.949	604.25
437.17	580.25
437.392	582.25
437.614	622.25
437.835	637.25
438.057	752.25
438.278	877.25
438.5	868.25
438.721	944.25
438.943	918.25
439.165	711.25
439.386	648.25
439.608	654.25
439.829	650.25
440.05	687.25
440.272	706.25
440.493	700.25
440.715	633.25
440.936	588.25
441.158	630.25
441.379	611.25
441.6	603.25
441.822	624.25
442.043	681.25
442.264	773.25
442.486	832.25
442.707	694.25
442.928	654.25
443.149	656.25
443.371	703.25
443.592	733.25
443.813	871.25
444.034	895.25
444.255	767.25
444.476	678.25
444.698	660.25
444.919	670.25
445.14	774.25
445.361	711.25
445.582	687.25
445.803	782.25
446.024	896.25
446.245	878.25
446.466	834.25
446.687	679.25
446.908	650.25
447.129	610.25
447.35	592.25
447.571	588.25
447.792	582.25
448.013	601.25
448.234	606.25
448.455	657.25
448.675	822.25
448.896	938.25
449.117	766.25
449.338	732.25
449.559	862.25
449.779	1000.25
450	768.25
450.221	648.25
450.442	582.25
450.662	586.25
450.883	582.25
451.104	596.25
451.324	574.25
451.545	575.25
451.766	551.25
451.986	526.25
452.207	534.25
452.428	521.25
452.648	519.25
452.869	515.25
453.089	542.25
453.31	567.25
453.53	542.25
453.751	530.25
453.971	516.25
454.192	555.25
454.412	540.25
454.633	521.25
454.853	516.25
455.073	518.25
455.294	546.25
455.514	642.25
455.734	599.25
455.955	522.25
456.175	524.25
456.395	503.25
456.616	496.25
456.836	499.25
457.056	484.25
457.276	473.25
457.497	490.25
457.717	481.25
457.937	518.25
458.157	501.25
458.377	522.25
458.598	551.25
458.818	600.25
459.038	687.25
459.258	704.25
459.478	615.25
459.698	566.25
459.918	564.25
460.138	550.25
460.358	559.25
460.578	575.25
460.798	591.25
461.018	579.25
461.238	574.25
461.458	596.25
461.678	571.25
461.898	556.25
462.118	606.25
462.338	592.25
462.558	592.25
462.777	592.25
462.997	633.25
463.217	634.25
463.437	640.25
463.657	616.25
463.876	595.25
464.096	607.25
464.316	595.25
464.536	639.25
464.755	630.25
464.975	598.25
465.195	642.25
465.414	718.25
465.634	660.25
465.854	618.25
466.073	596.25
466.293	564.25
466.512	568.25
466.732	541.25
466.951	553.25
467.171	546.25
467.391	569.25
467.61	558.25
467.829	558.25
468.049	552.25
468.268	552.25
468.488	535.25
468.707	532.25
468.927	528.25
469.146	500.25
469.365	534.25
469.585	536.25
469.804	506.25
470.023	555.25
470.243	541.25
470.462	569.25
470.681	618.25
470.901	559.25
471.12	559.25
471.339	552.25
471.558	558.25
471.777	555.25
471.997	552.25
472.216	539.25
472.435	597.25
472.654	568.25
472.873	558.25
473.092	550.25
473.311	551.25
473.53	568.25
473.749	563.25
473.968	589.25
474.187	718.25
474.406	760.25
474.625	609.25
474.844	577.25
475.063	566.25
475.282	570.25
475.501	560.25
475.72	548.25
475.939	546.25
476.158	564.25
476.377	570.25
476.596	570.25
476.814	583.25
477.033	597.25
477.252	600.25
477.471	594.25
477.69	581.25
477.908	600.25
478.127	606.25
478.346	606.25
478.564	622.25
478.783	637.25
479.002	637.25
479.22	635.25
479.439	639.25
479.658	651.25
479.876	662.25
480.095	644.25
480.313	707.25
480.532	717.25
480.751	685.25
480.969	684.25
481.188	774.25
481.406	800.25
481.624	702.25
481.843	692.25
482.061	664.25
482.28	675.25
482.498	658.25
482.717	653.25
482.935	663.25
483.153	630.25
483.372	652.25
483.59	643.25
483.808	651.25
484.027	655.25
484.245	654.25
484.463	676.25
484.681	686.25
484.9	688.25
485.118	670.25
485.336	683.25
485.554	682.25
485.772	675.25
485.99	645.25
486.209	697.25
486.427	699.25
486.645	695.25
486.863	707.25
487.081	741.25
487.299	680.25
487.517	710.25
487.735	676.25
487.953	712.25
488.171	702.25
488.389	708.25
488.607	720.25
488.825	702.25
489.043	703.25
489.261	711.25
489.479	709.25
489.696	739.25
489.914	696.25
490.132	731.25
490.35	742.25
490.568	740.25
490.786	771.25
491.003	741.25
491.221	789.25
491.439	759.25
491.657	778.25
491.874	780.25
492.092	791.25
492.31	799.25
492.527	798.25
492.745	826.25
492.963	808.25
493.18	800.25
493.398	814.25
493.615	831.25
493.833	844.25
494.05	838.25
494.268	826.25
494.485	836.25
494.703	843.25
494.92	846.25
495.138	822.25
495.355	853.25
495.573	837.25
495.79	833.25
496.008	853.25
496.225	827.25
496.442	828.25
496.66	832.25
496.877	837.25
497.094	858.25
497.312	842.25
497.529	843.25
497.746	860.25
497.963	876.25
498.181	922.25
498.398	874.25
498.615	942.25
498.832	934.25
499.049	944.25
499.267	997.25
499.484	1036.25
499.701	1062.25
499.918	1088.25
500.135	1135.25
500.352	1193.25
500.569	1214.25
500.786	1254.25
501.003	1202.25
501.22	1163.25
501.437	1109.25
501.654	1094.25
