Data from 1966.PennyLincolnUp.Lamp.En5.5.200Scan.071719.P1.Scan2.head_HRD10591_14-19-15-253.txt Node
Date: Thu Jul 18 14:19:15 EDT 2019
User: cochatt
Spectrometer: HR+D1059
Trigger mode: 1
Integration Time (sec): 1.000000E-1
Scans to average: 1
Electric dark correction enabled: true
Nonlinearity correction enabled: false
Boxcar width: 0
XAxis mode: Wavelengths
Number of Pixels in Spectrum: 2048
>>>>>Begin Spectral Data<<<<<
223.165	-16.5
223.4	-16.5
223.635	-16.5
223.869	-14.5
224.104	-18.5
224.338	-12.5
224.573	-10.5
224.808	-16.5
225.042	-17.5
225.277	-1.5
225.511	-7.5
225.746	8.5
225.98	3.5
226.215	10.5
226.449	29.5
226.683	7.5
226.918	24.5
227.152	31.5
227.387	40.5
227.621	41.5
227.856	51.5
228.09	41.5
228.324	30.5
228.559	48.5
228.793	60.5
229.027	104.5
229.262	93.5
229.496	123.5
229.73	128.5
229.964	170.5
230.199	129.5
230.433	108.5
230.667	119.5
230.901	111.5
231.136	117.5
231.37	122.5
231.604	121.5
231.838	113.5
232.072	103.5
232.306	117.5
232.541	139.5
232.775	109.5
233.009	116.5
233.243	119.5
233.477	126.5
233.711	116.5
233.945	128.5
234.179	110.5
234.413	111.5
234.647	134.5
234.881	115.5
235.115	122.5
235.349	116.5
235.583	110.5
235.817	127.5
236.051	135.5
236.285	135.5
236.519	131.5
236.753	150.5
236.987	159.5
237.221	180.5
237.455	251.5
237.689	193.5
237.922	147.5
238.156	135.5
238.39	139.5
238.624	143.5
238.858	133.5
239.091	137.5
239.325	127.5
239.559	121.5
239.793	129.5
240.027	150.5
240.26	133.5
240.494	157.5
240.728	164.5
240.961	155.5
241.195	141.5
241.429	153.5
241.662	145.5
241.896	156.5
242.13	144.5
242.363	129.5
242.597	142.5
242.83	149.5
243.064	148.5
243.298	130.5
243.531	145.5
243.765	141.5
243.998	138.5
244.232	125.5
244.465	128.5
244.699	157.5
244.932	149.5
245.166	156.5
245.399	149.5
245.633	143.5
245.866	135.5
246.099	151.5
246.333	166.5
246.566	151.5
246.8	163.5
247.033	157.5
247.266	158.5
247.5	167.5
247.733	175.5
247.966	196.5
248.2	186.5
248.433	175.5
248.666	179.5
248.899	193.5
249.133	201.5
249.366	220.5
249.599	189.5
249.832	188.5
250.066	188.5
250.299	191.5
250.532	221.5
250.765	215.5
250.998	220.5
251.231	230.5
251.465	223.5
251.698	219.5
251.931	214.5
252.164	203.5
252.397	191.5
252.63	192.5
252.863	202.5
253.096	217.5
253.329	233.5
253.562	238.5
253.795	226.5
254.028	222.5
254.261	230.5
254.494	215.5
254.727	276.5
254.96	290.5
255.193	275.5
255.426	254.5
255.659	253.5
255.892	219.5
256.124	227.5
256.357	232.5
256.59	215.5
256.823	225.5
257.056	212.5
257.289	228.5
257.521	207.5
257.754	225.5
257.987	220.5
258.22	218.5
258.452	217.5
258.685	232.5
258.918	232.5
259.151	212.5
259.383	232.5
259.616	245.5
259.849	248.5
260.081	233.5
260.314	250.5
260.547	249.5
260.779	276.5
261.012	222.5
261.244	243.5
261.477	228.5
261.71	228.5
261.942	221.5
262.175	246.5
262.407	250.5
262.64	238.5
262.872	220.5
263.105	199.5
263.337	219.5
263.57	219.5
263.802	214.5
264.035	213.5
264.267	220.5
264.499	231.5
264.732	245.5
264.964	211.5
265.197	218.5
265.429	224.5
265.661	224.5
265.894	198.5
266.126	225.5
266.358	221.5
266.591	220.5
266.823	235.5
267.055	227.5
267.287	236.5
267.52	226.5
267.752	212.5
267.984	222.5
268.216	241.5
268.448	235.5
268.681	245.5
268.913	251.5
269.145	280.5
269.377	301.5
269.609	281.5
269.841	272.5
270.073	288.5
270.306	301.5
270.538	327.5
270.77	345.5
271.002	326.5
271.234	298.5
271.466	313.5
271.698	327.5
271.93	312.5
272.162	310.5
272.394	337.5
272.626	329.5
272.858	311.5
273.09	285.5
273.322	277.5
273.553	278.5
273.785	263.5
274.017	279.5
274.249	302.5
274.481	265.5
274.713	257.5
274.945	279.5
275.176	286.5
275.408	287.5
275.64	286.5
275.872	264.5
276.104	283.5
276.335	272.5
276.567	290.5
276.799	292.5
277.031	315.5
277.262	326.5
277.494	327.5
277.726	299.5
277.957	286.5
278.189	293.5
278.421	278.5
278.652	280.5
278.884	280.5
279.115	263.5
279.347	285.5
279.579	283.5
279.81	282.5
280.042	279.5
280.273	288.5
280.505	277.5
280.736	287.5
280.968	288.5
281.199	271.5
281.431	277.5
281.662	279.5
281.894	285.5
282.125	296.5
282.356	303.5
282.588	317.5
282.819	318.5
283.051	311.5
283.282	270.5
283.513	283.5
283.745	284.5
283.976	299.5
284.207	296.5
284.439	311.5
284.67	288.5
284.901	292.5
285.132	274.5
285.364	307.5
285.595	290.5
285.826	273.5
286.057	279.5
286.288	274.5
286.52	267.5
286.751	290.5
286.982	279.5
287.213	282.5
287.444	301.5
287.675	309.5
287.906	309.5
288.138	332.5
288.369	333.5
288.6	333.5
288.831	323.5
289.062	298.5
289.293	304.5
289.524	304.5
289.755	312.5
289.986	287.5
290.217	291.5
290.448	327.5
290.679	293.5
290.91	295.5
291.141	291.5
291.371	286.5
291.602	297.5
291.833	294.5
292.064	301.5
292.295	299.5
292.526	312.5
292.757	317.5
292.987	296.5
293.218	314.5
293.449	296.5
293.68	300.5
293.91	292.5
294.141	296.5
294.372	299.5
294.603	292.5
294.833	307.5
295.064	297.5
295.295	323.5
295.525	301.5
295.756	313.5
295.987	323.5
296.217	336.5
296.448	355.5
296.679	328.5
296.909	312.5
297.14	293.5
297.37	303.5
297.601	288.5
297.831	305.5
298.062	324.5
298.292	327.5
298.523	318.5
298.753	317.5
298.984	317.5
299.214	307.5
299.445	346.5
299.675	317.5
299.905	321.5
300.136	332.5
300.366	329.5
300.597	337.5
300.827	338.5
301.057	338.5
301.288	337.5
301.518	337.5
301.748	317.5
301.979	340.5
302.209	322.5
302.439	347.5
302.669	341.5
302.9	347.5
303.13	341.5
303.36	327.5
303.59	341.5
303.82	348.5
304.051	335.5
304.281	329.5
304.511	328.5
304.741	348.5
304.971	329.5
305.201	337.5
305.431	344.5
305.661	345.5
305.891	321.5
306.121	342.5
306.352	331.5
306.582	341.5
306.812	352.5
307.042	336.5
307.272	329.5
307.502	320.5
307.731	367.5
307.961	341.5
308.191	331.5
308.421	350.5
308.651	351.5
308.881	362.5
309.111	354.5
309.341	344.5
309.571	373.5
309.8	374.5
310.03	403.5
310.26	394.5
310.49	394.5
310.72	383.5
310.949	387.5
311.179	405.5
311.409	383.5
311.639	397.5
311.868	397.5
312.098	375.5
312.328	388.5
312.557	420.5
312.787	409.5
313.017	423.5
313.246	405.5
313.476	391.5
313.706	390.5
313.935	390.5
314.165	420.5
314.394	400.5
314.624	420.5
314.853	407.5
315.083	411.5
315.312	389.5
315.542	378.5
315.771	388.5
316.001	363.5
316.23	377.5
316.46	393.5
316.689	406.5
316.919	389.5
317.148	395.5
317.377	396.5
317.607	405.5
317.836	400.5
318.065	399.5
318.295	401.5
318.524	385.5
318.753	409.5
318.983	405.5
319.212	393.5
319.441	388.5
319.67	421.5
319.9	396.5
320.129	387.5
320.358	394.5
320.587	407.5
320.816	418.5
321.046	402.5
321.275	405.5
321.504	411.5
321.733	419.5
321.962	432.5
322.191	451.5
322.42	447.5
322.649	457.5
322.878	461.5
323.108	476.5
323.337	484.5
323.566	493.5
323.795	547.5
324.024	572.5
324.253	695.5
324.482	993.5
324.71	1577.5
324.939	2393.5
325.168	2023.5
325.397	999.5
325.626	655.5
325.855	576.5
326.084	517.5
326.313	505.5
326.542	511.5
326.77	560.5
326.999	670.5
327.228	922.5
327.457	1420.5
327.686	1772.5
327.914	1148.5
328.143	737.5
328.372	614.5
328.6	605.5
328.829	572.5
329.058	584.5
329.287	618.5
329.515	553.5
329.744	538.5
329.972	555.5
330.201	559.5
330.43	604.5
330.658	638.5
330.887	665.5
331.115	641.5
331.344	532.5
331.572	525.5
331.801	526.5
332.03	516.5
332.258	483.5
332.486	487.5
332.715	473.5
332.943	487.5
333.172	479.5
333.4	524.5
333.629	517.5
333.857	519.5
334.085	532.5
334.314	531.5
334.542	563.5
334.771	593.5
334.999	564.5
335.227	491.5
335.455	509.5
335.684	492.5
335.912	476.5
336.14	465.5
336.369	489.5
336.597	470.5
336.825	491.5
337.053	479.5
337.281	467.5
337.51	431.5
337.738	455.5
337.966	449.5
338.194	491.5
338.422	465.5
338.65	471.5
338.878	465.5
339.106	463.5
339.334	462.5
339.562	436.5
339.79	445.5
340.018	466.5
340.246	453.5
340.474	437.5
340.702	458.5
340.93	437.5
341.158	452.5
341.386	440.5
341.614	452.5
341.842	466.5
342.07	461.5
342.298	454.5
342.526	441.5
342.754	433.5
342.981	460.5
343.209	448.5
343.437	456.5
343.665	444.5
343.893	454.5
344.12	455.5
344.348	450.5
344.576	452.5
344.804	480.5
345.031	469.5
345.259	474.5
345.487	470.5
345.714	466.5
345.942	440.5
346.17	453.5
346.397	458.5
346.625	449.5
346.853	443.5
347.08	442.5
347.308	461.5
347.535	438.5
347.763	463.5
347.99	448.5
348.218	442.5
348.445	444.5
348.673	454.5
348.9	455.5
349.128	427.5
349.355	428.5
349.583	431.5
349.81	416.5
350.037	423.5
350.265	430.5
350.492	412.5
350.72	415.5
350.947	424.5
351.174	452.5
351.402	462.5
351.629	444.5
351.856	464.5
352.083	457.5
352.311	469.5
352.538	459.5
352.765	455.5
352.992	439.5
353.22	448.5
353.447	439.5
353.674	419.5
353.901	425.5
354.128	420.5
354.355	402.5
354.583	411.5
354.81	430.5
355.037	413.5
355.264	404.5
355.491	420.5
355.718	423.5
355.945	410.5
356.172	411.5
356.399	414.5
356.626	394.5
356.853	429.5
357.08	418.5
357.307	417.5
357.534	427.5
357.761	406.5
357.988	417.5
358.215	414.5
358.441	435.5
358.668	410.5
358.895	420.5
359.122	431.5
359.349	439.5
359.576	464.5
359.802	490.5
360.029	503.5
360.256	497.5
360.483	475.5
360.709	472.5
360.936	471.5
361.163	446.5
361.39	468.5
361.616	439.5
361.843	436.5
362.07	436.5
362.296	458.5
362.523	457.5
362.749	440.5
362.976	441.5
363.203	440.5
363.429	423.5
363.656	407.5
363.882	420.5
364.109	440.5
364.335	433.5
364.562	433.5
364.788	458.5
365.015	438.5
365.241	441.5
365.468	447.5
365.694	455.5
365.92	449.5
366.147	439.5
366.373	452.5
366.599	425.5
366.826	424.5
367.052	411.5
367.278	424.5
367.505	429.5
367.731	435.5
367.957	400.5
368.184	419.5
368.41	449.5
368.636	455.5
368.862	448.5
369.089	447.5
369.315	436.5
369.541	430.5
369.767	421.5
369.993	420.5
370.219	429.5
370.445	427.5
370.672	426.5
370.898	411.5
371.124	417.5
371.35	420.5
371.576	428.5
371.802	432.5
372.028	452.5
372.254	427.5
372.48	451.5
372.706	447.5
372.932	453.5
373.158	441.5
373.384	444.5
373.61	440.5
373.835	435.5
374.061	419.5
374.287	440.5
374.513	438.5
374.739	444.5
374.965	440.5
375.191	425.5
375.416	432.5
375.642	452.5
375.868	439.5
376.094	422.5
376.319	461.5
376.545	427.5
376.771	437.5
376.997	453.5
377.222	416.5
377.448	454.5
377.674	447.5
377.899	446.5
378.125	430.5
378.35	449.5
378.576	428.5
378.802	445.5
379.027	443.5
379.253	444.5
379.478	437.5
379.704	430.5
379.929	438.5
380.155	431.5
380.38	437.5
380.606	437.5
380.831	437.5
381.057	425.5
381.282	425.5
381.507	430.5
381.733	448.5
381.958	445.5
382.184	450.5
382.409	446.5
382.634	432.5
382.86	463.5
383.085	451.5
383.31	435.5
383.535	453.5
383.761	466.5
383.986	483.5
384.211	473.5
384.436	479.5
384.662	478.5
384.887	472.5
385.112	445.5
385.337	473.5
385.562	482.5
385.787	492.5
386.013	505.5
386.238	503.5
386.463	493.5
386.688	496.5
386.913	484.5
387.138	494.5
387.363	500.5
387.588	491.5
387.813	509.5
388.038	473.5
388.263	457.5
388.488	512.5
388.713	493.5
388.938	492.5
389.163	497.5
389.387	487.5
389.612	480.5
389.837	522.5
390.062	497.5
390.287	472.5
390.512	469.5
390.736	478.5
390.961	491.5
391.186	493.5
391.411	503.5
391.636	503.5
391.86	511.5
392.085	512.5
392.31	504.5
392.534	514.5
392.759	533.5
392.984	495.5
393.208	501.5
393.433	514.5
393.658	499.5
393.882	498.5
394.107	511.5
394.331	494.5
394.556	488.5
394.78	489.5
395.005	485.5
395.229	490.5
395.454	516.5
395.678	514.5
395.903	531.5
396.127	539.5
396.352	539.5
396.576	520.5
396.801	535.5
397.025	511.5
397.249	514.5
397.474	509.5
397.698	525.5
397.922	543.5
398.147	567.5
398.371	582.5
398.595	547.5
398.82	561.5
399.044	563.5
399.268	601.5
399.492	633.5
399.717	647.5
399.941	677.5
400.165	707.5
400.389	703.5
400.613	655.5
400.837	615.5
401.062	589.5
401.286	590.5
401.51	574.5
401.734	567.5
401.958	574.5
402.182	579.5
402.406	593.5
402.63	592.5
402.854	596.5
403.078	587.5
403.302	600.5
403.526	588.5
403.75	577.5
403.974	602.5
404.198	597.5
404.422	589.5
404.645	594.5
404.869	614.5
405.093	650.5
405.317	687.5
405.541	759.5
405.765	655.5
405.988	631.5
406.212	610.5
406.436	653.5
406.66	671.5
406.883	662.5
407.107	657.5
407.331	693.5
407.555	791.5
407.778	793.5
408.002	734.5
408.226	661.5
408.449	649.5
408.673	639.5
408.896	661.5
409.12	763.5
409.344	693.5
409.567	641.5
409.791	614.5
410.014	621.5
410.238	601.5
410.461	634.5
410.685	603.5
410.908	615.5
411.132	642.5
411.355	683.5
411.578	697.5
411.802	611.5
412.025	595.5
412.249	607.5
412.472	639.5
412.695	687.5
412.919	677.5
413.142	624.5
413.365	592.5
413.589	599.5
413.812	585.5
414.035	558.5
414.258	583.5
414.482	575.5
414.705	540.5
414.928	575.5
415.151	567.5
415.374	581.5
415.597	584.5
415.821	561.5
416.044	572.5
416.267	577.5
416.49	575.5
416.713	550.5
416.936	545.5
417.159	560.5
417.382	564.5
417.605	580.5
417.828	593.5
418.051	585.5
418.274	576.5
418.497	555.5
418.72	571.5
418.943	566.5
419.166	580.5
419.389	607.5
419.611	621.5
419.834	593.5
420.057	600.5
420.28	621.5
420.503	579.5
420.726	610.5
420.948	602.5
421.171	637.5
421.394	670.5
421.617	618.5
421.839	593.5
422.062	604.5
422.285	605.5
422.507	675.5
422.73	773.5
422.953	744.5
423.175	639.5
423.398	616.5
423.621	596.5
423.843	637.5
424.066	634.5
424.288	608.5
424.511	639.5
424.733	708.5
424.956	832.5
425.178	779.5
425.401	775.5
425.623	809.5
425.846	710.5
426.068	656.5
426.291	636.5
426.513	634.5
426.735	643.5
426.958	690.5
427.18	767.5
427.402	936.5
427.625	1024.5
427.847	883.5
428.069	738.5
428.292	713.5
428.514	628.5
428.736	607.5
428.958	590.5
429.181	575.5
429.403	599.5
429.625	609.5
429.847	633.5
430.069	701.5
430.292	710.5
430.514	639.5
430.736	596.5
430.958	585.5
431.18	567.5
431.402	580.5
431.624	551.5
431.846	558.5
432.068	542.5
432.29	575.5
432.512	535.5
432.734	553.5
432.956	565.5
433.178	562.5
433.4	596.5
433.622	549.5
433.844	559.5
434.066	561.5
434.287	533.5
434.509	567.5
434.731	566.5
434.953	555.5
435.175	591.5
435.397	637.5
435.618	650.5
435.84	686.5
436.062	840.5
436.284	863.5
436.505	689.5
436.727	646.5
436.949	610.5
437.17	575.5
437.392	567.5
437.614	590.5
437.835	635.5
438.057	717.5
438.278	856.5
438.5	860.5
438.721	942.5
438.943	895.5
439.165	725.5
439.386	674.5
439.608	647.5
439.829	654.5
440.05	640.5
440.272	731.5
440.493	693.5
440.715	647.5
440.936	613.5
441.158	612.5
441.379	612.5
441.6	606.5
441.822	643.5
442.043	670.5
442.264	781.5
442.486	813.5
442.707	722.5
442.928	640.5
443.149	665.5
443.371	681.5
443.592	743.5
443.813	846.5
444.034	907.5
444.255	731.5
444.476	679.5
444.698	653.5
444.919	636.5
445.14	754.5
445.361	719.5
445.582	673.5
445.803	757.5
446.024	876.5
446.245	880.5
446.466	789.5
446.687	672.5
446.908	637.5
447.129	618.5
447.35	605.5
447.571	581.5
447.792	579.5
448.013	579.5
448.234	593.5
448.455	652.5
448.675	775.5
448.896	916.5
449.117	753.5
449.338	739.5
449.559	875.5
449.779	961.5
450	787.5
450.221	655.5
450.442	604.5
450.662	575.5
450.883	580.5
451.104	581.5
451.324	584.5
451.545	579.5
451.766	523.5
451.986	545.5
452.207	524.5
452.428	517.5
452.648	534.5
452.869	507.5
453.089	546.5
453.31	537.5
453.53	525.5
453.751	529.5
453.971	504.5
454.192	516.5
454.412	533.5
454.633	531.5
454.853	521.5
455.073	526.5
455.294	564.5
455.514	650.5
455.734	626.5
455.955	537.5
456.175	493.5
456.395	508.5
456.616	491.5
456.836	512.5
457.056	496.5
457.276	491.5
457.497	522.5
457.717	502.5
457.937	500.5
458.157	520.5
458.377	530.5
458.598	533.5
458.818	593.5
459.038	680.5
459.258	707.5
459.478	609.5
459.698	579.5
459.918	546.5
460.138	556.5
460.358	577.5
460.578	583.5
460.798	539.5
461.018	568.5
461.238	553.5
461.458	567.5
461.678	590.5
461.898	580.5
462.118	567.5
462.338	605.5
462.558	580.5
462.777	576.5
462.997	616.5
463.217	631.5
463.437	635.5
463.657	611.5
463.876	632.5
464.096	602.5
464.316	590.5
464.536	622.5
464.755	636.5
464.975	589.5
465.195	656.5
465.414	713.5
465.634	635.5
465.854	593.5
466.073	583.5
466.293	567.5
466.512	570.5
466.732	529.5
466.951	544.5
467.171	549.5
467.391	566.5
467.61	565.5
467.829	559.5
468.049	569.5
468.268	557.5
468.488	554.5
468.707	518.5
468.927	539.5
469.146	533.5
469.365	490.5
469.585	515.5
469.804	536.5
470.023	562.5
470.243	556.5
470.462	559.5
470.681	555.5
470.901	570.5
471.12	531.5
471.339	554.5
471.558	560.5
471.777	574.5
471.997	554.5
472.216	570.5
472.435	593.5
472.654	579.5
472.873	560.5
473.092	581.5
473.311	547.5
473.53	559.5
473.749	551.5
473.968	596.5
474.187	709.5
474.406	752.5
474.625	605.5
474.844	565.5
475.063	557.5
475.282	576.5
475.501	574.5
475.72	573.5
475.939	572.5
476.158	552.5
476.377	559.5
476.596	567.5
476.814	585.5
477.033	583.5
477.252	602.5
477.471	593.5
477.69	574.5
477.908	584.5
478.127	593.5
478.346	621.5
478.564	611.5
478.783	611.5
479.002	613.5
479.22	630.5
479.439	640.5
479.658	653.5
479.876	680.5
480.095	684.5
480.313	740.5
480.532	670.5
480.751	674.5
480.969	704.5
481.188	737.5
481.406	821.5
481.624	708.5
481.843	686.5
482.061	667.5
482.28	663.5
482.498	652.5
482.717	635.5
482.935	635.5
483.153	628.5
483.372	642.5
483.59	656.5
483.808	649.5
484.027	663.5
484.245	659.5
484.463	634.5
484.681	677.5
484.9	670.5
485.118	677.5
485.336	667.5
485.554	680.5
485.772	678.5
485.99	692.5
486.209	658.5
486.427	692.5
486.645	673.5
486.863	676.5
487.081	708.5
487.299	717.5
487.517	701.5
487.735	717.5
487.953	695.5
488.171	688.5
488.389	689.5
488.607	710.5
488.825	688.5
489.043	689.5
489.261	711.5
489.479	707.5
489.696	715.5
489.914	743.5
490.132	735.5
490.35	760.5
490.568	729.5
490.786	734.5
491.003	737.5
491.221	783.5
491.439	787.5
491.657	787.5
491.874	807.5
492.092	772.5
492.31	797.5
492.527	800.5
492.745	809.5
492.963	793.5
493.18	807.5
493.398	823.5
493.615	810.5
493.833	811.5
494.05	825.5
494.268	834.5
494.485	833.5
494.703	819.5
494.92	815.5
495.138	849.5
495.355	827.5
495.573	841.5
495.79	836.5
496.008	836.5
496.225	839.5
496.442	839.5
496.66	825.5
496.877	826.5
497.094	827.5
497.312	827.5
497.529	865.5
497.746	867.5
497.963	879.5
498.181	905.5
498.398	899.5
498.615	921.5
498.832	958.5
499.049	987.5
499.267	959.5
499.484	1022.5
499.701	1051.5
499.918	1088.5
500.135	1087.5
500.352	1158.5
500.569	1201.5
500.786	1202.5
501.003	1193.5
501.22	1173.5
501.437	1108.5
501.654	1067.5
501.871	1067.5
502.088	1038.5
502.305	976.5
502.522	943.5
502.739	951.5
502.956	886.5
503.172	881.5
503.389	844.5
503.606	893.5
503.823	849.5
504.04	858.5
504.256	831.5
504.473	858.5
504.69	819.5
504.907	828.5
505.123	816.5
505.34	803.5
505.557	805.5
505.773	810.5
505.99	820.5
506.207	807.5
506.423	793.5
506.64	799.5
506.856	782.5
507.073	751.5
507.289	795.5
507.506	777.5
507.722	765.5
507.939	779.5
508.155	790.5
508.372	741.5
508.588	731.5
508.805	758.5
509.021	744.5
509.238	757.5
509.454	766.5
509.67	771.5
509.887	773.5
510.103	715.5
510.319	736.5
510.536	805.5
510.752	1333.5
510.968	1106.5
511.184	756.5
511.401	710.5
511.617	706.5
511.833	703.5
512.049	699.5
512.265	687.5
512.481	703.5
512.698	712.5
512.914	697.5
513.13	695.5
513.346	696.5
513.562	691.5
513.778	720.5
513.994	715.5
514.21	712.5
514.426	741.5
514.642	760.5
514.858	779.5
515.074	847.5
515.29	957.5
515.506	1382.5
515.721	1142.5
515.937	809.5
516.153	760.5
516.369	752.5
516.585	731.5
516.801	726.5
517.016	713.5
517.232	734.5
517.448	723.5
517.664	744.5
517.879	736.5
518.095	743.5
518.311	742.5
518.527	744.5
518.742	721.5
518.958	734.5
519.173	699.5
519.389	693.5
