Data from 1966.PennyLincolnUp.Lamp.En5.5.200Scan.071719.P1.Scan2.head_HRD10591_14-17-02-076.txt Node
Date: Thu Jul 18 14:17:02 EDT 2019
User: cochatt
Spectrometer: HR+D1059
Trigger mode: 1
Integration Time (sec): 1.000000E-1
Scans to average: 1
Electric dark correction enabled: true
Nonlinearity correction enabled: false
Boxcar width: 0
XAxis mode: Wavelengths
Number of Pixels in Spectrum: 2048
>>>>>Begin Spectral Data<<<<<
223.165	-22.81
223.4	-22.81
223.635	-22.81
223.869	-32.81
224.104	-17.81
224.338	-14.81
224.573	-12.81
224.808	5.19
225.042	0.19
225.277	-5.81
225.511	-7.81
225.746	6.19
225.98	14.19
226.215	9.19
226.449	17.19
226.683	10.19
226.918	35.19
227.152	17.19
227.387	25.19
227.621	38.19
227.856	35.19
228.09	46.19
228.324	37.19
228.559	58.19
228.793	57.19
229.027	104.19
229.262	97.19
229.496	99.19
229.73	122.19
229.964	144.19
230.199	109.19
230.433	105.19
230.667	114.19
230.901	99.19
231.136	102.19
231.37	101.19
231.604	105.19
231.838	106.19
232.072	125.19
232.306	97.19
232.541	103.19
232.775	113.19
233.009	111.19
233.243	104.19
233.477	109.19
233.711	114.19
233.945	104.19
234.179	98.19
234.413	113.19
234.647	114.19
234.881	99.19
235.115	117.19
235.349	121.19
235.583	116.19
235.817	112.19
236.051	122.19
236.285	119.19
236.519	102.19
236.753	118.19
236.987	136.19
237.221	170.19
237.455	231.19
237.689	186.19
237.922	126.19
238.156	132.19
238.39	115.19
238.624	114.19
238.858	123.19
239.091	121.19
239.325	110.19
239.559	105.19
239.793	137.19
240.027	126.19
240.26	149.19
240.494	153.19
240.728	133.19
240.961	138.19
241.195	139.19
241.429	137.19
241.662	140.19
241.896	130.19
242.13	140.19
242.363	129.19
242.597	133.19
242.83	129.19
243.064	123.19
243.298	133.19
243.531	131.19
243.765	132.19
243.998	140.19
244.232	141.19
244.465	142.19
244.699	131.19
244.932	147.19
245.166	140.19
245.399	154.19
245.633	145.19
245.866	130.19
246.099	150.19
246.333	136.19
246.566	152.19
246.8	132.19
247.033	160.19
247.266	157.19
247.5	143.19
247.733	156.19
247.966	159.19
248.2	158.19
248.433	174.19
248.666	153.19
248.899	178.19
249.133	193.19
249.366	212.19
249.599	186.19
249.832	186.19
250.066	169.19
250.299	163.19
250.532	181.19
250.765	195.19
250.998	204.19
251.231	211.19
251.465	210.19
251.698	183.19
251.931	184.19
252.164	182.19
252.397	175.19
252.63	173.19
252.863	199.19
253.096	215.19
253.329	210.19
253.562	218.19
253.795	198.19
254.028	198.19
254.261	218.19
254.494	216.19
254.727	241.19
254.96	260.19
255.193	240.19
255.426	210.19
255.659	223.19
255.892	224.19
256.124	206.19
256.357	225.19
256.59	223.19
256.823	202.19
257.056	223.19
257.289	199.19
257.521	218.19
257.754	181.19
257.987	202.19
258.22	189.19
258.452	191.19
258.685	186.19
258.918	196.19
259.151	193.19
259.383	201.19
259.616	218.19
259.849	221.19
260.081	202.19
260.314	220.19
260.547	239.19
260.779	235.19
261.012	203.19
261.244	219.19
261.477	220.19
261.71	215.19
261.942	213.19
262.175	222.19
262.407	203.19
262.64	209.19
262.872	217.19
263.105	204.19
263.337	197.19
263.57	187.19
263.802	205.19
264.035	211.19
264.267	190.19
264.499	206.19
264.732	214.19
264.964	202.19
265.197	201.19
265.429	207.19
265.661	202.19
265.894	198.19
266.126	206.19
266.358	219.19
266.591	212.19
266.823	220.19
267.055	217.19
267.287	201.19
267.52	209.19
267.752	220.19
267.984	207.19
268.216	218.19
268.448	197.19
268.681	222.19
268.913	228.19
269.145	230.19
269.377	238.19
269.609	259.19
269.841	239.19
270.073	259.19
270.306	286.19
270.538	302.19
270.77	293.19
271.002	290.19
271.234	275.19
271.466	279.19
271.698	290.19
271.93	312.19
272.162	310.19
272.394	287.19
272.626	280.19
272.858	261.19
273.09	266.19
273.322	263.19
273.553	250.19
273.785	263.19
274.017	253.19
274.249	252.19
274.481	240.19
274.713	259.19
274.945	245.19
275.176	241.19
275.408	259.19
275.64	263.19
275.872	249.19
276.104	257.19
276.335	240.19
276.567	259.19
276.799	235.19
277.031	290.19
277.262	274.19
277.494	293.19
277.726	281.19
277.957	281.19
278.189	276.19
278.421	238.19
278.652	265.19
278.884	264.19
279.115	241.19
279.347	252.19
279.579	260.19
279.81	274.19
280.042	263.19
280.273	274.19
280.505	261.19
280.736	260.19
280.968	272.19
281.199	249.19
281.431	257.19
281.662	257.19
281.894	259.19
282.125	265.19
282.356	257.19
282.588	292.19
282.819	291.19
283.051	265.19
283.282	251.19
283.513	251.19
283.745	276.19
283.976	263.19
284.207	267.19
284.439	276.19
284.67	265.19
284.901	291.19
285.132	264.19
285.364	268.19
285.595	268.19
285.826	288.19
286.057	262.19
286.288	274.19
286.52	275.19
286.751	258.19
286.982	272.19
287.213	275.19
287.444	277.19
287.675	278.19
287.906	270.19
288.138	273.19
288.369	288.19
288.6	279.19
288.831	285.19
289.062	282.19
289.293	283.19
289.524	277.19
289.755	285.19
289.986	295.19
290.217	269.19
290.448	279.19
290.679	270.19
290.91	270.19
291.141	270.19
291.371	281.19
291.602	286.19
291.833	267.19
292.064	280.19
292.295	290.19
292.526	287.19
292.757	280.19
292.987	283.19
293.218	278.19
293.449	277.19
293.68	255.19
293.91	286.19
294.141	286.19
294.372	289.19
294.603	280.19
294.833	288.19
295.064	294.19
295.295	290.19
295.525	294.19
295.756	298.19
295.987	306.19
296.217	302.19
296.448	331.19
296.679	303.19
296.909	281.19
297.14	272.19
297.37	286.19
297.601	289.19
297.831	287.19
298.062	302.19
298.292	283.19
298.523	282.19
298.753	287.19
298.984	288.19
299.214	294.19
299.445	306.19
299.675	295.19
299.905	326.19
300.136	298.19
300.366	289.19
300.597	305.19
300.827	322.19
301.057	309.19
301.288	313.19
301.518	336.19
301.748	325.19
301.979	318.19
302.209	314.19
302.439	317.19
302.669	323.19
302.9	312.19
303.13	313.19
303.36	318.19
303.59	333.19
303.82	322.19
304.051	327.19
304.281	319.19
304.511	309.19
304.741	298.19
304.971	308.19
305.201	322.19
305.431	322.19
305.661	312.19
305.891	326.19
306.121	322.19
306.352	321.19
306.582	325.19
306.812	323.19
307.042	297.19
307.272	309.19
307.502	326.19
307.731	337.19
307.961	312.19
308.191	321.19
308.421	326.19
308.651	326.19
308.881	305.19
309.111	338.19
309.341	307.19
309.571	328.19
309.8	337.19
310.03	349.19
310.26	368.19
310.49	345.19
310.72	355.19
310.949	370.19
311.179	360.19
311.409	360.19
311.639	377.19
311.868	356.19
312.098	370.19
312.328	356.19
312.557	366.19
312.787	366.19
313.017	378.19
313.246	362.19
313.476	360.19
313.706	348.19
313.935	366.19
314.165	385.19
314.394	395.19
314.624	391.19
314.853	367.19
315.083	356.19
315.312	349.19
315.542	353.19
315.771	373.19
316.001	355.19
316.23	356.19
316.46	354.19
316.689	363.19
316.919	361.19
317.148	366.19
317.377	381.19
317.607	355.19
317.836	369.19
318.065	377.19
318.295	381.19
318.524	359.19
318.753	345.19
318.983	363.19
319.212	373.19
319.441	383.19
319.67	360.19
319.9	379.19
320.129	367.19
320.358	381.19
320.587	376.19
320.816	366.19
321.046	385.19
321.275	383.19
321.504	374.19
321.733	394.19
321.962	390.19
322.191	403.19
322.42	421.19
322.649	426.19
322.878	415.19
323.108	434.19
323.337	426.19
323.566	448.19
323.795	473.19
324.024	496.19
324.253	559.19
324.482	807.19
324.71	1280.19
324.939	1855.19
325.168	1609.19
325.397	832.19
325.626	593.19
325.855	513.19
326.084	463.19
326.313	439.19
326.542	475.19
326.77	491.19
326.999	576.19
327.228	745.19
327.457	1142.19
327.686	1441.19
327.914	945.19
328.143	615.19
328.372	548.19
328.6	520.19
328.829	515.19
329.058	490.19
329.287	517.19
329.515	490.19
329.744	461.19
329.972	483.19
330.201	499.19
330.43	543.19
330.658	540.19
330.887	551.19
331.115	542.19
331.344	494.19
331.572	463.19
331.801	463.19
332.03	455.19
332.258	443.19
332.486	453.19
332.715	444.19
332.943	430.19
333.172	441.19
333.4	453.19
333.629	445.19
333.857	480.19
334.085	512.19
334.314	499.19
334.542	495.19
334.771	538.19
334.999	496.19
335.227	466.19
335.455	435.19
335.684	445.19
335.912	438.19
336.14	455.19
336.369	439.19
336.597	449.19
336.825	452.19
337.053	442.19
337.281	421.19
337.51	411.19
337.738	441.19
337.966	451.19
338.194	424.19
338.422	449.19
338.65	436.19
338.878	411.19
339.106	432.19
339.334	432.19
339.562	419.19
339.79	420.19
340.018	431.19
340.246	413.19
340.474	427.19
340.702	429.19
340.93	405.19
341.158	421.19
341.386	440.19
341.614	422.19
341.842	433.19
342.07	407.19
342.298	418.19
342.526	408.19
342.754	404.19
342.981	441.19
343.209	418.19
343.437	405.19
343.665	418.19
343.893	439.19
344.12	445.19
344.348	433.19
344.576	449.19
344.804	447.19
345.031	451.19
345.259	431.19
345.487	434.19
345.714	426.19
345.942	412.19
346.17	425.19
346.397	414.19
346.625	437.19
346.853	417.19
347.08	398.19
347.308	405.19
347.535	400.19
347.763	421.19
347.99	404.19
348.218	424.19
348.445	422.19
348.673	420.19
348.9	400.19
349.128	397.19
349.355	395.19
349.583	407.19
349.81	403.19
350.037	414.19
350.265	395.19
350.492	385.19
350.72	393.19
350.947	396.19
351.174	407.19
351.402	425.19
351.629	416.19
351.856	400.19
352.083	420.19
352.311	416.19
352.538	424.19
352.765	431.19
352.992	426.19
353.22	407.19
353.447	407.19
353.674	414.19
353.901	413.19
354.128	381.19
354.355	396.19
354.583	381.19
354.81	385.19
355.037	381.19
355.264	408.19
355.491	387.19
355.718	386.19
355.945	386.19
356.172	404.19
356.399	398.19
356.626	395.19
356.853	387.19
357.08	382.19
357.307	393.19
357.534	396.19
357.761	415.19
357.988	412.19
358.215	366.19
358.441	381.19
358.668	402.19
358.895	403.19
359.122	416.19
359.349	404.19
359.576	415.19
359.802	408.19
360.029	451.19
360.256	458.19
360.483	442.19
360.709	424.19
360.936	437.19
361.163	407.19
361.39	419.19
361.616	422.19
361.843	413.19
362.07	408.19
362.296	436.19
362.523	429.19
362.749	444.19
362.976	413.19
363.203	423.19
363.429	393.19
363.656	396.19
363.882	405.19
364.109	396.19
364.335	393.19
364.562	411.19
364.788	424.19
365.015	431.19
365.241	422.19
365.468	427.19
365.694	442.19
365.92	401.19
366.147	415.19
366.373	403.19
366.599	410.19
366.826	417.19
367.052	408.19
367.278	439.19
367.505	405.19
367.731	417.19
367.957	418.19
368.184	405.19
368.41	424.19
368.636	416.19
368.862	437.19
369.089	425.19
369.315	431.19
369.541	416.19
369.767	411.19
369.993	438.19
370.219	403.19
370.445	405.19
370.672	417.19
370.898	407.19
371.124	405.19
371.35	421.19
371.576	409.19
371.802	423.19
372.028	416.19
372.254	431.19
372.48	409.19
372.706	413.19
372.932	429.19
373.158	431.19
373.384	411.19
373.61	413.19
373.835	408.19
374.061	418.19
374.287	433.19
374.513	449.19
374.739	420.19
374.965	413.19
375.191	423.19
375.416	438.19
375.642	422.19
375.868	429.19
376.094	421.19
376.319	422.19
376.545	408.19
376.771	424.19
376.997	415.19
377.222	427.19
377.448	408.19
377.674	401.19
377.899	395.19
378.125	415.19
378.35	414.19
378.576	413.19
378.802	392.19
379.027	413.19
379.253	414.19
379.478	425.19
379.704	427.19
379.929	406.19
380.155	397.19
380.38	415.19
380.606	433.19
380.831	409.19
381.057	426.19
381.282	399.19
381.507	408.19
381.733	422.19
381.958	427.19
382.184	414.19
382.409	437.19
382.634	412.19
382.86	430.19
383.085	438.19
383.31	440.19
383.535	440.19
383.761	437.19
383.986	437.19
384.211	453.19
384.436	443.19
384.662	445.19
384.887	449.19
385.112	443.19
385.337	461.19
385.562	459.19
385.787	486.19
386.013	454.19
386.238	477.19
386.463	481.19
386.688	459.19
386.913	445.19
387.138	472.19
387.363	456.19
387.588	476.19
387.813	472.19
388.038	470.19
388.263	466.19
388.488	465.19
388.713	467.19
388.938	472.19
389.163	486.19
389.387	489.19
389.612	493.19
389.837	472.19
390.062	455.19
390.287	463.19
390.512	449.19
390.736	458.19
390.961	459.19
391.186	482.19
391.411	473.19
391.636	475.19
391.86	470.19
392.085	469.19
392.31	483.19
392.534	484.19
392.759	483.19
392.984	497.19
393.208	473.19
393.433	487.19
393.658	476.19
393.882	477.19
394.107	474.19
394.331	482.19
394.556	499.19
394.78	466.19
395.005	481.19
395.229	481.19
395.454	477.19
395.678	485.19
395.903	514.19
396.127	529.19
396.352	515.19
396.576	517.19
396.801	493.19
397.025	488.19
397.249	513.19
397.474	495.19
397.698	495.19
397.922	523.19
398.147	537.19
398.371	521.19
398.595	530.19
398.82	542.19
399.044	543.19
399.268	563.19
399.492	600.19
399.717	639.19
399.941	642.19
400.165	648.19
400.389	698.19
400.613	646.19
400.837	585.19
401.062	568.19
401.286	560.19
401.51	549.19
401.734	537.19
401.958	521.19
402.182	566.19
402.406	570.19
402.63	577.19
402.854	535.19
403.078	547.19
403.302	558.19
403.526	565.19
403.75	563.19
403.974	586.19
404.198	566.19
404.422	574.19
404.645	590.19
404.869	571.19
405.093	597.19
405.317	649.19
405.541	683.19
405.765	640.19
405.988	584.19
406.212	595.19
406.436	622.19
406.66	614.19
406.883	607.19
407.107	627.19
407.331	691.19
407.555	753.19
407.778	747.19
408.002	677.19
408.226	635.19
408.449	601.19
408.673	618.19
408.896	632.19
409.12	703.19
409.344	661.19
409.567	604.19
409.791	583.19
410.014	587.19
410.238	581.19
410.461	561.19
410.685	608.19
410.908	598.19
411.132	631.19
411.355	685.19
411.578	642.19
411.802	603.19
412.025	559.19
412.249	584.19
412.472	590.19
412.695	639.19
412.919	637.19
413.142	606.19
413.365	559.19
413.589	559.19
413.812	542.19
414.035	541.19
414.258	568.19
414.482	553.19
414.705	543.19
414.928	532.19
415.151	537.19
415.374	536.19
415.597	536.19
415.821	545.19
416.044	540.19
416.267	529.19
416.49	559.19
416.713	522.19
416.936	538.19
417.159	538.19
417.382	519.19
417.605	546.19
417.828	538.19
418.051	570.19
418.274	557.19
418.497	531.19
418.72	552.19
418.943	527.19
419.166	557.19
419.389	590.19
419.611	591.19
419.834	566.19
420.057	550.19
420.28	581.19
420.503	557.19
420.726	569.19
420.948	573.19
421.171	616.19
421.394	643.19
421.617	588.19
421.839	557.19
422.062	561.19
422.285	566.19
422.507	627.19
422.73	718.19
422.953	678.19
423.175	602.19
423.398	595.19
423.621	580.19
423.843	584.19
424.066	608.19
424.288	597.19
424.511	603.19
424.733	650.19
424.956	753.19
425.178	699.19
425.401	721.19
425.623	749.19
425.846	653.19
426.068	601.19
426.291	605.19
426.513	578.19
426.735	584.19
426.958	638.19
427.18	719.19
427.402	823.19
427.625	912.19
427.847	799.19
428.069	685.19
428.292	630.19
428.514	600.19
428.736	573.19
428.958	551.19
429.181	541.19
429.403	549.19
429.625	569.19
429.847	587.19
430.069	657.19
430.292	655.19
430.514	565.19
430.736	556.19
430.958	533.19
431.18	533.19
431.402	512.19
431.624	547.19
431.846	524.19
432.068	519.19
432.29	511.19
432.512	526.19
432.734	534.19
432.956	535.19
433.178	530.19
433.4	547.19
433.622	531.19
433.844	527.19
434.066	538.19
434.287	527.19
434.509	543.19
434.731	557.19
434.953	531.19
435.175	568.19
435.397	602.19
435.618	607.19
435.84	651.19
436.062	729.19
436.284	811.19
436.505	701.19
436.727	605.19
436.949	561.19
437.17	565.19
437.392	553.19
437.614	549.19
437.835	607.19
438.057	698.19
438.278	797.19
438.5	780.19
438.721	883.19
438.943	827.19
439.165	645.19
439.386	626.19
439.608	592.19
439.829	590.19
440.05	619.19
440.272	641.19
440.493	632.19
440.715	578.19
440.936	581.19
441.158	552.19
441.379	561.19
441.6	581.19
441.822	582.19
442.043	625.19
442.264	711.19
442.486	777.19
442.707	640.19
442.928	603.19
443.149	602.19
443.371	634.19
443.592	694.19
443.813	777.19
444.034	848.19
444.255	709.19
444.476	626.19
444.698	651.19
444.919	606.19
445.14	709.19
445.361	659.19
445.582	641.19
445.803	689.19
446.024	807.19
446.245	789.19
446.466	733.19
446.687	631.19
446.908	595.19
447.129	561.19
447.35	552.19
447.571	523.19
447.792	529.19
448.013	566.19
448.234	583.19
448.455	623.19
448.675	714.19
448.896	865.19
449.117	730.19
449.338	687.19
449.559	806.19
449.779	901.19
450	705.19
450.221	605.19
450.442	569.19
450.662	552.19
450.883	532.19
451.104	550.19
451.324	524.19
451.545	530.19
451.766	495.19
451.986	475.19
452.207	503.19
452.428	477.19
452.648	506.19
452.869	486.19
453.089	497.19
453.31	481.19
453.53	489.19
453.751	477.19
453.971	490.19
454.192	509.19
454.412	495.19
454.633	493.19
454.853	490.19
455.073	501.19
455.294	503.19
455.514	584.19
455.734	581.19
455.955	485.19
456.175	445.19
456.395	481.19
456.616	464.19
456.836	469.19
457.056	473.19
457.276	457.19
457.497	471.19
457.717	473.19
457.937	486.19
458.157	471.19
458.377	483.19
458.598	512.19
458.818	559.19
459.038	621.19
459.258	641.19
459.478	570.19
459.698	529.19
459.918	530.19
460.138	573.19
460.358	548.19
460.578	549.19
460.798	550.19
461.018	547.19
461.238	557.19
461.458	535.19
461.678	535.19
461.898	554.19
462.118	561.19
462.338	569.19
462.558	573.19
462.777	574.19
462.997	598.19
463.217	594.19
463.437	607.19
463.657	598.19
463.876	590.19
464.096	610.19
464.316	576.19
464.536	576.19
464.755	599.19
464.975	585.19
465.195	615.19
465.414	672.19
465.634	602.19
465.854	573.19
466.073	530.19
466.293	534.19
466.512	522.19
466.732	499.19
466.951	520.19
467.171	502.19
467.391	526.19
467.61	503.19
467.829	510.19
468.049	526.19
468.268	513.19
468.488	496.19
468.707	521.19
468.927	506.19
469.146	508.19
469.365	480.19
469.585	485.19
469.804	497.19
470.023	518.19
470.243	517.19
470.462	530.19
470.681	551.19
470.901	517.19
471.12	499.19
471.339	509.19
471.558	516.19
471.777	517.19
471.997	498.19
472.216	506.19
472.435	550.19
472.654	563.19
472.873	516.19
473.092	502.19
473.311	502.19
473.53	509.19
473.749	531.19
473.968	568.19
474.187	661.19
474.406	660.19
474.625	558.19
474.844	531.19
475.063	511.19
475.282	513.19
475.501	536.19
475.72	547.19
475.939	537.19
476.158	538.19
476.377	530.19
476.596	550.19
476.814	541.19
477.033	545.19
477.252	575.19
477.471	538.19
477.69	553.19
477.908	573.19
478.127	595.19
478.346	585.19
478.564	563.19
478.783	588.19
479.002	573.19
479.22	619.19
479.439	591.19
479.658	601.19
479.876	624.19
480.095	629.19
480.313	640.19
480.532	654.19
480.751	655.19
480.969	634.19
481.188	672.19
481.406	719.19
481.624	685.19
481.843	637.19
482.061	618.19
482.28	641.19
482.498	609.19
482.717	606.19
482.935	626.19
483.153	611.19
483.372	630.19
483.59	614.19
483.808	612.19
484.027	622.19
484.245	617.19
484.463	607.19
484.681	634.19
484.9	630.19
485.118	636.19
485.336	637.19
485.554	642.19
485.772	635.19
485.99	635.19
486.209	629.19
486.427	629.19
486.645	658.19
486.863	653.19
487.081	640.19
487.299	655.19
487.517	679.19
487.735	642.19
487.953	657.19
488.171	643.19
488.389	633.19
488.607	651.19
488.825	652.19
489.043	659.19
489.261	680.19
489.479	660.19
489.696	673.19
489.914	690.19
490.132	679.19
490.35	686.19
490.568	706.19
490.786	697.19
491.003	718.19
491.221	719.19
491.439	714.19
491.657	723.19
491.874	733.19
492.092	736.19
492.31	742.19
492.527	750.19
492.745	746.19
492.963	733.19
493.18	747.19
493.398	780.19
493.615	781.19
493.833	778.19
494.05	779.19
494.268	797.19
494.485	754.19
494.703	756.19
494.92	767.19
495.138	739.19
495.355	769.19
495.573	791.19
495.79	753.19
496.008	785.19
496.225	794.19
496.442	774.19
496.66	763.19
496.877	782.19
497.094	779.19
497.312	792.19
497.529	799.19
497.746	780.19
497.963	841.19
498.181	851.19
498.398	857.19
498.615	889.19
498.832	907.19
499.049	902.19
499.267	942.19
499.484	969.19
499.701	1010.19
499.918	1010.19
500.135	1102.19
500.352	1116.19
500.569	1155.19
500.786	1158.19
501.003	1145.19
501.22	1150.19
501.437	1060.19
501.654	1032.19
501.871	998.19
