Data from 1966.PennyLincolnUp.Lamp.En5.5.200Scan.071719.P1.Scan2.head_HRD10591_14-17-42-129.txt Node
Date: Thu Jul 18 14:17:42 EDT 2019
User: cochatt
Spectrometer: HR+D1059
Trigger mode: 1
Integration Time (sec): 1.000000E-1
Scans to average: 1
Electric dark correction enabled: true
Nonlinearity correction enabled: false
Boxcar width: 0
XAxis mode: Wavelengths
Number of Pixels in Spectrum: 2048
>>>>>Begin Spectral Data<<<<<
223.165	-10.25
223.4	-10.25
223.635	-10.25
223.869	-15.25
224.104	-26.25
224.338	-12.25
224.573	-0.25
224.808	-10.25
225.042	4.75
225.277	-13.25
225.511	-8.25
225.746	2.75
225.98	-6.25
226.215	11.75
226.449	10.75
226.683	12.75
226.918	35.75
227.152	23.75
227.387	19.75
227.621	31.75
227.856	32.75
228.09	30.75
228.324	34.75
228.559	43.75
228.793	45.75
229.027	78.75
229.262	99.75
229.496	119.75
229.73	130.75
229.964	152.75
230.199	132.75
230.433	121.75
230.667	124.75
230.901	113.75
231.136	108.75
231.37	116.75
231.604	99.75
231.838	105.75
232.072	95.75
232.306	109.75
232.541	112.75
232.775	107.75
233.009	121.75
233.243	101.75
233.477	114.75
233.711	112.75
233.945	99.75
234.179	105.75
234.413	111.75
234.647	123.75
234.881	117.75
235.115	121.75
235.349	118.75
235.583	123.75
235.817	123.75
236.051	120.75
236.285	117.75
236.519	123.75
236.753	138.75
236.987	151.75
237.221	185.75
237.455	214.75
237.689	181.75
237.922	145.75
238.156	116.75
238.39	131.75
238.624	136.75
238.858	121.75
239.091	113.75
239.325	125.75
239.559	129.75
239.793	119.75
240.027	134.75
240.26	120.75
240.494	152.75
240.728	147.75
240.961	145.75
241.195	134.75
241.429	135.75
241.662	139.75
241.896	130.75
242.13	135.75
242.363	127.75
242.597	133.75
242.83	135.75
243.064	136.75
243.298	149.75
243.531	131.75
243.765	131.75
243.998	122.75
244.232	143.75
244.465	139.75
244.699	138.75
244.932	121.75
245.166	133.75
245.399	142.75
245.633	127.75
245.866	144.75
246.099	148.75
246.333	149.75
246.566	141.75
246.8	147.75
247.033	139.75
247.266	143.75
247.5	151.75
247.733	159.75
247.966	160.75
248.2	153.75
248.433	169.75
248.666	156.75
248.899	178.75
249.133	175.75
249.366	213.75
249.599	192.75
249.832	178.75
250.066	183.75
250.299	177.75
250.532	187.75
250.765	209.75
250.998	220.75
251.231	214.75
251.465	205.75
251.698	197.75
251.931	203.75
252.164	197.75
252.397	197.75
252.63	186.75
252.863	197.75
253.096	206.75
253.329	215.75
253.562	223.75
253.795	208.75
254.028	214.75
254.261	210.75
254.494	220.75
254.727	245.75
254.96	274.75
255.193	255.75
255.426	241.75
255.659	225.75
255.892	234.75
256.124	232.75
256.357	228.75
256.59	215.75
256.823	193.75
257.056	207.75
257.289	210.75
257.521	205.75
257.754	201.75
257.987	210.75
258.22	204.75
258.452	199.75
258.685	208.75
258.918	213.75
259.151	201.75
259.383	211.75
259.616	205.75
259.849	221.75
260.081	248.75
260.314	235.75
260.547	245.75
260.779	235.75
261.012	219.75
261.244	215.75
261.477	212.75
261.71	219.75
261.942	199.75
262.175	236.75
262.407	224.75
262.64	200.75
262.872	217.75
263.105	211.75
263.337	219.75
263.57	220.75
263.802	211.75
264.035	214.75
264.267	216.75
264.499	220.75
264.732	219.75
264.964	210.75
265.197	205.75
265.429	220.75
265.661	226.75
265.894	216.75
266.126	214.75
266.358	204.75
266.591	210.75
266.823	219.75
267.055	217.75
267.287	227.75
267.52	216.75
267.752	205.75
267.984	214.75
268.216	215.75
268.448	218.75
268.681	219.75
268.913	228.75
269.145	261.75
269.377	283.75
269.609	258.75
269.841	242.75
270.073	273.75
270.306	263.75
270.538	310.75
270.77	295.75
271.002	280.75
271.234	275.75
271.466	269.75
271.698	304.75
271.93	322.75
272.162	296.75
272.394	303.75
272.626	287.75
272.858	282.75
273.09	253.75
273.322	247.75
273.553	257.75
273.785	248.75
274.017	256.75
274.249	251.75
274.481	259.75
274.713	236.75
274.945	244.75
275.176	254.75
275.408	266.75
275.64	287.75
275.872	234.75
276.104	250.75
276.335	250.75
276.567	266.75
276.799	289.75
277.031	292.75
277.262	306.75
277.494	324.75
277.726	286.75
277.957	280.75
278.189	274.75
278.421	267.75
278.652	264.75
278.884	260.75
279.115	270.75
279.347	259.75
279.579	261.75
279.81	256.75
280.042	248.75
280.273	274.75
280.505	278.75
280.736	264.75
280.968	270.75
281.199	269.75
281.431	269.75
281.662	263.75
281.894	265.75
282.125	275.75
282.356	283.75
282.588	304.75
282.819	295.75
283.051	271.75
283.282	255.75
283.513	250.75
283.745	283.75
283.976	279.75
284.207	273.75
284.439	277.75
284.67	269.75
284.901	279.75
285.132	264.75
285.364	285.75
285.595	271.75
285.826	268.75
286.057	269.75
286.288	269.75
286.52	270.75
286.751	280.75
286.982	277.75
287.213	279.75
287.444	288.75
287.675	285.75
287.906	299.75
288.138	304.75
288.369	289.75
288.6	287.75
288.831	294.75
289.062	285.75
289.293	294.75
289.524	292.75
289.755	266.75
289.986	280.75
290.217	284.75
290.448	279.75
290.679	277.75
290.91	280.75
291.141	283.75
291.371	292.75
291.602	271.75
291.833	291.75
292.064	299.75
292.295	279.75
292.526	272.75
292.757	292.75
292.987	304.75
293.218	283.75
293.449	277.75
293.68	277.75
293.91	288.75
294.141	276.75
294.372	288.75
294.603	313.75
294.833	292.75
295.064	283.75
295.295	287.75
295.525	268.75
295.756	298.75
295.987	316.75
296.217	300.75
296.448	296.75
296.679	300.75
296.909	297.75
297.14	292.75
297.37	292.75
297.601	300.75
297.831	291.75
298.062	286.75
298.292	293.75
298.523	309.75
298.753	321.75
298.984	293.75
299.214	291.75
299.445	317.75
299.675	312.75
299.905	322.75
300.136	306.75
300.366	303.75
300.597	313.75
300.827	307.75
301.057	336.75
301.288	321.75
301.518	300.75
301.748	315.75
301.979	326.75
302.209	332.75
302.439	328.75
302.669	340.75
302.9	298.75
303.13	313.75
303.36	315.75
303.59	309.75
303.82	309.75
304.051	336.75
304.281	322.75
304.511	314.75
304.741	323.75
304.971	323.75
305.201	322.75
305.431	322.75
305.661	312.75
305.891	330.75
306.121	319.75
306.352	338.75
306.582	338.75
306.812	331.75
307.042	338.75
307.272	331.75
307.502	319.75
307.731	321.75
307.961	338.75
308.191	342.75
308.421	303.75
308.651	337.75
308.881	352.75
309.111	342.75
309.341	337.75
309.571	358.75
309.8	348.75
310.03	348.75
310.26	361.75
310.49	369.75
310.72	369.75
310.949	386.75
311.179	371.75
311.409	366.75
311.639	381.75
311.868	375.75
312.098	377.75
312.328	373.75
312.557	383.75
312.787	383.75
313.017	410.75
313.246	390.75
313.476	363.75
313.706	377.75
313.935	363.75
314.165	386.75
314.394	381.75
314.624	379.75
314.853	375.75
315.083	373.75
315.312	370.75
315.542	386.75
315.771	391.75
316.001	375.75
316.23	380.75
316.46	360.75
316.689	360.75
316.919	379.75
317.148	389.75
317.377	381.75
317.607	386.75
317.836	371.75
318.065	377.75
318.295	373.75
318.524	374.75
318.753	375.75
318.983	364.75
319.212	377.75
319.441	385.75
319.67	381.75
319.9	390.75
320.129	367.75
320.358	385.75
320.587	388.75
320.816	365.75
321.046	373.75
321.275	396.75
321.504	404.75
321.733	381.75
321.962	397.75
322.191	401.75
322.42	419.75
322.649	435.75
322.878	428.75
323.108	435.75
323.337	457.75
323.566	465.75
323.795	509.75
324.024	542.75
324.253	645.75
324.482	887.75
324.71	1383.75
324.939	2101.75
325.168	1845.75
325.397	898.75
325.626	629.75
325.855	511.75
326.084	498.75
326.313	480.75
326.542	464.75
326.77	516.75
326.999	598.75
327.228	823.75
327.457	1258.75
327.686	1623.75
327.914	1077.75
328.143	676.75
328.372	592.75
328.6	567.75
328.829	531.75
329.058	533.75
329.287	560.75
329.515	537.75
329.744	491.75
329.972	473.75
330.201	544.75
330.43	570.75
330.658	592.75
330.887	604.75
331.115	570.75
331.344	529.75
331.572	511.75
331.801	483.75
332.03	476.75
332.258	464.75
332.486	440.75
332.715	432.75
332.943	450.75
333.172	457.75
333.4	464.75
333.629	451.75
333.857	466.75
334.085	499.75
334.314	509.75
334.542	555.75
334.771	542.75
334.999	526.75
335.227	484.75
335.455	455.75
335.684	455.75
335.912	455.75
336.14	446.75
336.369	460.75
336.597	457.75
336.825	470.75
337.053	466.75
337.281	443.75
337.51	435.75
337.738	448.75
337.966	456.75
338.194	456.75
338.422	444.75
338.65	440.75
338.878	443.75
339.106	432.75
339.334	428.75
339.562	443.75
339.79	395.75
340.018	432.75
340.246	437.75
340.474	434.75
340.702	422.75
340.93	427.75
341.158	439.75
341.386	441.75
341.614	438.75
341.842	426.75
342.07	438.75
342.298	405.75
342.526	425.75
342.754	417.75
342.981	414.75
343.209	420.75
343.437	435.75
343.665	417.75
343.893	420.75
344.12	449.75
344.348	443.75
344.576	429.75
344.804	453.75
345.031	456.75
345.259	442.75
345.487	416.75
345.714	427.75
345.942	427.75
346.17	433.75
346.397	421.75
346.625	426.75
346.853	434.75
347.08	416.75
347.308	416.75
347.535	430.75
347.763	424.75
347.99	422.75
348.218	440.75
348.445	408.75
348.673	431.75
348.9	415.75
349.128	405.75
349.355	413.75
349.583	419.75
349.81	428.75
350.037	398.75
350.265	395.75
350.492	396.75
350.72	426.75
350.947	407.75
351.174	413.75
351.402	436.75
351.629	443.75
351.856	431.75
352.083	435.75
352.311	440.75
352.538	429.75
352.765	424.75
352.992	416.75
353.22	407.75
353.447	410.75
353.674	426.75
353.901	424.75
354.128	405.75
354.355	408.75
354.583	400.75
354.81	412.75
355.037	392.75
355.264	398.75
355.491	406.75
355.718	402.75
355.945	390.75
356.172	416.75
356.399	402.75
356.626	394.75
356.853	399.75
357.08	412.75
357.307	410.75
357.534	403.75
357.761	406.75
357.988	393.75
358.215	399.75
358.441	405.75
358.668	395.75
358.895	395.75
359.122	409.75
359.349	420.75
359.576	427.75
359.802	447.75
360.029	442.75
360.256	470.75
360.483	465.75
360.709	429.75
360.936	448.75
361.163	418.75
361.39	423.75
361.616	414.75
361.843	412.75
362.07	427.75
362.296	425.75
362.523	422.75
362.749	421.75
362.976	412.75
363.203	415.75
363.429	409.75
363.656	412.75
363.882	424.75
364.109	419.75
364.335	422.75
364.562	401.75
364.788	408.75
365.015	424.75
365.241	408.75
365.468	425.75
365.694	423.75
365.92	404.75
366.147	411.75
366.373	416.75
366.599	407.75
366.826	383.75
367.052	407.75
367.278	398.75
367.505	403.75
367.731	423.75
367.957	432.75
368.184	415.75
368.41	409.75
368.636	429.75
368.862	449.75
369.089	426.75
369.315	409.75
369.541	430.75
369.767	417.75
369.993	413.75
370.219	389.75
370.445	421.75
370.672	417.75
370.898	410.75
371.124	425.75
371.35	423.75
371.576	425.75
371.802	407.75
372.028	410.75
372.254	415.75
372.48	442.75
372.706	428.75
372.932	429.75
373.158	435.75
373.384	414.75
373.61	431.75
373.835	439.75
374.061	433.75
374.287	424.75
374.513	421.75
374.739	442.75
374.965	435.75
375.191	420.75
375.416	428.75
375.642	410.75
375.868	417.75
376.094	433.75
376.319	401.75
376.545	399.75
376.771	420.75
376.997	451.75
377.222	417.75
377.448	404.75
377.674	417.75
377.899	398.75
378.125	418.75
378.35	411.75
378.576	416.75
378.802	418.75
379.027	425.75
379.253	436.75
379.478	423.75
379.704	410.75
379.929	412.75
380.155	425.75
380.38	422.75
380.606	428.75
380.831	425.75
381.057	402.75
381.282	403.75
381.507	437.75
381.733	437.75
381.958	420.75
382.184	401.75
382.409	441.75
382.634	451.75
382.86	441.75
383.085	451.75
383.31	427.75
383.535	449.75
383.761	442.75
383.986	440.75
384.211	450.75
384.436	466.75
384.662	457.75
384.887	457.75
385.112	461.75
385.337	464.75
385.562	448.75
385.787	466.75
386.013	461.75
386.238	481.75
386.463	479.75
386.688	498.75
386.913	470.75
387.138	459.75
387.363	470.75
387.588	482.75
387.813	484.75
388.038	445.75
388.263	486.75
388.488	460.75
388.713	488.75
388.938	502.75
389.163	468.75
389.387	463.75
389.612	457.75
389.837	480.75
390.062	481.75
390.287	457.75
390.512	464.75
390.736	472.75
390.961	476.75
391.186	471.75
391.411	473.75
391.636	503.75
391.86	481.75
392.085	484.75
392.31	501.75
392.534	495.75
392.759	482.75
392.984	469.75
393.208	467.75
393.433	479.75
393.658	503.75
393.882	455.75
394.107	481.75
394.331	482.75
394.556	499.75
394.78	491.75
395.005	489.75
395.229	464.75
395.454	501.75
395.678	505.75
395.903	514.75
396.127	529.75
396.352	536.75
396.576	505.75
396.801	492.75
397.025	507.75
397.249	516.75
397.474	527.75
397.698	529.75
397.922	545.75
398.147	524.75
398.371	565.75
398.595	540.75
398.82	540.75
399.044	535.75
399.268	591.75
399.492	592.75
399.717	619.75
399.941	670.75
400.165	667.75
400.389	672.75
400.613	633.75
400.837	577.75
401.062	567.75
401.286	545.75
401.51	544.75
401.734	519.75
401.958	557.75
402.182	536.75
402.406	560.75
402.63	572.75
402.854	546.75
403.078	546.75
403.302	556.75
403.526	586.75
403.75	576.75
403.974	574.75
404.198	554.75
404.422	550.75
404.645	569.75
404.869	559.75
405.093	623.75
405.317	649.75
405.541	688.75
405.765	617.75
405.988	589.75
406.212	622.75
406.436	627.75
406.66	616.75
406.883	619.75
407.107	656.75
407.331	703.75
407.555	744.75
407.778	757.75
408.002	670.75
408.226	621.75
408.449	641.75
408.673	609.75
408.896	659.75
409.12	714.75
409.344	649.75
409.567	595.75
409.791	589.75
410.014	579.75
410.238	578.75
410.461	582.75
410.685	585.75
410.908	596.75
411.132	625.75
411.355	665.75
411.578	624.75
411.802	572.75
412.025	579.75
412.249	570.75
412.472	612.75
412.695	645.75
412.919	618.75
413.142	594.75
413.365	586.75
413.589	566.75
413.812	547.75
414.035	543.75
414.258	545.75
414.482	555.75
414.705	550.75
414.928	549.75
415.151	528.75
415.374	550.75
415.597	535.75
415.821	525.75
416.044	541.75
416.267	545.75
416.49	540.75
416.713	554.75
416.936	528.75
417.159	538.75
417.382	547.75
417.605	542.75
417.828	564.75
418.051	585.75
418.274	576.75
418.497	546.75
418.72	535.75
418.943	532.75
419.166	540.75
419.389	595.75
419.611	595.75
419.834	573.75
420.057	563.75
420.28	563.75
420.503	538.75
420.726	561.75
420.948	564.75
421.171	628.75
421.394	668.75
421.617	583.75
421.839	578.75
422.062	574.75
422.285	575.75
422.507	639.75
422.73	712.75
422.953	696.75
423.175	603.75
423.398	604.75
423.621	607.75
423.843	612.75
424.066	611.75
424.288	610.75
424.511	617.75
424.733	672.75
424.956	760.75
425.178	731.75
425.401	724.75
425.623	731.75
425.846	641.75
426.068	604.75
426.291	607.75
426.513	610.75
426.735	636.75
426.958	635.75
427.18	732.75
427.402	880.75
427.625	988.75
427.847	836.75
428.069	723.75
428.292	667.75
428.514	618.75
428.736	574.75
428.958	564.75
429.181	555.75
429.403	567.75
429.625	573.75
429.847	601.75
430.069	672.75
430.292	676.75
430.514	584.75
430.736	564.75
430.958	553.75
431.18	524.75
431.402	533.75
431.624	531.75
431.846	547.75
432.068	523.75
432.29	543.75
432.512	519.75
432.734	552.75
432.956	533.75
433.178	544.75
433.4	550.75
433.622	555.75
433.844	567.75
434.066	549.75
434.287	537.75
434.509	533.75
434.731	540.75
434.953	572.75
435.175	576.75
435.397	598.75
435.618	602.75
435.84	613.75
436.062	738.75
436.284	828.75
436.505	663.75
436.727	618.75
436.949	585.75
437.17	586.75
437.392	562.75
437.614	567.75
437.835	593.75
438.057	708.75
438.278	803.75
438.5	800.75
438.721	913.75
438.943	851.75
439.165	673.75
439.386	614.75
439.608	614.75
439.829	609.75
440.05	635.75
440.272	709.75
440.493	658.75
440.715	605.75
440.936	567.75
441.158	580.75
441.379	563.75
441.6	559.75
441.822	561.75
442.043	645.75
442.264	715.75
442.486	782.75
442.707	675.75
442.928	619.75
443.149	636.75
443.371	657.75
443.592	667.75
443.813	780.75
444.034	817.75
444.255	713.75
444.476	622.75
444.698	635.75
444.919	606.75
445.14	693.75
445.361	630.75
445.582	661.75
445.803	720.75
446.024	815.75
446.245	813.75
446.466	749.75
446.687	652.75
446.908	613.75
447.129	568.75
447.35	556.75
447.571	559.75
447.792	553.75
448.013	548.75
448.234	567.75
448.455	631.75
448.675	738.75
448.896	869.75
449.117	721.75
449.338	707.75
449.559	805.75
449.779	930.75
450	724.75
450.221	635.75
450.442	572.75
450.662	554.75
450.883	535.75
451.104	569.75
451.324	559.75
451.545	520.75
451.766	529.75
451.986	478.75
452.207	486.75
452.428	496.75
452.648	486.75
452.869	487.75
453.089	513.75
453.31	522.75
453.53	499.75
453.751	493.75
453.971	497.75
454.192	525.75
454.412	499.75
454.633	474.75
454.853	489.75
455.073	480.75
455.294	525.75
455.514	583.75
455.734	576.75
455.955	498.75
456.175	473.75
456.395	476.75
456.616	483.75
456.836	465.75
457.056	476.75
457.276	472.75
457.497	473.75
457.717	482.75
457.937	479.75
458.157	491.75
458.377	482.75
458.598	521.75
458.818	576.75
459.038	643.75
459.258	662.75
459.478	564.75
459.698	524.75
459.918	529.75
460.138	540.75
460.358	551.75
460.578	534.75
460.798	534.75
461.018	553.75
461.238	546.75
461.458	537.75
461.678	538.75
461.898	559.75
462.118	561.75
462.338	573.75
462.558	562.75
462.777	583.75
462.997	587.75
463.217	599.75
463.437	607.75
463.657	596.75
463.876	598.75
464.096	601.75
464.316	619.75
464.536	594.75
464.755	597.75
464.975	579.75
465.195	630.75
465.414	673.75
465.634	611.75
465.854	562.75
466.073	551.75
466.293	544.75
466.512	555.75
466.732	512.75
466.951	507.75
467.171	524.75
467.391	513.75
467.61	499.75
467.829	533.75
468.049	555.75
468.268	514.75
468.488	525.75
468.707	491.75
468.927	497.75
469.146	499.75
469.365	507.75
469.585	511.75
469.804	504.75
470.023	534.75
470.243	531.75
470.462	528.75
470.681	529.75
470.901	541.75
471.12	534.75
471.339	523.75
471.558	531.75
471.777	529.75
471.997	525.75
472.216	532.75
472.435	569.75
472.654	544.75
472.873	529.75
473.092	532.75
473.311	502.75
473.53	519.75
473.749	512.75
473.968	576.75
474.187	660.75
474.406	715.75
474.625	601.75
474.844	518.75
475.063	537.75
475.282	543.75
475.501	533.75
475.72	539.75
475.939	542.75
476.158	531.75
476.377	544.75
476.596	528.75
476.814	543.75
477.033	527.75
477.252	564.75
477.471	560.75
477.69	571.75
477.908	545.75
478.127	593.75
478.346	563.75
478.564	589.75
478.783	604.75
479.002	584.75
479.22	588.75
479.439	607.75
479.658	608.75
479.876	632.75
480.095	647.75
480.313	643.75
480.532	673.75
480.751	668.75
480.969	652.75
481.188	724.75
481.406	744.75
481.624	683.75
481.843	631.75
482.061	634.75
482.28	650.75
482.498	622.75
482.717	612.75
482.935	627.75
483.153	631.75
483.372	617.75
483.59	619.75
483.808	622.75
484.027	616.75
484.245	636.75
484.463	629.75
484.681	637.75
484.9	661.75
485.118	641.75
485.336	630.75
485.554	638.75
485.772	631.75
485.99	641.75
486.209	637.75
486.427	663.75
486.645	660.75
486.863	658.75
487.081	666.75
487.299	673.75
487.517	654.75
487.735	676.75
487.953	654.75
488.171	680.75
488.389	654.75
488.607	665.75
488.825	667.75
489.043	653.75
489.261	665.75
489.479	681.75
489.696	679.75
489.914	678.75
490.132	691.75
490.35	703.75
490.568	699.75
490.786	705.75
491.003	706.75
491.221	716.75
491.439	750.75
491.657	753.75
491.874	754.75
492.092	775.75
492.31	751.75
492.527	772.75
492.745	775.75
492.963	787.75
493.18	770.75
493.398	777.75
493.615	784.75
493.833	803.75
494.05	796.75
494.268	776.75
494.485	781.75
494.703	770.75
494.92	776.75
495.138	760.75
495.355	793.75
495.573	787.75
495.79	777.75
496.008	779.75
496.225	776.75
496.442	801.75
496.66	785.75
496.877	764.75
497.094	782.75
497.312	823.75
497.529	804.75
497.746	812.75
497.963	813.75
498.181	853.75
498.398	850.75
498.615	868.75
498.832	871.75
499.049	897.75
499.267	935.75
499.484	989.75
499.701	1017.75
499.918	1012.75
500.135	1111.75
500.352	1121.75
500.569	1144.75
500.786	1136.75
501.003	1137.75
501.22	1126.75
501.437	1069.75
501.654	1025.75
