Data from 1966.PennyLincolnUp.Lamp.En5.5.200Scan.071719.P1.Scan2.head_HRD10591_14-19-24-265.txt Node
Date: Thu Jul 18 14:19:24 EDT 2019
User: cochatt
Spectrometer: HR+D1059
Trigger mode: 1
Integration Time (sec): 1.000000E-1
Scans to average: 1
Electric dark correction enabled: true
Nonlinearity correction enabled: false
Boxcar width: 0
XAxis mode: Wavelengths
Number of Pixels in Spectrum: 2048
>>>>>Begin Spectral Data<<<<<
223.165	-5.94
223.4	-5.94
223.635	-5.94
223.869	-11.94
224.104	-19.94
224.338	-20.94
224.573	-4.94
224.808	-18.94
225.042	-14.94
225.277	-2.94
225.511	8.06
225.746	6.06
225.98	-6.94
226.215	-3.94
226.449	17.06
226.683	19.06
226.918	33.06
227.152	28.06
227.387	33.06
227.621	24.06
227.856	43.06
228.09	38.06
228.324	45.06
228.559	53.06
228.793	53.06
229.027	92.06
229.262	120.06
229.496	125.06
229.73	137.06
229.964	154.06
230.199	139.06
230.433	118.06
230.667	111.06
230.901	119.06
231.136	104.06
231.37	116.06
231.604	120.06
231.838	113.06
232.072	116.06
232.306	116.06
232.541	120.06
232.775	123.06
233.009	123.06
233.243	117.06
233.477	111.06
233.711	129.06
233.945	121.06
234.179	122.06
234.413	130.06
234.647	117.06
234.881	110.06
235.115	113.06
235.349	123.06
235.583	126.06
235.817	113.06
236.051	141.06
236.285	131.06
236.519	130.06
236.753	139.06
236.987	149.06
237.221	189.06
237.455	240.06
237.689	186.06
237.922	151.06
238.156	135.06
238.39	146.06
238.624	133.06
238.858	119.06
239.091	121.06
239.325	126.06
239.559	118.06
239.793	124.06
240.027	139.06
240.26	141.06
240.494	160.06
240.728	149.06
240.961	157.06
241.195	150.06
241.429	147.06
241.662	119.06
241.896	122.06
242.13	141.06
242.363	121.06
242.597	152.06
242.83	132.06
243.064	152.06
243.298	133.06
243.531	137.06
243.765	148.06
243.998	147.06
244.232	133.06
244.465	155.06
244.699	157.06
244.932	142.06
245.166	143.06
245.399	154.06
245.633	140.06
245.866	151.06
246.099	145.06
246.333	138.06
246.566	153.06
246.8	163.06
247.033	155.06
247.266	162.06
247.5	161.06
247.733	161.06
247.966	186.06
248.2	183.06
248.433	174.06
248.666	189.06
248.899	187.06
249.133	215.06
249.366	217.06
249.599	204.06
249.832	186.06
250.066	201.06
250.299	191.06
250.532	190.06
250.765	204.06
250.998	236.06
251.231	238.06
251.465	222.06
251.698	206.06
251.931	225.06
252.164	197.06
252.397	202.06
252.63	197.06
252.863	199.06
253.096	213.06
253.329	247.06
253.562	221.06
253.795	216.06
254.028	233.06
254.261	231.06
254.494	236.06
254.727	275.06
254.96	301.06
255.193	284.06
255.426	265.06
255.659	243.06
255.892	243.06
256.124	247.06
256.357	246.06
256.59	235.06
256.823	220.06
257.056	217.06
257.289	215.06
257.521	225.06
257.754	208.06
257.987	218.06
258.22	218.06
258.452	217.06
258.685	200.06
258.918	217.06
259.151	216.06
259.383	219.06
259.616	248.06
259.849	238.06
260.081	245.06
260.314	262.06
260.547	267.06
260.779	264.06
261.012	250.06
261.244	249.06
261.477	241.06
261.71	229.06
261.942	227.06
262.175	249.06
262.407	239.06
262.64	217.06
262.872	215.06
263.105	222.06
263.337	218.06
263.57	213.06
263.802	228.06
264.035	225.06
264.267	206.06
264.499	201.06
264.732	213.06
264.964	231.06
265.197	203.06
265.429	230.06
265.661	211.06
265.894	223.06
266.126	222.06
266.358	224.06
266.591	219.06
266.823	234.06
267.055	232.06
267.287	240.06
267.52	232.06
267.752	213.06
267.984	231.06
268.216	228.06
268.448	231.06
268.681	261.06
268.913	255.06
269.145	284.06
269.377	283.06
269.609	291.06
269.841	289.06
270.073	275.06
270.306	289.06
270.538	322.06
270.77	324.06
271.002	306.06
271.234	287.06
271.466	307.06
271.698	319.06
271.93	322.06
272.162	335.06
272.394	318.06
272.626	304.06
272.858	309.06
273.09	279.06
273.322	292.06
273.553	285.06
273.785	266.06
274.017	268.06
274.249	266.06
274.481	271.06
274.713	286.06
274.945	277.06
275.176	271.06
275.408	284.06
275.64	272.06
275.872	280.06
276.104	275.06
276.335	266.06
276.567	275.06
276.799	293.06
277.031	309.06
277.262	327.06
277.494	324.06
277.726	326.06
277.957	301.06
278.189	297.06
278.421	283.06
278.652	283.06
278.884	271.06
279.115	281.06
279.347	279.06
279.579	281.06
279.81	277.06
280.042	280.06
280.273	273.06
280.505	281.06
280.736	272.06
280.968	265.06
281.199	273.06
281.431	271.06
281.662	255.06
281.894	269.06
282.125	270.06
282.356	292.06
282.588	315.06
282.819	308.06
283.051	287.06
283.282	279.06
283.513	280.06
283.745	303.06
283.976	293.06
284.207	292.06
284.439	288.06
284.67	277.06
284.901	282.06
285.132	282.06
285.364	279.06
285.595	290.06
285.826	297.06
286.057	280.06
286.288	286.06
286.52	279.06
286.751	307.06
286.982	294.06
287.213	291.06
287.444	314.06
287.675	285.06
287.906	295.06
288.138	323.06
288.369	320.06
288.6	324.06
288.831	316.06
289.062	305.06
289.293	297.06
289.524	290.06
289.755	287.06
289.986	301.06
290.217	284.06
290.448	289.06
290.679	287.06
290.91	315.06
291.141	292.06
291.371	297.06
291.602	299.06
291.833	299.06
292.064	311.06
292.295	314.06
292.526	293.06
292.757	307.06
292.987	303.06
293.218	307.06
293.449	297.06
293.68	301.06
293.91	298.06
294.141	299.06
294.372	301.06
294.603	302.06
294.833	315.06
295.064	300.06
295.295	303.06
295.525	294.06
295.756	299.06
295.987	319.06
296.217	314.06
296.448	357.06
296.679	309.06
296.909	310.06
297.14	313.06
297.37	323.06
297.601	308.06
297.831	291.06
298.062	309.06
298.292	297.06
298.523	319.06
298.753	305.06
298.984	299.06
299.214	322.06
299.445	334.06
299.675	320.06
299.905	333.06
300.136	313.06
300.366	329.06
300.597	317.06
300.827	353.06
301.057	317.06
301.288	332.06
301.518	334.06
301.748	327.06
301.979	330.06
302.209	350.06
302.439	347.06
302.669	345.06
302.9	337.06
303.13	351.06
303.36	336.06
303.59	346.06
303.82	353.06
304.051	346.06
304.281	373.06
304.511	327.06
304.741	341.06
304.971	335.06
305.201	348.06
305.431	331.06
305.661	341.06
305.891	323.06
306.121	331.06
306.352	347.06
306.582	356.06
306.812	344.06
307.042	353.06
307.272	360.06
307.502	355.06
307.731	340.06
307.961	343.06
308.191	351.06
308.421	329.06
308.651	354.06
308.881	355.06
309.111	374.06
309.341	348.06
309.571	373.06
309.8	379.06
310.03	388.06
310.26	386.06
310.49	385.06
310.72	389.06
310.949	403.06
311.179	397.06
311.409	402.06
311.639	394.06
311.868	400.06
312.098	394.06
312.328	390.06
312.557	425.06
312.787	424.06
313.017	414.06
313.246	404.06
313.476	394.06
313.706	370.06
313.935	417.06
314.165	390.06
314.394	398.06
314.624	412.06
314.853	392.06
315.083	393.06
315.312	373.06
315.542	391.06
315.771	395.06
316.001	388.06
316.23	382.06
316.46	398.06
316.689	386.06
316.919	406.06
317.148	390.06
317.377	410.06
317.607	390.06
317.836	414.06
318.065	372.06
318.295	397.06
318.524	400.06
318.753	395.06
318.983	386.06
319.212	406.06
319.441	385.06
319.67	409.06
319.9	397.06
320.129	381.06
320.358	391.06
320.587	408.06
320.816	387.06
321.046	409.06
321.275	416.06
321.504	417.06
321.733	426.06
321.962	419.06
322.191	427.06
322.42	452.06
322.649	447.06
322.878	467.06
323.108	470.06
323.337	524.06
323.566	509.06
323.795	543.06
324.024	573.06
324.253	710.06
324.482	990.06
324.71	1506.06
324.939	2329.06
325.168	2003.06
325.397	1002.06
325.626	676.06
325.855	561.06
326.084	521.06
326.313	503.06
326.542	524.06
326.77	548.06
326.999	649.06
327.228	902.06
327.457	1380.06
327.686	1753.06
327.914	1151.06
328.143	740.06
328.372	646.06
328.6	614.06
328.829	597.06
329.058	606.06
329.287	595.06
329.515	565.06
329.744	552.06
329.972	540.06
330.201	543.06
330.43	602.06
330.658	615.06
330.887	626.06
331.115	628.06
331.344	527.06
331.572	528.06
331.801	533.06
332.03	533.06
332.258	499.06
332.486	483.06
332.715	466.06
332.943	499.06
333.172	495.06
333.4	480.06
333.629	505.06
333.857	510.06
334.085	527.06
334.314	571.06
334.542	589.06
334.771	621.06
334.999	561.06
335.227	527.06
335.455	488.06
335.684	474.06
335.912	498.06
336.14	468.06
336.369	485.06
336.597	502.06
336.825	499.06
337.053	472.06
337.281	468.06
337.51	450.06
337.738	474.06
337.966	474.06
338.194	452.06
338.422	460.06
338.65	455.06
338.878	466.06
339.106	458.06
339.334	457.06
339.562	454.06
339.79	435.06
340.018	449.06
340.246	459.06
340.474	462.06
340.702	451.06
340.93	441.06
341.158	436.06
341.386	423.06
341.614	444.06
341.842	467.06
342.07	452.06
342.298	442.06
342.526	454.06
342.754	440.06
342.981	453.06
343.209	451.06
343.437	455.06
343.665	465.06
343.893	478.06
344.12	471.06
344.348	488.06
344.576	472.06
344.804	480.06
345.031	468.06
345.259	484.06
345.487	450.06
345.714	440.06
345.942	447.06
346.17	441.06
346.397	421.06
346.625	429.06
346.853	440.06
347.08	438.06
347.308	439.06
347.535	466.06
347.763	449.06
347.99	429.06
348.218	459.06
348.445	456.06
348.673	460.06
348.9	430.06
349.128	422.06
349.355	422.06
349.583	402.06
349.81	412.06
350.037	457.06
350.265	430.06
350.492	419.06
350.72	414.06
350.947	443.06
351.174	466.06
351.402	460.06
351.629	460.06
351.856	459.06
352.083	466.06
352.311	453.06
352.538	465.06
352.765	474.06
352.992	454.06
353.22	447.06
353.447	455.06
353.674	430.06
353.901	430.06
354.128	414.06
354.355	437.06
354.583	441.06
354.81	413.06
355.037	411.06
355.264	409.06
355.491	421.06
355.718	433.06
355.945	433.06
356.172	419.06
356.399	418.06
356.626	409.06
356.853	415.06
357.08	434.06
357.307	418.06
357.534	426.06
357.761	435.06
357.988	400.06
358.215	428.06
358.441	430.06
358.668	423.06
358.895	415.06
359.122	446.06
359.349	434.06
359.576	439.06
359.802	485.06
360.029	476.06
360.256	506.06
360.483	480.06
360.709	475.06
360.936	435.06
361.163	452.06
361.39	451.06
361.616	434.06
361.843	452.06
362.07	458.06
362.296	457.06
362.523	461.06
362.749	448.06
362.976	440.06
363.203	430.06
363.429	459.06
363.656	451.06
363.882	434.06
364.109	433.06
364.335	434.06
364.562	421.06
364.788	430.06
365.015	419.06
365.241	433.06
365.468	427.06
365.694	456.06
365.92	449.06
366.147	428.06
366.373	423.06
366.599	429.06
366.826	427.06
367.052	430.06
367.278	430.06
367.505	421.06
367.731	422.06
367.957	440.06
368.184	433.06
368.41	441.06
368.636	456.06
368.862	491.06
369.089	465.06
369.315	446.06
369.541	448.06
369.767	428.06
369.993	448.06
370.219	442.06
370.445	440.06
370.672	423.06
370.898	443.06
371.124	430.06
371.35	422.06
371.576	455.06
371.802	421.06
372.028	446.06
372.254	452.06
372.48	434.06
372.706	430.06
372.932	456.06
373.158	451.06
373.384	442.06
373.61	436.06
373.835	454.06
374.061	448.06
374.287	441.06
374.513	449.06
374.739	448.06
374.965	445.06
375.191	459.06
375.416	467.06
375.642	455.06
375.868	458.06
376.094	446.06
376.319	453.06
376.545	442.06
376.771	446.06
376.997	442.06
377.222	446.06
377.448	437.06
377.674	438.06
377.899	408.06
378.125	419.06
378.35	424.06
378.576	452.06
378.802	422.06
379.027	443.06
379.253	436.06
379.478	413.06
379.704	430.06
379.929	430.06
380.155	429.06
380.38	449.06
380.606	444.06
380.831	451.06
381.057	428.06
381.282	427.06
381.507	447.06
381.733	469.06
381.958	444.06
382.184	444.06
382.409	454.06
382.634	447.06
382.86	424.06
383.085	461.06
383.31	462.06
383.535	472.06
383.761	458.06
383.986	441.06
384.211	471.06
384.436	463.06
384.662	467.06
384.887	470.06
385.112	485.06
385.337	473.06
385.562	481.06
385.787	470.06
386.013	501.06
386.238	492.06
386.463	493.06
386.688	485.06
386.913	478.06
387.138	487.06
387.363	505.06
387.588	470.06
387.813	480.06
388.038	485.06
388.263	480.06
388.488	487.06
388.713	490.06
388.938	482.06
389.163	481.06
389.387	483.06
389.612	493.06
389.837	496.06
390.062	487.06
390.287	506.06
390.512	477.06
390.736	484.06
390.961	506.06
391.186	480.06
391.411	487.06
391.636	488.06
391.86	494.06
392.085	505.06
392.31	514.06
392.534	515.06
392.759	504.06
392.984	470.06
393.208	517.06
393.433	502.06
393.658	501.06
393.882	510.06
394.107	497.06
394.331	499.06
394.556	502.06
394.78	504.06
395.005	513.06
395.229	506.06
395.454	513.06
395.678	533.06
395.903	519.06
396.127	547.06
396.352	558.06
396.576	540.06
396.801	511.06
397.025	505.06
397.249	534.06
397.474	507.06
397.698	523.06
397.922	550.06
398.147	559.06
398.371	561.06
398.595	564.06
398.82	539.06
399.044	584.06
399.268	586.06
399.492	605.06
399.717	657.06
399.941	677.06
400.165	719.06
400.389	715.06
400.613	638.06
400.837	617.06
401.062	587.06
401.286	591.06
401.51	584.06
401.734	567.06
401.958	601.06
402.182	583.06
402.406	582.06
402.63	604.06
402.854	594.06
403.078	571.06
403.302	597.06
403.526	588.06
403.75	605.06
403.974	606.06
404.198	584.06
404.422	594.06
404.645	619.06
404.869	612.06
405.093	643.06
405.317	705.06
405.541	731.06
405.765	656.06
405.988	625.06
406.212	625.06
406.436	662.06
406.66	654.06
406.883	648.06
407.107	674.06
407.331	730.06
407.555	761.06
407.778	787.06
408.002	723.06
408.226	677.06
408.449	644.06
408.673	646.06
408.896	699.06
409.12	740.06
409.344	711.06
409.567	617.06
409.791	627.06
410.014	585.06
410.238	588.06
410.461	617.06
410.685	609.06
410.908	619.06
411.132	663.06
411.355	706.06
411.578	665.06
411.802	611.06
412.025	582.06
412.249	612.06
412.472	632.06
412.695	673.06
412.919	665.06
413.142	609.06
413.365	588.06
413.589	570.06
413.812	602.06
414.035	577.06
414.258	571.06
414.482	566.06
414.705	582.06
414.928	563.06
415.151	585.06
415.374	571.06
415.597	546.06
415.821	556.06
416.044	555.06
416.267	551.06
416.49	565.06
416.713	578.06
416.936	575.06
417.159	556.06
417.382	602.06
417.605	571.06
417.828	578.06
418.051	595.06
418.274	595.06
418.497	561.06
418.72	548.06
418.943	565.06
419.166	569.06
419.389	617.06
419.611	608.06
419.834	593.06
420.057	586.06
420.28	590.06
420.503	589.06
420.726	598.06
420.948	604.06
421.171	627.06
421.394	684.06
421.617	613.06
421.839	591.06
422.062	601.06
422.285	620.06
422.507	664.06
422.73	762.06
422.953	717.06
423.175	649.06
423.398	640.06
423.621	627.06
423.843	639.06
424.066	630.06
424.288	630.06
424.511	641.06
424.733	713.06
424.956	810.06
425.178	780.06
425.401	781.06
425.623	780.06
425.846	684.06
426.068	653.06
426.291	618.06
426.513	639.06
426.735	638.06
426.958	672.06
427.18	787.06
427.402	912.06
427.625	1041.06
427.847	890.06
428.069	778.06
428.292	701.06
428.514	633.06
428.736	613.06
428.958	606.06
429.181	595.06
429.403	605.06
429.625	605.06
429.847	623.06
430.069	706.06
430.292	707.06
430.514	630.06
430.736	587.06
430.958	569.06
431.18	563.06
431.402	568.06
431.624	582.06
431.846	552.06
432.068	521.06
432.29	558.06
432.512	561.06
432.734	561.06
432.956	568.06
433.178	590.06
433.4	579.06
433.622	576.06
433.844	542.06
434.066	549.06
434.287	577.06
434.509	559.06
434.731	591.06
434.953	573.06
435.175	597.06
435.397	640.06
435.618	632.06
435.84	689.06
436.062	790.06
436.284	881.06
436.505	719.06
436.727	639.06
436.949	612.06
437.17	573.06
437.392	596.06
437.614	618.06
437.835	614.06
438.057	750.06
438.278	875.06
438.5	852.06
438.721	940.06
438.943	927.06
439.165	722.06
439.386	641.06
439.608	657.06
439.829	641.06
440.05	660.06
440.272	731.06
440.493	698.06
440.715	636.06
440.936	591.06
441.158	578.06
441.379	604.06
441.6	613.06
441.822	638.06
442.043	685.06
442.264	767.06
442.486	801.06
442.707	683.06
442.928	634.06
443.149	649.06
443.371	683.06
443.592	740.06
443.813	847.06
444.034	908.06
444.255	761.06
444.476	695.06
444.698	637.06
444.919	634.06
445.14	765.06
445.361	725.06
445.582	691.06
445.803	747.06
446.024	870.06
446.245	889.06
446.466	787.06
446.687	689.06
446.908	645.06
447.129	594.06
447.35	595.06
447.571	589.06
447.792	584.06
448.013	554.06
448.234	578.06
448.455	665.06
448.675	799.06
448.896	922.06
449.117	785.06
449.338	743.06
449.559	866.06
449.779	982.06
450	791.06
450.221	638.06
450.442	605.06
450.662	565.06
450.883	597.06
451.104	618.06
451.324	561.06
451.545	553.06
451.766	535.06
451.986	524.06
452.207	531.06
452.428	535.06
452.648	509.06
452.869	521.06
453.089	533.06
453.31	546.06
453.53	523.06
453.751	527.06
453.971	522.06
454.192	538.06
454.412	542.06
454.633	524.06
454.853	508.06
455.073	516.06
455.294	549.06
455.514	615.06
455.734	586.06
455.955	510.06
456.175	528.06
456.395	482.06
456.616	493.06
456.836	473.06
457.056	503.06
457.276	497.06
457.497	510.06
457.717	519.06
457.937	505.06
458.157	515.06
458.377	533.06
458.598	549.06
458.818	600.06
459.038	683.06
459.258	711.06
459.478	615.06
459.698	583.06
459.918	555.06
460.138	556.06
460.358	562.06
460.578	576.06
460.798	577.06
461.018	583.06
461.238	589.06
461.458	564.06
461.678	558.06
461.898	578.06
462.118	575.06
462.338	595.06
462.558	583.06
462.777	596.06
462.997	638.06
463.217	609.06
463.437	635.06
463.657	626.06
463.876	619.06
464.096	602.06
464.316	610.06
464.536	617.06
464.755	627.06
464.975	631.06
465.195	630.06
465.414	697.06
465.634	643.06
465.854	597.06
466.073	567.06
466.293	566.06
466.512	552.06
466.732	528.06
466.951	542.06
467.171	535.06
467.391	538.06
467.61	552.06
467.829	555.06
468.049	556.06
468.268	531.06
468.488	561.06
468.707	542.06
468.927	501.06
469.146	533.06
469.365	523.06
469.585	547.06
469.804	522.06
470.023	582.06
470.243	546.06
470.462	539.06
470.681	589.06
470.901	563.06
471.12	567.06
471.339	557.06
471.558	555.06
471.777	546.06
471.997	552.06
472.216	552.06
472.435	562.06
472.654	567.06
472.873	574.06
473.092	541.06
473.311	555.06
473.53	530.06
473.749	553.06
473.968	606.06
474.187	723.06
474.406	718.06
474.625	598.06
474.844	571.06
475.063	581.06
475.282	566.06
475.501	549.06
475.72	567.06
475.939	565.06
476.158	556.06
476.377	551.06
476.596	579.06
476.814	587.06
477.033	571.06
477.252	587.06
477.471	589.06
477.69	588.06
477.908	587.06
478.127	592.06
478.346	586.06
478.564	610.06
478.783	619.06
479.002	632.06
479.22	620.06
479.439	647.06
479.658	660.06
479.876	672.06
480.095	675.06
480.313	718.06
480.532	700.06
480.751	672.06
480.969	698.06
481.188	742.06
481.406	790.06
481.624	697.06
481.843	696.06
482.061	660.06
482.28	672.06
482.498	659.06
482.717	669.06
482.935	650.06
483.153	643.06
483.372	631.06
483.59	644.06
483.808	648.06
484.027	652.06
484.245	657.06
484.463	667.06
484.681	670.06
484.9	673.06
485.118	664.06
485.336	678.06
485.554	656.06
485.772	691.06
485.99	666.06
486.209	677.06
486.427	671.06
486.645	686.06
486.863	689.06
487.081	684.06
487.299	699.06
487.517	684.06
487.735	698.06
487.953	692.06
488.171	703.06
488.389	702.06
488.607	697.06
488.825	700.06
489.043	687.06
489.261	706.06
489.479	714.06
489.696	698.06
489.914	708.06
490.132	718.06
490.35	711.06
490.568	759.06
490.786	755.06
491.003	744.06
491.221	766.06
491.439	761.06
491.657	774.06
491.874	807.06
492.092	817.06
492.31	783.06
492.527	807.06
492.745	783.06
492.963	812.06
493.18	823.06
493.398	825.06
493.615	812.06
493.833	819.06
494.05	825.06
494.268	838.06
494.485	821.06
494.703	786.06
494.92	831.06
495.138	830.06
495.355	868.06
495.573	825.06
495.79	854.06
496.008	850.06
496.225	819.06
496.442	806.06
496.66	831.06
496.877	831.06
497.094	843.06
497.312	851.06
497.529	839.06
497.746	867.06
497.963	886.06
498.181	903.06
498.398	929.06
498.615	909.06
498.832	941.06
499.049	963.06
499.267	981.06
499.484	1013.06
499.701	1053.06
499.918	1093.06
500.135	1126.06
500.352	1190.06
500.569	1205.06
500.786	1196.06
501.003	1208.06
501.22	1147.06
501.437	1137.06
501.654	1092.06
