Data from 1966.PennyLincolnUp.Lamp.En5.5.200Scan.071719.P1._HRD10591_14-12-42-913.txt Node
Date: Thu Jul 18 14:12:42 EDT 2019
User: cochatt
Spectrometer: HR+D1059
Trigger mode: 1
Integration Time (sec): 1.000000E-1
Scans to average: 1
Electric dark correction enabled: true
Nonlinearity correction enabled: false
Boxcar width: 0
XAxis mode: Wavelengths
Number of Pixels in Spectrum: 2048
>>>>>Begin Spectral Data<<<<<
223.165	3.25
223.4	3.25
223.635	3.25
223.869	-19.75
224.104	-23.75
224.338	-8.75
224.573	-9.75
224.808	-2.75
225.042	-8.75
225.277	-15.75
225.511	-12.75
225.746	3.25
225.98	-5.75
226.215	15.25
226.449	17.25
226.683	25.25
226.918	8.25
227.152	35.25
227.387	33.25
227.621	57.25
227.856	43.25
228.09	45.25
228.324	67.25
228.559	55.25
228.793	67.25
229.027	69.25
229.262	88.25
229.496	96.25
229.73	103.25
229.964	117.25
230.199	82.25
230.433	89.25
230.667	100.25
230.901	96.25
231.136	90.25
231.37	101.25
231.604	101.25
231.838	89.25
232.072	97.25
232.306	83.25
232.541	93.25
232.775	101.25
233.009	104.25
233.243	108.25
233.477	91.25
233.711	93.25
233.945	92.25
234.179	91.25
234.413	101.25
234.647	89.25
234.881	94.25
235.115	106.25
235.349	90.25
235.583	89.25
235.817	116.25
236.051	102.25
236.285	88.25
236.519	110.25
236.753	105.25
236.987	115.25
237.221	126.25
237.455	139.25
237.689	112.25
237.922	103.25
238.156	105.25
238.39	91.25
238.624	96.25
238.858	101.25
239.091	80.25
239.325	99.25
239.559	99.25
239.793	97.25
240.027	88.25
240.26	104.25
240.494	104.25
240.728	107.25
240.961	96.25
241.195	104.25
241.429	97.25
241.662	100.25
241.896	91.25
242.13	90.25
242.363	99.25
242.597	103.25
242.83	99.25
243.064	90.25
243.298	92.25
243.531	100.25
243.765	100.25
243.998	111.25
244.232	111.25
244.465	102.25
244.699	110.25
244.932	91.25
245.166	93.25
245.399	119.25
245.633	107.25
245.866	102.25
246.099	99.25
246.333	101.25
246.566	110.25
246.8	111.25
247.033	92.25
247.266	117.25
247.5	117.25
247.733	121.25
247.966	115.25
248.2	104.25
248.433	92.25
248.666	118.25
248.899	112.25
249.133	128.25
249.366	128.25
249.599	131.25
249.832	140.25
250.066	124.25
250.299	121.25
250.532	125.25
250.765	140.25
250.998	136.25
251.231	135.25
251.465	122.25
251.698	121.25
251.931	129.25
252.164	125.25
252.397	111.25
252.63	125.25
252.863	138.25
253.096	128.25
253.329	141.25
253.562	123.25
253.795	118.25
254.028	140.25
254.261	149.25
254.494	129.25
254.727	160.25
254.96	159.25
255.193	164.25
255.426	149.25
255.659	135.25
255.892	136.25
256.124	135.25
256.357	131.25
256.59	129.25
256.823	135.25
257.056	131.25
257.289	124.25
257.521	129.25
257.754	128.25
257.987	119.25
258.22	125.25
258.452	128.25
258.685	133.25
258.918	140.25
259.151	142.25
259.383	132.25
259.616	144.25
259.849	121.25
260.081	138.25
260.314	156.25
260.547	144.25
260.779	155.25
261.012	132.25
261.244	128.25
261.477	125.25
261.71	141.25
261.942	137.25
262.175	138.25
262.407	145.25
262.64	130.25
262.872	131.25
263.105	127.25
263.337	137.25
263.57	134.25
263.802	123.25
264.035	139.25
264.267	130.25
264.499	111.25
264.732	125.25
264.964	120.25
265.197	133.25
265.429	120.25
265.661	133.25
265.894	133.25
266.126	124.25
266.358	132.25
266.591	125.25
266.823	134.25
267.055	128.25
267.287	128.25
267.52	124.25
267.752	128.25
267.984	125.25
268.216	134.25
268.448	151.25
268.681	144.25
268.913	143.25
269.145	146.25
269.377	157.25
269.609	148.25
269.841	149.25
270.073	157.25
270.306	171.25
270.538	179.25
270.77	173.25
271.002	166.25
271.234	164.25
271.466	163.25
271.698	176.25
271.93	168.25
272.162	174.25
272.394	177.25
272.626	174.25
272.858	155.25
273.09	167.25
273.322	163.25
273.553	139.25
273.785	151.25
274.017	133.25
274.249	150.25
274.481	157.25
274.713	152.25
274.945	153.25
275.176	160.25
275.408	151.25
275.64	170.25
275.872	144.25
276.104	165.25
276.335	155.25
276.567	152.25
276.799	158.25
277.031	176.25
277.262	172.25
277.494	171.25
277.726	161.25
277.957	155.25
278.189	147.25
278.421	172.25
278.652	157.25
278.884	162.25
279.115	151.25
279.347	155.25
279.579	162.25
279.81	161.25
280.042	163.25
280.273	156.25
280.505	132.25
280.736	154.25
280.968	131.25
281.199	152.25
281.431	160.25
281.662	159.25
281.894	154.25
282.125	160.25
282.356	174.25
282.588	168.25
282.819	186.25
283.051	162.25
283.282	163.25
283.513	151.25
283.745	160.25
283.976	148.25
284.207	152.25
284.439	156.25
284.67	147.25
284.901	163.25
285.132	161.25
285.364	151.25
285.595	153.25
285.826	150.25
286.057	154.25
286.288	147.25
286.52	153.25
286.751	159.25
286.982	177.25
287.213	156.25
287.444	157.25
287.675	152.25
287.906	167.25
288.138	175.25
288.369	168.25
288.6	158.25
288.831	168.25
289.062	163.25
289.293	163.25
289.524	168.25
289.755	162.25
289.986	159.25
290.217	160.25
290.448	169.25
290.679	168.25
290.91	149.25
291.141	163.25
291.371	172.25
291.602	159.25
291.833	156.25
292.064	170.25
292.295	163.25
292.526	157.25
292.757	158.25
292.987	167.25
293.218	163.25
293.449	153.25
293.68	155.25
293.91	169.25
294.141	169.25
294.372	162.25
294.603	173.25
294.833	171.25
295.064	170.25
295.295	169.25
295.525	161.25
295.756	156.25
295.987	166.25
296.217	174.25
296.448	170.25
296.679	172.25
296.909	173.25
297.14	162.25
297.37	177.25
297.601	153.25
297.831	155.25
298.062	155.25
298.292	160.25
298.523	176.25
298.753	165.25
298.984	159.25
299.214	174.25
299.445	176.25
299.675	164.25
299.905	175.25
300.136	172.25
300.366	164.25
300.597	165.25
300.827	168.25
301.057	163.25
301.288	176.25
301.518	175.25
301.748	167.25
301.979	182.25
302.209	198.25
302.439	184.25
302.669	176.25
302.9	188.25
303.13	171.25
303.36	182.25
303.59	195.25
303.82	174.25
304.051	172.25
304.281	179.25
304.511	166.25
304.741	177.25
304.971	169.25
305.201	171.25
305.431	186.25
305.661	162.25
305.891	177.25
306.121	173.25
306.352	186.25
306.582	179.25
306.812	180.25
307.042	184.25
307.272	194.25
307.502	197.25
307.731	193.25
307.961	176.25
308.191	162.25
308.421	170.25
308.651	182.25
308.881	185.25
309.111	183.25
309.341	187.25
309.571	189.25
309.8	182.25
310.03	186.25
310.26	193.25
310.49	174.25
310.72	180.25
310.949	216.25
311.179	206.25
311.409	205.25
311.639	187.25
311.868	206.25
312.098	200.25
312.328	184.25
312.557	196.25
312.787	216.25
313.017	200.25
313.246	185.25
313.476	192.25
313.706	198.25
313.935	195.25
314.165	206.25
314.394	210.25
314.624	211.25
314.853	203.25
315.083	194.25
315.312	195.25
315.542	195.25
315.771	189.25
316.001	207.25
316.23	180.25
316.46	194.25
316.689	195.25
316.919	199.25
317.148	212.25
317.377	202.25
317.607	188.25
317.836	206.25
318.065	213.25
318.295	188.25
318.524	186.25
318.753	204.25
318.983	189.25
319.212	182.25
319.441	203.25
319.67	203.25
319.9	196.25
320.129	200.25
320.358	198.25
320.587	194.25
320.816	195.25
321.046	217.25
321.275	199.25
321.504	193.25
321.733	228.25
321.962	195.25
322.191	191.25
322.42	211.25
322.649	222.25
322.878	213.25
323.108	234.25
323.337	226.25
323.566	228.25
323.795	244.25
324.024	264.25
324.253	324.25
324.482	448.25
324.71	672.25
324.939	945.25
325.168	738.25
325.397	397.25
325.626	278.25
325.855	250.25
326.084	222.25
326.313	235.25
326.542	230.25
326.77	259.25
326.999	319.25
327.228	410.25
327.457	613.25
327.686	707.25
327.914	455.25
328.143	330.25
328.372	299.25
328.6	283.25
328.829	272.25
329.058	257.25
329.287	268.25
329.515	256.25
329.744	245.25
329.972	238.25
330.201	248.25
330.43	269.25
330.658	283.25
330.887	297.25
331.115	294.25
331.344	267.25
331.572	232.25
331.801	233.25
332.03	239.25
332.258	231.25
332.486	226.25
332.715	221.25
332.943	223.25
333.172	213.25
333.4	235.25
333.629	259.25
333.857	237.25
334.085	231.25
334.314	265.25
334.542	280.25
334.771	269.25
334.999	253.25
335.227	237.25
335.455	237.25
335.684	225.25
335.912	216.25
336.14	208.25
336.369	227.25
336.597	223.25
336.825	220.25
337.053	207.25
337.281	204.25
337.51	227.25
337.738	211.25
337.966	216.25
338.194	211.25
338.422	220.25
338.65	205.25
338.878	225.25
339.106	222.25
339.334	213.25
339.562	216.25
339.79	213.25
340.018	210.25
340.246	209.25
340.474	203.25
340.702	205.25
340.93	190.25
341.158	220.25
341.386	224.25
341.614	215.25
341.842	215.25
342.07	207.25
342.298	193.25
342.526	215.25
342.754	208.25
342.981	220.25
343.209	207.25
343.437	218.25
343.665	223.25
343.893	212.25
344.12	214.25
344.348	209.25
344.576	209.25
344.804	218.25
345.031	218.25
345.259	219.25
345.487	226.25
345.714	205.25
345.942	197.25
346.17	222.25
346.397	199.25
346.625	211.25
346.853	205.25
347.08	201.25
347.308	204.25
347.535	211.25
347.763	225.25
347.99	212.25
348.218	220.25
348.445	220.25
348.673	215.25
348.9	198.25
349.128	200.25
349.355	209.25
349.583	200.25
349.81	219.25
350.037	199.25
350.265	191.25
350.492	208.25
350.72	201.25
350.947	194.25
351.174	198.25
351.402	214.25
351.629	194.25
351.856	215.25
352.083	213.25
352.311	212.25
352.538	200.25
352.765	196.25
352.992	206.25
353.22	219.25
353.447	213.25
353.674	194.25
353.901	216.25
354.128	198.25
354.355	200.25
354.583	183.25
354.81	193.25
355.037	209.25
355.264	190.25
355.491	189.25
355.718	183.25
355.945	181.25
356.172	190.25
356.399	198.25
356.626	183.25
356.853	182.25
357.08	188.25
357.307	183.25
357.534	182.25
357.761	190.25
357.988	195.25
358.215	191.25
358.441	195.25
358.668	207.25
358.895	198.25
359.122	196.25
359.349	199.25
359.576	194.25
359.802	219.25
360.029	213.25
360.256	238.25
360.483	221.25
360.709	227.25
360.936	214.25
361.163	197.25
361.39	199.25
361.616	203.25
361.843	184.25
362.07	195.25
362.296	199.25
362.523	208.25
362.749	214.25
362.976	195.25
363.203	208.25
363.429	190.25
363.656	195.25
363.882	183.25
364.109	205.25
364.335	207.25
364.562	201.25
364.788	187.25
365.015	184.25
365.241	210.25
365.468	205.25
365.694	201.25
365.92	197.25
366.147	198.25
366.373	197.25
366.599	203.25
366.826	204.25
367.052	184.25
367.278	202.25
367.505	187.25
367.731	183.25
367.957	179.25
368.184	201.25
368.41	197.25
368.636	204.25
368.862	208.25
369.089	184.25
369.315	218.25
369.541	209.25
369.767	201.25
369.993	193.25
370.219	192.25
370.445	203.25
370.672	198.25
370.898	194.25
371.124	187.25
371.35	191.25
371.576	188.25
371.802	213.25
372.028	203.25
372.254	187.25
372.48	203.25
372.706	207.25
372.932	177.25
373.158	169.25
373.384	196.25
373.61	197.25
373.835	195.25
374.061	212.25
374.287	198.25
374.513	189.25
374.739	195.25
374.965	201.25
375.191	195.25
375.416	208.25
375.642	195.25
375.868	192.25
376.094	199.25
376.319	199.25
376.545	184.25
376.771	196.25
376.997	203.25
377.222	194.25
377.448	183.25
377.674	175.25
377.899	204.25
378.125	183.25
378.35	199.25
378.576	198.25
378.802	197.25
379.027	192.25
379.253	197.25
379.478	207.25
379.704	191.25
379.929	191.25
380.155	196.25
380.38	190.25
380.606	197.25
380.831	197.25
381.057	211.25
381.282	209.25
381.507	206.25
381.733	201.25
381.958	185.25
382.184	214.25
382.409	184.25
382.634	199.25
382.86	197.25
383.085	205.25
383.31	201.25
383.535	207.25
383.761	200.25
383.986	197.25
384.211	203.25
384.436	202.25
384.662	203.25
384.887	213.25
385.112	205.25
385.337	211.25
385.562	207.25
385.787	205.25
386.013	228.25
386.238	214.25
386.463	212.25
386.688	209.25
386.913	212.25
387.138	188.25
387.363	211.25
387.588	229.25
387.813	217.25
388.038	215.25
388.263	208.25
388.488	189.25
388.713	199.25
388.938	208.25
389.163	218.25
389.387	188.25
389.612	203.25
389.837	194.25
390.062	193.25
390.287	230.25
390.512	220.25
390.736	217.25
390.961	216.25
391.186	207.25
391.411	193.25
391.636	214.25
391.86	213.25
392.085	203.25
392.31	212.25
392.534	221.25
392.759	225.25
392.984	223.25
393.208	193.25
393.433	232.25
393.658	227.25
393.882	217.25
394.107	202.25
394.331	205.25
394.556	229.25
394.78	195.25
395.005	208.25
395.229	203.25
395.454	214.25
395.678	199.25
395.903	224.25
396.127	221.25
396.352	229.25
396.576	219.25
396.801	233.25
397.025	231.25
397.249	213.25
397.474	214.25
397.698	235.25
397.922	236.25
398.147	237.25
398.371	224.25
398.595	231.25
398.82	227.25
399.044	256.25
399.268	269.25
399.492	250.25
399.717	264.25
399.941	269.25
400.165	276.25
400.389	279.25
400.613	273.25
400.837	254.25
401.062	243.25
401.286	238.25
401.51	228.25
401.734	229.25
401.958	227.25
402.182	224.25
402.406	261.25
402.63	242.25
402.854	234.25
403.078	233.25
403.302	249.25
403.526	245.25
403.75	262.25
403.974	236.25
404.198	236.25
404.422	249.25
404.645	249.25
404.869	243.25
405.093	260.25
405.317	267.25
405.541	298.25
405.765	292.25
405.988	258.25
406.212	285.25
406.436	281.25
406.66	283.25
406.883	275.25
407.107	278.25
407.331	288.25
407.555	297.25
407.778	303.25
408.002	269.25
408.226	273.25
408.449	260.25
408.673	263.25
408.896	272.25
409.12	278.25
409.344	263.25
409.567	267.25
409.791	262.25
410.014	243.25
410.238	230.25
410.461	249.25
410.685	240.25
410.908	251.25
411.132	247.25
411.355	273.25
411.578	253.25
411.802	253.25
412.025	257.25
412.249	245.25
412.472	253.25
412.695	281.25
412.919	277.25
413.142	236.25
413.365	240.25
413.589	243.25
413.812	231.25
414.035	226.25
414.258	243.25
414.482	228.25
414.705	238.25
414.928	244.25
415.151	252.25
415.374	223.25
415.597	230.25
415.821	241.25
416.044	228.25
416.267	243.25
416.49	235.25
416.713	237.25
416.936	219.25
417.159	237.25
417.382	236.25
417.605	244.25
417.828	224.25
418.051	257.25
418.274	240.25
418.497	236.25
418.72	222.25
418.943	223.25
419.166	238.25
419.389	247.25
419.611	238.25
419.834	250.25
420.057	251.25
420.28	265.25
420.503	255.25
420.726	238.25
420.948	255.25
421.171	256.25
421.394	283.25
421.617	245.25
421.839	228.25
422.062	239.25
422.285	238.25
422.507	275.25
422.73	272.25
422.953	291.25
423.175	281.25
423.398	253.25
423.621	259.25
423.843	265.25
424.066	254.25
424.288	260.25
424.511	261.25
424.733	288.25
424.956	316.25
425.178	301.25
425.401	296.25
425.623	313.25
425.846	282.25
426.068	263.25
426.291	262.25
426.513	235.25
426.735	274.25
426.958	285.25
427.18	317.25
427.402	376.25
427.625	406.25
427.847	353.25
428.069	317.25
428.292	296.25
428.514	251.25
428.736	245.25
428.958	252.25
429.181	253.25
429.403	256.25
429.625	254.25
429.847	277.25
430.069	287.25
430.292	282.25
430.514	260.25
430.736	253.25
430.958	258.25
431.18	220.25
431.402	227.25
431.624	228.25
431.846	225.25
432.068	238.25
432.29	220.25
432.512	236.25
432.734	234.25
432.956	219.25
433.178	240.25
433.4	236.25
433.622	228.25
433.844	213.25
434.066	227.25
434.287	206.25
434.509	224.25
434.731	246.25
434.953	233.25
435.175	231.25
435.397	252.25
435.618	259.25
435.84	287.25
436.062	310.25
436.284	345.25
436.505	287.25
436.727	248.25
436.949	245.25
437.17	233.25
437.392	237.25
437.614	244.25
437.835	260.25
438.057	294.25
438.278	343.25
438.5	338.25
438.721	365.25
438.943	338.25
439.165	285.25
439.386	259.25
439.608	263.25
439.829	265.25
440.05	287.25
440.272	285.25
440.493	267.25
440.715	260.25
440.936	261.25
441.158	259.25
441.379	234.25
441.6	258.25
441.822	266.25
442.043	289.25
442.264	294.25
442.486	320.25
442.707	282.25
442.928	274.25
443.149	273.25
443.371	278.25
443.592	288.25
443.813	323.25
444.034	341.25
444.255	300.25
444.476	270.25
444.698	272.25
444.919	250.25
445.14	342.25
445.361	317.25
445.582	291.25
445.803	303.25
446.024	358.25
446.245	351.25
446.466	329.25
446.687	273.25
446.908	255.25
447.129	221.25
447.35	247.25
447.571	261.25
447.792	229.25
448.013	240.25
448.234	253.25
448.455	267.25
448.675	319.25
448.896	348.25
449.117	301.25
449.338	276.25
449.559	325.25
449.779	360.25
450	301.25
450.221	237.25
450.442	239.25
450.662	228.25
450.883	225.25
451.104	254.25
451.324	263.25
451.545	230.25
451.766	209.25
451.986	229.25
452.207	227.25
452.428	213.25
452.648	217.25
452.869	198.25
453.089	223.25
453.31	237.25
453.53	219.25
453.751	221.25
453.971	225.25
454.192	228.25
454.412	231.25
454.633	219.25
454.853	227.25
455.073	215.25
455.294	231.25
455.514	266.25
455.734	245.25
455.955	237.25
456.175	214.25
456.395	209.25
456.616	219.25
456.836	187.25
457.056	216.25
457.276	192.25
457.497	207.25
457.717	215.25
457.937	233.25
458.157	218.25
458.377	207.25
458.598	228.25
458.818	255.25
459.038	307.25
459.258	305.25
459.478	261.25
459.698	235.25
459.918	238.25
460.138	212.25
460.358	220.25
460.578	231.25
460.798	230.25
461.018	240.25
461.238	240.25
461.458	228.25
461.678	224.25
461.898	238.25
462.118	256.25
462.338	244.25
462.558	247.25
462.777	245.25
462.997	241.25
463.217	251.25
463.437	250.25
463.657	230.25
463.876	240.25
464.096	246.25
464.316	227.25
464.536	241.25
464.755	227.25
464.975	259.25
465.195	283.25
465.414	340.25
465.634	281.25
465.854	245.25
466.073	245.25
466.293	235.25
466.512	222.25
466.732	231.25
466.951	218.25
467.171	219.25
467.391	220.25
467.61	225.25
467.829	220.25
468.049	231.25
468.268	236.25
468.488	216.25
468.707	239.25
468.927	216.25
469.146	231.25
469.365	208.25
469.585	216.25
469.804	225.25
470.023	244.25
470.243	204.25
470.462	241.25
470.681	249.25
470.901	235.25
471.12	226.25
471.339	234.25
471.558	228.25
471.777	238.25
471.997	216.25
472.216	245.25
472.435	264.25
472.654	238.25
472.873	226.25
473.092	218.25
473.311	228.25
473.53	229.25
473.749	238.25
473.968	239.25
474.187	299.25
474.406	285.25
474.625	248.25
474.844	220.25
475.063	219.25
475.282	234.25
475.501	229.25
475.72	228.25
475.939	221.25
476.158	236.25
476.377	243.25
476.596	238.25
476.814	236.25
477.033	230.25
477.252	248.25
477.471	238.25
477.69	239.25
477.908	234.25
478.127	262.25
478.346	256.25
478.564	257.25
478.783	240.25
479.002	249.25
479.22	238.25
479.439	271.25
479.658	255.25
479.876	259.25
480.095	260.25
480.313	295.25
480.532	296.25
480.751	274.25
480.969	284.25
481.188	314.25
481.406	346.25
481.624	300.25
481.843	284.25
482.061	255.25
482.28	270.25
482.498	246.25
482.717	238.25
482.935	268.25
483.153	265.25
483.372	249.25
483.59	265.25
483.808	264.25
484.027	242.25
484.245	263.25
484.463	264.25
484.681	271.25
484.9	279.25
485.118	263.25
485.336	281.25
485.554	287.25
485.772	263.25
485.99	273.25
486.209	273.25
486.427	261.25
486.645	281.25
486.863	296.25
487.081	265.25
487.299	281.25
487.517	278.25
487.735	296.25
487.953	285.25
488.171	284.25
488.389	297.25
488.607	268.25
488.825	279.25
489.043	278.25
489.261	263.25
489.479	274.25
489.696	280.25
489.914	274.25
490.132	282.25
490.35	299.25
490.568	277.25
490.786	305.25
491.003	297.25
491.221	299.25
491.439	337.25
491.657	315.25
491.874	329.25
492.092	333.25
492.31	325.25
492.527	301.25
492.745	326.25
492.963	327.25
493.18	314.25
493.398	324.25
493.615	329.25
493.833	330.25
494.05	328.25
494.268	315.25
494.485	327.25
494.703	334.25
494.92	335.25
495.138	329.25
495.355	332.25
495.573	325.25
495.79	331.25
496.008	304.25
496.225	305.25
496.442	332.25
496.66	338.25
496.877	300.25
497.094	332.25
497.312	321.25
497.529	329.25
497.746	346.25
497.963	322.25
498.181	334.25
498.398	337.25
498.615	333.25
498.832	339.25
499.049	336.25
499.267	359.25
499.484	380.25
499.701	389.25
499.918	394.25
500.135	425.25
500.352	422.25
500.569	443.25
500.786	428.25
501.003	414.25
501.22	411.25
501.437	410.25
501.654	395.25
501.871	396.25
502.088	381.25
502.305	371.25
502.522	345.25
