Data from 1966.PennyLincolnUp.Lamp.En5.5.200Scan.071719.P1._HRD10591_14-13-02-913.txt Node
Date: Thu Jul 18 14:13:02 EDT 2019
User: cochatt
Spectrometer: HR+D1059
Trigger mode: 1
Integration Time (sec): 1.000000E-1
Scans to average: 1
Electric dark correction enabled: true
Nonlinearity correction enabled: false
Boxcar width: 0
XAxis mode: Wavelengths
Number of Pixels in Spectrum: 2048
>>>>>Begin Spectral Data<<<<<
223.165	-19.38
223.4	-19.38
223.635	-19.38
223.869	-16.38
224.104	-14.38
224.338	-7.38
224.573	-12.38
224.808	-22.38
225.042	-7.38
225.277	-1.38
225.511	-2.38
225.746	-3.38
225.98	12.62
226.215	19.62
226.449	12.62
226.683	7.62
226.918	23.62
227.152	30.62
227.387	29.62
227.621	38.62
227.856	45.62
228.09	26.62
228.324	46.62
228.559	65.62
228.793	55.62
229.027	71.62
229.262	77.62
229.496	72.62
229.73	95.62
229.964	105.62
230.199	86.62
230.433	89.62
230.667	99.62
230.901	90.62
231.136	94.62
231.37	91.62
231.604	97.62
231.838	90.62
232.072	101.62
232.306	107.62
232.541	106.62
232.775	97.62
233.009	94.62
233.243	82.62
233.477	93.62
233.711	96.62
233.945	105.62
234.179	102.62
234.413	101.62
234.647	102.62
234.881	89.62
235.115	98.62
235.349	97.62
235.583	109.62
235.817	90.62
236.051	93.62
236.285	105.62
236.519	93.62
236.753	104.62
236.987	100.62
237.221	125.62
237.455	137.62
237.689	109.62
237.922	94.62
238.156	117.62
238.39	105.62
238.624	112.62
238.858	112.62
239.091	86.62
239.325	113.62
239.559	96.62
239.793	104.62
240.027	96.62
240.26	110.62
240.494	111.62
240.728	114.62
240.961	109.62
241.195	110.62
241.429	94.62
241.662	91.62
241.896	102.62
242.13	98.62
242.363	93.62
242.597	98.62
242.83	104.62
243.064	103.62
243.298	88.62
243.531	91.62
243.765	107.62
243.998	107.62
244.232	103.62
244.465	115.62
244.699	100.62
244.932	98.62
245.166	89.62
245.399	100.62
245.633	115.62
245.866	113.62
246.099	112.62
246.333	106.62
246.566	109.62
246.8	106.62
247.033	118.62
247.266	125.62
247.5	115.62
247.733	119.62
247.966	137.62
248.2	119.62
248.433	113.62
248.666	118.62
248.899	128.62
249.133	133.62
249.366	134.62
249.599	137.62
249.832	137.62
250.066	135.62
250.299	124.62
250.532	133.62
250.765	132.62
250.998	150.62
251.231	143.62
251.465	140.62
251.698	127.62
251.931	112.62
252.164	121.62
252.397	129.62
252.63	122.62
252.863	120.62
253.096	125.62
253.329	141.62
253.562	133.62
253.795	146.62
254.028	134.62
254.261	133.62
254.494	140.62
254.727	159.62
254.96	163.62
255.193	138.62
255.426	155.62
255.659	120.62
255.892	137.62
256.124	144.62
256.357	143.62
256.59	132.62
256.823	117.62
257.056	127.62
257.289	119.62
257.521	129.62
257.754	112.62
257.987	131.62
258.22	131.62
258.452	135.62
258.685	134.62
258.918	127.62
259.151	130.62
259.383	127.62
259.616	126.62
259.849	146.62
260.081	152.62
260.314	169.62
260.547	163.62
260.779	142.62
261.012	137.62
261.244	140.62
261.477	137.62
261.71	141.62
261.942	130.62
262.175	140.62
262.407	149.62
262.64	152.62
262.872	152.62
263.105	136.62
263.337	136.62
263.57	137.62
263.802	137.62
264.035	153.62
264.267	110.62
264.499	139.62
264.732	119.62
264.964	135.62
265.197	130.62
265.429	125.62
265.661	126.62
265.894	141.62
266.126	138.62
266.358	121.62
266.591	134.62
266.823	142.62
267.055	141.62
267.287	151.62
267.52	127.62
267.752	147.62
267.984	148.62
268.216	138.62
268.448	139.62
268.681	142.62
268.913	157.62
269.145	170.62
269.377	167.62
269.609	157.62
269.841	152.62
270.073	157.62
270.306	153.62
270.538	176.62
270.77	173.62
271.002	153.62
271.234	157.62
271.466	186.62
271.698	173.62
271.93	174.62
272.162	183.62
272.394	185.62
272.626	161.62
272.858	166.62
273.09	147.62
273.322	151.62
273.553	149.62
273.785	155.62
274.017	155.62
274.249	169.62
274.481	140.62
274.713	153.62
274.945	146.62
275.176	156.62
275.408	151.62
275.64	147.62
275.872	152.62
276.104	157.62
276.335	159.62
276.567	161.62
276.799	166.62
277.031	173.62
277.262	161.62
277.494	186.62
277.726	179.62
277.957	158.62
278.189	154.62
278.421	161.62
278.652	176.62
278.884	163.62
279.115	165.62
279.347	153.62
279.579	169.62
279.81	141.62
280.042	160.62
280.273	158.62
280.505	169.62
280.736	147.62
280.968	173.62
281.199	160.62
281.431	153.62
281.662	167.62
281.894	167.62
282.125	159.62
282.356	157.62
282.588	164.62
282.819	165.62
283.051	161.62
283.282	136.62
283.513	161.62
283.745	161.62
283.976	168.62
284.207	157.62
284.439	151.62
284.67	163.62
284.901	162.62
285.132	145.62
285.364	153.62
285.595	145.62
285.826	155.62
286.057	173.62
286.288	145.62
286.52	161.62
286.751	158.62
286.982	158.62
287.213	155.62
287.444	157.62
287.675	168.62
287.906	161.62
288.138	181.62
288.369	167.62
288.6	177.62
288.831	169.62
289.062	172.62
289.293	173.62
289.524	157.62
289.755	166.62
289.986	155.62
290.217	175.62
290.448	171.62
290.679	171.62
290.91	177.62
291.141	154.62
291.371	167.62
291.602	155.62
291.833	169.62
292.064	168.62
292.295	165.62
292.526	165.62
292.757	155.62
292.987	163.62
293.218	162.62
293.449	176.62
293.68	154.62
293.91	166.62
294.141	188.62
294.372	161.62
294.603	168.62
294.833	167.62
295.064	168.62
295.295	169.62
295.525	156.62
295.756	176.62
295.987	182.62
296.217	185.62
296.448	194.62
296.679	181.62
296.909	169.62
297.14	168.62
297.37	169.62
297.601	171.62
297.831	169.62
298.062	165.62
298.292	173.62
298.523	173.62
298.753	157.62
298.984	197.62
299.214	189.62
299.445	182.62
299.675	177.62
299.905	206.62
300.136	178.62
300.366	170.62
300.597	176.62
300.827	173.62
301.057	173.62
301.288	183.62
301.518	174.62
301.748	177.62
301.979	167.62
302.209	197.62
302.439	181.62
302.669	190.62
302.9	171.62
303.13	177.62
303.36	169.62
303.59	178.62
303.82	209.62
304.051	200.62
304.281	177.62
304.511	169.62
304.741	193.62
304.971	176.62
305.201	178.62
305.431	184.62
305.661	177.62
305.891	192.62
306.121	195.62
306.352	185.62
306.582	188.62
306.812	179.62
307.042	187.62
307.272	185.62
307.502	168.62
307.731	171.62
307.961	181.62
308.191	192.62
308.421	170.62
308.651	181.62
308.881	163.62
309.111	186.62
309.341	186.62
309.571	180.62
309.8	190.62
310.03	194.62
310.26	201.62
310.49	191.62
310.72	207.62
310.949	216.62
311.179	203.62
311.409	194.62
311.639	194.62
311.868	209.62
312.098	194.62
312.328	200.62
312.557	209.62
312.787	226.62
313.017	219.62
313.246	208.62
313.476	211.62
313.706	215.62
313.935	195.62
314.165	199.62
314.394	207.62
314.624	209.62
314.853	209.62
315.083	206.62
315.312	201.62
315.542	184.62
315.771	197.62
316.001	190.62
316.23	193.62
316.46	203.62
316.689	205.62
316.919	204.62
317.148	203.62
317.377	211.62
317.607	209.62
317.836	210.62
318.065	197.62
318.295	203.62
318.524	198.62
318.753	208.62
318.983	197.62
319.212	197.62
319.441	197.62
319.67	187.62
319.9	188.62
320.129	190.62
320.358	200.62
320.587	204.62
320.816	210.62
321.046	216.62
321.275	202.62
321.504	208.62
321.733	214.62
321.962	218.62
322.191	220.62
322.42	225.62
322.649	251.62
322.878	217.62
323.108	223.62
323.337	247.62
323.566	248.62
323.795	243.62
324.024	285.62
324.253	345.62
324.482	488.62
324.71	709.62
324.939	943.62
325.168	746.62
325.397	406.62
325.626	286.62
325.855	235.62
326.084	251.62
326.313	251.62
326.542	245.62
326.77	288.62
326.999	320.62
327.228	421.62
327.457	643.62
327.686	693.62
327.914	471.62
328.143	341.62
328.372	331.62
328.6	294.62
328.829	293.62
329.058	289.62
329.287	301.62
329.515	271.62
329.744	254.62
329.972	243.62
330.201	271.62
330.43	301.62
330.658	299.62
330.887	327.62
331.115	293.62
331.344	267.62
331.572	239.62
331.801	248.62
332.03	247.62
332.258	238.62
332.486	216.62
332.715	229.62
332.943	219.62
333.172	236.62
333.4	238.62
333.629	249.62
333.857	230.62
334.085	271.62
334.314	266.62
334.542	290.62
334.771	298.62
334.999	264.62
335.227	250.62
335.455	234.62
335.684	218.62
335.912	243.62
336.14	225.62
336.369	221.62
336.597	238.62
336.825	243.62
337.053	217.62
337.281	228.62
337.51	224.62
337.738	215.62
337.966	224.62
338.194	231.62
338.422	218.62
338.65	224.62
338.878	209.62
339.106	217.62
339.334	223.62
339.562	224.62
339.79	223.62
340.018	222.62
340.246	215.62
340.474	218.62
340.702	226.62
340.93	224.62
341.158	198.62
341.386	197.62
341.614	211.62
341.842	220.62
342.07	214.62
342.298	220.62
342.526	195.62
342.754	207.62
342.981	203.62
343.209	213.62
343.437	223.62
343.665	215.62
343.893	236.62
344.12	223.62
344.348	225.62
344.576	230.62
344.804	232.62
345.031	239.62
345.259	237.62
345.487	237.62
345.714	225.62
345.942	217.62
346.17	209.62
346.397	200.62
346.625	196.62
346.853	204.62
347.08	199.62
347.308	207.62
347.535	221.62
347.763	228.62
347.99	221.62
348.218	219.62
348.445	210.62
348.673	211.62
348.9	209.62
349.128	206.62
349.355	207.62
349.583	182.62
349.81	197.62
350.037	200.62
350.265	207.62
350.492	209.62
350.72	204.62
350.947	215.62
351.174	233.62
351.402	220.62
351.629	211.62
351.856	219.62
352.083	219.62
352.311	224.62
352.538	219.62
352.765	221.62
352.992	219.62
353.22	222.62
353.447	211.62
353.674	202.62
353.901	216.62
354.128	220.62
354.355	211.62
354.583	183.62
354.81	201.62
355.037	199.62
355.264	209.62
355.491	213.62
355.718	197.62
355.945	180.62
356.172	185.62
356.399	204.62
356.626	201.62
356.853	195.62
357.08	209.62
357.307	187.62
357.534	199.62
357.761	209.62
357.988	198.62
358.215	194.62
358.441	203.62
358.668	198.62
358.895	203.62
359.122	196.62
359.349	203.62
359.576	211.62
359.802	223.62
360.029	250.62
360.256	243.62
360.483	230.62
360.709	226.62
360.936	218.62
361.163	206.62
361.39	216.62
361.616	215.62
361.843	215.62
362.07	222.62
362.296	219.62
362.523	197.62
362.749	200.62
362.976	202.62
363.203	213.62
363.429	205.62
363.656	184.62
363.882	216.62
364.109	207.62
364.335	197.62
364.562	199.62
364.788	193.62
365.015	181.62
365.241	182.62
365.468	205.62
365.694	200.62
365.92	203.62
366.147	200.62
366.373	195.62
366.599	207.62
366.826	195.62
367.052	206.62
367.278	203.62
367.505	211.62
367.731	199.62
367.957	207.62
368.184	203.62
368.41	194.62
368.636	217.62
368.862	223.62
369.089	216.62
369.315	208.62
369.541	197.62
369.767	196.62
369.993	192.62
370.219	209.62
370.445	203.62
370.672	203.62
370.898	216.62
371.124	199.62
371.35	211.62
371.576	191.62
371.802	199.62
372.028	198.62
372.254	211.62
372.48	210.62
372.706	188.62
372.932	191.62
373.158	212.62
373.384	211.62
373.61	198.62
373.835	212.62
374.061	199.62
374.287	188.62
374.513	202.62
374.739	208.62
374.965	200.62
375.191	213.62
375.416	200.62
375.642	198.62
375.868	190.62
376.094	198.62
376.319	201.62
376.545	211.62
376.771	206.62
376.997	207.62
377.222	208.62
377.448	193.62
377.674	209.62
377.899	198.62
378.125	197.62
378.35	198.62
378.576	203.62
378.802	194.62
379.027	194.62
379.253	220.62
379.478	199.62
379.704	207.62
379.929	200.62
380.155	197.62
380.38	209.62
380.606	195.62
380.831	197.62
381.057	200.62
381.282	210.62
381.507	197.62
381.733	210.62
381.958	194.62
382.184	185.62
382.409	210.62
382.634	208.62
382.86	201.62
383.085	199.62
383.31	193.62
383.535	192.62
383.761	225.62
383.986	208.62
384.211	214.62
384.436	217.62
384.662	196.62
384.887	205.62
385.112	202.62
385.337	216.62
385.562	207.62
385.787	213.62
386.013	230.62
386.238	225.62
386.463	220.62
386.688	214.62
386.913	205.62
387.138	212.62
387.363	208.62
387.588	214.62
387.813	216.62
388.038	215.62
388.263	215.62
388.488	199.62
388.713	218.62
388.938	194.62
389.163	211.62
389.387	202.62
389.612	227.62
389.837	210.62
390.062	216.62
390.287	209.62
390.512	213.62
390.736	204.62
390.961	218.62
391.186	224.62
391.411	217.62
391.636	201.62
391.86	205.62
392.085	221.62
392.31	204.62
392.534	203.62
392.759	220.62
392.984	216.62
393.208	224.62
393.433	225.62
393.658	215.62
393.882	197.62
394.107	227.62
394.331	226.62
394.556	215.62
394.78	214.62
395.005	233.62
395.229	211.62
395.454	224.62
395.678	214.62
395.903	219.62
396.127	239.62
396.352	210.62
396.576	222.62
396.801	231.62
397.025	228.62
397.249	210.62
397.474	214.62
397.698	211.62
397.922	228.62
398.147	234.62
398.371	247.62
398.595	239.62
398.82	222.62
399.044	247.62
399.268	263.62
399.492	262.62
399.717	254.62
399.941	270.62
400.165	281.62
400.389	266.62
400.613	274.62
400.837	237.62
401.062	252.62
401.286	232.62
401.51	243.62
401.734	230.62
401.958	227.62
402.182	251.62
402.406	267.62
402.63	254.62
402.854	263.62
403.078	248.62
403.302	261.62
403.526	257.62
403.75	253.62
403.974	219.62
404.198	240.62
404.422	242.62
404.645	256.62
404.869	273.62
405.093	263.62
405.317	275.62
405.541	304.62
405.765	254.62
405.988	246.62
406.212	278.62
406.436	268.62
406.66	275.62
406.883	274.62
407.107	272.62
407.331	302.62
407.555	318.62
407.778	305.62
408.002	293.62
408.226	281.62
408.449	264.62
408.673	253.62
408.896	278.62
409.12	275.62
409.344	283.62
409.567	255.62
409.791	262.62
410.014	260.62
410.238	266.62
410.461	254.62
410.685	245.62
410.908	270.62
411.132	282.62
411.355	290.62
411.578	282.62
411.802	249.62
412.025	255.62
412.249	265.62
412.472	263.62
412.695	283.62
412.919	274.62
413.142	263.62
413.365	254.62
413.589	249.62
413.812	232.62
414.035	230.62
414.258	251.62
414.482	239.62
414.705	246.62
414.928	214.62
415.151	225.62
415.374	254.62
415.597	229.62
415.821	238.62
416.044	236.62
416.267	241.62
416.49	234.62
416.713	234.62
416.936	240.62
417.159	246.62
417.382	235.62
417.605	226.62
417.828	240.62
418.051	234.62
418.274	261.62
418.497	240.62
418.72	237.62
418.943	229.62
419.166	260.62
419.389	237.62
419.611	242.62
419.834	260.62
420.057	251.62
420.28	246.62
420.503	245.62
420.726	250.62
420.948	271.62
421.171	263.62
421.394	293.62
421.617	259.62
421.839	245.62
422.062	258.62
422.285	256.62
422.507	285.62
422.73	321.62
422.953	279.62
423.175	259.62
423.398	267.62
423.621	252.62
423.843	263.62
424.066	271.62
424.288	271.62
424.511	285.62
424.733	314.62
424.956	305.62
425.178	317.62
425.401	311.62
425.623	319.62
425.846	283.62
426.068	273.62
426.291	266.62
426.513	262.62
426.735	267.62
426.958	282.62
427.18	301.62
427.402	376.62
427.625	394.62
427.847	351.62
428.069	297.62
428.292	281.62
428.514	254.62
428.736	255.62
428.958	242.62
429.181	258.62
429.403	246.62
429.625	242.62
429.847	270.62
430.069	293.62
430.292	290.62
430.514	234.62
430.736	249.62
430.958	241.62
431.18	238.62
431.402	222.62
431.624	233.62
431.846	242.62
432.068	247.62
432.29	243.62
432.512	227.62
432.734	240.62
432.956	243.62
433.178	259.62
433.4	243.62
433.622	246.62
433.844	240.62
434.066	232.62
434.287	227.62
434.509	234.62
434.731	248.62
434.953	265.62
435.175	250.62
435.397	253.62
435.618	275.62
435.84	298.62
436.062	323.62
436.284	344.62
436.505	284.62
436.727	256.62
436.949	248.62
437.17	248.62
437.392	249.62
437.614	258.62
437.835	270.62
438.057	318.62
438.278	346.62
438.5	331.62
438.721	356.62
438.943	348.62
439.165	274.62
439.386	265.62
439.608	268.62
439.829	250.62
440.05	284.62
440.272	282.62
440.493	278.62
440.715	238.62
440.936	248.62
441.158	267.62
441.379	243.62
441.6	251.62
441.822	287.62
442.043	292.62
442.264	328.62
442.486	327.62
442.707	288.62
442.928	270.62
443.149	268.62
443.371	286.62
443.592	278.62
443.813	330.62
444.034	366.62
444.255	310.62
444.476	269.62
444.698	271.62
444.919	264.62
445.14	343.62
445.361	303.62
445.582	279.62
445.803	313.62
446.024	356.62
446.245	347.62
446.466	337.62
446.687	285.62
446.908	269.62
447.129	250.62
447.35	230.62
447.571	247.62
447.792	247.62
448.013	236.62
448.234	256.62
448.455	273.62
448.675	325.62
448.896	350.62
449.117	298.62
449.338	284.62
449.559	339.62
449.779	363.62
450	280.62
450.221	261.62
450.442	247.62
450.662	258.62
450.883	253.62
451.104	261.62
451.324	242.62
451.545	234.62
451.766	245.62
451.986	230.62
452.207	224.62
452.428	215.62
452.648	234.62
452.869	225.62
453.089	227.62
453.31	242.62
453.53	230.62
453.751	231.62
453.971	215.62
454.192	236.62
454.412	222.62
454.633	223.62
454.853	219.62
455.073	216.62
455.294	245.62
455.514	272.62
455.734	261.62
455.955	226.62
456.175	225.62
456.395	198.62
456.616	220.62
456.836	219.62
457.056	208.62
457.276	204.62
457.497	220.62
457.717	205.62
457.937	206.62
458.157	204.62
458.377	216.62
458.598	245.62
458.818	252.62
459.038	302.62
459.258	293.62
459.478	259.62
459.698	236.62
459.918	221.62
460.138	237.62
460.358	249.62
460.578	245.62
460.798	240.62
461.018	238.62
461.238	232.62
461.458	233.62
461.678	235.62
461.898	240.62
462.118	234.62
462.338	227.62
462.558	262.62
462.777	247.62
462.997	257.62
463.217	249.62
463.437	247.62
463.657	259.62
463.876	254.62
464.096	241.62
464.316	261.62
464.536	272.62
464.755	240.62
464.975	253.62
465.195	294.62
465.414	343.62
465.634	293.62
465.854	253.62
466.073	245.62
466.293	237.62
466.512	214.62
466.732	238.62
466.951	225.62
467.171	224.62
467.391	233.62
467.61	224.62
467.829	228.62
468.049	233.62
468.268	235.62
468.488	215.62
468.707	231.62
468.927	221.62
469.146	231.62
469.365	233.62
469.585	223.62
469.804	263.62
470.023	250.62
470.243	236.62
470.462	219.62
470.681	253.62
470.901	237.62
471.12	247.62
471.339	237.62
471.558	234.62
471.777	237.62
471.997	239.62
472.216	231.62
472.435	272.62
472.654	251.62
472.873	245.62
473.092	224.62
473.311	218.62
473.53	216.62
473.749	241.62
473.968	242.62
474.187	303.62
474.406	306.62
474.625	248.62
474.844	230.62
475.063	234.62
475.282	236.62
475.501	235.62
475.72	241.62
475.939	232.62
476.158	223.62
476.377	221.62
476.596	233.62
476.814	230.62
477.033	228.62
477.252	257.62
477.471	243.62
477.69	233.62
477.908	246.62
478.127	237.62
478.346	258.62
478.564	252.62
478.783	249.62
479.002	256.62
479.22	270.62
479.439	257.62
479.658	286.62
479.876	284.62
480.095	288.62
480.313	285.62
480.532	287.62
480.751	277.62
480.969	281.62
481.188	345.62
481.406	344.62
481.624	273.62
481.843	276.62
482.061	263.62
482.28	268.62
482.498	271.62
482.717	267.62
482.935	259.62
483.153	258.62
483.372	271.62
483.59	282.62
483.808	269.62
484.027	246.62
484.245	255.62
484.463	259.62
484.681	293.62
484.9	275.62
485.118	265.62
485.336	245.62
485.554	269.62
485.772	266.62
485.99	273.62
486.209	281.62
486.427	279.62
486.645	294.62
486.863	296.62
487.081	274.62
487.299	294.62
487.517	284.62
487.735	272.62
487.953	286.62
488.171	285.62
488.389	270.62
488.607	300.62
488.825	262.62
489.043	272.62
489.261	287.62
489.479	297.62
489.696	289.62
489.914	278.62
490.132	299.62
490.35	293.62
490.568	299.62
490.786	312.62
491.003	316.62
491.221	326.62
491.439	329.62
491.657	325.62
491.874	325.62
492.092	335.62
492.31	320.62
492.527	349.62
492.745	323.62
492.963	335.62
493.18	329.62
493.398	342.62
493.615	347.62
493.833	321.62
494.05	346.62
494.268	329.62
494.485	337.62
494.703	334.62
494.92	348.62
495.138	349.62
495.355	315.62
495.573	339.62
495.79	342.62
496.008	335.62
496.225	325.62
496.442	310.62
496.66	334.62
496.877	321.62
497.094	335.62
497.312	330.62
497.529	348.62
497.746	332.62
497.963	338.62
498.181	341.62
498.398	341.62
498.615	354.62
498.832	358.62
499.049	362.62
499.267	366.62
499.484	382.62
499.701	381.62
499.918	413.62
500.135	417.62
500.352	428.62
500.569	415.62
500.786	435.62
501.003	424.62
501.22	407.62
501.437	410.62
501.654	404.62
501.871	403.62
502.088	385.62
502.305	381.62
502.522	342.62
