Data from 1966.PennyLincolnUp.Lamp.En5.5.200Scan.071719.P1.Scan2.head_HRD10591_14-18-12-169.txt Node
Date: Thu Jul 18 14:18:12 EDT 2019
User: cochatt
Spectrometer: HR+D1059
Trigger mode: 1
Integration Time (sec): 1.000000E-1
Scans to average: 1
Electric dark correction enabled: true
Nonlinearity correction enabled: false
Boxcar width: 0
XAxis mode: Wavelengths
Number of Pixels in Spectrum: 2048
>>>>>Begin Spectral Data<<<<<
223.165	-23.75
223.4	-23.75
223.635	-23.75
223.869	-30.75
224.104	-19.75
224.338	-7.75
224.573	-14.75
224.808	-18.75
225.042	-1.75
225.277	-6.75
225.511	-0.75
225.746	-5.75
225.98	16.25
226.215	19.25
226.449	16.25
226.683	17.25
226.918	25.25
227.152	36.25
227.387	36.25
227.621	42.25
227.856	55.25
228.09	38.25
228.324	65.25
228.559	46.25
228.793	62.25
229.027	100.25
229.262	107.25
229.496	120.25
229.73	132.25
229.964	151.25
230.199	122.25
230.433	122.25
230.667	114.25
230.901	114.25
231.136	121.25
231.37	118.25
231.604	105.25
231.838	97.25
232.072	114.25
232.306	97.25
232.541	124.25
232.775	108.25
233.009	121.25
233.243	120.25
233.477	123.25
233.711	117.25
233.945	112.25
234.179	122.25
234.413	126.25
234.647	128.25
234.881	125.25
235.115	121.25
235.349	126.25
235.583	122.25
235.817	138.25
236.051	122.25
236.285	141.25
236.519	136.25
236.753	140.25
236.987	148.25
237.221	188.25
237.455	259.25
237.689	188.25
237.922	151.25
238.156	140.25
238.39	125.25
238.624	137.25
238.858	130.25
239.091	118.25
239.325	126.25
239.559	144.25
239.793	124.25
240.027	133.25
240.26	149.25
240.494	173.25
240.728	169.25
240.961	155.25
241.195	156.25
241.429	145.25
241.662	133.25
241.896	147.25
242.13	138.25
242.363	136.25
242.597	136.25
242.83	147.25
243.064	141.25
243.298	138.25
243.531	149.25
243.765	128.25
243.998	142.25
244.232	130.25
244.465	156.25
244.699	147.25
244.932	141.25
245.166	142.25
245.399	152.25
245.633	164.25
245.866	149.25
246.099	140.25
246.333	161.25
246.566	152.25
246.8	153.25
247.033	168.25
247.266	168.25
247.5	159.25
247.733	180.25
247.966	169.25
248.2	159.25
248.433	160.25
248.666	172.25
248.899	184.25
249.133	198.25
249.366	220.25
249.599	196.25
249.832	180.25
250.066	188.25
250.299	179.25
250.532	196.25
250.765	176.25
250.998	238.25
251.231	244.25
251.465	214.25
251.698	193.25
251.931	200.25
252.164	220.25
252.397	201.25
252.63	203.25
252.863	218.25
253.096	223.25
253.329	222.25
253.562	234.25
253.795	250.25
254.028	228.25
254.261	217.25
254.494	229.25
254.727	274.25
254.96	283.25
255.193	294.25
255.426	262.25
255.659	232.25
255.892	231.25
256.124	236.25
256.357	237.25
256.59	244.25
256.823	216.25
257.056	216.25
257.289	206.25
257.521	222.25
257.754	232.25
257.987	233.25
258.22	202.25
258.452	225.25
258.685	209.25
258.918	209.25
259.151	208.25
259.383	216.25
259.616	224.25
259.849	238.25
260.081	233.25
260.314	247.25
260.547	252.25
260.779	258.25
261.012	243.25
261.244	237.25
261.477	214.25
261.71	213.25
261.942	228.25
262.175	241.25
262.407	239.25
262.64	209.25
262.872	232.25
263.105	215.25
263.337	229.25
263.57	209.25
263.802	217.25
264.035	217.25
264.267	222.25
264.499	224.25
264.732	216.25
264.964	218.25
265.197	220.25
265.429	219.25
265.661	226.25
265.894	228.25
266.126	225.25
266.358	228.25
266.591	224.25
266.823	246.25
267.055	222.25
267.287	221.25
267.52	240.25
267.752	239.25
267.984	228.25
268.216	222.25
268.448	246.25
268.681	239.25
268.913	254.25
269.145	267.25
269.377	281.25
269.609	281.25
269.841	283.25
270.073	279.25
270.306	292.25
270.538	304.25
270.77	319.25
271.002	300.25
271.234	299.25
271.466	289.25
271.698	321.25
271.93	300.25
272.162	300.25
272.394	322.25
272.626	327.25
272.858	305.25
273.09	296.25
273.322	274.25
273.553	277.25
273.785	274.25
274.017	269.25
274.249	262.25
274.481	268.25
274.713	281.25
274.945	267.25
275.176	258.25
275.408	280.25
275.64	262.25
275.872	273.25
276.104	277.25
276.335	255.25
276.567	281.25
276.799	308.25
277.031	312.25
277.262	313.25
277.494	318.25
277.726	299.25
277.957	321.25
278.189	296.25
278.421	276.25
278.652	282.25
278.884	276.25
279.115	272.25
279.347	263.25
279.579	257.25
279.81	283.25
280.042	285.25
280.273	282.25
280.505	282.25
280.736	284.25
280.968	256.25
281.199	263.25
281.431	274.25
281.662	280.25
281.894	276.25
282.125	281.25
282.356	285.25
282.588	315.25
282.819	328.25
283.051	294.25
283.282	281.25
283.513	300.25
283.745	298.25
283.976	300.25
284.207	302.25
284.439	293.25
284.67	278.25
284.901	274.25
285.132	281.25
285.364	288.25
285.595	285.25
285.826	287.25
286.057	272.25
286.288	290.25
286.52	287.25
286.751	286.25
286.982	301.25
287.213	287.25
287.444	299.25
287.675	295.25
287.906	298.25
288.138	333.25
288.369	304.25
288.6	316.25
288.831	326.25
289.062	286.25
289.293	316.25
289.524	295.25
289.755	286.25
289.986	278.25
290.217	291.25
290.448	307.25
290.679	295.25
290.91	296.25
291.141	296.25
291.371	301.25
291.602	295.25
291.833	293.25
292.064	319.25
292.295	311.25
292.526	308.25
292.757	290.25
292.987	311.25
293.218	289.25
293.449	312.25
293.68	300.25
293.91	310.25
294.141	308.25
294.372	310.25
294.603	313.25
294.833	297.25
295.064	315.25
295.295	301.25
295.525	306.25
295.756	316.25
295.987	311.25
296.217	337.25
296.448	362.25
296.679	302.25
296.909	277.25
297.14	314.25
297.37	312.25
297.601	318.25
297.831	321.25
298.062	320.25
298.292	311.25
298.523	332.25
298.753	333.25
298.984	313.25
299.214	331.25
299.445	312.25
299.675	335.25
299.905	332.25
300.136	300.25
300.366	330.25
300.597	337.25
300.827	327.25
301.057	328.25
301.288	338.25
301.518	326.25
301.748	325.25
301.979	342.25
302.209	338.25
302.439	324.25
302.669	334.25
302.9	326.25
303.13	335.25
303.36	346.25
303.59	350.25
303.82	343.25
304.051	349.25
304.281	357.25
304.511	336.25
304.741	329.25
304.971	329.25
305.201	326.25
305.431	344.25
305.661	334.25
305.891	352.25
306.121	322.25
306.352	344.25
306.582	359.25
306.812	334.25
307.042	352.25
307.272	352.25
307.502	342.25
307.731	333.25
307.961	329.25
308.191	358.25
308.421	332.25
308.651	333.25
308.881	338.25
309.111	354.25
309.341	351.25
309.571	343.25
309.8	377.25
310.03	353.25
310.26	384.25
310.49	370.25
310.72	378.25
310.949	378.25
311.179	397.25
311.409	385.25
311.639	388.25
311.868	380.25
312.098	385.25
312.328	388.25
312.557	379.25
312.787	405.25
313.017	401.25
313.246	414.25
313.476	368.25
313.706	380.25
313.935	376.25
314.165	407.25
314.394	401.25
314.624	423.25
314.853	397.25
315.083	400.25
315.312	378.25
315.542	387.25
315.771	384.25
316.001	354.25
316.23	384.25
316.46	386.25
316.689	390.25
316.919	398.25
317.148	402.25
317.377	393.25
317.607	407.25
317.836	398.25
318.065	377.25
318.295	396.25
318.524	386.25
318.753	388.25
318.983	388.25
319.212	383.25
319.441	402.25
319.67	399.25
319.9	408.25
320.129	379.25
320.358	372.25
320.587	372.25
320.816	380.25
321.046	405.25
321.275	403.25
321.504	388.25
321.733	429.25
321.962	415.25
322.191	431.25
322.42	441.25
322.649	457.25
322.878	466.25
323.108	436.25
323.337	494.25
323.566	510.25
323.795	507.25
324.024	551.25
324.253	672.25
324.482	992.25
324.71	1490.25
324.939	2221.25
325.168	1931.25
325.397	938.25
325.626	654.25
325.855	558.25
326.084	526.25
326.313	474.25
326.542	503.25
326.77	572.25
326.999	637.25
327.228	884.25
327.457	1355.25
327.686	1686.25
327.914	1086.25
328.143	708.25
328.372	620.25
328.6	600.25
328.829	567.25
329.058	575.25
329.287	591.25
329.515	546.25
329.744	534.25
329.972	505.25
330.201	537.25
330.43	575.25
330.658	591.25
330.887	623.25
331.115	618.25
331.344	530.25
331.572	523.25
331.801	493.25
332.03	489.25
332.258	509.25
332.486	476.25
332.715	485.25
332.943	473.25
333.172	474.25
333.4	484.25
333.629	502.25
333.857	505.25
334.085	512.25
334.314	520.25
334.542	574.25
334.771	587.25
334.999	544.25
335.227	495.25
335.455	489.25
335.684	464.25
335.912	460.25
336.14	453.25
336.369	481.25
336.597	488.25
336.825	501.25
337.053	467.25
337.281	453.25
337.51	468.25
337.738	440.25
337.966	472.25
338.194	461.25
338.422	477.25
338.65	452.25
338.878	486.25
339.106	433.25
339.334	449.25
339.562	451.25
339.79	431.25
340.018	459.25
340.246	450.25
340.474	452.25
340.702	457.25
340.93	428.25
341.158	457.25
341.386	456.25
341.614	469.25
341.842	464.25
342.07	458.25
342.298	447.25
342.526	429.25
342.754	436.25
342.981	430.25
343.209	434.25
343.437	460.25
343.665	440.25
343.893	450.25
344.12	465.25
344.348	449.25
344.576	447.25
344.804	459.25
345.031	457.25
345.259	462.25
345.487	457.25
345.714	468.25
345.942	470.25
346.17	444.25
346.397	467.25
346.625	440.25
346.853	452.25
347.08	443.25
347.308	432.25
347.535	442.25
347.763	445.25
347.99	439.25
348.218	427.25
348.445	454.25
348.673	439.25
348.9	448.25
349.128	460.25
349.355	437.25
349.583	416.25
349.81	436.25
350.037	422.25
350.265	412.25
350.492	423.25
350.72	410.25
350.947	425.25
351.174	456.25
351.402	460.25
351.629	443.25
351.856	437.25
352.083	440.25
352.311	460.25
352.538	453.25
352.765	462.25
352.992	457.25
353.22	411.25
353.447	423.25
353.674	421.25
353.901	431.25
354.128	417.25
354.355	415.25
354.583	421.25
354.81	447.25
355.037	416.25
355.264	415.25
355.491	406.25
355.718	406.25
355.945	406.25
356.172	407.25
356.399	425.25
356.626	393.25
356.853	418.25
357.08	390.25
357.307	412.25
357.534	410.25
357.761	426.25
357.988	411.25
358.215	413.25
358.441	421.25
358.668	424.25
358.895	431.25
359.122	427.25
359.349	409.25
359.576	431.25
359.802	466.25
360.029	461.25
360.256	486.25
360.483	464.25
360.709	468.25
360.936	454.25
361.163	422.25
361.39	437.25
361.616	445.25
361.843	437.25
362.07	446.25
362.296	458.25
362.523	441.25
362.749	435.25
362.976	441.25
363.203	461.25
363.429	450.25
363.656	415.25
363.882	435.25
364.109	431.25
364.335	428.25
364.562	436.25
364.788	426.25
365.015	427.25
365.241	439.25
365.468	428.25
365.694	420.25
365.92	431.25
366.147	425.25
366.373	423.25
366.599	438.25
366.826	439.25
367.052	419.25
367.278	427.25
367.505	420.25
367.731	425.25
367.957	436.25
368.184	419.25
368.41	454.25
368.636	464.25
368.862	448.25
369.089	438.25
369.315	441.25
369.541	426.25
369.767	436.25
369.993	430.25
370.219	422.25
370.445	436.25
370.672	416.25
370.898	420.25
371.124	434.25
371.35	429.25
371.576	404.25
371.802	427.25
372.028	424.25
372.254	442.25
372.48	455.25
372.706	431.25
372.932	432.25
373.158	436.25
373.384	433.25
373.61	438.25
373.835	424.25
374.061	430.25
374.287	460.25
374.513	449.25
374.739	444.25
374.965	451.25
375.191	458.25
375.416	462.25
375.642	461.25
375.868	452.25
376.094	448.25
376.319	442.25
376.545	444.25
376.771	423.25
376.997	430.25
377.222	428.25
377.448	440.25
377.674	437.25
377.899	430.25
378.125	441.25
378.35	450.25
378.576	444.25
378.802	428.25
379.027	427.25
379.253	408.25
379.478	426.25
379.704	446.25
379.929	430.25
380.155	424.25
380.38	427.25
380.606	441.25
380.831	436.25
381.057	441.25
381.282	428.25
381.507	422.25
381.733	426.25
381.958	456.25
382.184	481.25
382.409	442.25
382.634	434.25
382.86	454.25
383.085	465.25
383.31	441.25
383.535	457.25
383.761	465.25
383.986	457.25
384.211	465.25
384.436	440.25
384.662	469.25
384.887	462.25
385.112	484.25
385.337	470.25
385.562	457.25
385.787	473.25
386.013	484.25
386.238	505.25
386.463	488.25
386.688	497.25
386.913	488.25
387.138	483.25
387.363	479.25
387.588	473.25
387.813	476.25
388.038	473.25
388.263	494.25
388.488	500.25
388.713	495.25
388.938	500.25
389.163	478.25
389.387	476.25
389.612	480.25
389.837	490.25
390.062	473.25
390.287	478.25
390.512	486.25
390.736	497.25
390.961	486.25
391.186	489.25
391.411	490.25
391.636	490.25
391.86	508.25
392.085	506.25
392.31	501.25
392.534	496.25
392.759	509.25
392.984	490.25
393.208	489.25
393.433	498.25
393.658	491.25
393.882	488.25
394.107	487.25
394.331	488.25
394.556	502.25
394.78	480.25
395.005	484.25
395.229	498.25
395.454	497.25
395.678	517.25
395.903	536.25
396.127	559.25
396.352	559.25
396.576	497.25
396.801	510.25
397.025	516.25
397.249	521.25
397.474	520.25
397.698	531.25
397.922	552.25
398.147	532.25
398.371	578.25
398.595	552.25
398.82	562.25
399.044	571.25
399.268	584.25
399.492	619.25
399.717	661.25
399.941	661.25
400.165	698.25
400.389	692.25
400.613	642.25
400.837	614.25
401.062	604.25
401.286	570.25
401.51	570.25
401.734	532.25
401.958	586.25
402.182	586.25
402.406	569.25
402.63	567.25
402.854	575.25
403.078	579.25
403.302	588.25
403.526	578.25
403.75	599.25
403.974	597.25
404.198	590.25
404.422	571.25
404.645	593.25
404.869	591.25
405.093	639.25
405.317	692.25
405.541	732.25
405.765	660.25
405.988	595.25
406.212	625.25
406.436	638.25
406.66	662.25
406.883	652.25
407.107	668.25
407.331	701.25
407.555	786.25
407.778	793.25
408.002	725.25
408.226	649.25
408.449	644.25
408.673	656.25
408.896	647.25
409.12	718.25
409.344	680.25
409.567	638.25
409.791	614.25
410.014	601.25
410.238	593.25
410.461	615.25
410.685	595.25
410.908	624.25
411.132	660.25
411.355	690.25
411.578	654.25
411.802	620.25
412.025	586.25
412.249	598.25
412.472	630.25
412.695	676.25
412.919	680.25
413.142	624.25
413.365	584.25
413.589	581.25
413.812	564.25
414.035	564.25
414.258	565.25
414.482	539.25
414.705	552.25
414.928	552.25
415.151	555.25
415.374	551.25
415.597	545.25
415.821	548.25
416.044	556.25
416.267	573.25
416.49	578.25
416.713	554.25
416.936	550.25
417.159	556.25
417.382	568.25
417.605	557.25
417.828	570.25
418.051	598.25
418.274	586.25
418.497	557.25
418.72	545.25
418.943	552.25
419.166	569.25
419.389	607.25
419.611	593.25
419.834	589.25
420.057	585.25
420.28	614.25
420.503	603.25
420.726	604.25
420.948	590.25
421.171	635.25
421.394	666.25
421.617	603.25
421.839	582.25
422.062	598.25
422.285	598.25
422.507	667.25
422.73	747.25
422.953	719.25
423.175	639.25
423.398	622.25
423.621	596.25
423.843	632.25
424.066	635.25
424.288	627.25
424.511	632.25
424.733	702.25
424.956	812.25
425.178	766.25
425.401	766.25
425.623	812.25
425.846	676.25
426.068	623.25
426.291	618.25
426.513	629.25
426.735	626.25
426.958	671.25
427.18	774.25
427.402	911.25
427.625	1016.25
427.847	857.25
428.069	753.25
428.292	698.25
428.514	637.25
428.736	604.25
428.958	602.25
429.181	592.25
429.403	580.25
429.625	581.25
429.847	618.25
430.069	706.25
430.292	664.25
430.514	597.25
430.736	585.25
430.958	574.25
431.18	580.25
431.402	556.25
431.624	529.25
431.846	559.25
432.068	542.25
432.29	562.25
432.512	554.25
432.734	541.25
432.956	562.25
433.178	560.25
433.4	551.25
433.622	536.25
433.844	544.25
434.066	549.25
434.287	556.25
434.509	543.25
434.731	553.25
434.953	581.25
435.175	623.25
435.397	615.25
435.618	680.25
435.84	641.25
436.062	797.25
436.284	838.25
436.505	716.25
436.727	637.25
436.949	594.25
437.17	587.25
437.392	582.25
437.614	594.25
437.835	624.25
438.057	722.25
438.278	851.25
438.5	838.25
438.721	925.25
438.943	881.25
439.165	702.25
439.386	650.25
439.608	642.25
439.829	630.25
440.05	664.25
440.272	709.25
440.493	664.25
440.715	628.25
440.936	567.25
441.158	580.25
441.379	602.25
441.6	594.25
441.822	635.25
442.043	653.25
442.264	754.25
442.486	807.25
442.707	696.25
442.928	632.25
443.149	658.25
443.371	661.25
443.592	728.25
443.813	816.25
444.034	894.25
444.255	738.25
444.476	661.25
444.698	626.25
444.919	633.25
445.14	764.25
445.361	679.25
445.582	680.25
445.803	765.25
446.024	867.25
446.245	881.25
446.466	810.25
446.687	680.25
446.908	637.25
447.129	593.25
447.35	590.25
447.571	584.25
447.792	573.25
448.013	572.25
448.234	615.25
448.455	662.25
448.675	788.25
448.896	911.25
449.117	734.25
449.338	724.25
449.559	841.25
449.779	949.25
450	753.25
450.221	656.25
450.442	610.25
450.662	588.25
450.883	582.25
451.104	580.25
451.324	567.25
451.545	524.25
451.766	536.25
451.986	501.25
452.207	524.25
452.428	499.25
452.648	511.25
452.869	530.25
453.089	510.25
453.31	544.25
453.53	535.25
453.751	513.25
453.971	548.25
454.192	523.25
454.412	522.25
454.633	538.25
454.853	489.25
455.073	503.25
455.294	553.25
455.514	644.25
455.734	610.25
455.955	522.25
456.175	504.25
456.395	485.25
456.616	489.25
456.836	474.25
457.056	487.25
457.276	489.25
457.497	491.25
457.717	512.25
457.937	505.25
458.157	488.25
458.377	500.25
458.598	540.25
458.818	593.25
459.038	639.25
459.258	679.25
459.478	606.25
459.698	566.25
459.918	557.25
460.138	567.25
460.358	571.25
460.578	569.25
460.798	555.25
461.018	578.25
461.238	552.25
461.458	566.25
461.678	557.25
461.898	562.25
462.118	547.25
462.338	576.25
462.558	594.25
462.777	610.25
462.997	606.25
463.217	633.25
463.437	623.25
463.657	623.25
463.876	600.25
464.096	608.25
464.316	615.25
464.536	609.25
464.755	611.25
464.975	618.25
465.195	625.25
465.414	704.25
465.634	626.25
465.854	586.25
466.073	571.25
466.293	542.25
466.512	537.25
466.732	542.25
466.951	550.25
467.171	546.25
467.391	540.25
467.61	525.25
467.829	556.25
468.049	545.25
468.268	525.25
468.488	522.25
468.707	551.25
468.927	524.25
469.146	502.25
469.365	518.25
469.585	509.25
469.804	514.25
470.023	554.25
470.243	535.25
470.462	537.25
470.681	548.25
470.901	532.25
471.12	527.25
471.339	516.25
471.558	528.25
471.777	560.25
471.997	538.25
472.216	553.25
472.435	575.25
472.654	567.25
472.873	533.25
473.092	530.25
473.311	512.25
473.53	534.25
473.749	562.25
473.968	605.25
474.187	708.25
474.406	760.25
474.625	621.25
474.844	562.25
475.063	541.25
475.282	534.25
475.501	556.25
475.72	560.25
475.939	548.25
476.158	554.25
476.377	553.25
476.596	535.25
476.814	584.25
477.033	581.25
477.252	569.25
477.471	582.25
477.69	604.25
477.908	594.25
478.127	589.25
478.346	601.25
478.564	591.25
478.783	636.25
479.002	632.25
479.22	607.25
479.439	642.25
479.658	640.25
479.876	649.25
480.095	662.25
480.313	703.25
480.532	664.25
480.751	661.25
480.969	672.25
481.188	747.25
481.406	808.25
481.624	698.25
481.843	674.25
482.061	657.25
482.28	657.25
482.498	633.25
482.717	640.25
482.935	643.25
483.153	638.25
483.372	618.25
483.59	642.25
483.808	652.25
484.027	646.25
484.245	644.25
484.463	630.25
484.681	640.25
484.9	670.25
485.118	664.25
485.336	631.25
485.554	654.25
485.772	676.25
485.99	664.25
486.209	661.25
486.427	660.25
486.645	686.25
486.863	689.25
487.081	684.25
487.299	680.25
487.517	688.25
487.735	681.25
487.953	670.25
488.171	716.25
488.389	708.25
488.607	661.25
488.825	671.25
489.043	682.25
489.261	711.25
489.479	695.25
489.696	701.25
489.914	710.25
490.132	687.25
490.35	698.25
490.568	733.25
490.786	748.25
491.003	745.25
491.221	756.25
491.439	751.25
491.657	757.25
491.874	753.25
492.092	812.25
492.31	781.25
492.527	754.25
492.745	783.25
492.963	779.25
493.18	782.25
493.398	813.25
493.615	802.25
493.833	804.25
494.05	822.25
494.268	804.25
494.485	828.25
494.703	785.25
494.92	778.25
495.138	787.25
495.355	847.25
495.573	806.25
495.79	805.25
496.008	816.25
496.225	814.25
496.442	831.25
496.66	827.25
496.877	806.25
497.094	817.25
497.312	858.25
497.529	827.25
497.746	864.25
497.963	866.25
498.181	914.25
498.398	892.25
498.615	897.25
498.832	919.25
499.049	952.25
499.267	959.25
499.484	1011.25
499.701	1046.25
499.918	1082.25
500.135	1107.25
500.352	1162.25
500.569	1188.25
500.786	1188.25
501.003	1181.25
501.22	1139.25
501.437	1090.25
501.654	1048.25
