Data from 1966.PennyLincolnUp.Lamp.En5.5.200Scan.071719.P1._HRD10591_14-14-36-914.txt Node
Date: Thu Jul 18 14:14:36 EDT 2019
User: cochatt
Spectrometer: HR+D1059
Trigger mode: 1
Integration Time (sec): 1.000000E-1
Scans to average: 1
Electric dark correction enabled: true
Nonlinearity correction enabled: false
Boxcar width: 0
XAxis mode: Wavelengths
Number of Pixels in Spectrum: 2048
>>>>>Begin Spectral Data<<<<<
223.165	-9.31
223.4	-9.31
223.635	-9.31
223.869	-14.31
224.104	-18.31
224.338	-18.31
224.573	-21.31
224.808	-28.31
225.042	-7.31
225.277	-13.31
225.511	6.69
225.746	8.69
225.98	1.69
226.215	13.69
226.449	12.69
226.683	18.69
226.918	34.69
227.152	33.69
227.387	25.69
227.621	37.69
227.856	29.69
228.09	46.69
228.324	41.69
228.559	44.69
228.793	57.69
229.027	66.69
229.262	61.69
229.496	79.69
229.73	107.69
229.964	110.69
230.199	89.69
230.433	94.69
230.667	94.69
230.901	88.69
231.136	82.69
231.37	75.69
231.604	83.69
231.838	86.69
232.072	73.69
232.306	87.69
232.541	95.69
232.775	96.69
233.009	103.69
233.243	98.69
233.477	90.69
233.711	88.69
233.945	108.69
234.179	97.69
234.413	90.69
234.647	94.69
234.881	84.69
235.115	88.69
235.349	93.69
235.583	87.69
235.817	81.69
236.051	102.69
236.285	94.69
236.519	89.69
236.753	86.69
236.987	100.69
237.221	128.69
237.455	167.69
237.689	119.69
237.922	91.69
238.156	93.69
238.39	86.69
238.624	90.69
238.858	87.69
239.091	96.69
239.325	86.69
239.559	91.69
239.793	91.69
240.027	109.69
240.26	107.69
240.494	109.69
240.728	101.69
240.961	109.69
241.195	110.69
241.429	109.69
241.662	104.69
241.896	89.69
242.13	86.69
242.363	118.69
242.597	109.69
242.83	120.69
243.064	106.69
243.298	89.69
243.531	79.69
243.765	113.69
243.998	93.69
244.232	99.69
244.465	102.69
244.699	99.69
244.932	87.69
245.166	96.69
245.399	100.69
245.633	95.69
245.866	110.69
246.099	100.69
246.333	109.69
246.566	111.69
246.8	101.69
247.033	111.69
247.266	110.69
247.5	100.69
247.733	117.69
247.966	110.69
248.2	103.69
248.433	102.69
248.666	111.69
248.899	122.69
249.133	127.69
249.366	131.69
249.599	135.69
249.832	112.69
250.066	119.69
250.299	110.69
250.532	117.69
250.765	139.69
250.998	170.69
251.231	156.69
251.465	135.69
251.698	114.69
251.931	120.69
252.164	112.69
252.397	112.69
252.63	121.69
252.863	139.69
253.096	138.69
253.329	148.69
253.562	138.69
253.795	129.69
254.028	124.69
254.261	126.69
254.494	154.69
254.727	159.69
254.96	180.69
255.193	157.69
255.426	160.69
255.659	139.69
255.892	128.69
256.124	133.69
256.357	146.69
256.59	135.69
256.823	141.69
257.056	137.69
257.289	132.69
257.521	125.69
257.754	126.69
257.987	133.69
258.22	141.69
258.452	140.69
258.685	123.69
258.918	131.69
259.151	135.69
259.383	146.69
259.616	145.69
259.849	146.69
260.081	151.69
260.314	158.69
260.547	157.69
260.779	154.69
261.012	137.69
261.244	131.69
261.477	146.69
261.71	146.69
261.942	137.69
262.175	145.69
262.407	131.69
262.64	132.69
262.872	147.69
263.105	125.69
263.337	137.69
263.57	119.69
263.802	139.69
264.035	122.69
264.267	134.69
264.499	134.69
264.732	125.69
264.964	139.69
265.197	142.69
265.429	135.69
265.661	131.69
265.894	129.69
266.126	132.69
266.358	143.69
266.591	130.69
266.823	151.69
267.055	149.69
267.287	140.69
267.52	150.69
267.752	139.69
267.984	135.69
268.216	140.69
268.448	148.69
268.681	142.69
268.913	142.69
269.145	148.69
269.377	176.69
269.609	146.69
269.841	152.69
270.073	173.69
270.306	190.69
270.538	181.69
270.77	173.69
271.002	186.69
271.234	168.69
271.466	181.69
271.698	169.69
271.93	167.69
272.162	187.69
272.394	189.69
272.626	188.69
272.858	181.69
273.09	164.69
273.322	147.69
273.553	154.69
273.785	152.69
274.017	145.69
274.249	149.69
274.481	162.69
274.713	149.69
274.945	157.69
275.176	169.69
275.408	155.69
275.64	158.69
275.872	149.69
276.104	140.69
276.335	151.69
276.567	170.69
276.799	197.69
277.031	188.69
277.262	189.69
277.494	190.69
277.726	176.69
277.957	160.69
278.189	137.69
278.421	151.69
278.652	154.69
278.884	155.69
279.115	168.69
279.347	179.69
279.579	157.69
279.81	152.69
280.042	150.69
280.273	165.69
280.505	143.69
280.736	165.69
280.968	166.69
281.199	148.69
281.431	154.69
281.662	155.69
281.894	160.69
282.125	150.69
282.356	162.69
282.588	177.69
282.819	181.69
283.051	151.69
283.282	153.69
283.513	159.69
283.745	170.69
283.976	159.69
284.207	165.69
284.439	167.69
284.67	159.69
284.901	162.69
285.132	168.69
285.364	162.69
285.595	156.69
285.826	168.69
286.057	163.69
286.288	161.69
286.52	163.69
286.751	158.69
286.982	165.69
287.213	156.69
287.444	158.69
287.675	167.69
287.906	164.69
288.138	183.69
288.369	179.69
288.6	184.69
288.831	170.69
289.062	164.69
289.293	182.69
289.524	179.69
289.755	186.69
289.986	167.69
290.217	169.69
290.448	168.69
290.679	174.69
290.91	173.69
291.141	160.69
291.371	181.69
291.602	159.69
291.833	176.69
292.064	180.69
292.295	175.69
292.526	173.69
292.757	163.69
292.987	173.69
293.218	182.69
293.449	158.69
293.68	180.69
293.91	174.69
294.141	169.69
294.372	163.69
294.603	155.69
294.833	171.69
295.064	174.69
295.295	167.69
295.525	150.69
295.756	166.69
295.987	183.69
296.217	194.69
296.448	200.69
296.679	184.69
296.909	162.69
297.14	161.69
297.37	184.69
297.601	170.69
297.831	166.69
298.062	178.69
298.292	191.69
298.523	164.69
298.753	162.69
298.984	181.69
299.214	177.69
299.445	167.69
299.675	165.69
299.905	185.69
300.136	175.69
300.366	190.69
300.597	182.69
300.827	179.69
301.057	199.69
301.288	175.69
301.518	169.69
301.748	176.69
301.979	177.69
302.209	173.69
302.439	188.69
302.669	188.69
302.9	180.69
303.13	178.69
303.36	177.69
303.59	195.69
303.82	207.69
304.051	200.69
304.281	183.69
304.511	181.69
304.741	177.69
304.971	175.69
305.201	176.69
305.431	179.69
305.661	179.69
305.891	192.69
306.121	199.69
306.352	174.69
306.582	171.69
306.812	176.69
307.042	183.69
307.272	184.69
307.502	187.69
307.731	180.69
307.961	182.69
308.191	200.69
308.421	195.69
308.651	179.69
308.881	196.69
309.111	196.69
309.341	193.69
309.571	201.69
309.8	211.69
310.03	193.69
310.26	218.69
310.49	212.69
310.72	225.69
310.949	205.69
311.179	216.69
311.409	218.69
311.639	208.69
311.868	201.69
312.098	211.69
312.328	212.69
312.557	223.69
312.787	222.69
313.017	211.69
313.246	206.69
313.476	222.69
313.706	206.69
313.935	208.69
314.165	225.69
314.394	208.69
314.624	207.69
314.853	214.69
315.083	217.69
315.312	223.69
315.542	196.69
315.771	199.69
316.001	209.69
316.23	203.69
316.46	199.69
316.689	178.69
316.919	200.69
317.148	203.69
317.377	211.69
317.607	217.69
317.836	211.69
318.065	202.69
318.295	203.69
318.524	211.69
318.753	222.69
318.983	218.69
319.212	209.69
319.441	217.69
319.67	216.69
319.9	199.69
320.129	195.69
320.358	217.69
320.587	216.69
320.816	208.69
321.046	219.69
321.275	207.69
321.504	219.69
321.733	232.69
321.962	227.69
322.191	234.69
322.42	237.69
322.649	241.69
322.878	245.69
323.108	244.69
323.337	246.69
323.566	274.69
323.795	295.69
324.024	301.69
324.253	361.69
324.482	535.69
324.71	798.69
324.939	1059.69
325.168	849.69
325.397	426.69
325.626	321.69
325.855	263.69
326.084	237.69
326.313	241.69
326.542	258.69
326.77	297.69
326.999	363.69
327.228	477.69
327.457	698.69
327.686	783.69
327.914	497.69
328.143	356.69
328.372	328.69
328.6	310.69
328.829	297.69
329.058	322.69
329.287	316.69
329.515	306.69
329.744	267.69
329.972	279.69
330.201	270.69
330.43	324.69
330.658	331.69
330.887	353.69
331.115	333.69
331.344	287.69
331.572	251.69
331.801	263.69
332.03	254.69
332.258	238.69
332.486	250.69
332.715	242.69
332.943	243.69
333.172	245.69
333.4	259.69
333.629	258.69
333.857	255.69
334.085	256.69
334.314	283.69
334.542	329.69
334.771	307.69
334.999	276.69
335.227	235.69
335.455	239.69
335.684	234.69
335.912	229.69
336.14	234.69
336.369	240.69
336.597	251.69
336.825	255.69
337.053	248.69
337.281	237.69
337.51	214.69
337.738	212.69
337.966	233.69
338.194	237.69
338.422	236.69
338.65	243.69
338.878	214.69
339.106	233.69
339.334	219.69
339.562	220.69
339.79	238.69
340.018	229.69
340.246	238.69
340.474	225.69
340.702	237.69
340.93	222.69
341.158	213.69
341.386	233.69
341.614	227.69
341.842	229.69
342.07	221.69
342.298	231.69
342.526	238.69
342.754	215.69
342.981	225.69
343.209	190.69
343.437	214.69
343.665	224.69
343.893	231.69
344.12	239.69
344.348	229.69
344.576	221.69
344.804	227.69
345.031	235.69
345.259	233.69
345.487	245.69
345.714	218.69
345.942	205.69
346.17	215.69
346.397	189.69
346.625	219.69
346.853	222.69
347.08	217.69
347.308	207.69
347.535	214.69
347.763	217.69
347.99	226.69
348.218	227.69
348.445	237.69
348.673	222.69
348.9	221.69
349.128	219.69
349.355	223.69
349.583	218.69
349.81	223.69
350.037	207.69
350.265	223.69
350.492	210.69
350.72	206.69
350.947	209.69
351.174	228.69
351.402	232.69
351.629	244.69
351.856	233.69
352.083	228.69
352.311	234.69
352.538	248.69
352.765	217.69
352.992	226.69
353.22	230.69
353.447	232.69
353.674	217.69
353.901	209.69
354.128	194.69
354.355	217.69
354.583	200.69
354.81	197.69
355.037	211.69
355.264	197.69
355.491	196.69
355.718	211.69
355.945	197.69
356.172	195.69
356.399	204.69
356.626	195.69
356.853	205.69
357.08	213.69
357.307	215.69
357.534	214.69
357.761	213.69
357.988	206.69
358.215	194.69
358.441	200.69
358.668	212.69
358.895	194.69
359.122	206.69
359.349	207.69
359.576	227.69
359.802	218.69
360.029	263.69
360.256	257.69
360.483	238.69
360.709	220.69
360.936	214.69
361.163	213.69
361.39	227.69
361.616	224.69
361.843	224.69
362.07	237.69
362.296	221.69
362.523	209.69
362.749	213.69
362.976	204.69
363.203	207.69
363.429	221.69
363.656	202.69
363.882	205.69
364.109	205.69
364.335	197.69
364.562	221.69
364.788	214.69
365.015	199.69
365.241	201.69
365.468	226.69
365.694	211.69
365.92	215.69
366.147	199.69
366.373	208.69
366.599	198.69
366.826	205.69
367.052	197.69
367.278	201.69
367.505	208.69
367.731	206.69
367.957	200.69
368.184	192.69
368.41	211.69
368.636	212.69
368.862	228.69
369.089	220.69
369.315	199.69
369.541	203.69
369.767	202.69
369.993	209.69
370.219	209.69
370.445	203.69
370.672	211.69
370.898	214.69
371.124	192.69
371.35	196.69
371.576	198.69
371.802	205.69
372.028	213.69
372.254	214.69
372.48	214.69
372.706	199.69
372.932	191.69
373.158	203.69
373.384	220.69
373.61	211.69
373.835	210.69
374.061	206.69
374.287	202.69
374.513	216.69
374.739	215.69
374.965	212.69
375.191	217.69
375.416	202.69
375.642	211.69
375.868	222.69
376.094	208.69
376.319	206.69
376.545	210.69
376.771	199.69
376.997	205.69
377.222	197.69
377.448	202.69
377.674	219.69
377.899	203.69
378.125	191.69
378.35	203.69
378.576	203.69
378.802	205.69
379.027	197.69
379.253	206.69
379.478	196.69
379.704	203.69
379.929	207.69
380.155	206.69
380.38	204.69
380.606	209.69
380.831	202.69
381.057	212.69
381.282	183.69
381.507	202.69
381.733	210.69
381.958	217.69
382.184	213.69
382.409	210.69
382.634	218.69
382.86	205.69
383.085	207.69
383.31	202.69
383.535	210.69
383.761	223.69
383.986	214.69
384.211	206.69
384.436	221.69
384.662	203.69
384.887	219.69
385.112	207.69
385.337	222.69
385.562	220.69
385.787	211.69
386.013	221.69
386.238	215.69
386.463	221.69
386.688	208.69
386.913	202.69
387.138	210.69
387.363	211.69
387.588	221.69
387.813	207.69
388.038	237.69
388.263	216.69
388.488	221.69
388.713	214.69
388.938	230.69
389.163	224.69
389.387	225.69
389.612	209.69
389.837	216.69
390.062	217.69
390.287	221.69
390.512	208.69
390.736	215.69
390.961	218.69
391.186	203.69
391.411	235.69
391.636	236.69
391.86	227.69
392.085	206.69
392.31	209.69
392.534	223.69
392.759	218.69
392.984	223.69
393.208	221.69
393.433	232.69
393.658	204.69
393.882	223.69
394.107	223.69
394.331	212.69
394.556	236.69
394.78	227.69
395.005	217.69
395.229	215.69
395.454	221.69
395.678	228.69
395.903	234.69
396.127	242.69
396.352	244.69
396.576	228.69
396.801	224.69
397.025	230.69
397.249	233.69
397.474	226.69
397.698	243.69
397.922	236.69
398.147	259.69
398.371	247.69
398.595	241.69
398.82	246.69
399.044	255.69
399.268	243.69
399.492	272.69
399.717	286.69
399.941	274.69
400.165	308.69
400.389	291.69
400.613	267.69
400.837	270.69
401.062	266.69
401.286	231.69
401.51	245.69
401.734	254.69
401.958	253.69
402.182	259.69
402.406	263.69
402.63	253.69
402.854	272.69
403.078	245.69
403.302	248.69
403.526	253.69
403.75	253.69
403.974	255.69
404.198	267.69
404.422	269.69
404.645	265.69
404.869	277.69
405.093	263.69
405.317	305.69
405.541	305.69
405.765	287.69
405.988	275.69
406.212	278.69
406.436	289.69
406.66	303.69
406.883	267.69
407.107	293.69
407.331	313.69
407.555	318.69
407.778	325.69
408.002	301.69
408.226	272.69
408.449	278.69
408.673	275.69
408.896	262.69
409.12	312.69
409.344	264.69
409.567	260.69
409.791	268.69
410.014	237.69
410.238	258.69
410.461	256.69
410.685	268.69
410.908	274.69
411.132	291.69
411.355	299.69
411.578	290.69
411.802	264.69
412.025	245.69
412.249	258.69
412.472	279.69
412.695	303.69
412.919	280.69
413.142	274.69
413.365	254.69
413.589	256.69
413.812	239.69
414.035	233.69
414.258	240.69
414.482	242.69
414.705	259.69
414.928	259.69
415.151	262.69
415.374	248.69
415.597	249.69
415.821	237.69
416.044	244.69
416.267	241.69
416.49	242.69
416.713	242.69
416.936	248.69
417.159	238.69
417.382	253.69
417.605	256.69
417.828	242.69
418.051	249.69
418.274	266.69
418.497	255.69
418.72	261.69
418.943	235.69
419.166	248.69
419.389	249.69
419.611	263.69
419.834	256.69
420.057	265.69
420.28	265.69
420.503	268.69
420.726	253.69
420.948	267.69
421.171	286.69
421.394	304.69
421.617	259.69
421.839	246.69
422.062	257.69
422.285	275.69
422.507	297.69
422.73	330.69
422.953	311.69
423.175	263.69
423.398	269.69
423.621	271.69
423.843	285.69
424.066	294.69
424.288	302.69
424.511	296.69
424.733	303.69
424.956	337.69
425.178	341.69
425.401	316.69
425.623	314.69
425.846	296.69
426.068	283.69
426.291	260.69
426.513	290.69
426.735	288.69
426.958	296.69
427.18	334.69
427.402	387.69
427.625	448.69
427.847	385.69
428.069	313.69
428.292	291.69
428.514	281.69
428.736	256.69
428.958	256.69
429.181	281.69
429.403	241.69
429.625	241.69
429.847	260.69
430.069	293.69
430.292	304.69
430.514	249.69
430.736	252.69
430.958	267.69
431.18	234.69
431.402	239.69
431.624	253.69
431.846	238.69
432.068	241.69
432.29	238.69
432.512	240.69
432.734	245.69
432.956	258.69
433.178	245.69
433.4	243.69
433.622	240.69
433.844	258.69
434.066	227.69
434.287	240.69
434.509	253.69
434.731	241.69
434.953	242.69
435.175	265.69
435.397	283.69
435.618	266.69
435.84	287.69
436.062	331.69
436.284	342.69
436.505	309.69
436.727	266.69
436.949	262.69
437.17	245.69
437.392	239.69
437.614	261.69
437.835	280.69
438.057	335.69
438.278	371.69
438.5	357.69
438.721	369.69
438.943	344.69
439.165	293.69
439.386	272.69
439.608	279.69
439.829	254.69
440.05	301.69
440.272	292.69
440.493	279.69
440.715	253.69
440.936	243.69
441.158	264.69
441.379	259.69
441.6	271.69
441.822	283.69
442.043	288.69
442.264	309.69
442.486	364.69
442.707	297.69
442.928	281.69
443.149	286.69
443.371	308.69
443.592	318.69
443.813	345.69
444.034	360.69
444.255	294.69
444.476	273.69
444.698	275.69
444.919	277.69
445.14	351.69
445.361	326.69
445.582	296.69
445.803	307.69
446.024	387.69
446.245	369.69
446.466	344.69
446.687	277.69
446.908	281.69
447.129	257.69
447.35	241.69
447.571	240.69
447.792	257.69
448.013	258.69
448.234	267.69
448.455	290.69
448.675	333.69
448.896	388.69
449.117	299.69
449.338	312.69
449.559	362.69
449.779	382.69
450	305.69
450.221	261.69
450.442	257.69
450.662	265.69
450.883	263.69
451.104	275.69
451.324	258.69
451.545	255.69
451.766	233.69
451.986	232.69
452.207	224.69
452.428	224.69
452.648	229.69
452.869	239.69
453.089	228.69
453.31	230.69
453.53	230.69
453.751	231.69
453.971	241.69
454.192	239.69
454.412	243.69
454.633	252.69
454.853	217.69
455.073	227.69
455.294	236.69
455.514	271.69
455.734	265.69
455.955	249.69
456.175	240.69
456.395	213.69
456.616	216.69
456.836	221.69
457.056	213.69
457.276	216.69
457.497	217.69
457.717	235.69
457.937	226.69
458.157	213.69
458.377	233.69
458.598	249.69
458.818	267.69
459.038	330.69
459.258	320.69
459.478	285.69
459.698	247.69
459.918	227.69
460.138	245.69
460.358	242.69
460.578	235.69
460.798	233.69
461.018	254.69
461.238	246.69
461.458	250.69
461.678	245.69
461.898	244.69
462.118	245.69
462.338	251.69
462.558	262.69
462.777	259.69
462.997	246.69
463.217	258.69
463.437	260.69
463.657	240.69
463.876	258.69
464.096	239.69
464.316	262.69
464.536	269.69
464.755	284.69
464.975	258.69
465.195	295.69
465.414	355.69
465.634	290.69
465.854	279.69
466.073	264.69
466.293	238.69
466.512	248.69
466.732	228.69
466.951	231.69
467.171	233.69
467.391	225.69
467.61	254.69
467.829	258.69
468.049	268.69
468.268	249.69
468.488	242.69
468.707	239.69
468.927	218.69
469.146	226.69
469.365	229.69
469.585	227.69
469.804	241.69
470.023	247.69
470.243	253.69
470.462	260.69
470.681	282.69
470.901	263.69
471.12	267.69
471.339	245.69
471.558	253.69
471.777	238.69
471.997	237.69
472.216	246.69
472.435	266.69
472.654	270.69
472.873	232.69
473.092	237.69
473.311	233.69
473.53	221.69
473.749	239.69
473.968	271.69
474.187	320.69
474.406	319.69
474.625	271.69
474.844	245.69
475.063	225.69
475.282	244.69
475.501	253.69
475.72	251.69
475.939	241.69
476.158	249.69
476.377	251.69
476.596	242.69
476.814	252.69
477.033	250.69
477.252	271.69
477.471	249.69
477.69	242.69
477.908	250.69
478.127	261.69
478.346	251.69
478.564	263.69
478.783	267.69
479.002	260.69
479.22	267.69
479.439	274.69
479.658	267.69
479.876	279.69
480.095	283.69
480.313	304.69
480.532	299.69
480.751	296.69
480.969	299.69
481.188	361.69
481.406	383.69
481.624	294.69
481.843	287.69
482.061	269.69
482.28	269.69
482.498	278.69
482.717	266.69
482.935	283.69
483.153	277.69
483.372	272.69
483.59	292.69
483.808	280.69
484.027	277.69
484.245	266.69
484.463	269.69
484.681	265.69
484.9	288.69
485.118	292.69
485.336	299.69
485.554	263.69
485.772	274.69
485.99	309.69
486.209	297.69
486.427	302.69
486.645	296.69
486.863	324.69
487.081	299.69
487.299	290.69
487.517	318.69
487.735	301.69
487.953	312.69
488.171	305.69
488.389	285.69
488.607	301.69
488.825	289.69
489.043	301.69
489.261	291.69
489.479	306.69
489.696	314.69
489.914	321.69
490.132	298.69
490.35	320.69
490.568	327.69
490.786	329.69
491.003	318.69
491.221	357.69
491.439	330.69
491.657	334.69
491.874	321.69
492.092	351.69
492.31	351.69
492.527	346.69
492.745	347.69
492.963	352.69
493.18	365.69
493.398	354.69
493.615	356.69
493.833	355.69
494.05	349.69
494.268	358.69
494.485	347.69
494.703	352.69
494.92	359.69
495.138	348.69
495.355	360.69
495.573	364.69
495.79	352.69
496.008	345.69
496.225	325.69
496.442	365.69
496.66	341.69
496.877	353.69
497.094	365.69
497.312	355.69
497.529	344.69
497.746	346.69
497.963	370.69
498.181	377.69
498.398	368.69
498.615	391.69
498.832	382.69
499.049	369.69
499.267	398.69
499.484	389.69
499.701	426.69
499.918	423.69
500.135	421.69
500.352	477.69
500.569	486.69
500.786	456.69
501.003	438.69
501.22	429.69
501.437	432.69
501.654	445.69
501.871	425.69
502.088	422.69
502.305	394.69
502.522	388.69
502.739	351.69
