Data from 1966.PennyLincolnUp.Lamp.En5.5.200Scan.071719.P1._HRD10591_14-15-02-917.txt Node
Date: Thu Jul 18 14:15:02 EDT 2019
User: cochatt
Spectrometer: HR+D1059
Trigger mode: 1
Integration Time (sec): 1.000000E-1
Scans to average: 1
Electric dark correction enabled: true
Nonlinearity correction enabled: false
Boxcar width: 0
XAxis mode: Wavelengths
Number of Pixels in Spectrum: 2048
>>>>>Begin Spectral Data<<<<<
223.165	4.44
223.4	4.44
223.635	4.44
223.869	-20.56
224.104	-22.56
224.338	0.44
224.573	-16.56
224.808	-21.56
225.042	-5.56
225.277	-13.56
225.511	-19.56
225.746	-6.56
225.98	8.44
226.215	17.44
226.449	0.44
226.683	29.44
226.918	24.44
227.152	41.44
227.387	40.44
227.621	37.44
227.856	37.44
228.09	41.44
228.324	52.44
228.559	50.44
228.793	49.44
229.027	66.44
229.262	86.44
229.496	93.44
229.73	103.44
229.964	103.44
230.199	95.44
230.433	94.44
230.667	97.44
230.901	107.44
231.136	90.44
231.37	88.44
231.604	88.44
231.838	96.44
232.072	101.44
232.306	97.44
232.541	79.44
232.775	98.44
233.009	94.44
233.243	96.44
233.477	83.44
233.711	95.44
233.945	94.44
234.179	105.44
234.413	82.44
234.647	109.44
234.881	85.44
235.115	100.44
235.349	91.44
235.583	98.44
235.817	87.44
236.051	91.44
236.285	99.44
236.519	88.44
236.753	98.44
236.987	97.44
237.221	124.44
237.455	150.44
237.689	116.44
237.922	99.44
238.156	96.44
238.39	95.44
238.624	101.44
238.858	105.44
239.091	96.44
239.325	104.44
239.559	100.44
239.793	100.44
240.027	86.44
240.26	107.44
240.494	110.44
240.728	100.44
240.961	96.44
241.195	93.44
241.429	101.44
241.662	117.44
241.896	114.44
242.13	98.44
242.363	102.44
242.597	116.44
242.83	91.44
243.064	107.44
243.298	113.44
243.531	98.44
243.765	120.44
243.998	109.44
244.232	105.44
244.465	103.44
244.699	96.44
244.932	105.44
245.166	110.44
245.399	113.44
245.633	106.44
245.866	100.44
246.099	124.44
246.333	108.44
246.566	111.44
246.8	109.44
247.033	112.44
247.266	107.44
247.5	112.44
247.733	122.44
247.966	121.44
248.2	123.44
248.433	115.44
248.666	123.44
248.899	137.44
249.133	123.44
249.366	135.44
249.599	132.44
249.832	123.44
250.066	125.44
250.299	119.44
250.532	130.44
250.765	129.44
250.998	146.44
251.231	153.44
251.465	131.44
251.698	132.44
251.931	126.44
252.164	132.44
252.397	119.44
252.63	145.44
252.863	133.44
253.096	143.44
253.329	142.44
253.562	134.44
253.795	131.44
254.028	130.44
254.261	131.44
254.494	155.44
254.727	164.44
254.96	175.44
255.193	161.44
255.426	153.44
255.659	152.44
255.892	135.44
256.124	150.44
256.357	154.44
256.59	153.44
256.823	132.44
257.056	150.44
257.289	139.44
257.521	129.44
257.754	144.44
257.987	138.44
258.22	125.44
258.452	133.44
258.685	134.44
258.918	131.44
259.151	134.44
259.383	139.44
259.616	133.44
259.849	135.44
260.081	158.44
260.314	166.44
260.547	171.44
260.779	162.44
261.012	149.44
261.244	137.44
261.477	139.44
261.71	150.44
261.942	142.44
262.175	150.44
262.407	154.44
262.64	139.44
262.872	150.44
263.105	144.44
263.337	132.44
263.57	132.44
263.802	138.44
264.035	138.44
264.267	129.44
264.499	150.44
264.732	135.44
264.964	131.44
265.197	132.44
265.429	165.44
265.661	148.44
265.894	120.44
266.126	142.44
266.358	147.44
266.591	140.44
266.823	146.44
267.055	147.44
267.287	146.44
267.52	149.44
267.752	129.44
267.984	151.44
268.216	137.44
268.448	140.44
268.681	141.44
268.913	166.44
269.145	180.44
269.377	167.44
269.609	158.44
269.841	173.44
270.073	175.44
270.306	176.44
270.538	182.44
270.77	191.44
271.002	178.44
271.234	192.44
271.466	185.44
271.698	176.44
271.93	190.44
272.162	182.44
272.394	172.44
272.626	164.44
272.858	178.44
273.09	154.44
273.322	165.44
273.553	169.44
273.785	166.44
274.017	134.44
274.249	145.44
274.481	151.44
274.713	154.44
274.945	167.44
275.176	149.44
275.408	164.44
275.64	165.44
275.872	166.44
276.104	157.44
276.335	164.44
276.567	168.44
276.799	172.44
277.031	187.44
277.262	195.44
277.494	202.44
277.726	176.44
277.957	173.44
278.189	169.44
278.421	163.44
278.652	164.44
278.884	165.44
279.115	158.44
279.347	154.44
279.579	159.44
279.81	157.44
280.042	156.44
280.273	169.44
280.505	168.44
280.736	170.44
280.968	173.44
281.199	158.44
281.431	154.44
281.662	133.44
281.894	166.44
282.125	152.44
282.356	166.44
282.588	197.44
282.819	178.44
283.051	181.44
283.282	179.44
283.513	178.44
283.745	162.44
283.976	172.44
284.207	155.44
284.439	165.44
284.67	172.44
284.901	166.44
285.132	161.44
285.364	164.44
285.595	171.44
285.826	174.44
286.057	178.44
286.288	175.44
286.52	189.44
286.751	157.44
286.982	171.44
287.213	169.44
287.444	168.44
287.675	165.44
287.906	178.44
288.138	181.44
288.369	185.44
288.6	183.44
288.831	177.44
289.062	178.44
289.293	173.44
289.524	187.44
289.755	176.44
289.986	183.44
290.217	168.44
290.448	173.44
290.679	173.44
290.91	182.44
291.141	185.44
291.371	170.44
291.602	180.44
291.833	185.44
292.064	172.44
292.295	176.44
292.526	176.44
292.757	151.44
292.987	172.44
293.218	169.44
293.449	179.44
293.68	166.44
293.91	178.44
294.141	172.44
294.372	184.44
294.603	176.44
294.833	180.44
295.064	175.44
295.295	177.44
295.525	177.44
295.756	174.44
295.987	169.44
296.217	190.44
296.448	206.44
296.679	188.44
296.909	168.44
297.14	179.44
297.37	179.44
297.601	194.44
297.831	176.44
298.062	185.44
298.292	183.44
298.523	175.44
298.753	180.44
298.984	192.44
299.214	177.44
299.445	177.44
299.675	187.44
299.905	192.44
300.136	198.44
300.366	187.44
300.597	188.44
300.827	180.44
301.057	204.44
301.288	189.44
301.518	193.44
301.748	189.44
301.979	193.44
302.209	200.44
302.439	182.44
302.669	196.44
302.9	201.44
303.13	184.44
303.36	200.44
303.59	189.44
303.82	204.44
304.051	218.44
304.281	211.44
304.511	205.44
304.741	200.44
304.971	188.44
305.201	180.44
305.431	177.44
305.661	190.44
305.891	194.44
306.121	190.44
306.352	182.44
306.582	194.44
306.812	187.44
307.042	184.44
307.272	194.44
307.502	191.44
307.731	206.44
307.961	185.44
308.191	201.44
308.421	181.44
308.651	193.44
308.881	185.44
309.111	198.44
309.341	205.44
309.571	204.44
309.8	203.44
310.03	223.44
310.26	214.44
310.49	217.44
310.72	211.44
310.949	240.44
311.179	228.44
311.409	221.44
311.639	217.44
311.868	226.44
312.098	228.44
312.328	204.44
312.557	221.44
312.787	241.44
313.017	236.44
313.246	222.44
313.476	214.44
313.706	222.44
313.935	202.44
314.165	213.44
314.394	223.44
314.624	220.44
314.853	217.44
315.083	229.44
315.312	202.44
315.542	196.44
315.771	206.44
316.001	192.44
316.23	209.44
316.46	212.44
316.689	212.44
316.919	217.44
317.148	214.44
317.377	214.44
317.607	231.44
317.836	212.44
318.065	219.44
318.295	213.44
318.524	193.44
318.753	210.44
318.983	218.44
319.212	223.44
319.441	230.44
319.67	228.44
319.9	227.44
320.129	222.44
320.358	215.44
320.587	223.44
320.816	211.44
321.046	241.44
321.275	231.44
321.504	218.44
321.733	228.44
321.962	230.44
322.191	249.44
322.42	241.44
322.649	251.44
322.878	254.44
323.108	245.44
323.337	281.44
323.566	261.44
323.795	290.44
324.024	314.44
324.253	385.44
324.482	553.44
324.71	812.44
324.939	1082.44
325.168	900.44
325.397	448.44
325.626	302.44
325.855	274.44
326.084	261.44
326.313	279.44
326.542	268.44
326.77	310.44
326.999	357.44
327.228	485.44
327.457	712.44
327.686	801.44
327.914	531.44
328.143	363.44
328.372	338.44
328.6	327.44
328.829	296.44
329.058	330.44
329.287	323.44
329.515	294.44
329.744	282.44
329.972	293.44
330.201	295.44
330.43	328.44
330.658	348.44
330.887	353.44
331.115	342.44
331.344	294.44
331.572	278.44
331.801	271.44
332.03	281.44
332.258	256.44
332.486	246.44
332.715	238.44
332.943	259.44
333.172	250.44
333.4	247.44
333.629	263.44
333.857	280.44
334.085	291.44
334.314	298.44
334.542	317.44
334.771	328.44
334.999	276.44
335.227	251.44
335.455	257.44
335.684	276.44
335.912	262.44
336.14	234.44
336.369	245.44
336.597	250.44
336.825	264.44
337.053	277.44
337.281	237.44
337.51	242.44
337.738	234.44
337.966	246.44
338.194	261.44
338.422	260.44
338.65	241.44
338.878	241.44
339.106	232.44
339.334	230.44
339.562	235.44
339.79	221.44
340.018	232.44
340.246	236.44
340.474	231.44
340.702	243.44
340.93	250.44
341.158	251.44
341.386	219.44
341.614	219.44
341.842	241.44
342.07	226.44
342.298	218.44
342.526	226.44
342.754	231.44
342.981	214.44
343.209	227.44
343.437	227.44
343.665	254.44
343.893	252.44
344.12	234.44
344.348	221.44
344.576	238.44
344.804	243.44
345.031	242.44
345.259	228.44
345.487	229.44
345.714	243.44
345.942	224.44
346.17	210.44
346.397	235.44
346.625	233.44
346.853	230.44
347.08	235.44
347.308	233.44
347.535	226.44
347.763	220.44
347.99	225.44
348.218	255.44
348.445	240.44
348.673	234.44
348.9	232.44
349.128	221.44
349.355	222.44
349.583	215.44
349.81	205.44
350.037	235.44
350.265	223.44
350.492	237.44
350.72	205.44
350.947	235.44
351.174	236.44
351.402	230.44
351.629	227.44
351.856	235.44
352.083	240.44
352.311	242.44
352.538	243.44
352.765	237.44
352.992	228.44
353.22	221.44
353.447	239.44
353.674	205.44
353.901	210.44
354.128	216.44
354.355	222.44
354.583	224.44
354.81	210.44
355.037	209.44
355.264	209.44
355.491	209.44
355.718	214.44
355.945	207.44
356.172	196.44
356.399	208.44
356.626	212.44
356.853	217.44
357.08	204.44
357.307	212.44
357.534	213.44
357.761	219.44
357.988	196.44
358.215	226.44
358.441	216.44
358.668	212.44
358.895	217.44
359.122	207.44
359.349	228.44
359.576	244.44
359.802	237.44
360.029	262.44
360.256	261.44
360.483	253.44
360.709	248.44
360.936	223.44
361.163	240.44
361.39	236.44
361.616	227.44
361.843	228.44
362.07	223.44
362.296	226.44
362.523	209.44
362.749	232.44
362.976	222.44
363.203	228.44
363.429	217.44
363.656	215.44
363.882	214.44
364.109	225.44
364.335	194.44
364.562	225.44
364.788	231.44
365.015	224.44
365.241	215.44
365.468	219.44
365.694	207.44
365.92	238.44
366.147	228.44
366.373	213.44
366.599	210.44
366.826	219.44
367.052	228.44
367.278	203.44
367.505	216.44
367.731	218.44
367.957	230.44
368.184	217.44
368.41	234.44
368.636	236.44
368.862	232.44
369.089	212.44
369.315	222.44
369.541	212.44
369.767	208.44
369.993	216.44
370.219	202.44
370.445	213.44
370.672	213.44
370.898	229.44
371.124	206.44
371.35	237.44
371.576	215.44
371.802	232.44
372.028	226.44
372.254	223.44
372.48	205.44
372.706	222.44
372.932	206.44
373.158	215.44
373.384	228.44
373.61	215.44
373.835	201.44
374.061	222.44
374.287	221.44
374.513	216.44
374.739	190.44
374.965	227.44
375.191	207.44
375.416	216.44
375.642	209.44
375.868	214.44
376.094	201.44
376.319	202.44
376.545	203.44
376.771	209.44
376.997	216.44
377.222	199.44
377.448	201.44
377.674	194.44
377.899	209.44
378.125	210.44
378.35	210.44
378.576	201.44
378.802	205.44
379.027	207.44
379.253	203.44
379.478	209.44
379.704	206.44
379.929	201.44
380.155	193.44
380.38	210.44
380.606	215.44
380.831	231.44
381.057	214.44
381.282	223.44
381.507	206.44
381.733	221.44
381.958	216.44
382.184	205.44
382.409	215.44
382.634	217.44
382.86	204.44
383.085	200.44
383.31	215.44
383.535	213.44
383.761	218.44
383.986	221.44
384.211	222.44
384.436	210.44
384.662	227.44
384.887	211.44
385.112	227.44
385.337	217.44
385.562	214.44
385.787	230.44
386.013	240.44
386.238	252.44
386.463	216.44
386.688	233.44
386.913	215.44
387.138	221.44
387.363	217.44
387.588	231.44
387.813	229.44
388.038	219.44
388.263	214.44
388.488	218.44
388.713	218.44
388.938	228.44
389.163	243.44
389.387	242.44
389.612	230.44
389.837	228.44
390.062	221.44
390.287	237.44
390.512	221.44
390.736	233.44
390.961	228.44
391.186	231.44
391.411	226.44
391.636	246.44
391.86	237.44
392.085	231.44
392.31	241.44
392.534	226.44
392.759	234.44
392.984	227.44
393.208	240.44
393.433	228.44
393.658	246.44
393.882	221.44
394.107	203.44
394.331	235.44
394.556	228.44
394.78	230.44
395.005	243.44
395.229	233.44
395.454	242.44
395.678	245.44
395.903	258.44
396.127	241.44
396.352	256.44
396.576	233.44
396.801	236.44
397.025	243.44
397.249	244.44
397.474	242.44
397.698	258.44
397.922	244.44
398.147	252.44
398.371	236.44
398.595	257.44
398.82	251.44
399.044	269.44
399.268	262.44
399.492	291.44
399.717	302.44
399.941	317.44
400.165	324.44
400.389	299.44
400.613	297.44
400.837	274.44
401.062	261.44
401.286	256.44
401.51	237.44
401.734	250.44
401.958	264.44
402.182	262.44
402.406	254.44
402.63	263.44
402.854	288.44
403.078	260.44
403.302	258.44
403.526	274.44
403.75	256.44
403.974	276.44
404.198	262.44
404.422	257.44
404.645	267.44
404.869	280.44
405.093	297.44
405.317	296.44
405.541	316.44
405.765	288.44
405.988	301.44
406.212	288.44
406.436	285.44
406.66	301.44
406.883	309.44
407.107	312.44
407.331	322.44
407.555	343.44
407.778	333.44
408.002	322.44
408.226	306.44
408.449	283.44
408.673	279.44
408.896	306.44
409.12	304.44
409.344	309.44
409.567	289.44
409.791	250.44
410.014	260.44
410.238	252.44
410.461	258.44
410.685	283.44
410.908	274.44
411.132	304.44
411.355	299.44
411.578	290.44
411.802	259.44
412.025	252.44
412.249	267.44
412.472	260.44
412.695	308.44
412.919	285.44
413.142	279.44
413.365	261.44
413.589	252.44
413.812	259.44
414.035	243.44
414.258	261.44
414.482	254.44
414.705	249.44
414.928	260.44
415.151	244.44
415.374	233.44
415.597	264.44
415.821	260.44
416.044	246.44
416.267	255.44
416.49	245.44
416.713	248.44
416.936	248.44
417.159	237.44
417.382	260.44
417.605	278.44
417.828	270.44
418.051	278.44
418.274	268.44
418.497	243.44
418.72	246.44
418.943	257.44
419.166	252.44
419.389	275.44
419.611	262.44
419.834	264.44
420.057	261.44
420.28	266.44
420.503	272.44
420.726	282.44
420.948	286.44
421.171	277.44
421.394	302.44
421.617	274.44
421.839	261.44
422.062	266.44
422.285	280.44
422.507	295.44
422.73	328.44
422.953	311.44
423.175	285.44
423.398	276.44
423.621	281.44
423.843	304.44
424.066	272.44
424.288	282.44
424.511	287.44
424.733	343.44
424.956	353.44
425.178	345.44
425.401	311.44
425.623	329.44
425.846	289.44
426.068	286.44
426.291	278.44
426.513	285.44
426.735	295.44
426.958	293.44
427.18	340.44
427.402	392.44
427.625	453.44
427.847	399.44
428.069	336.44
428.292	296.44
428.514	285.44
428.736	264.44
428.958	259.44
429.181	273.44
429.403	253.44
429.625	254.44
429.847	284.44
430.069	291.44
430.292	291.44
430.514	260.44
430.736	259.44
430.958	259.44
431.18	240.44
431.402	270.44
431.624	261.44
431.846	263.44
432.068	250.44
432.29	252.44
432.512	242.44
432.734	260.44
432.956	244.44
433.178	246.44
433.4	257.44
433.622	269.44
433.844	258.44
434.066	252.44
434.287	246.44
434.509	248.44
434.731	262.44
434.953	248.44
435.175	261.44
435.397	280.44
435.618	282.44
435.84	304.44
436.062	333.44
436.284	357.44
436.505	310.44
436.727	281.44
436.949	260.44
437.17	260.44
437.392	263.44
437.614	284.44
437.835	274.44
438.057	342.44
438.278	364.44
438.5	391.44
438.721	386.44
438.943	365.44
439.165	318.44
439.386	288.44
439.608	272.44
439.829	286.44
440.05	313.44
440.272	324.44
440.493	298.44
440.715	284.44
440.936	268.44
441.158	273.44
441.379	262.44
441.6	264.44
441.822	279.44
442.043	313.44
442.264	333.44
442.486	345.44
442.707	304.44
442.928	275.44
443.149	293.44
443.371	306.44
443.592	324.44
443.813	350.44
444.034	388.44
444.255	326.44
444.476	291.44
444.698	280.44
444.919	285.44
445.14	395.44
445.361	340.44
445.582	296.44
445.803	331.44
446.024	391.44
446.245	392.44
446.466	336.44
446.687	302.44
446.908	283.44
447.129	289.44
447.35	267.44
447.571	250.44
447.792	253.44
448.013	265.44
448.234	266.44
448.455	285.44
448.675	342.44
448.896	388.44
449.117	349.44
449.338	322.44
449.559	353.44
449.779	389.44
450	318.44
450.221	281.44
450.442	279.44
450.662	277.44
450.883	274.44
451.104	288.44
451.324	275.44
451.545	254.44
451.766	240.44
451.986	246.44
452.207	224.44
452.428	229.44
452.648	233.44
452.869	242.44
453.089	258.44
453.31	261.44
453.53	250.44
453.751	233.44
453.971	240.44
454.192	254.44
454.412	252.44
454.633	244.44
454.853	233.44
455.073	223.44
455.294	261.44
455.514	315.44
455.734	274.44
455.955	249.44
456.175	233.44
456.395	226.44
456.616	230.44
456.836	226.44
457.056	228.44
457.276	219.44
457.497	220.44
457.717	234.44
457.937	217.44
458.157	233.44
458.377	233.44
458.598	249.44
458.818	287.44
459.038	333.44
459.258	339.44
459.478	287.44
459.698	249.44
459.918	264.44
460.138	251.44
460.358	268.44
460.578	247.44
460.798	248.44
461.018	268.44
461.238	254.44
461.458	252.44
461.678	266.44
461.898	244.44
462.118	256.44
462.338	252.44
462.558	269.44
462.777	262.44
462.997	285.44
463.217	277.44
463.437	275.44
463.657	278.44
463.876	256.44
464.096	281.44
464.316	299.44
464.536	290.44
464.755	288.44
464.975	268.44
465.195	318.44
465.414	366.44
465.634	305.44
465.854	266.44
466.073	281.44
466.293	240.44
466.512	254.44
466.732	221.44
466.951	250.44
467.171	235.44
467.391	227.44
467.61	248.44
467.829	262.44
468.049	264.44
468.268	246.44
468.488	265.44
468.707	246.44
468.927	243.44
469.146	253.44
469.365	232.44
469.585	244.44
469.804	238.44
470.023	258.44
470.243	254.44
470.462	242.44
470.681	258.44
470.901	283.44
471.12	243.44
471.339	240.44
471.558	246.44
471.777	239.44
471.997	245.44
472.216	269.44
472.435	305.44
472.654	272.44
472.873	267.44
473.092	251.44
473.311	257.44
473.53	240.44
473.749	241.44
473.968	275.44
474.187	338.44
474.406	331.44
474.625	284.44
474.844	256.44
475.063	248.44
475.282	243.44
475.501	235.44
475.72	253.44
475.939	242.44
476.158	264.44
476.377	241.44
476.596	252.44
476.814	264.44
477.033	265.44
477.252	270.44
477.471	265.44
477.69	253.44
477.908	267.44
478.127	277.44
478.346	268.44
478.564	282.44
478.783	253.44
479.002	272.44
479.22	275.44
479.439	300.44
479.658	296.44
479.876	293.44
480.095	296.44
480.313	315.44
480.532	310.44
480.751	320.44
480.969	330.44
481.188	370.44
481.406	392.44
481.624	317.44
481.843	288.44
482.061	291.44
482.28	278.44
482.498	263.44
482.717	276.44
482.935	306.44
483.153	286.44
483.372	280.44
483.59	282.44
483.808	278.44
484.027	281.44
484.245	291.44
484.463	265.44
484.681	299.44
484.9	296.44
485.118	310.44
485.336	292.44
485.554	288.44
485.772	320.44
485.99	303.44
486.209	308.44
486.427	307.44
486.645	298.44
486.863	310.44
487.081	309.44
487.299	317.44
487.517	300.44
487.735	317.44
487.953	298.44
488.171	325.44
488.389	312.44
488.607	302.44
488.825	301.44
489.043	309.44
489.261	308.44
489.479	299.44
489.696	300.44
489.914	309.44
490.132	306.44
490.35	336.44
490.568	316.44
490.786	330.44
491.003	348.44
491.221	317.44
491.439	341.44
491.657	362.44
491.874	357.44
492.092	374.44
492.31	365.44
492.527	348.44
492.745	348.44
492.963	384.44
493.18	352.44
493.398	372.44
493.615	372.44
493.833	369.44
494.05	363.44
494.268	374.44
494.485	374.44
494.703	359.44
494.92	353.44
495.138	360.44
495.355	361.44
495.573	375.44
495.79	364.44
496.008	375.44
496.225	361.44
496.442	355.44
496.66	355.44
496.877	363.44
497.094	368.44
497.312	357.44
497.529	364.44
497.746	377.44
497.963	354.44
498.181	374.44
498.398	368.44
498.615	368.44
498.832	396.44
499.049	382.44
499.267	416.44
499.484	422.44
499.701	401.44
499.918	426.44
500.135	463.44
500.352	488.44
500.569	475.44
500.786	481.44
501.003	458.44
501.22	455.44
501.437	445.44
501.654	445.44
501.871	435.44
502.088	453.44
502.305	403.44
502.522	393.44
